Data from hue_80_FLMS001491_13.txt Node
Date: Mon Feb 06 15:22:32 GMT 2017
User: dcchb
Spectrometer: FLMS00149
Trigger mode: 0
Integration Time (sec): 2.000000E-2
Scans to average: 10
Electric dark correction enabled: true
Nonlinearity correction enabled: false
Boxcar width: 0
XAxis mode: Wavelengths
Number of Pixels in Spectrum: 2048
>>>>>Begin Spectral Data<<<<<
341.393	-18.22
341.776	-18.22
342.16	-18.22
342.543	-46.24
342.927	-63.42
343.31	-72.68
343.693	-76.3
344.077	-64.77
344.46	-51.44
344.843	-35.85
345.226	-67.94
345.61	-34.94
345.993	-12.57
346.376	-18.22
346.759	15.45
347.142	21.78
347.525	54.77
347.908	59.74
348.291	69.46
348.674	103.58
349.057	109.91
349.44	118.5
349.823	144.94
350.206	163.24
350.588	196.24
350.971	207.31
351.354	225.39
351.737	239.4
352.119	250.02
352.502	271.04
352.884	287.31
353.267	283.02
353.65	290.02
354.032	289.34
354.414	315.1
354.797	298.16
355.179	315.56
355.562	333.86
355.944	337.7
356.326	331.15
356.709	350.81
357.091	318.49
357.473	355.1
357.855	332.28
358.238	344.93
358.62	341.09
359.002	330.25
359.384	346.06
359.766	326.4
360.148	331.38
360.53	343.13
360.912	359.62
361.294	340.64
361.676	349.68
362.057	329.79
362.439	337.7
362.821	322.11
363.203	299.51
363.584	363.24
363.966	322.79
364.348	298.83
364.729	326.4
365.111	331.38
365.493	332.28
365.874	326.18
366.256	324.82
366.637	315.1
367.019	303.58
367.4	313.75
367.781	336.8
368.163	330.02
368.544	318.72
368.925	329.57
369.306	329.57
369.688	312.39
370.069	313.3
370.45	301.32
370.831	292.51
371.212	313.97
371.593	325.73
371.974	306.97
372.355	335.9
372.736	330.47
373.117	303.81
373.498	323.01
373.879	322.56
374.26	322.34
374.641	320.08
375.021	314.43
375.402	308.55
375.783	323.24
376.163	324.37
376.544	324.14
376.925	330.25
377.305	337.03
377.686	320.3
378.066	322.11
378.447	332.51
378.827	334.09
379.208	313.52
379.588	327.76
379.968	333.41
380.349	343.35
380.729	335.9
381.109	300.19
381.489	336.57
381.87	332.28
382.25	350.81
382.63	356.01
383.01	345.84
383.39	344.26
383.77	331.83
384.15	341.09
384.53	335.22
384.91	345.84
385.29	324.6
385.67	369.11
386.049	349.91
386.429	329.79
386.809	345.16
387.189	359.85
387.568	347.87
387.948	345.84
388.328	353.07
388.707	360.98
389.087	351.94
389.466	373.41
389.846	360.08
390.225	356.01
390.605	369.11
390.984	371.83
391.363	368.66
391.743	354.43
392.122	375.67
392.501	380.19
392.881	365.5
393.26	355.1
393.639	377.02
394.018	357.36
394.397	368.66
394.776	364.82
395.155	384.03
395.534	363.24
395.913	383.13
396.292	367.08
396.671	369.11
397.05	374.99
397.429	368.44
397.808	379.51
398.186	381.32
398.565	392.16
398.944	390.13
399.323	372.73
399.701	394.88
400.08	382.45
400.458	400.07
400.837	396.01
401.215	404.14
401.594	386.97
401.972	407.98
402.351	415.22
402.729	406.18
403.107	422.45
403.486	416.12
403.864	403.46
404.242	399.17
404.62	426.74
404.999	437.36
405.377	422.9
405.755	411.15
406.133	416.57
406.511	399.4
406.889	414.99
407.267	434.88
407.645	428.77
408.023	433.75
408.401	414.31
408.779	433.97
409.156	438.04
409.534	423.8
409.912	437.36
410.29	466.51
410.667	425.38
411.045	448.89
411.422	449.56
411.8	448.66
412.178	443.24
412.555	452.95
412.933	445.27
413.31	472.16
413.687	480.07
414.065	471.48
414.442	469.45
414.819	469.9
415.197	489.56
415.574	466.51
415.951	476.23
416.328	495.89
416.705	489.11
417.082	462.9
417.46	467.87
417.837	488.43
418.214	505.83
418.591	467.19
418.967	477.81
419.344	495.89
419.721	505.38
420.098	480.07
420.475	482.78
420.852	477.81
421.228	513.07
421.605	521.43
421.982	507.42
422.358	527.75
422.735	522.33
423.111	506.29
423.488	520.07
423.864	526.17
424.241	549
424.617	534.53
424.994	544.93
425.37	558.26
425.746	551.71
426.123	544.7
426.499	527.75
426.875	558.71
427.251	592.61
427.627	584.7
428.003	573.63
428.379	586.51
428.756	582.89
429.132	574.76
429.507	592.39
429.883	607.07
430.259	624.7
430.635	605.72
431.011	594.65
431.387	594.42
431.763	616.79
432.138	614.76
432.514	646.4
432.89	624.02
433.265	637.81
433.641	654.53
434.016	666.06
434.392	636.45
434.767	663.57
435.143	644.59
435.518	666.51
435.894	662.44
436.269	669.22
436.644	676.23
437.02	693.63
437.395	665.38
437.77	687.75
438.145	698.82
438.52	701.08
438.895	695.21
439.271	710.12
439.646	701.76
440.021	742.21
440.395	720.97
440.77	710.35
441.145	718.03
441.52	736.56
441.895	746.05
442.27	743.34
442.645	744.25
443.019	753.74
443.394	758.48
443.769	765.71
444.143	730.91
444.518	796.45
444.892	749.44
445.267	780.4
445.641	778.82
446.016	771.59
446.39	775.66
446.764	776.34
447.139	796.9
447.513	814.75
447.887	791.48
448.262	835.09
448.636	787.63
449.01	821.08
449.384	805.04
449.758	826.73
450.132	824.7
450.506	842.32
450.88	845.03
451.254	859.95
451.628	855.2
452.002	852.49
452.376	846.62
452.75	880.74
453.123	874.86
453.497	893.62
453.871	887.07
454.244	904.24
454.618	915.31
454.992	901.76
455.365	933.62
455.739	968.65
456.112	941.53
456.486	957.35
456.859	968.87
457.232	992.6
457.606	968.19
457.979	995.31
458.352	990.57
458.725	1036.89
459.099	1033.73
459.472	1028.08
459.845	1052.26
460.218	1050.45
460.591	1044.58
460.964	1061.3
461.337	1100.62
461.71	1106.72
462.083	1122.54
462.456	1139.72
462.829	1137
463.201	1125.93
463.574	1169.09
463.947	1172.71
464.32	1201.18
464.692	1225.36
465.065	1229.43
465.438	1223.78
465.81	1259.03
466.183	1309.88
466.555	1306.27
466.928	1316.89
467.3	1311.46
467.672	1342.65
468.045	1362.99
468.417	1405.92
468.789	1402.53
469.161	1427.17
469.534	1447.96
469.906	1499.71
470.278	1516.43
470.65	1520.95
471.022	1564.56
471.394	1559.82
471.766	1610.21
472.138	1643.66
472.51	1652.47
472.882	1693.15
473.253	1730.21
473.625	1747.61
473.997	1815.63
474.369	1887.27
474.74	1892.01
475.112	1924.33
475.484	1967.94
475.855	2010.43
476.227	2040.94
476.598	2107.37
476.97	2150.54
477.341	2224.43
477.713	2241.16
478.084	2287.26
478.455	2364.77
478.827	2359.8
479.198	2516.63
479.569	2555.72
479.94	2617.42
480.311	2675.49
480.682	2787.58
481.053	2856.96
481.424	2951.42
481.795	3006.56
482.166	3085.43
482.537	3148.48
482.908	3269.15
483.279	3326.55
483.65	3416.94
484.021	3537.84
484.391	3632.76
484.762	3687.67
485.133	3766.54
485.503	3885.41
485.874	3967.66
486.244	4090.37
486.615	4230.93
486.985	4305.06
487.356	4436.58
487.726	4543.24
488.097	4726.51
488.467	4761.09
488.837	4925.83
489.207	5063.68
489.578	5166.05
489.948	5285.82
490.318	5431.35
490.688	5475.42
491.058	5639.94
491.428	5812.36
491.798	5883.09
492.168	6090.32
492.538	6164.89
492.908	6311.56
493.278	6467.03
493.648	6548.39
494.017	6663.86
494.387	6878.55
494.757	6948.6
495.126	7100.91
495.496	7173.46
495.866	7323.51
496.235	7493.67
496.605	7562.6
496.974	7664.52
497.344	7927.33
497.713	7963.04
498.082	8037.39
498.452	8285.52
498.821	8304.05
499.19	8394.89
499.559	8560.54
499.928	8736.35
500.298	8808.44
500.667	8933.86
501.036	8939.74
501.405	9101.77
501.774	9245.94
502.143	9355.77
502.512	9414.07
502.88	9604.35
503.249	9557.12
503.618	9727.74
503.987	9777.91
504.356	9918.69
504.724	10019.48
505.093	10117.33
505.462	10153.04
505.83	10339.93
506.199	10450.66
506.567	10566.13
506.936	10557.55
507.304	10815.85
507.672	10796.19
508.041	10882.06
508.409	10933.36
508.777	11146.23
509.145	11159.34
509.514	11210.86
509.882	11371.99
510.25	11476.85
510.618	11502.38
510.986	11564.75
511.354	11752.54
511.722	11855.82
512.09	11873.9
512.458	11867.12
512.826	12025.08
513.193	12049.26
513.561	12157.05
513.929	12261.23
514.297	12342.81
514.664	12390.49
515.032	12430.04
515.4	12567.66
515.767	12562.24
516.135	12652.18
516.502	12590.26
516.869	12910.93
517.237	12818.73
517.604	12832.52
517.972	12958.39
518.339	13051.94
518.706	13072.51
519.073	13108.89
519.44	13198.16
519.808	13375.78
520.175	13294.42
520.542	13467.3
520.909	13517.92
521.276	13424.59
521.643	13606.51
522.009	13622.33
522.376	13713.17
522.743	13847.4
523.11	14005.59
523.477	13972.6
523.843	13994.97
524.21	14118.13
524.577	14283.78
524.943	14229.77
525.31	14283.55
525.676	14415.3
526.043	14507.95
526.409	14514.28
526.776	14647.61
527.142	14591.11
527.508	14699.36
527.874	14728.06
528.241	14792.92
528.607	14834.5
528.973	14942.97
529.339	14830.66
529.705	15013.7
530.071	15014.15
530.437	15002.63
530.803	15083.76
531.169	15153.36
531.535	15122.62
531.901	15121.5
532.267	15154.71
532.632	15295.5
532.998	15223.64
533.364	15286.69
533.73	15289.4
534.095	15309.96
534.461	15412.56
534.826	15457.98
535.192	15389.74
535.557	15510.19
535.923	15420.92
536.288	15492.11
536.653	15500.02
537.019	15436.52
537.384	15381.83
537.749	15513.35
538.114	15461.83
538.479	15501.6
538.845	15401.04
539.21	15461.15
539.575	15469.96
539.94	15401.26
540.305	15544.31
540.67	15517.87
541.034	15552.9
541.399	15522.16
541.764	15521.94
542.129	15551.99
542.494	15553.12
542.858	15434.93
543.223	15493.91
543.587	15529.85
543.952	15446.23
544.316	15444.65
544.681	15476.29
545.045	15438.32
545.41	15568.71
545.774	15521.94
546.138	15550.64
546.503	15536.63
546.867	15499.79
547.231	15557.64
547.595	15494.14
547.959	15478.55
548.324	15442.62
548.688	15429.96
549.052	15451.88
549.416	15477.42
549.779	15433.13
550.143	15430.87
550.507	15489.39
550.871	15483.52
551.235	15376.86
551.599	15503.86
551.962	15478.77
552.326	15495.95
552.689	15483.97
553.053	15416.18
553.417	15520.13
553.78	15672.67
554.143	15434.71
554.507	15518.55
554.87	15505.89
555.234	15563.97
555.597	15432.67
555.96	15550.64
556.323	15458.21
556.686	15514.03
557.05	15601.71
557.413	15534.82
557.776	15564.65
558.139	15583.4
558.502	15621.37
558.865	15603.74
559.228	15634.48
559.59	15785.66
559.953	15732.55
560.316	15849.16
560.679	15798.31
561.041	15792.66
561.404	15867.24
561.767	15858.2
562.129	15840.35
562.492	15969.83
562.854	15878.76
563.217	15884.64
563.579	15967.8
563.941	16045.09
564.304	16041.47
564.666	16070.85
565.028	16107.91
565.39	16011.87
565.753	16089.38
566.115	16123.5
566.477	16232.43
566.839	16184.07
567.201	16313.55
567.563	16250.96
567.925	16351.97
568.287	16337.06
568.648	16370.05
569.01	16502.93
569.372	16509.71
569.734	16350.39
570.095	16536.15
570.457	16529.59
570.819	16594.9
571.18	16570.27
571.542	16672.19
571.903	16713.54
572.265	16711.74
572.626	16655.24
572.987	16753.32
573.349	16697.05
573.71	16830.15
574.071	16776.59
574.432	16906.08
574.794	16881
575.155	16845.74
575.516	16743.83
575.877	16830.83
576.238	16914.67
576.599	16981.33
576.96	16915.57
577.32	16873.54
577.681	16970.94
578.042	16968.23
578.403	16915.57
578.763	16921.9
579.124	17014.78
579.485	17009.36
579.845	17116.92
580.206	17021.78
580.566	17003.93
580.927	17004.16
581.287	17088.45
581.648	17036.25
582.008	17062.69
582.368	17060.43
582.728	17074.89
583.089	16960.77
583.449	16998.73
583.809	17048
584.169	17161.67
584.529	16957.83
584.889	17211.38
585.249	17021.33
585.609	16967.55
585.969	17029.69
586.329	17148.33
586.688	16984.95
587.048	17024.95
587.408	16969.13
587.768	16976.36
588.127	16967.77
588.487	16906.98
588.846	17096.58
589.206	16871.05
589.565	16946.53
589.925	17059.52
590.284	16937.27
590.643	16986.3
591.003	16956.02
591.362	16944.72
591.721	16948.34
592.08	16904.95
592.44	16967.32
592.799	17014.33
593.158	16971.84
593.517	16964.16
593.876	17005.51
594.235	16927.78
594.593	16913.54
594.952	17025.17
595.311	16899.98
595.67	16831.96
596.029	17047.32
596.387	16976.81
596.746	16997.83
597.104	16850.94
597.463	16941.56
597.822	16931.39
598.18	16824.05
598.538	16957.6
598.897	16906.08
599.255	16843.03
599.613	16991.05
599.972	16924.16
600.33	16929.13
600.688	17020.88
601.046	16934.55
601.404	17039.41
601.762	16923.48
602.12	17021.11
602.478	17033.99
602.836	17026.53
603.194	16961.45
603.552	16917.61
603.91	16897.49
604.268	16966.64
604.625	16982.01
604.983	16974.55
605.341	17016.36
605.698	17001.9
606.056	17037.83
606.413	17003.48
606.771	17065.62
607.128	17100.43
607.485	17053.87
607.843	16962.58
608.2	17042.8
608.557	17098.62
608.914	17047.09
609.272	17160.09
609.629	17198.28
609.986	17309.01
610.343	17125.28
610.7	17250.03
611.057	17321.44
611.414	17204.15
611.771	17276.92
612.127	17240.76
612.484	17260.2
612.841	17386.29
613.198	17209.8
613.554	17215.68
613.911	17376.58
614.267	17398.5
614.624	17321.44
614.98	17326.63
615.337	17407.08
615.693	17487.31
616.05	17446.41
616.406	17477.82
616.762	17425.84
617.118	17398.05
617.475	17494.77
617.831	17485.27
618.187	17558.27
618.543	17526.4
618.899	17625.38
619.255	17604.14
619.611	17691.37
619.967	17690.02
620.323	17591.71
620.678	17598.94
621.034	17487.99
621.39	17577.48
621.746	17610.47
622.101	17757.81
622.457	17584.48
622.812	17692.73
623.168	17689.79
623.523	17666.74
623.879	17699.28
624.234	17614.99
624.589	17688.43
624.945	17776.11
625.3	17760.52
625.655	17712.61
626.01	17697.25
626.365	17767.98
626.72	17687.08
627.075	17676.46
627.43	17622.9
627.785	17662.22
628.14	17667.87
628.495	17587.42
628.85	17661.32
629.205	17626.29
629.559	17749.67
629.914	17661.77
630.269	17655.21
630.623	17582.67
630.978	17541.32
631.332	17737.7
631.687	17619.06
632.041	17530.02
632.396	17626.97
632.75	17506.74
633.104	17508.1
633.459	17462.68
633.813	17376.35
634.167	17441.43
634.521	17432.85
634.875	17448.44
635.229	17443.02
635.583	17362.11
635.937	17357.59
636.291	17304.94
636.645	17309.23
636.999	17247.77
637.352	17355.33
637.706	17217.03
638.06	17280.76
638.413	17313.53
638.767	17201.89
639.121	17221.33
639.474	17069.47
639.828	17221.55
640.181	17255.9
640.534	17122.8
640.888	17160.31
641.241	17145.85
641.594	17085.29
641.947	17127.77
642.301	17123.93
642.654	17085.29
643.007	17167.99
643.36	17096.13
643.713	17054.33
644.066	17119.63
644.419	16966.19
644.771	16896.14
645.124	16739.08
645.477	16716.71
645.83	16667.44
646.182	16626.99
646.535	16511.74
646.888	16566.43
647.24	16379.09
647.593	16547.45
647.945	16512.19
648.298	16374.57
648.65	16299.77
649.002	16371.18
649.355	16374.57
649.707	16411.18
650.059	16475.58
650.411	16708.12
650.763	16658.4
651.115	16897.72
651.467	16798.74
651.819	16776.82
652.171	16730.04
652.523	16805.74
652.875	16883.93
653.227	16706.76
653.578	16842.35
653.93	16775.91
654.282	16765.75
654.633	16698.85
654.985	16805.97
655.337	16808.91
655.688	16797.61
656.039	16831.51
656.391	16691.85
656.742	16690.95
657.094	16745.18
657.445	16830.38
657.796	16744.28
658.147	16679.65
658.498	16669.25
658.849	16739.31
659.2	16819.08
659.551	16678.74
659.902	16829.25
660.253	16712.87
660.604	16770.94
660.955	16696.59
661.306	16784.05
661.656	16840.09
662.007	16768.01
662.358	16796.48
662.708	16768.01
663.059	16843.94
663.409	16691.17
663.76	16801
664.11	16822.02
664.461	16873.99
664.811	16832.86
665.161	16882.8
665.511	16829.25
665.862	16899.75
666.212	16901.34
666.562	16964.84
666.912	16843.48
667.262	16783.6
667.612	16849.13
667.962	16812.98
668.312	16836.48
668.662	16909.02
669.011	16833.99
669.361	16739.76
669.711	16791.28
670.06	16844.84
670.41	16729.59
670.76	16721.68
671.109	16768.23
671.459	16780.43
671.808	16698.85
672.157	16772.07
672.507	16686.2
672.856	16695.24
673.205	16710.38
673.554	16696.82
673.904	16635.35
674.253	16781.34
674.602	16762.58
674.951	16477.84
675.3	16354.68
675.649	16665.86
675.998	16556.71
676.346	16581.8
676.695	16657.27
677.044	16506.09
677.393	16534.34
677.741	16604.62
678.09	16559.2
678.438	16404.85
678.787	16519.42
679.135	16523.49
679.484	16410.05
679.832	16503.61
680.181	16346.77
680.529	16488.46
680.877	16404.17
681.225	16386.09
681.573	16442.14
681.922	16285.53
682.27	16323.27
682.618	16282.14
682.966	16219.55
683.314	16220.9
683.661	16189.49
684.009	16094.58
684.357	15995.37
684.705	15944.3
685.053	15957.41
685.4	16007.35
685.748	15848.26
686.095	15871.31
686.443	15777.3
686.79	15831.31
687.138	15773.68
687.485	15805.54
687.832	15705.66
688.18	15706.79
688.527	15603.52
688.874	15635.61
689.221	15613.23
689.568	15556.74
689.915	15490.07
690.262	15416.4
690.609	15452.11
690.956	15324.43
691.303	15294.37
691.65	15341.15
691.997	15263.64
692.344	15187.48
692.69	15072.23
693.037	15242.17
693.383	14998.11
693.73	15115.62
694.077	15009.63
694.423	14916.75
694.769	14928.73
695.116	14889.18
695.462	14825.23
695.808	14792.24
696.155	14780.04
696.501	14722.64
696.847	14657.55
697.193	14527.61
697.539	14535.07
697.885	14450.33
698.231	14476.09
698.577	14410.55
698.923	14439.25
699.269	14271.35
699.614	14259.6
699.96	14181.86
700.306	14165.36
700.651	14055.31
700.997	13969.66
701.342	14020.73
701.688	13963.11
702.033	13934.86
702.379	13932.83
702.724	13851.02
703.069	13931.92
703.415	13733.28
703.76	13727.63
704.105	13685.83
704.45	13607.18
704.795	13554.08
705.14	13598.15
705.485	13559.5
705.83	13393.4
706.175	13444.25
706.52	13332.62
706.865	13307.98
707.209	13304.82
707.554	13206.97
707.899	13316.8
708.243	13265.05
708.588	13142.79
708.932	13080.19
709.277	13044.04
709.621	13148.44
709.966	13029.35
710.31	12967.2
710.654	12892.4
710.998	12872.51
711.342	12867.32
711.687	12806.98
712.031	12692.86
712.375	12743.93
712.719	12659.41
713.063	12676.36
713.407	12714.33
713.75	12605.4
714.094	12658.06
714.438	12550.04
714.782	12601.79
715.125	12562.69
715.469	12564.73
715.812	12449.25
716.156	12427.1
716.499	12458.06
716.843	12482.24
717.186	12336.94
717.53	12392.08
717.873	12347.1
718.216	12375.35
718.559	12375.58
718.902	12203.83
719.246	12338.07
719.589	12263.72
719.932	12238.18
720.275	12203.61
720.617	12239.76
720.96	12146.66
721.303	12200.89
721.646	12119.99
721.989	12115.47
722.331	12118.41
722.674	12124.29
723.016	12038.64
723.359	12020.56
723.701	12122.03
724.044	12045.64
724.386	11994.12
724.729	12037.73
725.071	12008.13
725.413	11929.49
725.755	11990.05
726.097	11930.17
726.439	11894.69
726.782	11866.89
727.124	11985.76
727.465	11810.17
727.807	11773.79
728.149	11843.16
728.491	11808.59
728.833	11885.2
729.175	11778.08
729.516	11833.22
729.858	11857.85
730.199	11785.99
730.541	11840
730.882	11808.59
731.224	11795.71
731.565	11761.13
731.906	11820.34
732.248	11807.23
732.589	11713.45
732.93	11753.67
733.271	11746.67
733.612	11759.32
733.953	11785.76
734.294	11687.46
734.635	11773.11
734.976	11711.64
735.317	11685.43
735.658	11660.34
735.999	11713.22
736.339	11669.83
736.68	11775.37
737.021	11720
737.361	11670.29
737.702	11785.09
738.042	11761.81
738.383	11752.32
738.723	11749.38
739.063	11652.21
739.404	11797.06
739.744	11784.18
740.084	11750.74
740.424	11767.91
740.764	11813.79
741.104	11854.69
741.444	11810.62
741.784	11723.39
742.124	11847.91
742.464	11837.74
742.804	11801.81
743.143	11803.16
743.483	11933.33
743.823	11882.26
744.162	11910.28
744.502	11988.24
744.841	11885.2
745.181	11981.24
745.52	11958.19
745.86	12080.22
746.199	12051.52
746.538	12052.65
746.877	12214.23
747.216	12273.43
747.556	12255.81
747.895	12327.9
748.234	12263.72
748.573	12301.46
748.911	12349.59
749.25	12497.16
749.589	12461.9
749.928	12549.59
750.267	12562.47
750.605	12661.22
750.944	12687.66
751.283	12671.16
751.621	12813.08
751.96	12832.29
752.298	13005.84
752.636	13156.12
752.975	13124.26
753.313	13141.89
753.651	13320.41
753.989	13408.77
754.327	13493.52
754.666	13454.87
755.004	13560.86
755.342	13736.67
755.679	13865.93
756.017	13933.96
756.355	13986.84
