Data from hue_340_FLMS001491_7.txt Node
Date: Mon Feb 06 15:42:13 GMT 2017
User: dcchb
Spectrometer: FLMS00149
Trigger mode: 0
Integration Time (sec): 2.000000E-2
Scans to average: 10
Electric dark correction enabled: true
Nonlinearity correction enabled: false
Boxcar width: 0
XAxis mode: Wavelengths
Number of Pixels in Spectrum: 2048
>>>>>Begin Spectral Data<<<<<
341.393	-9.76
341.776	-9.76
342.16	-9.76
342.543	-42.75
342.927	-41.17
343.31	-70.77
343.693	-62.41
344.077	-61.51
344.46	-54.05
344.843	-65.8
345.226	-53.6
345.61	-45.69
345.993	-8.86
346.376	4.48
346.759	12.61
347.142	13.06
347.525	49.22
347.908	65.49
348.291	66.85
348.674	102.78
349.057	108.2
349.44	119.5
349.823	159.05
350.206	160.41
350.588	175.55
350.971	213.51
351.354	204.25
351.737	242.66
352.119	229.56
352.502	255.09
352.884	295.32
353.267	267.97
353.65	277.46
354.032	292.83
354.414	310.23
354.797	318.14
355.179	313.85
355.562	324.92
355.944	306.62
356.326	306.16
356.709	353.17
357.091	349.78
357.473	323.11
357.855	332.6
358.238	325.37
358.62	344.81
359.002	322.44
359.384	338.93
359.766	339.61
360.148	333.51
360.53	338.03
360.912	322.21
361.294	315.43
361.676	344.13
362.057	324.47
362.439	295.54
362.821	321.76
363.203	329.67
363.584	328.99
363.966	328.08
364.348	320.4
364.729	300.29
365.111	314.07
365.493	326.28
365.874	313.17
366.256	303.23
366.637	298.93
367.019	317.46
367.4	302.77
367.781	281.76
368.163	312.27
368.544	310.46
368.925	292.15
369.306	301.42
369.688	307.97
370.069	304.58
370.45	320.63
370.831	315.66
371.212	302.32
371.593	320.4
371.974	314.3
372.355	303.9
372.736	329.89
373.117	315.88
373.498	328.76
373.879	336.9
374.26	317.24
374.641	308.88
375.021	314.53
375.402	304.13
375.783	319.27
376.163	334.64
376.544	333.51
376.925	318.82
377.305	352.72
377.686	331.02
378.066	348.42
378.447	312.72
378.827	311.81
379.208	314.3
379.588	304.81
379.968	342.55
380.349	344.58
380.729	318.14
381.109	313.85
381.489	315.43
381.87	337.35
382.25	338.03
382.63	352.72
383.01	335.99
383.39	323.11
383.77	358.59
384.15	333.28
384.53	315.88
384.91	349.1
385.29	365.37
385.67	319.72
386.049	351.13
386.429	343
386.809	347.52
387.189	345.26
387.568	327.18
387.948	348.42
388.328	345.94
388.707	346.84
389.087	346.16
389.466	364.24
389.846	346.16
390.225	341.19
390.605	335.32
390.984	382.77
391.363	366.28
391.743	370.34
392.122	386.61
392.501	361.3
392.881	373.51
393.26	350
393.639	360.4
394.018	346.62
394.397	381.42
394.776	380.51
395.155	368.76
395.534	364.47
395.913	367.18
396.292	395.65
396.671	397.69
397.05	386.39
397.429	378.93
397.808	375.54
398.186	371.93
398.565	367.18
398.944	372.15
399.323	390.23
399.701	387.29
400.08	388.2
400.458	396.33
400.837	391.59
401.215	410.12
401.594	394.3
401.972	400.17
402.351	394.52
402.729	402.66
403.107	417.12
403.486	399.72
403.864	393.62
404.242	425.71
404.62	407.18
404.999	402.21
405.377	415.77
405.755	420.06
406.133	414.64
406.511	429.55
406.889	435.88
407.267	438.82
407.645	428.42
408.023	419.38
408.401	421.64
408.779	452.38
409.156	451.47
409.534	450.57
409.912	462.32
410.29	460.74
410.667	458.25
411.045	454.18
411.422	481.3
411.8	464.58
412.178	472.49
412.555	480.17
412.933	503.9
413.31	492.83
413.687	498.25
414.065	511.58
414.442	518.81
414.819	493.96
415.197	480.62
415.574	534.18
415.951	513.84
416.328	517.91
416.705	553.39
417.082	507.29
417.46	495.99
417.837	545.25
418.214	552.94
418.591	562.65
418.967	541.19
419.344	561.07
419.721	577.12
420.098	549.77
420.475	557.68
420.852	571.24
421.228	555.65
421.605	587.74
421.982	581.41
422.358	598.13
422.735	594.74
423.111	590.22
423.488	602.88
423.864	613.05
424.241	593.61
424.617	619.15
424.994	613.27
425.37	627.74
425.746	614.18
426.123	624.8
426.499	631.13
426.875	665.7
427.251	688.98
427.627	640.62
428.003	677.68
428.379	660.96
428.756	688.75
429.132	708.87
429.507	676.32
429.883	683.78
430.259	717.68
430.635	707.51
431.011	726.72
431.387	760.62
431.763	731.24
432.138	715.87
432.514	736.21
432.89	739.6
433.265	761.07
433.641	800.39
434.016	756.77
434.392	779.6
434.767	794.06
435.143	789.77
435.518	789.77
435.894	803.78
436.269	805.81
436.644	825.02
437.02	834.74
437.395	839.48
437.77	866.6
438.145	840.84
438.52	843.33
438.895	871.57
439.271	850.78
439.646	863.89
440.021	867.73
440.395	890.1
440.77	863.44
441.145	904.34
441.52	905.47
441.895	881.52
442.27	891.46
442.645	902.76
443.019	903.21
443.394	909.99
443.769	904.34
444.143	912.02
444.518	905.7
444.892	894.62
445.267	945.02
445.641	919.71
446.016	952.93
446.39	975.3
446.764	939.59
447.139	947.96
447.513	957.9
447.887	979.82
448.262	971.68
448.636	972.36
449.01	975.98
449.384	989.54
449.758	976.43
450.132	985.02
450.506	995.64
450.88	1009.42
451.254	1009.42
451.628	1013.94
452.002	1039.93
452.376	1015.07
452.75	1039.03
453.123	1030.44
453.497	1067.27
453.871	1041.06
454.244	1081.29
454.618	1053.72
454.992	1098.46
455.365	1084.45
455.739	1118.12
456.112	1142.75
456.486	1094.62
456.859	1127.39
457.232	1140.72
457.606	1156.54
457.979	1148.18
458.352	1173.49
458.725	1184.56
459.099	1201.06
459.472	1188.4
459.845	1205.35
460.218	1230.21
460.591	1222.52
460.964	1241.51
461.337	1259.36
461.71	1276.76
462.083	1300.26
462.456	1300.26
462.829	1288.29
463.201	1328.51
463.574	1314.5
463.947	1331.9
464.32	1358.79
464.692	1349.98
465.065	1374.38
465.438	1361.28
465.81	1411.67
466.183	1410.77
466.555	1418.68
466.928	1460.94
467.3	1402.18
467.672	1454.61
468.045	1472.69
468.417	1490.99
468.789	1494.16
469.161	1540.93
469.534	1546.58
469.906	1559.01
470.278	1568.96
470.65	1563.31
471.022	1604.44
471.394	1650.54
471.766	1645.56
472.138	1674.94
472.51	1672
472.882	1725.56
473.253	1770.53
473.625	1730.99
473.997	1783.87
474.369	1785.22
474.74	1800.81
475.112	1830.64
475.484	1862.28
475.855	1919.91
476.227	1911.55
476.598	1961.04
476.97	1992.67
477.341	2004.65
477.713	2050.3
478.084	2057.3
478.455	2085.1
478.827	2103.63
479.198	2160.35
479.569	2129.17
479.94	2205.32
480.311	2255.04
480.682	2297.3
481.053	2358.09
481.424	2321.7
481.795	2421.14
482.166	2407.35
482.537	2448.25
482.908	2507.46
483.279	2508.82
483.65	2550.4
484.021	2589.27
484.391	2633.79
484.762	2654.8
485.133	2679.44
485.503	2710.17
485.874	2756.5
486.244	2787
486.615	2828.13
486.985	2861.58
487.356	2913.1
487.726	2919.2
488.097	2992.2
488.467	2982.03
488.837	3020.22
489.207	3083.04
489.578	3120.78
489.948	3151.29
490.318	3162.59
490.688	3195.58
491.058	3229.93
491.428	3255.92
491.798	3334.33
492.168	3402.13
492.538	3374.78
492.908	3434.22
493.278	3452.97
493.648	3479.87
494.017	3505.63
494.387	3586.08
494.757	3596.47
495.126	3622.91
495.496	3677.83
495.866	3626.98
496.235	3691.84
496.605	3675.34
496.974	3692.97
497.344	3749.69
497.713	3782.68
498.082	3786.3
498.452	3859.97
498.821	3865.17
499.19	3890.7
499.559	3904.94
499.928	3975.67
500.298	3970.25
500.667	3972.51
501.036	3976.12
501.405	4007.08
501.774	3987.65
502.143	4059.29
502.512	4079.85
502.88	4100.87
503.249	4102.9
503.618	4099.96
503.987	4169.79
504.356	4157.14
504.724	4188.77
505.093	4198.94
505.462	4216.12
505.83	4229.45
506.199	4272.39
506.567	4308.77
506.936	4281.43
507.304	4337.24
507.672	4324.36
508.041	4360.52
508.409	4375.66
508.777	4403.01
509.145	4391.48
509.514	4436.9
509.882	4457.24
510.25	4455.66
510.618	4538.37
510.986	4524.58
511.354	4567.07
511.722	4588.31
512.09	4614.98
512.458	4578.59
512.826	4574.3
513.193	4618.59
513.561	4647.97
513.929	4641.42
514.297	4723.9
514.664	4670.8
515.032	4700.62
515.4	4746.5
515.767	4734.75
516.135	4803.67
516.502	4802.77
516.869	4784.69
517.237	4827.4
517.604	4821.98
517.972	4885.03
518.339	4882.77
518.706	4872.6
519.073	4869.21
519.44	4937.68
519.808	4945.82
520.175	4927.96
520.542	4953.5
520.909	4970
521.276	5039.6
521.643	5058.36
522.009	5033.95
522.376	5080.28
522.743	5125.7
523.11	5149.43
523.477	5165.7
523.843	5170.44
524.21	5238.46
524.577	5295.19
524.943	5213.83
525.31	5260.84
525.676	5373.83
526.043	5322.08
526.409	5334.51
526.776	5446.82
527.142	5416.54
527.508	5461.51
527.874	5494.73
528.241	5492.92
528.607	5506.48
528.973	5553.71
529.339	5585.57
529.705	5631.67
530.071	5612.92
530.437	5635.74
530.803	5659.24
531.169	5735.4
531.535	5701.28
531.901	5769.52
532.267	5771.78
532.632	5802.29
532.998	5824.21
533.364	5843.87
533.73	5918.67
534.095	5903.08
534.461	5923.19
534.826	5994.83
535.192	5986.01
535.557	6036.64
535.923	6012.68
536.288	6055.17
536.653	6090.19
537.019	6083.41
537.384	6096.75
537.749	6149.17
538.114	6149.63
538.479	6124.77
538.845	6256.74
539.21	6196.63
539.575	6241.38
539.94	6311.88
540.305	6327.02
540.67	6331.54
541.034	6383.29
541.399	6395.72
541.764	6427.36
542.129	6461.71
542.494	6466.23
542.858	6501.93
543.223	6501.03
543.587	6495.83
543.952	6526.34
544.316	6579.9
544.681	6577.41
545.045	6634.36
545.41	6701.02
545.774	6623.06
546.138	6684.98
546.503	6773.34
546.867	6723.17
547.231	6773.79
547.595	6780.57
547.959	6833.9
548.324	6856.27
548.688	6859.89
549.052	6887.69
549.416	6915.26
549.779	6931.98
550.143	6921.36
550.507	6983.95
550.871	7045.42
551.235	7023.28
551.599	7049.72
551.962	7120
552.326	7123.84
552.689	7141.01
553.053	7161.58
553.417	7121.35
553.78	7230.73
554.143	7217.17
554.507	7212.2
554.87	7257.17
555.234	7329.48
555.597	7301.69
555.96	7326.09
556.323	7351.18
556.686	7363.38
557.05	7440.89
557.413	7419.42
557.776	7436.15
558.139	7446.99
558.502	7469.37
558.865	7488.8
559.228	7517.95
559.59	7587.55
559.953	7567.89
560.316	7662.13
560.679	7625.75
561.041	7756.36
561.404	7731.28
561.767	7686.99
562.129	7703.03
562.492	7823.71
562.854	7825.29
563.217	7826.64
563.579	7805.63
563.941	7902.57
564.304	7936.25
564.666	7918.85
565.028	7985.51
565.39	7985.96
565.753	8058.28
566.115	8028.22
566.477	8058.5
566.839	8108.67
567.201	8179.86
567.563	8195.9
567.925	8315.9
568.287	8255.33
568.648	8230.7
569.01	8259.85
569.372	8352.96
569.734	8359.96
570.095	8397.25
570.457	8436.8
570.819	8462.79
571.18	8472.05
571.542	8603.8
571.903	8608.32
572.265	8578.72
572.626	8682.22
572.987	8682.22
573.349	8769.67
573.71	8799.73
574.071	8831.36
574.432	8869.33
574.794	8984.58
575.155	9035.65
575.516	9058.48
575.877	9159.94
576.238	9128.08
576.599	9241.52
576.96	9317.9
577.32	9354.06
577.681	9471.12
578.042	9542.08
578.403	9540.05
578.763	9657.56
579.124	9719.93
579.485	9846.03
579.845	10034.72
580.206	10075.4
580.566	10155.62
580.927	10345.45
581.287	10485.11
581.648	10488.04
582.008	10699.56
582.368	10759
582.728	10935.94
583.089	11010.06
583.449	11260.68
583.809	11360.34
584.169	11559.43
584.529	11710.61
584.889	11991.05
585.249	12139.53
585.609	12268.79
585.969	12563.02
586.329	12676.23
586.688	12926.17
587.048	13120.52
587.408	13333.17
587.768	13524.12
588.127	13798.01
588.487	13919.82
588.846	14306.02
589.206	14411.78
589.565	14626.92
589.925	14975.38
590.284	15176.28
590.643	15424.41
591.003	15818.98
591.362	16099.2
591.721	16350.94
592.08	16654.43
592.44	16908.89
592.799	17145.72
593.158	17374.87
593.517	17639.04
593.876	17955.19
594.235	18268.4
594.593	18593.37
594.952	18853.25
595.311	19133.01
595.67	19521.03
596.029	19829.27
596.387	20170.05
596.746	20482.81
597.104	20650.04
597.463	20969.35
597.822	21328.89
598.18	21474.65
598.538	21832.6
598.897	22212.25
599.255	22306.04
599.613	22937.43
599.972	23041.16
600.33	23423.52
600.688	23577.19
601.046	23840.46
601.404	24144.86
601.762	24451.52
602.12	24819.42
602.478	25117.49
602.836	25260.99
603.194	25406.97
603.552	25702.78
603.91	25959.5
604.268	26383.44
604.625	26471.35
604.983	26912.92
605.341	27056.42
605.698	27340.93
606.056	27646.69
606.413	27769.4
606.771	28197.63
607.128	28391.98
607.485	28551.98
607.843	28693.21
608.2	29006.65
608.557	29317.15
608.914	29480.76
609.272	29825.84
609.629	29972.05
609.986	30335.21
610.343	30261.53
610.7	30805.25
611.057	30837.79
611.414	31142.42
611.771	31346.48
612.127	31495.17
612.484	31729.29
612.841	32077.76
613.198	32023.75
613.554	32364.08
613.911	32649.95
614.267	32774.24
614.624	32831.18
614.98	33001.35
615.337	33340.55
615.693	33402.92
616.05	33573.99
616.406	33785.51
616.762	33800.65
617.118	33971.04
617.475	34016.46
617.831	34300.07
618.187	34343.69
618.543	34466.85
618.899	34889.21
619.255	34960.17
619.611	34870.45
619.967	35204
620.323	35407.84
620.678	35366.49
621.034	35444.9
621.39	35470.21
621.746	35688.28
622.101	36194.26
622.457	35938.9
622.812	35993.14
623.168	36286.69
623.523	36187.25
623.879	36551.54
624.234	36478.09
624.589	36590.41
624.945	36637.64
625.3	36787.92
625.655	36790.63
626.01	36968.48
626.365	36912.43
626.72	36887.12
627.075	37083.95
627.43	36947.91
627.785	37088.25
628.14	37328.24
628.495	37158.75
628.85	37242.59
629.205	37174.35
629.559	37505.64
629.914	37439.65
630.269	37507.45
630.623	37534.79
630.978	37504.51
631.332	37630.61
631.687	37768.46
632.041	37623.38
632.396	37624.96
632.75	37562.36
633.104	37725.07
633.459	37595.58
633.813	37657.95
634.167	37733.65
634.521	37678.97
634.875	37768.46
635.229	37675.8
635.583	37595.58
635.937	37618.86
636.291	37464.74
636.645	37631.51
636.999	37594.9
637.352	37816.82
637.706	37608.69
638.06	37740.66
638.413	37628.35
638.767	37616.6
639.121	37702.47
639.474	37515.58
639.828	37642.58
640.181	37537.5
640.534	37802.58
640.888	37609.14
641.241	37408.01
641.594	37595.81
641.947	37634.9
642.301	37537.95
642.654	37550.61
643.007	37601
643.36	37476.49
643.713	37460.89
644.066	37673.77
644.419	37329.15
644.771	37189.26
645.124	36933.45
645.477	36957.18
645.83	36705.89
646.182	36501.82
646.535	36483.52
646.888	36573.91
647.24	36372.33
647.593	36571.65
647.945	36487.81
648.298	36366.69
648.65	36297.99
649.002	36100.7
649.355	36457.76
649.707	36332.79
650.059	36545.89
650.411	36911.76
650.763	36829.5
651.115	37339.31
651.467	37188.58
651.819	37210.05
652.171	37058.19
652.523	37144.52
652.875	37224.97
653.227	36848.03
653.578	37120.34
653.93	37141.81
654.282	37037.85
654.633	36899.55
654.985	37075.14
655.337	37036.5
655.688	36942.72
656.039	37134.8
656.391	36812.55
656.742	36931.42
657.094	36802.15
657.445	36975.93
657.796	36974.58
658.147	36908.82
658.498	36843.06
658.849	37004.63
659.2	36857.29
659.551	36698.43
659.902	36912.21
660.253	36742.95
660.604	37042.37
660.955	36656.85
661.306	36744.75
661.656	36667.69
662.007	36736.39
662.358	36778.65
662.708	36756.51
663.059	36738.65
663.409	36483.97
663.76	36790.63
664.11	36781.82
664.461	36732.78
664.811	36707.92
665.161	36644.87
665.511	36700.46
665.862	36662.27
666.212	36861.14
666.562	36891.19
666.912	36689.84
667.262	36701.14
667.612	36658.43
667.962	36735.49
668.312	36596.28
668.662	36709.27
669.011	36497.3
669.361	36736.39
669.711	36532.56
670.06	36515.83
670.41	36453.24
670.76	36475.61
671.109	36556.96
671.459	36626.34
671.808	36424.31
672.157	36500.24
672.507	36439.45
672.856	36350.41
673.205	36512.9
673.554	36476.96
673.904	36411.66
674.253	36556.51
674.602	36420.47
674.951	35877.66
675.3	35772.35
675.649	36472.44
675.998	36330.08
676.346	36370.53
676.695	36310.64
677.044	36144.77
677.393	36319.23
677.741	36241.04
678.09	36280.59
678.438	36196.75
678.787	36070.65
679.135	36015.96
679.484	35878.79
679.832	36008.5
680.181	35951.55
680.529	36003.98
680.877	35837.89
681.225	35765.12
681.573	36060.93
681.922	35836.76
682.27	35768.28
682.618	35628.85
682.966	35544.11
683.314	35693.26
683.661	35547.72
684.009	35343.21
684.357	35295.53
684.705	35300.05
685.053	35404.22
685.4	35295.07
685.748	35163.33
686.095	35084.46
686.443	35118.81
686.79	34954.97
687.138	35094.63
687.485	35029.55
687.832	34926.04
688.18	34830.45
688.527	34767.41
688.874	34691.93
689.221	34526.73
689.568	34681.98
689.915	34512.27
690.262	34550.24
690.609	34333.07
690.956	34285.84
691.303	34240.41
691.65	34087.65
691.997	34139.85
692.344	33895.34
692.69	33795.45
693.037	33934.66
693.383	33627.1
693.73	33613.54
694.077	33626.42
694.423	33585.29
694.769	33537.15
695.116	33420.1
695.462	33348.91
695.808	33201.8
696.155	33354.79
696.501	33094.45
696.847	33036.15
697.193	32812.88
697.539	32979.43
697.885	32651.53
698.231	32638.87
698.577	32700.79
698.923	32469.16
699.269	32310.75
699.614	32388.03
699.96	32137.87
700.306	32142.39
700.651	32101.03
700.997	31964.77
701.342	31926.35
701.688	31787.37
702.033	31793.02
702.379	31718.22
702.724	31596.41
703.069	31789.63
703.415	31391.45
703.76	31457.21
704.105	31381.05
704.45	31266.93
704.795	31129.31
705.14	31109.65
705.485	31071.46
705.83	30798.47
706.175	30910.78
706.52	30745.82
706.865	30713.5
707.209	30704.91
707.554	30488.87
707.899	30699.72
708.243	30448.2
708.588	30404.81
708.932	30243
709.277	30059.96
709.621	30243.91
709.966	30130.69
710.31	30095.44
710.654	29864.03
710.998	29875.1
711.342	29935.22
711.687	29784.71
712.031	29737.48
712.375	29651.61
712.719	29647.99
713.063	29587.43
713.407	29728.22
713.75	29486.41
714.094	29450.48
714.438	29293.88
714.782	29393.54
715.125	29244.39
715.469	29274.67
715.812	29067.44
716.156	28933.21
716.499	29004.39
716.843	28982.02
717.186	28857.73
717.53	29017.95
717.873	28938.86
718.216	28912.64
718.559	28698.86
718.902	28531.64
719.246	28655.93
719.589	28633.33
719.932	28444.86
720.275	28416.84
720.617	28416.16
720.96	28276.73
721.303	28382.04
721.646	28296.39
721.989	28262.94
722.331	28313.34
722.674	28081.71
723.016	28086
723.359	28022.27
723.701	28157.86
724.044	27879.68
724.386	27814.59
724.729	27857.98
725.071	27852.56
725.413	27754.26
725.755	27662.96
726.097	27679.46
726.439	27539.8
726.782	27520.36
727.124	27725.1
727.465	27507.26
727.807	27492.34
728.149	27461.83
728.491	27460.25
728.833	27396.07
729.175	27221.61
729.516	27274.72
729.858	27261.39
730.199	27318.34
730.541	27094.39
730.882	27106.36
731.224	27173.48
731.565	26963.77
731.906	26927.61
732.248	27028.4
732.589	26803.09
732.93	26880.15
733.271	26747.28
733.612	26865.01
733.953	26932.13
734.294	26664.57
734.635	26636.32
734.976	26744.79
735.317	26593.38
735.658	26501.86
735.999	26559.94
736.339	26520.16
736.68	26509.54
737.021	26342.32
737.361	26350.23
737.702	26500.28
738.042	26343.45
738.383	26380.51
738.723	26451.69
739.063	26201.08
739.404	26194.07
739.744	26173.51
740.084	25983.46
740.424	26059.61
740.764	26108.42
741.104	26116.11
741.444	26002.66
741.784	25860.29
742.124	25868.43
742.464	25749.79
742.804	25739.39
743.143	25667.53
743.483	25573.3
743.823	25668.66
744.162	25648.32
744.502	25658.04
744.841	25546.18
745.181	25630.02
745.52	25492.62
745.86	25453.98
746.199	25430.7
746.538	25488.78
746.877	25374.21
747.216	25267.54
747.556	25365.17
747.895	25380.53
748.234	25204.94
748.573	25131.05
748.911	25144.83
749.25	25106.87
749.589	24965.4
749.928	24974.67
750.267	25089.92
750.605	24934.44
750.944	24905.97
751.283	24743.26
751.621	24816.93
751.96	24769.02
752.298	24677.5
752.636	24725.18
752.975	24668.01
753.313	24546.43
753.651	24734.45
753.989	24464.4
754.327	24500.1
754.666	24309.6
755.004	24296.27
755.342	24297.4
755.679	24314.8
756.017	24165.88
756.355	24166.55
756.693	24116.61
757.031	24148.93
757.368	23968.59
757.706	23971.3
758.044	23825.32
758.381	23911.42
758.719	23790.74
759.056	23863.06
759.394	23708.49
759.731	23499.9
760.068	23503.75
760.405	23386.91
