Data from hue_80_FLMS001491_8.txt Node
Date: Mon Feb 06 15:22:22 GMT 2017
User: dcchb
Spectrometer: FLMS00149
Trigger mode: 0
Integration Time (sec): 2.000000E-2
Scans to average: 10
Electric dark correction enabled: true
Nonlinearity correction enabled: false
Boxcar width: 0
XAxis mode: Wavelengths
Number of Pixels in Spectrum: 2048
>>>>>Begin Spectral Data<<<<<
341.393	-21.02
341.776	-21.02
342.16	-21.02
342.543	-59.89
342.927	-70.28
343.31	-62.15
343.693	-59.66
344.077	-54.91
344.46	-76.16
344.843	-70.73
345.226	-63.95
345.61	-32.09
345.993	-7.68
346.376	3.39
346.759	2.71
347.142	25.76
347.525	44.74
347.908	64.18
348.291	86.33
348.674	82.94
349.057	117.29
349.44	131.3
349.823	133.78
350.206	178.75
350.588	221.01
350.971	211.97
351.354	214.68
351.737	239.77
352.119	247.9
352.502	261.69
352.884	285.19
353.267	277.28
353.65	275.7
354.032	295.36
354.414	307.11
354.797	329.48
355.179	319.09
355.562	317.28
355.944	318.86
356.326	337.17
356.709	330.39
357.091	351.4
357.473	351.4
357.855	342.36
358.238	352.76
358.62	324.51
359.002	335.13
359.384	352.08
359.766	368.13
360.148	346.43
360.53	347.34
360.912	340.78
361.294	344.62
361.676	343.95
362.057	325.87
362.439	331.52
362.821	338.07
363.203	338.97
363.584	335.58
363.966	335.13
364.348	323.38
364.729	318.18
365.111	325.87
365.493	326.32
365.874	326.09
366.256	321.12
366.637	332.19
367.019	303.49
367.4	333.1
367.781	310.73
368.163	323.83
368.544	319.09
368.925	323.38
369.306	327.45
369.688	326.77
370.069	322.03
370.45	330.84
370.831	315.92
371.212	331.74
371.593	304.17
371.974	302.36
372.355	314.79
372.736	341.46
373.117	317.51
373.498	301.24
373.879	301.69
374.26	339.65
374.641	316.15
375.021	332.65
375.402	319.99
375.783	316.15
376.163	303.95
376.544	304.17
376.925	329.93
377.305	327.22
377.686	350.27
378.066	328.13
378.447	340.78
378.827	357.73
379.208	341.69
379.588	318.86
379.968	317.28
380.349	345.75
380.729	343.27
381.109	337.39
381.489	350.5
381.87	351.63
382.25	329.48
382.63	344.4
383.01	328.58
383.39	334.68
383.77	351.4
384.15	350.27
384.53	345.98
384.91	335.36
385.29	362.7
385.67	350.95
386.049	357.96
386.429	360.67
386.809	339.43
387.189	339.2
387.568	349.82
387.948	364.06
388.328	353.21
388.707	385.07
389.087	356.15
389.466	375.36
389.846	357.28
390.225	376.71
390.605	372.19
390.984	348.24
391.363	356.6
391.743	344.17
392.122	362.25
392.501	370.16
392.881	392.76
393.26	375.36
393.639	375.36
394.018	398.18
394.397	382.36
394.776	369.48
395.155	378.07
395.534	391.63
395.913	394.11
396.292	376.71
396.671	389.14
397.05	374.68
397.429	406.99
397.808	378.75
398.186	378.97
398.565	397.05
398.944	388.24
399.323	408.58
399.701	392.98
400.08	398.63
400.458	410.84
400.837	380.1
401.215	398.86
401.594	418.97
401.972	421.91
402.351	429.82
402.729	394.34
403.107	402.7
403.486	409.71
403.864	430.95
404.242	420.55
404.62	417.62
404.999	415.58
405.377	408.58
405.755	415.81
406.133	408.58
406.511	437.28
406.889	432.08
407.267	448.35
407.645	417.39
408.023	429.82
408.401	417.16
408.779	435.24
409.156	454.9
409.534	450.84
409.912	420.78
410.29	436.37
410.667	488.8
411.045	438.18
411.422	431.85
411.8	450.38
412.178	433.89
412.555	456.26
412.933	458.07
413.31	465.98
413.687	463.49
414.065	452.42
414.442	496.94
414.819	486.99
415.197	468.69
415.574	467.33
415.951	468.69
416.328	490.38
416.705	501.23
417.082	508.69
417.46	484.73
417.837	521.79
418.214	490.38
418.591	512.53
418.967	479.08
419.344	509.59
419.721	517.05
420.098	517.95
420.475	529.93
420.852	517.5
421.228	550.95
421.605	536.94
421.982	518.86
422.358	550.27
422.735	513.66
423.111	547.78
423.488	545.52
423.864	557.95
424.241	566.54
424.617	567.22
424.994	568.12
425.37	560.21
425.746	575.58
426.123	580.55
426.499	577.84
426.875	565.63
427.251	585.97
427.627	566.09
428.003	573.54
428.379	582.13
428.756	610.61
429.132	593.43
429.507	593.43
429.883	600.44
430.259	621.45
430.635	617.61
431.011	612.64
431.387	647.21
431.763	630.27
432.138	621.45
432.514	665.07
432.89	666.65
433.265	664.62
433.641	654.45
434.016	658.74
434.392	684.5
434.767	686.08
435.143	673.43
435.518	686.54
435.894	674.33
436.269	703.48
436.644	700.32
437.02	702.58
437.395	684.73
437.77	699.64
438.145	716.14
438.52	724.95
438.895	734.67
439.271	748.45
439.646	743.94
440.021	744.39
440.395	733.31
440.77	761.34
441.145	744.61
441.52	758.17
441.895	766.76
442.27	755.46
442.645	793.2
443.019	792.75
443.394	787.1
443.769	799.75
444.143	804.05
444.518	807.44
444.892	797.95
445.267	800.2
445.641	803.82
446.016	824.16
446.39	829.36
446.764	831.62
447.139	813.31
447.513	845.85
447.887	856.02
448.262	847.21
448.636	847.21
449.01	865.29
449.384	865.74
449.758	866.87
450.132	864.61
450.506	888.11
450.88	863.03
451.254	901.45
451.628	873.2
452.002	927.21
452.376	913.87
452.75	940.99
453.123	932.4
453.497	957.04
453.871	943.7
454.244	977.6
454.618	975.57
454.992	937.6
455.365	984.38
455.739	998.17
456.112	1015.11
456.486	1014.21
456.859	1017.83
457.232	1043.36
457.606	1027.77
457.979	1081.33
458.352	1077.26
458.725	1086.3
459.099	1125.62
459.472	1107.09
459.845	1103.7
460.218	1128.11
460.591	1131.95
460.964	1138.5
461.337	1180.31
461.71	1174.43
462.083	1201.32
462.456	1200.87
462.829	1224.83
463.201	1237.26
463.574	1246.52
463.947	1263.7
464.32	1272.06
464.692	1315.22
465.065	1305.05
465.438	1339.85
465.81	1348.21
466.183	1370.13
466.555	1409.68
466.928	1415.33
467.3	1417.82
467.672	1436.35
468.045	1507.08
468.417	1483.12
468.789	1516.8
469.161	1511.82
469.534	1551.37
469.906	1615.78
470.278	1623.46
470.65	1634.53
471.022	1672.5
471.394	1706.85
471.766	1740.97
472.138	1779.39
472.51	1822.78
472.882	1829.56
473.253	1854.64
473.625	1900.52
473.997	1993.17
474.369	1956.56
474.74	2025.48
475.112	2099.61
475.484	2145.71
475.855	2183.9
476.227	2230
476.598	2286.27
476.97	2293.27
477.341	2406.04
477.713	2437
478.084	2506.6
478.455	2604.68
478.827	2639.93
479.198	2712.02
479.569	2767.16
479.94	2861.17
480.311	2909.98
480.682	3020.26
481.053	3105
481.424	3192.46
481.795	3273.59
482.166	3336.86
482.537	3437.42
482.908	3544.99
483.279	3615.5
483.65	3751.54
484.021	3831.99
484.391	3933.23
484.762	3995.83
485.133	4115.15
485.503	4216.16
485.874	4345.87
486.244	4450.96
486.615	4606.21
486.985	4709.03
487.356	4836.26
487.726	4927.55
488.097	5130.03
488.467	5215.23
488.837	5337.26
489.207	5495.22
489.578	5603.47
489.948	5725.73
490.318	5901.77
490.688	5937.47
491.058	6162.32
491.428	6307.4
491.798	6469.43
492.168	6562.54
492.538	6697.23
492.908	6803.66
493.278	7054.5
493.648	7114.39
494.017	7259.7
494.387	7408.62
494.757	7546.02
495.126	7678.22
495.496	7755.05
495.866	7930.19
496.235	8062.84
496.605	8240.91
496.974	8317.75
497.344	8460.79
497.713	8595.48
498.082	8657.17
498.452	8890.39
498.821	9032.98
499.19	9132.42
499.559	9220.32
499.928	9358.4
500.298	9458.51
500.667	9624.83
501.036	9664.6
501.405	9879.29
501.774	9928.78
502.143	10096.91
502.512	10121.54
502.88	10316.11
503.249	10321.99
503.618	10451.93
503.987	10599.95
504.356	10757.68
504.724	10873.39
505.093	10903.44
505.462	11037.68
505.83	11096.88
506.199	11206.03
506.567	11372.58
506.936	11408.51
507.304	11658.22
507.672	11681.95
508.041	11768.73
508.409	11863.87
508.777	11912
509.145	12086.69
509.514	12124.43
509.882	12265.21
510.25	12313.12
510.618	12372.56
510.986	12446.68
511.354	12624.75
511.722	12687.12
512.09	12852.54
512.458	12858.87
512.826	12965.31
513.193	12973.44
513.561	13103.16
513.929	13243.72
514.297	13346.77
514.664	13421.12
515.032	13478.74
515.4	13649.13
515.767	13639.19
516.135	13659.75
516.502	13659.3
516.869	13892.06
517.237	13977.26
517.604	13857.04
517.972	14099.29
518.339	14145.62
518.706	14170.47
519.073	14247.99
519.44	14237.14
519.808	14378.83
520.175	14376.12
520.542	14582.67
520.909	14643.46
521.276	14654.76
521.643	14686.85
522.009	14789.67
522.376	14884.13
522.743	15014.07
523.11	15101.07
523.477	15179.71
523.843	15223.33
524.21	15330.9
524.577	15377
524.943	15394.62
525.31	15491.8
525.676	15626.48
526.043	15696.54
526.409	15757.1
526.776	15826.25
527.142	15854.95
527.508	15894.95
527.874	16026.7
528.241	16048.62
528.607	16040.03
528.973	16151.21
529.339	16131.78
529.705	16156.19
530.071	16327.48
530.437	16267.82
530.803	16305.11
531.169	16422.17
531.535	16475.95
531.901	16432.11
532.267	16426.01
532.632	16527.7
532.998	16576.29
533.364	16564.99
533.73	16626
534.095	16696.06
534.461	16575.38
534.826	16717.75
535.192	16666.45
535.557	16851.53
535.923	16671.43
536.288	16695.38
536.653	16784.64
537.019	16688.6
537.384	16748.49
537.749	16763.85
538.114	16757.98
538.479	16751.2
538.845	16815.6
539.21	16743.74
539.575	16773.12
539.94	16776.96
540.305	16928.14
540.67	16806.11
541.034	16878.65
541.399	16925.88
541.764	16806.56
542.129	16936.05
542.494	16823.96
542.858	16832.55
543.223	16746.45
543.587	16821.25
543.952	16793.46
544.316	16748.03
544.681	16871.87
545.045	16846.56
545.41	16832.78
545.774	16806.34
546.138	16737.86
546.503	16691.09
546.867	16786.23
547.231	16789.39
547.595	16810.18
547.959	16844.53
548.324	16844.75
548.688	16781.48
549.052	16790.52
549.416	16781.03
549.779	16781.48
550.143	16699.67
550.507	16841.82
550.871	16790.74
551.235	16742.38
551.599	16889.95
551.962	16817.41
552.326	16840.01
552.689	16794.59
553.053	16690.86
553.417	16735.61
553.78	16867.35
554.143	16731.99
554.507	16896.5
554.87	16693.57
555.234	16880.01
555.597	16870.29
555.96	16855.6
556.323	16824.19
556.686	16874.81
557.05	16943.06
557.413	16788.71
557.776	16812.21
558.139	16874.58
558.502	16849.05
558.865	16856.28
559.228	16962.49
559.59	16985.54
559.953	17040.46
560.316	17076.16
560.679	17024.64
561.041	17116.39
561.404	17149.83
561.767	17215.37
562.129	17148.93
562.492	17284.07
562.854	17214.24
563.217	17195.25
563.579	17299.88
563.941	17322.26
564.304	17373.33
564.666	17471.63
565.028	17395.93
565.39	17488.58
565.753	17476.38
566.115	17486.32
566.477	17607.9
566.839	17530.16
567.201	17556.37
567.563	17630.27
567.925	17766.09
568.287	17699.65
568.648	17757.05
569.01	17770.38
569.372	17830.04
569.734	17774
570.095	17794.79
570.457	17947.1
570.819	17943.71
571.18	17943.71
571.542	18007.21
571.903	17963.82
572.265	18013.54
572.626	18099.41
572.987	18106.19
573.349	18046.08
573.71	18163.36
574.071	18094.44
574.432	18260.31
574.794	18238.16
575.155	18191.16
575.516	18244.72
575.877	18283.36
576.238	18275.23
576.599	18345.51
576.96	18368.56
577.32	18311.61
577.681	18295.79
578.042	18345.28
578.403	18352.96
578.763	18272.29
579.124	18427.76
579.485	18314.55
579.845	18495.56
580.206	18430.48
580.566	18361.55
580.927	18316.81
581.287	18454.2
581.648	18359.97
582.008	18410.82
582.368	18437.93
582.728	18464.37
583.089	18442.9
583.449	18397.03
583.809	18437.93
584.169	18451.49
584.529	18459.63
584.889	18489.68
585.249	18450.36
585.609	18312.29
585.969	18529.46
586.329	18411.95
586.688	18366.52
587.048	18383.47
587.408	18392.74
587.768	18379.18
588.127	18368.78
588.487	18284.27
588.846	18428.67
589.206	18325.17
589.565	18273.64
589.925	18279.29
590.284	18346.18
590.643	18359.74
591.003	18338.05
591.362	18366.75
591.721	18290.82
592.08	18289.24
592.44	18360.87
592.799	18379.86
593.158	18275.9
593.517	18218.28
593.876	18397.71
594.235	18223.25
594.593	18233.64
594.952	18303.25
595.311	18204.49
595.67	18270.25
596.029	18368.1
596.387	18286.98
596.746	18322.91
597.104	18223.93
597.463	18317.03
597.822	18359.52
598.18	18326.52
598.538	18293.53
598.897	18356.58
599.255	18260.08
599.613	18465.73
599.972	18329.01
600.33	18338.05
600.688	18265.73
601.046	18373.08
601.404	18477.93
601.762	18262.34
602.12	18477.93
602.478	18436.13
602.836	18481.77
603.194	18359.97
603.552	18347.99
603.91	18311.61
604.268	18379.86
604.625	18372.62
604.983	18414.43
605.341	18271.38
605.698	18406.3
606.056	18415.79
606.413	18291.04
606.771	18378.5
607.128	18449.23
607.485	18384.15
607.843	18442.9
608.2	18470.25
608.557	18582.34
608.914	18399.74
609.272	18506.41
609.629	18565.61
609.986	18630.02
610.343	18529.91
610.7	18667.76
611.057	18597.48
611.414	18615.1
611.771	18625.72
612.127	18566.29
612.484	18619.4
612.841	18733.29
613.198	18585.73
613.554	18667.31
613.911	18849.22
614.267	18729.23
614.624	18769
614.98	18786.85
615.337	18856
615.693	18774.42
616.05	18834.53
616.406	18967.86
616.762	18876.57
617.118	18809.45
617.475	18846.96
617.831	18872.5
618.187	19000.18
618.543	19040.86
618.899	19114.07
619.255	19097.12
619.611	19053.06
619.967	19081.53
620.323	19149.55
620.678	18969.44
621.034	19070.23
621.39	19022.78
621.746	18979.16
622.101	19186.16
622.457	19025.49
622.812	19093.74
623.168	19191.59
623.523	19129.89
623.879	19181.19
624.234	19116.56
624.589	19103.68
624.945	19086.73
625.3	19145.03
625.655	19126.73
626.01	19119.5
626.365	19132.6
626.72	19072.72
627.075	19005.38
627.43	19093.74
627.785	19110.01
628.14	19077.92
628.495	19178.25
628.85	19009.67
629.205	18975.09
629.559	19056.9
629.914	19042.44
630.269	19048.54
630.623	19061.87
630.978	19019.61
631.332	18980.29
631.687	19050.57
632.041	19014.19
632.396	19018.71
632.75	19032.72
633.104	18930.58
633.459	18872.72
633.813	18872.05
634.167	18830.47
634.521	18845.38
634.875	18928.09
635.229	18804.03
635.583	18697.14
635.937	18718.38
636.291	18766.96
636.645	18751.6
636.999	18770.81
637.352	18731.48
637.706	18603.58
638.06	18750.02
638.413	18707.76
638.767	18638.83
639.121	18657.14
639.474	18594.77
639.828	18602.45
640.181	18556.8
640.534	18639.28
640.888	18585.27
641.241	18485.84
641.594	18605.84
641.947	18534.43
642.301	18537.59
642.654	18414.43
643.007	18577.82
643.36	18498.95
643.713	18494.43
644.066	18519.74
644.419	18307.99
644.771	18319.07
645.124	18137.6
645.477	18042.24
645.83	17945.29
646.182	17950.49
646.535	17789.36
646.888	17967.66
647.24	17866.65
647.593	17884.05
647.945	17902.35
648.298	17739.87
648.65	17731.96
649.002	17754.56
649.355	17818.29
649.707	17715.47
650.059	17940.09
650.411	18049.92
650.763	18040.2
651.115	18258.73
651.467	18249.46
651.819	18162.01
652.171	18176.47
652.523	18172.18
652.875	18082.91
653.227	18103.48
653.578	18311.38
653.93	18135.57
654.282	18057.15
654.633	18020.09
654.985	18107.77
655.337	18152.52
655.688	18111.39
656.039	18218.05
656.391	18073.42
656.742	18151.39
657.094	18126.76
657.445	18072.52
657.796	18109.13
658.147	18050.82
658.498	18116.36
658.849	18155.91
659.2	18100.09
659.551	18063.03
659.902	18185.28
660.253	18183.02
660.604	18192.06
660.955	18203.14
661.306	18178.05
661.656	18132.18
662.007	18213.08
662.358	18234.32
662.708	18156.58
663.059	18189.8
663.409	18033.88
663.76	18155.91
664.11	18264.38
664.461	18232.51
664.811	18151.39
665.161	18120.2
665.511	18121.78
665.862	18279.29
666.212	18214.66
666.562	18241.55
666.912	18109.81
667.262	18134.21
667.612	18157.26
667.962	18169.24
668.312	18086.53
668.662	18272.29
669.011	18093.54
669.361	18224.83
669.711	18217.37
670.06	18043.59
670.41	18093.54
670.76	18053.99
671.109	18149.81
671.459	18105.96
671.808	18016.7
672.157	18145.29
672.507	18046.53
672.856	17959.3
673.205	17973.76
673.554	18072.29
673.904	17982.35
674.253	18131.95
674.602	17986.87
674.951	17733.32
675.3	17600.67
675.649	18098.28
675.998	17955.01
676.346	17959.08
676.695	17977.61
677.044	17891.96
677.393	17850.6
677.741	17946.87
678.09	17862.81
678.438	17836.59
678.787	17769.93
679.135	17811.28
679.484	17699.2
679.832	17797.5
680.181	17716.82
680.529	17747.33
680.877	17662.59
681.225	17694
681.573	17753.66
681.922	17630.72
682.27	17510.05
682.618	17548.01
682.966	17528.8
683.314	17527.9
683.661	17476.38
684.009	17393.44
684.357	17348.7
684.705	17254.91
685.053	17330.62
685.4	17313.44
685.748	17210.17
686.095	17145.31
686.443	17129.72
686.79	17051.76
687.138	17063.05
687.485	17106.44
687.832	17065.31
688.18	17031.64
688.527	16878.88
688.874	16955.71
689.221	16846.56
689.568	16819.22
689.915	16731.76
690.262	16734.02
690.609	16687.7
690.956	16659.22
691.303	16529.06
691.65	16414.26
691.997	16502.39
692.344	16353.92
692.69	16447.48
693.037	16411.32
693.383	16235.05
693.73	16203.87
694.077	16254.71
694.423	16186.02
694.769	16136.98
695.116	15973.14
695.462	15985.57
695.808	15914.38
696.155	16045.91
696.501	15746.7
696.847	15739.47
697.193	15688.63
697.539	15673.03
697.885	15633.04
698.231	15560.72
698.577	15507.61
698.923	15498.12
699.269	15375.87
699.614	15318.02
699.96	15220.62
700.306	15286.6
700.651	15278.47
700.997	15222.2
701.342	15113.73
701.688	15079.6
702.033	15037.57
702.379	15054.97
702.724	14900.4
703.069	14942.21
703.415	14757.35
703.76	14789.67
704.105	14807.07
704.45	14727.75
704.795	14672.38
705.14	14604.81
705.485	14565.27
705.83	14503.12
706.175	14442.11
706.52	14448.21
706.865	14335.44
707.209	14384.93
707.554	14290.25
707.899	14357.81
708.243	14220.42
708.588	14263.81
708.932	14149.01
709.277	14053.87
709.621	14120.53
709.966	14009.58
710.31	14051.38
710.654	13872.63
710.998	13948.33
711.342	13994.66
711.687	13944.04
712.031	13820.43
712.375	13681.22
712.719	13768.45
713.063	13651.84
713.407	13840.31
713.75	13701.33
714.094	13776.36
714.438	13596.48
714.782	13615.24
715.125	13569.13
715.469	13553.77
715.812	13481.68
716.156	13380.21
716.499	13447.33
716.843	13372.53
717.186	13323.49
717.53	13436.26
717.873	13400.55
718.216	13405.98
718.559	13231.06
718.902	13143.38
719.246	13276.04
719.589	13282.36
719.932	13273.55
720.275	13207.56
720.617	13152.65
720.96	13202.82
721.303	13164.63
721.646	13196.72
721.989	13127.11
722.331	13214.34
722.674	13158.3
723.016	13113.1
723.359	13057.06
723.701	13138.64
724.044	12974.35
724.386	12959.43
724.729	12952.65
725.071	12945.42
725.413	12994.46
725.755	12893.45
726.097	12845.31
726.439	12868.81
726.782	12869.04
727.124	12932.77
727.465	12860.23
727.807	12857.29
728.149	12848.48
728.491	12815.26
728.833	12914.46
729.175	12789.04
729.516	12821.13
729.858	12842.15
730.199	12776.61
730.541	12738.2
730.882	12788.36
731.224	12777.74
731.565	12806.44
731.906	12746.33
732.248	12740.23
732.589	12716.5
732.93	12673.79
733.271	12754.01
733.612	12741.13
733.953	12730.06
734.294	12672.66
734.635	12690.06
734.976	12702.94
735.317	12666.79
735.658	12697.75
735.999	12645.77
736.339	12675.15
736.68	12707.69
737.021	12698.42
737.361	12687.12
737.702	12640.8
738.042	12655.26
738.383	12649.61
738.723	12680.57
739.063	12708.37
739.404	12760.79
739.744	12693
740.084	12697.97
740.424	12736.61
740.764	12671.08
741.104	12782.71
741.444	12701.36
741.784	12714.69
742.124	12711.98
742.464	12759.89
742.804	12773.45
743.143	12724.19
743.483	12865.88
743.823	12815.26
744.162	12847.12
744.502	12862.26
744.841	12893.45
745.181	12946.55
745.52	12958.98
745.86	13084.85
746.199	13011.18
746.538	13043.05
746.877	13056.83
747.216	13183.16
747.556	13110.16
747.895	13185.87
748.234	13302.48
748.573	13216.6
748.911	13363.26
749.25	13444.84
749.589	13395.58
749.928	13498.18
750.267	13586.08
750.605	13654.78
750.944	13690.26
751.283	13812.74
751.621	13862.69
751.96	13885.28
752.298	14054.77
752.636	14076.47
752.975	14043.02
753.313	14141.78
753.651	14399.62
753.989	14347.19
754.327	14460.18
754.666	14576.11
755.004	14652.5
755.342	14768.2
755.679	14931.13
756.017	15001.41
756.355	15057.01
