Data from hue_200_FLMS001491_00015.txt Node
Date: Tue Feb 07 16:42:53 GMT 2017
User: dcchb
Spectrometer: FLMS00149
Trigger mode: 0
Integration Time (sec): 2.000000E-2
Scans to average: 10
Electric dark correction enabled: true
Nonlinearity correction enabled: false
Boxcar width: 0
XAxis mode: Wavelengths
Number of Pixels in Spectrum: 2048
>>>>>Begin Spectral Data<<<<<
341.393	-3.63
341.776	-3.63
342.16	-3.63
342.543	-42.72
342.927	-72.33
343.31	-79.79
343.693	-70.52
344.077	-54.02
344.46	-62.61
344.843	-56.96
345.226	-64.19
345.61	-17.19
345.993	-11.09
346.376	2.02
346.759	8.57
347.142	39.31
347.525	32.53
347.908	69.59
348.291	76.82
348.674	101.45
349.057	86.09
349.44	152.07
349.823	131.96
350.206	168.12
350.588	184.84
350.971	204.95
351.354	233.88
351.737	232.07
352.119	255.57
352.502	279.07
352.884	260.77
353.267	277.04
353.65	296.25
354.032	312.07
354.414	322.46
354.797	314.78
355.179	330.82
355.562	309.36
355.944	318.85
356.326	338.96
356.709	328.11
357.091	333.76
357.473	332.41
357.855	328.34
358.238	331.95
358.62	328.79
359.002	340.54
359.384	345.51
359.766	347.32
360.148	344.61
360.53	341.67
360.912	331.73
361.294	326.08
361.676	343.25
362.057	315.01
362.439	331.5
362.821	330.15
363.203	315.91
363.584	326.98
363.966	326.3
364.348	310.03
364.729	324.95
365.111	311.62
365.493	316.81
365.874	317.94
366.256	321.11
366.637	307.32
367.019	304.61
367.4	320.88
367.781	314.55
368.163	310.03
368.544	314.55
368.925	332.41
369.306	310.26
369.688	297.38
370.069	292.63
370.45	312.75
370.831	289.7
371.212	294.22
371.593	310.49
371.974	330.37
372.355	298.51
372.736	307.77
373.117	310.26
373.498	308.9
373.879	334.89
374.26	313.88
374.641	322.69
375.021	312.75
375.402	326.53
375.783	328.79
376.163	326.3
376.544	311.84
376.925	336.7
377.305	314.33
377.686	319.3
378.066	312.75
378.447	326.3
378.827	312.07
379.208	355.68
379.588	322.01
379.968	327.66
380.349	339.41
380.729	352.74
381.109	337.15
381.489	335.57
381.87	335.34
382.25	333.08
382.63	346.19
383.01	324.27
383.39	343.48
383.77	323.59
384.15	344.61
384.53	337.15
384.91	351.84
385.29	324.72
385.67	342.35
386.049	360.88
386.429	342.58
386.809	342.35
387.189	341.67
387.568	342.58
387.948	359.07
388.328	362.69
388.707	353.42
389.087	372.41
389.466	357.49
389.846	371.28
390.225	355.91
390.605	368.79
390.984	377.15
391.363	375.8
391.743	390.03
392.122	349.81
392.501	347.55
392.881	364.27
393.26	362.69
393.639	374.21
394.018	392.07
394.397	366.53
394.776	368.11
395.155	372.41
395.534	382.57
395.913	396.36
396.292	408.11
396.671	396.13
397.05	380.54
397.429	391.61
397.808	398.39
398.186	389.35
398.565	410.14
398.944	390.03
399.323	401.78
399.701	432.06
400.08	416.25
400.458	422.8
400.837	439.52
401.215	410.37
401.594	430.93
401.972	415.34
402.351	416.47
402.729	425.06
403.107	429.13
403.486	434.1
403.864	445.85
404.242	439.07
404.62	450.6
404.999	459.63
405.377	462.35
405.755	458.96
406.133	460.54
406.511	451.73
406.889	483.14
407.267	494.66
407.645	475.23
408.023	490.14
408.401	499.41
408.779	472.97
409.156	495.57
409.534	530.14
409.912	521.1
410.29	530.37
410.667	540.31
411.045	565.85
411.422	540.31
411.8	559.07
412.178	579.86
412.555	587.09
412.933	595
413.31	583.25
413.687	585.51
414.065	602.68
414.442	610.14
414.819	621.66
415.197	619.4
415.574	655.56
415.951	639.07
416.328	675.9
416.705	670.02
417.082	663.47
417.46	698.72
417.837	723.58
418.214	703.47
418.591	703.7
418.967	722
419.344	741.21
419.721	761.55
420.098	754.99
420.475	761.55
420.852	783.92
421.228	808.78
421.605	809.68
421.982	811.94
422.358	846.52
422.735	849.46
423.111	842.9
423.488	888.55
423.864	924.03
424.241	889.23
424.617	932.84
424.994	976.23
425.37	943.69
425.746	960.19
426.123	979.17
426.499	1027.53
426.875	1000.19
427.251	1037.47
427.627	1044.7
428.003	1073.4
428.379	1077.02
428.756	1119.96
429.132	1091.71
429.507	1114.08
429.883	1112.5
430.259	1167.41
430.635	1165.38
431.011	1172.38
431.387	1178.94
431.763	1227.52
432.138	1202.67
432.514	1243.57
432.89	1283.57
433.265	1313.17
433.641	1319.95
434.016	1354.3
434.392	1347.52
434.767	1387.75
435.143	1385.94
435.518	1420.51
435.894	1460.29
436.269	1472.94
436.644	1521.53
437.02	1546.39
437.395	1564.46
437.77	1590
438.145	1647.17
438.52	1636.33
438.895	1662.09
439.271	1667.06
439.646	1715.42
440.021	1800.84
440.395	1779.83
440.77	1750
441.145	1794.74
441.52	1802.2
441.895	1852.59
442.27	1872.25
442.645	1882.42
443.019	1926.71
443.394	1913.61
443.769	1963.55
444.143	1945.92
444.518	2006.94
444.892	1991.57
445.267	2017.79
445.641	2040.38
446.016	2048.97
446.39	2053.72
446.764	2100.72
447.139	2095.52
447.513	2117.44
447.887	2136.43
448.262	2124.22
448.636	2162.87
449.01	2209.42
449.384	2216.65
449.758	2239.25
450.132	2277.44
450.506	2266.37
450.88	2274.05
451.254	2306.82
451.628	2339.13
452.002	2368.06
452.376	2411.45
452.75	2405.57
453.123	2426.14
453.497	2473.59
453.871	2488.06
454.244	2521.95
454.618	2533.48
454.992	2596.3
455.365	2593.82
455.739	2659.35
456.112	2655.28
456.486	2671.78
456.859	2720.14
457.232	2750.87
457.606	2754.04
457.979	2802.17
458.352	2842.62
458.725	2902.06
459.099	2884.88
459.472	2986.57
459.845	2965.33
460.218	2992.9
460.591	3031.09
460.964	3035.39
461.337	3072.67
461.71	3143.63
462.083	3172.11
462.456	3227.47
462.829	3226.34
463.201	3276.96
463.574	3270.41
463.947	3363.74
464.32	3361.03
464.692	3451.87
465.065	3464.98
465.438	3479.89
465.81	3581.81
466.183	3579.78
466.555	3679.44
466.928	3665.65
467.3	3703.84
467.672	3764.18
468.045	3849.38
468.417	3872.43
468.789	3857.29
469.161	3961.92
469.534	3963.05
469.906	4102.02
470.278	4095.02
470.65	4102.7
471.022	4225.41
471.394	4274.22
471.766	4271.51
472.138	4323.49
472.51	4443.71
472.882	4536.59
473.253	4525.97
473.625	4571.17
473.997	4745.85
474.369	4734.32
474.74	4796.02
475.112	4826.75
475.484	4891.83
475.855	4988.1
476.227	5048.21
476.598	5140.64
476.97	5231.03
477.341	5327.3
477.713	5377.7
478.084	5377.7
478.455	5500.18
478.827	5581.76
479.198	5704.24
479.569	5680.51
479.94	5888.87
480.311	5967.29
480.682	6045.93
481.053	6191.24
481.424	6235.75
481.795	6250.67
482.166	6348.29
482.537	6464
482.908	6569.98
483.279	6593.71
483.65	6768.85
484.021	6869.86
484.391	6902.4
484.762	6960.93
485.133	6983.98
485.503	7149.4
485.874	7211.32
486.244	7298.1
486.615	7420.58
486.985	7506
487.356	7657.86
487.726	7743.96
488.097	7873
488.467	7843.4
488.837	7962.04
489.207	8066.67
489.578	8117.29
489.948	8163.39
490.318	8302.82
490.688	8359.09
491.058	8526.54
491.428	8599.08
491.798	8658.97
492.168	8755.69
492.538	8830.49
492.908	8859.87
493.278	8932.86
493.648	8960.88
494.017	9082.68
494.387	9091.27
494.757	9187.99
495.126	9307.76
495.496	9259.86
495.866	9219.86
496.235	9391.83
496.605	9474.31
496.974	9550.24
497.344	9598.15
497.713	9533.75
498.082	9638.38
498.452	9731.48
498.821	9731.26
499.19	9757.7
499.559	9856.22
499.928	9891.03
500.298	9879.05
500.667	9963.11
501.036	9975.54
501.405	10020.06
501.774	10030.68
502.143	10027.74
502.512	10051.92
502.88	10173.96
503.249	10143
503.618	10246.5
503.987	10200.62
504.356	10280.39
504.724	10311.35
505.093	10340.5
505.462	10318.58
505.83	10303.22
506.199	10442.65
506.567	10524.91
506.936	10479.26
507.304	10584.11
507.672	10586.83
508.041	10612.36
508.409	10638.58
508.777	10699.14
509.145	10707.05
509.514	10745.47
509.882	10738.91
510.25	10694.62
510.618	10827.95
510.986	10820.49
511.354	10917.21
511.722	10898
512.09	10950.66
512.458	10870.21
512.826	10947.72
513.193	11002.41
513.561	10985.23
513.929	11036.08
514.297	11023.42
514.664	11120.37
515.032	11104.55
515.4	11100.71
515.767	11115.63
516.135	11138
516.502	11081.5
516.869	11210.76
517.237	11186.36
517.604	11123.99
517.972	11204.66
518.339	11241.95
518.706	11195.85
519.073	11236.98
519.44	11276.3
519.808	11286.92
520.175	11252.57
520.542	11303.64
520.909	11369.63
521.276	11260.03
521.643	11319.69
522.009	11345.9
522.376	11372.57
522.743	11394.94
523.11	11411.44
523.477	11495.73
523.843	11542.51
524.21	11505.67
524.577	11507.25
524.943	11500.47
525.31	11487.59
525.676	11575.27
526.043	11617.99
526.409	11665.67
526.776	11657.53
527.142	11592.68
527.508	11628.61
527.874	11726.01
528.241	11667.7
528.607	11558.33
528.973	11653.92
529.339	11611.21
529.705	11576.86
530.071	11641.49
530.437	11561.72
530.803	11627.93
531.169	11602.39
531.535	11466.13
531.901	11576.86
532.267	11452.57
532.632	11438.56
532.998	11460.48
533.364	11418.44
533.73	11481.49
534.095	11483.53
534.461	11415.28
534.826	11430.19
535.192	11414.38
535.557	11444.2
535.923	11300.71
536.288	11343.42
536.653	11356.3
537.019	11150.65
537.384	11202.86
537.749	11193.36
538.114	11227.04
538.479	11169.64
538.845	11056.42
539.21	10965.35
539.575	10996.53
539.94	10988.62
540.305	10933.71
540.67	10861.62
541.034	10948.17
541.399	10864.11
541.764	10806.93
542.129	10826.37
542.494	10768.06
542.858	10715.41
543.223	10615.75
543.587	10643.32
543.952	10592.02
544.316	10533.49
544.681	10488.52
545.045	10394.29
545.41	10445.36
545.774	10408.98
546.138	10365.82
546.503	10322.65
546.867	10258.7
547.231	10252.37
547.595	10196.33
547.959	10179.15
548.324	10126.27
548.688	10143.67
549.052	9989.55
549.416	10004.69
549.779	9942.32
550.143	9913.17
550.507	9926.73
550.871	9865.26
551.235	9824.36
551.599	9854.64
551.962	9759.28
552.326	9712.27
552.689	9716.11
553.053	9637.92
553.417	9668.88
553.78	9717.7
554.143	9624.59
554.507	9601.77
554.87	9609.9
555.234	9581.65
555.597	9471.15
555.96	9427.08
556.323	9444.71
556.686	9416.91
557.05	9421.43
557.413	9375.56
557.776	9381.21
558.139	9385.95
558.502	9314.77
558.865	9262.34
559.228	9300.31
559.59	9362.23
559.953	9246.52
560.316	9327.2
560.679	9280.87
561.041	9234.32
561.404	9282.91
561.767	9341.89
562.129	9193.19
562.492	9250.14
562.854	9131.72
563.217	9156.36
563.579	9122.01
563.941	9211.27
564.304	9164.94
564.666	9146.41
565.028	9147.54
565.39	9176.69
565.753	9181.67
566.115	9198.16
566.477	9190.03
566.839	9186.64
567.201	9200.87
567.563	9229.57
567.925	9175.34
568.287	9206.75
568.648	9201.1
569.01	9272.96
569.372	9284.26
569.734	9218.27
570.095	9182.12
570.457	9166.52
570.819	9208.78
571.18	9211.27
571.542	9200.42
571.903	9238.16
572.265	9150.03
572.626	9212.4
572.987	9246.75
573.349	9224.6
573.71	9276.58
574.071	9254.43
574.432	9223.47
574.794	9283.36
575.155	9231.83
575.516	9188.22
575.877	9200.65
576.238	9317.71
576.599	9239.97
576.96	9297.82
577.32	9275.9
577.681	9281.55
578.042	9272.51
578.403	9237.03
578.763	9268.44
579.124	9197.26
579.485	9319.06
579.845	9315.45
580.206	9229.8
580.566	9289.46
580.927	9220.08
581.287	9343.92
581.648	9265.73
582.008	9267.99
582.368	9195.9
582.728	9272.06
583.089	9228.22
583.449	9225.51
583.809	9302.34
584.169	9230.03
584.529	9196.81
584.889	9230.03
585.249	9165.62
585.609	9153.64
585.969	9228.67
586.329	9234.09
586.688	9241.32
587.048	9136.69
587.408	9195
587.768	9162.23
588.127	9110.71
588.487	9079.3
588.846	9173.53
589.206	9139.41
589.565	9065.28
589.925	9140.08
590.284	9156.13
590.643	9159.97
591.003	9122.46
591.362	9089.24
591.721	9060.09
592.08	9142.8
592.44	9105.96
592.799	9089.01
593.158	9137.15
593.517	9088.79
593.876	9122.01
594.235	9058.5
594.593	9037.04
594.952	9066.64
595.311	9058.5
595.67	9069.58
596.029	9131.72
596.387	9108.9
596.746	9047.43
597.104	9026.87
597.463	9102.12
597.822	9060.54
598.18	8979.18
598.538	9033.19
598.897	9018.96
599.255	9006.75
599.613	9114.77
599.972	8985.96
600.33	8969.24
600.688	8930.37
601.046	9049.47
601.404	9036.58
601.762	8960.65
602.12	9081.78
602.478	9070.71
602.836	9103.7
603.194	8962.46
603.552	9023.93
603.91	8948.45
604.268	9004.27
604.625	8971.05
604.983	9008.11
605.341	8976.02
605.698	8941.22
606.056	9066.19
606.413	8978.96
606.771	9023.93
607.128	9051.95
607.485	8954.1
607.843	8949.81
608.2	9066.87
608.557	9045.17
608.914	9055.34
609.272	9042.46
609.629	9036.13
609.986	9115
610.343	9032.29
610.7	9100.99
611.057	9028.9
611.414	9009.24
611.771	9032.74
612.127	9080.65
612.484	9091.27
612.841	9077.71
613.198	9100.99
613.554	9079.97
613.911	9190.48
614.267	9103.25
614.624	9136.47
614.98	9145.28
615.337	9107.09
615.693	9141.44
616.05	9149.12
616.406	9168.33
616.762	9120.88
617.118	9130.59
617.475	9208.33
617.831	9173.08
618.187	9170.14
618.543	9176.92
618.899	9226.64
619.255	9221.44
619.611	9220.53
619.967	9204.94
620.323	9251.49
620.678	9221.66
621.034	9145.51
621.39	9209.69
621.746	9189.12
622.101	9236.35
622.457	9208.78
622.812	9164.04
623.168	9223.02
623.523	9148.22
623.879	9167.88
624.234	9150.71
624.589	9213.98
624.945	9205.62
625.3	9225.73
625.655	9166.98
626.01	9195
626.365	9163.81
626.72	9200.42
627.075	9170.59
627.43	9156.13
627.785	9161.33
628.14	9138.05
628.495	9171.5
628.85	9058.5
629.205	9096.47
629.559	9119.75
629.914	9047.43
630.269	9076.36
630.623	9063.48
630.978	9032.74
631.332	9079.52
631.687	9088.33
632.041	9088.11
632.396	9056.7
632.75	9070.71
633.104	9027.55
633.459	8952.97
633.813	8976.7
634.167	9042.91
634.521	8931.28
634.875	8999.52
635.229	8937.15
635.583	8918.4
635.937	8911.39
636.291	8932.63
636.645	8914.78
636.999	8881.11
637.352	8926.53
637.706	8838.85
638.06	8871.84
638.413	8795.01
638.767	8806.76
639.121	8844.05
639.474	8778.06
639.828	8791.39
640.181	8809.02
640.534	8780.32
640.888	8741.45
641.241	8764.73
641.594	8753.2
641.947	8780.32
642.301	8734.67
642.654	8779.64
643.007	8775.35
643.36	8768.34
643.713	8695.8
644.066	8735.58
644.419	8762.24
644.771	8672.75
645.124	8567.22
645.477	8543.04
645.83	8475.02
646.182	8435.02
646.535	8454.45
646.888	8464.62
647.24	8379.65
647.593	8410.61
647.945	8419.88
648.298	8426.43
648.65	8431.18
649.002	8390.73
649.355	8425.08
649.707	8434.11
650.059	8486.77
650.411	8559.08
650.763	8566.09
651.115	8646.31
651.467	8646.76
651.819	8621.23
652.171	8578.07
652.523	8584.17
652.875	8576.26
653.227	8576.94
653.578	8603.83
653.93	8626.88
654.282	8583.26
654.633	8549.82
654.985	8566.77
655.337	8630.72
655.688	8553.43
656.039	8647.22
656.391	8555.47
656.742	8558.18
657.094	8617.16
657.445	8633.66
657.796	8598.4
658.147	8588.01
658.498	8603.15
658.849	8644.73
659.2	8587.78
659.551	8561.12
659.902	8670.49
660.253	8651.28
660.604	8671.17
660.955	8623.71
661.306	8686.99
661.656	8651.96
662.007	8739.19
662.358	8638.18
662.708	8709.81
663.059	8645.63
663.409	8587.33
663.76	8699.87
664.11	8691.96
664.461	8697.38
664.811	8753.43
665.161	8670.94
665.511	8696.25
665.862	8726.31
666.212	8668.46
666.562	8701.45
666.912	8734.45
667.262	8722.02
667.612	8712.53
667.962	8766.08
668.312	8661.23
668.662	8753.43
669.011	8693.09
669.361	8694.22
669.711	8684.28
670.06	8714.33
670.41	8690.83
670.76	8599.08
671.109	8703.71
671.459	8682.24
671.808	8649.02
672.157	8672.98
672.507	8570.83
672.856	8579.87
673.205	8599.76
673.554	8628.01
673.904	8553.66
674.253	8659.87
674.602	8616.71
674.951	8473.66
675.3	8473.66
675.649	8629.36
675.998	8636.82
676.346	8563.15
676.695	8551.4
677.044	8517.28
677.393	8571.51
677.741	8517.28
678.09	8491.29
678.438	8458.29
678.787	8578.07
679.135	8495.58
679.484	8472.76
679.832	8451.74
680.181	8425.3
680.529	8486.54
680.877	8428.24
681.225	8422.59
681.573	8448.13
681.922	8416.04
682.27	8344.63
682.618	8368.13
682.966	8245.19
683.314	8297.62
683.661	8275.93
684.009	8270.05
684.357	8197.51
684.705	8233.67
685.053	8240.9
685.4	8213.78
685.748	8134.69
686.095	8142.37
686.443	8152.77
686.79	8132.43
687.138	8145.76
687.485	8107.12
687.832	8147.34
688.18	8047.91
688.527	8067.57
688.874	8014.24
689.221	8009.72
689.568	7965.88
689.915	7967.01
690.262	7955.48
690.609	7916.61
690.956	7886.33
691.303	7889.04
691.65	7799.1
691.997	7857.63
692.344	7742.83
692.69	7748.71
693.037	7723.17
693.383	7636.4
693.73	7742.61
694.077	7630.97
694.423	7625.55
694.769	7580.13
695.116	7594.36
695.462	7499.9
695.808	7475.72
696.155	7465.33
696.501	7424.65
696.847	7434.14
697.193	7376.52
697.539	7429.62
697.885	7315.95
698.231	7280.7
698.577	7289.51
698.923	7282.51
699.269	7223.75
699.614	7147.59
699.96	7150.76
700.306	7162.96
700.651	7077.99
700.997	7099.23
701.342	7073.47
701.688	7051.1
702.033	7046.13
702.379	7021.04
702.724	6956.19
703.069	6989.63
703.415	6913.25
703.76	6914.38
704.105	6889.07
704.45	6893.82
704.795	6822.63
705.14	6784.89
705.485	6776.53
705.83	6737.89
706.175	6775.85
706.52	6807.94
706.865	6702.18
707.209	6609.53
707.554	6686.59
707.899	6662.18
708.243	6611.79
708.588	6640.26
708.932	6592.81
709.277	6509.87
709.621	6551.9
709.966	6597.33
710.31	6554.39
710.654	6540.83
710.998	6506.26
711.342	6480.49
711.687	6440.27
712.031	6479.36
712.375	6409.76
712.719	6427.16
713.063	6346.26
713.407	6420.38
713.75	6364.11
714.094	6414.05
714.438	6331.57
714.782	6335.19
715.125	6346.26
715.469	6320.05
715.812	6280.95
716.156	6276.21
716.499	6234.62
716.843	6253.61
717.186	6212.93
717.53	6261.52
717.873	6227.84
718.216	6243.21
718.559	6182.2
718.902	6165.47
719.246	6167.28
719.589	6193.04
719.932	6150.11
720.275	6079.37
720.617	6140.62
720.96	6135.64
721.303	6140.16
721.646	6147.17
721.989	6122.99
722.331	6172.48
722.674	6098.36
723.016	6120.73
723.359	6144.91
723.701	6112.37
724.044	6086.61
724.386	6074.18
724.729	6079.83
725.071	6096.77
725.413	6071.69
725.755	6088.87
726.097	6075.98
726.439	6083.89
726.782	6054.97
727.124	6055.42
727.465	6021.97
727.807	6033.05
728.149	6049.54
728.491	6036.89
728.833	6043.89
729.175	6019.49
729.516	5997.12
729.858	5981.07
730.199	5995.76
730.541	6059.04
730.882	6013.84
731.224	6041.86
731.565	5965.25
731.906	5975.65
732.248	6041.86
732.589	5936.33
732.93	5968.42
733.271	6003.9
733.612	6049.09
733.953	6040.05
734.294	6011.13
734.635	6004.57
734.976	5970
735.317	6004.12
735.658	6021.97
735.999	6028.75
736.339	6068.98
736.68	5974.74
737.021	6050.9
737.361	6059.04
737.702	6082.76
738.042	6022.88
738.383	6076.44
738.723	6064.46
739.063	6094.06
739.404	6033.5
739.744	6079.83
740.084	6104.23
740.424	6094.29
740.764	6094.74
741.104	6146.04
741.444	6091.35
741.784	6198.24
742.124	6168.64
742.464	6188.3
742.804	6155.98
743.143	6229.65
743.483	6241.18
743.823	6312.81
744.162	6262.19
744.502	6327.96
744.841	6343.32
745.181	6380.84
745.52	6434.17
745.86	6466.48
746.199	6460.15
746.538	6527.05
746.877	6583.32
747.216	6623.09
747.556	6603.43
747.895	6654.5
748.234	6699.47
748.573	6780.6
748.911	6856.53
749.25	6896.98
749.589	6953.48
749.928	6978.11
750.267	7097.43
750.605	7124.32
750.944	7201.15
751.283	7263.07
751.621	7361.6
751.96	7401.37
752.298	7468.04
752.636	7621.71
752.975	7675.26
753.313	7844.98
753.651	7901.92
753.989	7957.97
754.327	8043.39
754.666	8173.1
755.004	8295.36
755.342	8473.21
755.679	8549.37
756.017	8633.88
756.355	8866.19
756.693	8931.28
757.031	9133.53
757.368	9242.68
757.706	9327.42
758.044	9491.26
758.381	9712.5
758.719	9846.28
759.056	9986.62
759.394	10096.44
759.731	10219.15
760.068	10410.79
760.405	10555.64
760.743	10703.43
761.08	10908.17
761.417	11032.24
761.754	11225.45
762.091	11384.09
762.428	11547.93
762.765	11742.05
763.102	11908.15
763.438	12131.19
763.775	12152.21
764.112	12397.4
764.449	12654.79
764.785	12766.66
765.122	12936.82
765.458	12982.92
765.795	13186.31
766.131	13373.19
