Data from hue_230_FLMS001491_00018.txt Node
Date: Tue Feb 07 16:36:52 GMT 2017
User: dcchb
Spectrometer: FLMS00149
Trigger mode: 0
Integration Time (sec): 2.000000E-2
Scans to average: 10
Electric dark correction enabled: true
Nonlinearity correction enabled: false
Boxcar width: 0
XAxis mode: Wavelengths
Number of Pixels in Spectrum: 2048
>>>>>Begin Spectral Data<<<<<
341.393	3.66
341.776	3.66
342.16	3.66
342.543	-56.91
342.927	-65.04
343.31	-77.47
343.693	-80.41
344.077	-51.26
344.46	-47.87
344.843	-61.42
345.226	-39.05
345.61	-23.23
345.993	-40.63
346.376	-7.64
346.759	27.39
347.142	30.1
347.525	29.19
347.908	44.56
348.291	76.42
348.674	98.12
349.057	123.2
349.44	127.04
349.823	176.76
350.206	171.34
350.588	194.84
350.971	197.33
351.354	207.95
351.737	225.8
352.119	253.82
352.502	245.01
352.884	277.1
353.267	275.06
353.65	284.55
354.032	311.45
354.414	313.93
354.797	306.47
355.179	306.25
355.562	322.75
355.944	309.19
356.326	342.86
356.709	333.14
357.091	341.28
357.473	327.04
357.855	362.74
358.238	338.79
358.62	340.37
359.002	336.53
359.384	349.41
359.766	336.53
360.148	334.5
360.53	349.19
360.912	339.24
361.294	314.16
361.676	334.27
362.057	326.81
362.439	327.94
362.821	316.64
363.203	339.47
363.584	315.51
363.966	320.94
364.348	309.86
364.729	322.97
365.111	318
365.493	343.76
365.874	316.19
366.256	301.05
366.637	324.1
367.019	308.73
367.4	309.41
367.781	330.88
368.163	312.8
368.544	320.49
368.925	314.16
369.306	303.99
369.688	309.41
370.069	298.11
370.45	301.5
370.831	325.91
371.212	311.67
371.593	306.7
371.974	296.08
372.355	314.16
372.736	305.12
373.117	327.27
373.498	322.75
373.879	309.41
374.26	311.67
374.641	332.24
375.021	292.92
375.402	316.42
375.783	315.06
376.163	324.33
376.544	333.37
376.925	321.84
377.305	322.97
377.686	318.68
378.066	326.81
378.447	328.62
378.827	317.77
379.208	309.64
379.588	320.26
379.968	318.23
380.349	325.68
380.729	329.07
381.109	322.75
381.489	339.69
381.87	356.87
382.25	335.4
382.63	346.7
383.01	342.86
383.39	323.2
383.77	346.7
384.15	339.69
384.53	329.07
384.91	331.33
385.29	331.56
385.67	356.87
386.049	357.1
386.429	343.31
386.809	361.61
387.189	360.94
387.568	358.23
387.948	359.81
388.328	362.29
388.707	355.29
389.087	331.79
389.466	353.71
389.846	349.19
390.225	339.47
390.605	383.99
390.984	373.37
391.363	379.92
391.743	382.18
392.122	385.79
392.501	369.52
392.881	383.99
393.26	385.79
393.639	376.76
394.018	387.38
394.397	372.24
394.776	382.18
395.155	399.13
395.534	389.64
395.913	377.21
396.292	378.11
396.671	419.24
397.05	404.1
397.429	398.45
397.808	383.99
398.186	410.43
398.565	400.26
398.944	396.19
399.323	424.44
399.701	421.73
400.08	407.94
400.458	419.92
400.837	420.6
401.215	406.59
401.594	418.79
401.972	404.33
402.351	418.11
402.729	426.47
403.107	432.35
403.486	443.19
403.864	433.48
404.242	431.44
404.62	441.16
404.999	444.78
405.377	449.3
405.755	449.07
406.133	454.95
406.511	472.57
406.889	454.95
407.267	455.85
407.645	475.28
408.023	469.18
408.401	493.81
408.779	483.42
409.156	483.65
409.534	496.07
409.912	502.18
410.29	506.47
410.667	513.93
411.045	512.35
411.422	532.68
411.8	522.51
412.178	523.42
412.555	569.74
412.933	547.82
413.31	555.73
413.687	568.61
414.065	562.74
414.442	560.48
414.819	568.61
415.197	601.83
415.574	603.64
415.951	589.18
416.328	621.95
416.705	604.55
417.082	616.75
417.46	607.71
417.837	626.69
418.214	626.92
418.591	638.22
418.967	662.17
419.344	665.34
419.721	666.92
420.098	684.54
420.475	694.26
420.852	699.46
421.228	698.1
421.605	701.04
421.982	724.09
422.358	728.84
422.735	746.24
423.111	735.16
423.488	760.7
423.864	777.42
424.241	782.39
424.617	803.64
424.994	814.26
425.37	811.55
425.746	833.47
426.123	836.86
426.499	824.43
426.875	845.67
427.251	884.09
427.627	877.53
428.003	909.85
428.379	886.8
428.756	893.35
429.132	920.47
429.507	938.55
429.883	924.54
430.259	944.65
430.635	959.34
431.011	943.52
431.387	985.33
431.763	1008.83
432.138	1003.18
432.514	1026.46
432.89	1021.26
433.265	1036.85
433.641	1035.5
434.016	1061.03
434.392	1110.3
434.767	1124.98
435.143	1125.21
435.518	1151.65
435.894	1185.55
436.269	1173.12
436.644	1209.73
437.02	1197.98
437.395	1229.39
437.77	1220.35
438.145	1268.48
438.52	1270.52
438.895	1292.89
439.271	1274.36
439.646	1316.84
440.021	1361.36
440.395	1368.37
440.77	1372.44
441.145	1367.24
441.52	1435.48
441.895	1411.3
442.27	1426.67
442.645	1413.79
443.019	1437.97
443.394	1447.91
443.769	1463.51
444.143	1466.44
444.518	1506.67
444.892	1487.46
445.267	1513.22
445.641	1523.17
446.016	1540.34
446.39	1557.29
446.764	1542.83
447.139	1554.35
447.513	1558.65
447.887	1555.26
448.262	1595.93
448.636	1590.74
449.01	1608.36
449.384	1640.9
449.758	1653.33
450.132	1655.82
450.506	1666.89
450.88	1682.03
451.254	1697.4
451.628	1722.26
452.002	1752.54
452.376	1718.64
452.75	1745.31
453.123	1750.73
453.497	1820.11
453.871	1803.84
454.244	1864.63
454.618	1842.71
454.992	1884.74
455.365	1847.9
455.739	1885.42
456.112	1946.66
456.486	1917.05
456.859	1927.45
457.232	1974.68
457.606	1973.78
457.979	2009.48
458.352	2013.32
458.725	2061.91
459.099	2091.29
459.472	2125.86
459.845	2109.82
460.218	2137.61
460.591	2161.12
460.964	2184.17
461.337	2243.37
461.71	2256.25
462.083	2303.26
462.456	2255.12
462.829	2297.16
463.201	2324.28
463.574	2316.14
463.947	2346.65
464.32	2426.42
464.692	2408.34
465.065	2465.74
465.438	2495.12
465.81	2533.76
466.183	2528.79
466.555	2578.51
466.928	2579.64
467.3	2624.38
467.672	2653.76
468.045	2687.2
468.417	2698.73
468.789	2725.62
469.161	2722.23
469.534	2757.26
469.906	2847.88
470.278	2865.5
470.65	2883.81
471.022	2943.24
471.394	2965.84
471.766	2991.83
472.138	3049.45
472.51	3090.36
472.882	3145.5
473.253	3153.41
473.625	3204.25
473.997	3250.58
474.369	3260.07
474.74	3297.13
475.112	3329.67
475.484	3381.2
475.855	3421.87
476.227	3477.69
476.598	3561.08
476.97	3588.87
477.341	3633.39
477.713	3698.93
478.084	3754.97
478.455	3815.76
478.827	3811.24
479.198	3934.18
479.569	3948.19
479.94	4008.75
480.311	4040.39
480.682	4132.82
481.053	4197.67
481.424	4255.52
481.795	4261.4
482.166	4319.93
482.537	4376.65
482.908	4412.13
483.279	4498.68
483.65	4537.1
484.021	4645.12
484.391	4660.71
484.762	4745.45
485.133	4804.89
485.503	4837.43
485.874	4877.43
486.244	4876.75
486.615	5036.75
486.985	5067.93
487.356	5165.56
487.726	5195.61
488.097	5276.06
488.467	5340.69
488.837	5397.41
489.207	5398.54
489.578	5497.07
489.948	5580.46
490.318	5589.5
490.688	5614.58
491.058	5678.99
491.428	5792.88
491.798	5847.35
492.168	5909.04
492.538	5931.19
492.908	5999.66
493.278	6027
493.648	6056.61
494.017	6091.86
494.387	6141.12
494.757	6170.5
495.126	6252.99
495.496	6286.2
495.866	6323.94
496.235	6327.11
496.605	6378.18
496.974	6373.66
497.344	6424.51
497.713	6513.54
498.082	6502.24
498.452	6582.47
498.821	6610.26
499.19	6631.05
499.559	6671.28
499.928	6702.01
500.298	6723.71
500.667	6749.02
501.036	6769.36
501.405	6845.74
501.774	6861.33
502.143	6832.63
502.512	6883.93
502.88	6858.85
503.249	6886.19
503.618	6999.86
503.987	6963.02
504.356	7040.08
504.724	7018.16
505.093	7044.15
505.462	7146.07
505.83	7091.38
506.199	7142
506.567	7204.82
506.936	7171.61
507.304	7247.08
507.672	7310.58
508.041	7290.92
508.409	7355.1
508.777	7364.14
509.145	7407.53
509.514	7429.23
509.882	7418.15
510.25	7434.65
510.618	7444.37
510.986	7461.99
511.354	7500.86
511.722	7519.84
512.09	7606.17
512.458	7533.4
512.826	7648.65
513.193	7615.66
513.561	7640.07
513.929	7653.85
514.297	7739.05
514.664	7751.03
515.032	7804.13
515.4	7837.58
515.767	7785.83
516.135	7791.7
516.502	7770.91
516.869	7842.55
517.237	7807.52
517.604	7803.45
517.972	7891.36
518.339	7951.25
518.706	7852.49
519.073	7849.1
519.44	7899.95
519.808	7958.93
520.175	7936.78
520.542	7993.28
520.909	7971.13
521.276	7940.4
521.643	8088.64
522.009	8025.14
522.376	8105.82
522.743	8102.43
523.11	8145.36
523.477	8136.55
523.843	8154.63
524.21	8247.51
524.577	8299.94
524.943	8288.19
525.31	8334.51
525.676	8284.8
526.043	8330.9
526.409	8305.59
526.776	8409.76
527.142	8370.44
527.508	8384.91
527.874	8405.25
528.241	8372.03
528.607	8430.1
528.973	8483.66
529.339	8438.92
529.705	8430.33
530.071	8498.8
530.437	8451.57
530.803	8540.38
531.169	8509.42
531.535	8496.32
531.901	8459.48
532.267	8548.29
532.632	8528.18
532.998	8518.24
533.364	8526.82
533.73	8492.47
534.095	8608.18
534.461	8495.41
534.826	8547.61
535.192	8533.15
535.557	8607.27
535.923	8488.18
536.288	8530.44
536.653	8579.93
537.019	8483.44
537.384	8475.98
537.749	8527.28
538.114	8516.43
538.479	8437.56
538.845	8474.4
539.21	8445.47
539.575	8469.65
539.94	8520.72
540.305	8467.84
540.67	8456.32
541.034	8466.94
541.399	8466.71
541.764	8464.68
542.129	8486.82
542.494	8413.83
542.858	8384.23
543.223	8425.36
543.587	8426.04
543.952	8427.39
544.316	8376.09
544.681	8340.16
545.045	8389.88
545.41	8419.26
545.774	8352.37
546.138	8363.44
546.503	8348.52
546.867	8309.65
547.231	8338.13
547.595	8345.36
547.959	8303.55
548.324	8228.07
548.688	8267.4
549.052	8283.89
549.416	8235.31
549.779	8284.12
550.143	8290.67
550.507	8259.03
550.871	8207.96
551.235	8200.28
551.599	8236.89
551.962	8204.12
552.326	8212.93
552.689	8228.3
553.053	8202.99
553.417	8118.25
553.78	8237.34
554.143	8185.14
554.507	8220.84
554.87	8186.95
555.234	8286.6
555.597	8177.68
555.96	8138.59
556.323	8211.8
556.686	8105.14
557.05	8196.89
557.413	8219.26
557.776	8152.37
558.139	8193.95
558.502	8209.54
558.865	8206.38
559.228	8222.88
559.59	8221.07
559.953	8204.57
560.316	8231.92
560.679	8254.06
561.041	8259.71
561.404	8333.38
561.767	8301.52
562.129	8266.04
562.492	8317.79
562.854	8257.9
563.217	8291.35
563.579	8352.37
563.941	8344.91
564.304	8376.32
564.666	8420.61
565.028	8412.25
565.39	8364.12
565.753	8426.49
566.115	8418.35
566.477	8499.71
566.839	8476.2
567.201	8551
567.563	8502.42
567.925	8536.54
568.287	8565.47
568.648	8575.41
569.01	8563.66
569.372	8634.39
569.734	8602.08
570.095	8654.96
570.457	8612.7
570.819	8633.49
571.18	8599.36
571.542	8693.15
571.903	8706.25
572.265	8686.59
572.626	8747.61
572.987	8770.66
573.349	8824.9
573.71	8862.86
574.071	8821.05
574.432	8839.36
574.794	8928.85
575.155	8834.16
575.516	8844.33
575.877	8913.71
576.238	8930.2
576.599	8983.76
576.96	8972.24
577.32	8964.33
577.681	8886.81
578.042	9081.61
578.403	8994.83
578.763	9020.82
579.124	9045.45
579.485	9100.14
579.845	9138.56
580.206	9142.17
580.566	9093.59
580.927	9084.55
581.287	9150.76
581.648	9140.82
582.008	9208.84
582.368	9177.43
582.728	9224.88
583.089	9234.83
583.449	9239.35
583.809	9233.7
584.169	9303.3
584.529	9220.14
584.889	9344.88
585.249	9315.05
585.609	9295.62
585.969	9423.3
586.329	9315.5
586.688	9355.73
587.048	9324.32
587.408	9327.48
587.768	9287.03
588.127	9284.09
588.487	9309.18
588.846	9328.61
589.206	9362.73
589.565	9390.08
589.925	9412
590.284	9423.75
590.643	9411.09
591.003	9457.42
591.362	9490.64
591.721	9458.78
592.08	9484.99
592.44	9468.27
592.799	9503.75
593.158	9513.69
593.517	9513.24
593.876	9554.59
594.235	9474.37
594.593	9515.5
594.952	9486.57
595.311	9515.72
595.67	9586.91
596.029	9587.36
596.387	9609.73
596.746	9632.11
597.104	9582.84
597.463	9533.13
597.822	9561.82
598.18	9564.76
598.538	9626
598.897	9647.7
599.255	9529.06
599.613	9612.44
599.972	9633.46
600.33	9704.65
600.688	9647.7
601.046	9660.35
601.404	9661.71
601.762	9684.31
602.12	9733.35
602.478	9714.36
602.836	9727.7
603.194	9681.14
603.552	9662.39
603.91	9602.28
604.268	9744.64
604.625	9725.66
604.983	9707.13
605.341	9706.91
605.698	9805.89
606.056	9742.84
606.413	9755.27
606.771	9757.3
607.128	9835.04
607.485	9792.1
607.843	9813.57
608.2	9795.94
608.557	9846.34
608.914	9782.38
609.272	9823.74
609.629	9881.59
609.986	9983.51
610.343	9913.45
610.7	9920.46
611.057	9855.6
611.414	9867.13
611.771	9827.58
612.127	9941.93
612.484	9924.08
612.841	9885.66
613.198	9951.87
613.554	9885.43
613.911	10014.92
614.267	9985.09
614.624	9943.28
614.98	10019.89
615.337	10002.94
615.693	10002.49
616.05	9978.99
616.406	10019.89
616.762	10025.32
617.118	9991.64
617.475	10025.32
617.831	10069.16
618.187	10069.83
618.543	10115.71
618.899	10103.96
619.255	10115.93
619.611	10089.27
619.967	10175.37
620.323	10129.27
620.678	10073
621.034	10016.73
621.39	10043.17
621.746	10149.15
622.101	10082.49
622.457	10049.27
622.812	10161.81
623.168	10074.35
623.523	10108.93
623.879	10126.78
624.234	10110.06
624.589	10111.87
624.945	10153.22
625.3	10163.16
625.655	10119.32
626.01	10112.54
626.365	10097.63
626.72	10111.64
627.075	10138.76
627.43	10064.86
627.785	10027.12
628.14	10029.16
628.495	10089.04
628.85	10055.15
629.205	10053.11
629.559	10081.13
629.914	9994.81
630.269	10052.66
630.623	10051.53
630.978	10016.28
631.332	10013.11
631.687	10042.72
632.041	9965.2
632.396	9988.03
632.75	9976.28
633.104	9978.99
633.459	9946.45
633.813	9960.23
634.167	9948.93
634.521	9864.87
634.875	9997.75
635.229	9911.65
635.583	9874.36
635.937	9892.21
636.291	9920.69
636.645	9826.45
636.999	9811.99
637.352	9891.31
637.706	9802.27
638.06	9797.07
638.413	9856.05
638.767	9775.15
639.121	9851.99
639.474	9734.02
639.828	9714.82
640.181	9789.62
640.534	9730.63
640.888	9684.76
641.241	9639.34
641.594	9654.48
641.947	9763.4
642.301	9710.52
642.654	9717.08
643.007	9680.69
643.36	9689.96
643.713	9651.31
644.066	9694.48
644.419	9612.22
644.771	9583.07
645.124	9513.24
645.477	9449.74
645.83	9518.66
646.182	9342.4
646.535	9371.32
646.888	9301.49
647.24	9315.73
647.593	9326.35
647.945	9371.32
648.298	9227.82
648.65	9240.48
649.002	9296.52
649.355	9367.03
649.707	9262.4
650.059	9350.76
650.411	9468.27
650.763	9416.07
651.115	9649.05
651.467	9527.02
651.819	9551.88
652.171	9543.07
652.523	9483.41
652.875	9505.1
653.227	9488.15
653.578	9527.48
653.93	9515.95
654.282	9522.05
654.633	9466.91
654.985	9479.34
655.337	9487.25
655.688	9533.8
656.039	9546.01
656.391	9448.16
656.742	9454.71
657.094	9473.47
657.445	9539.23
657.796	9460.81
658.147	9465.33
658.498	9475.27
658.849	9526.35
659.2	9487.93
659.551	9461.04
659.902	9473.69
660.253	9462.39
660.604	9460.58
660.955	9494.93
661.306	9459.23
661.656	9458.1
662.007	9484.31
662.358	9472.56
662.708	9433.69
663.059	9454.48
663.409	9365.9
663.76	9517.53
664.11	9485.89
664.461	9502.39
664.811	9508.04
665.161	9489.06
665.511	9396.41
665.862	9509.17
666.212	9540.58
666.562	9508.72
666.912	9424.2
667.262	9506.23
667.612	9480.02
667.962	9454.26
668.312	9457.19
668.662	9578.77
669.011	9451.32
669.361	9496.74
669.711	9449.29
670.06	9415.84
670.41	9405.22
670.76	9465.33
671.109	9461.26
671.459	9468.27
671.808	9416.29
672.157	9405.67
672.507	9430.53
672.856	9362.28
673.205	9328.16
673.554	9418.1
673.904	9369.97
674.253	9428.5
674.602	9437.76
674.951	9266.01
675.3	9198.44
675.649	9353.47
675.998	9384.2
676.346	9323.64
676.695	9347.14
677.044	9305.11
677.393	9296.07
677.741	9263.53
678.09	9281.15
678.438	9213.81
678.787	9286.13
679.135	9248.61
679.484	9191.67
679.832	9242.96
680.181	9251.78
680.529	9185.34
680.877	9203.87
681.225	9164.1
681.573	9252
681.922	9210.42
682.27	9028.96
682.618	9109.18
682.966	9118.22
683.314	9096.75
683.661	9060.6
684.009	9012.01
684.357	9013.82
684.705	9093.81
685.053	9000.26
685.4	8971.33
685.748	8955.97
686.095	8954.61
686.443	8867.83
686.79	8867.83
687.138	8952.8
687.485	8898.79
687.832	8793.71
688.18	8875.97
688.527	8808.85
688.874	8752.58
689.221	8715.29
689.568	8719.36
689.915	8707.84
690.262	8756.2
690.609	8632.36
690.956	8668.06
691.303	8656.99
691.65	8590.32
691.997	8670.1
692.344	8511.91
692.69	8541.96
693.037	8519.37
693.383	8434.85
693.73	8430.33
694.077	8459.71
694.423	8467.84
694.769	8412.25
695.116	8439.14
695.462	8303.33
695.808	8240.96
696.155	8288.41
696.501	8230.56
696.847	8209.54
697.193	8208.87
697.539	8194.4
697.885	8133.16
698.231	8136.78
698.577	8103.11
698.923	8106.04
699.269	8092.71
699.614	8017.01
699.96	7956.67
700.306	8019.94
700.651	7951.92
700.997	7924.35
701.342	7902.89
701.688	7883.9
702.033	7880.74
702.379	7862.66
702.724	7721.42
703.069	7802.55
703.415	7695.89
703.76	7672.16
704.105	7684.13
704.45	7669.9
704.795	7587.41
705.14	7581.54
705.485	7568.88
705.83	7496.79
706.175	7538.6
706.52	7555.78
706.865	7423.12
707.209	7420.41
707.554	7443.01
707.899	7432.84
708.243	7404.82
708.588	7357.14
708.932	7303.58
709.277	7337.25
709.621	7373.86
709.966	7297.7
710.31	7283.01
710.654	7187.42
710.998	7224.49
711.342	7268.78
711.687	7186.07
712.031	7180.87
712.375	7126.63
712.719	7162.57
713.063	7122.57
713.407	7199.4
713.75	7206.41
714.094	7132.74
714.438	7051.38
714.782	7109.01
715.125	7047.54
715.469	7101.78
715.812	7013.64
716.156	6994.43
716.499	6999.41
716.843	7012.74
717.186	6913.53
717.53	6970.03
717.873	6984.94
718.216	6961.22
718.559	6903.14
718.902	6930.03
719.246	6904.95
719.589	6872.18
719.932	6868.11
720.275	6856.59
720.617	6832.18
720.96	6886.87
721.303	6877.38
721.646	6888
721.989	6806.19
722.331	6845.06
722.674	6809.81
723.016	6831.05
723.359	6835.34
723.701	6840.54
724.044	6801.67
724.386	6786.08
724.729	6804.61
725.071	6844.83
725.413	6850.03
725.755	6737.04
726.097	6739.07
726.439	6718.96
726.782	6724.39
727.124	6776.36
727.465	6711.96
727.807	6740.43
728.149	6706.76
728.491	6732.07
728.833	6745.4
729.175	6664.73
729.516	6671.05
729.858	6693.65
730.199	6650.94
730.541	6674.9
730.882	6702.24
731.224	6730.03
731.565	6672.18
731.906	6663.6
732.248	6691.84
732.589	6639.42
732.93	6626.76
733.271	6651.17
733.612	6686.19
733.953	6670.38
734.294	6657.27
734.635	6620.89
734.976	6685.97
735.317	6652.97
735.658	6693.88
735.999	6685.52
736.339	6664.95
736.68	6721.9
737.021	6654.56
737.361	6668.34
737.702	6710.37
738.042	6677.83
738.383	6634.67
738.723	6666.76
739.063	6665.4
739.404	6633.09
739.744	6687.78
740.084	6693.65
740.424	6721.22
740.764	6740.88
741.104	6764.61
741.444	6723.03
741.784	6697.72
742.124	6756.93
742.464	6796.25
742.804	6734.78
743.143	6761.9
743.483	6780.66
743.823	6777.27
744.162	6800.09
744.502	6784.04
744.841	6842.8
745.181	6911.95
745.52	6875.34
745.86	6947.2
746.199	6944.04
746.538	6948.56
746.877	6976.58
747.216	7012.74
747.556	6989.24
747.895	7049.12
748.234	7083.7
748.573	7139.06
748.911	7192.85
749.25	7233.3
749.589	7278.72
749.928	7261.09
750.267	7370.92
750.605	7387.19
750.944	7432.62
751.283	7455.89
751.621	7577.24
751.96	7607.07
752.298	7676.9
752.636	7693.4
752.975	7778.59
753.313	7847.29
753.651	7938.59
753.989	8013.17
754.327	8056.1
754.666	8047.51
755.004	8239.15
755.342	8355.08
755.679	8399.6
756.017	8480.72
756.355	8606.14
756.693	8709.64
757.031	8805.46
757.368	8841.62
757.706	8964.33
758.044	9065.79
758.381	9194.83
758.719	9340.14
759.056	9422.62
759.394	9513.69
759.731	9556.18
760.068	9753.23
760.405	9877.75
760.743	9903.28
761.08	10051.3
761.417	10144.63
761.754	10310.05
762.091	10473.67
762.428	10480.9
762.765	10578.75
763.102	10802.7
763.438	10879.3
763.775	10958.4
764.112	11067.1
764.449	11264.38
764.785	11340.99
765.122	11372.85
765.458	11418.27
765.795	11544.6
766.131	11736.68
766.467	11735.33
766.804	11831.6
767.14	11881.54
767.476	12115.43
767.812	12077.92
768.148	12244.47
