Data from hue_24_FLMS001491_00036.txt Node
Date: Tue Feb 07 17:12:11 GMT 2017
User: dcchb
Spectrometer: FLMS00149
Trigger mode: 0
Integration Time (sec): 2.000000E-2
Scans to average: 10
Electric dark correction enabled: true
Nonlinearity correction enabled: false
Boxcar width: 0
XAxis mode: Wavelengths
Number of Pixels in Spectrum: 2048
>>>>>Begin Spectral Data<<<<<
341.393	-19.89
341.776	-19.89
342.16	-19.89
342.543	-68.47
342.927	-70.73
343.31	-56.95
343.693	-72.77
344.077	-76.83
344.46	-85.65
344.843	-54.46
345.226	-19.21
345.61	-24.18
345.993	-8.14
346.376	-8.81
346.759	31.86
347.142	42.26
347.525	44.29
347.908	49.26
348.291	63.95
348.674	80.68
349.057	94.69
349.44	111.18
349.823	127.23
350.206	170.62
350.588	207.68
350.971	222.59
351.354	238.64
351.737	244.51
352.119	251.97
352.502	268.69
352.884	270.5
353.267	274.12
353.65	289.48
354.032	292.42
354.414	325.64
354.797	305.08
355.179	315.47
355.562	331.06
355.944	332.42
356.326	331.52
356.709	340.33
357.091	332.87
357.473	346.88
357.855	341.01
358.238	346.66
358.62	353.44
359.002	333.32
359.384	344.85
359.766	324.74
360.148	332.87
360.53	318.64
360.912	343.72
361.294	341.01
361.676	339.43
362.057	319.99
362.439	330.16
362.821	329.03
363.203	342.82
363.584	346.21
363.966	352.53
364.348	313.44
364.729	332.87
365.111	343.72
365.493	325.87
365.874	329.03
366.256	324.29
366.637	334.23
367.019	327.45
367.4	329.93
367.781	324.06
368.163	322.03
368.544	330.39
368.925	309.14
369.306	316.83
369.688	307.34
370.069	348.01
370.45	321.12
370.831	325.87
371.212	318.18
371.593	291.74
371.974	312.99
372.355	328.13
372.736	325.87
373.117	341.01
373.498	330.61
373.879	295.36
374.26	325.19
374.641	346.21
375.021	339.65
375.402	334.23
375.783	319.77
376.163	333.78
376.544	343.95
376.925	322.7
377.305	336.71
377.686	330.61
378.066	339.88
378.447	328.58
378.827	329.26
379.208	343.95
379.588	328.58
379.968	340.33
380.349	339.2
380.729	338.52
381.109	350.95
381.489	347.56
381.87	341.91
382.25	344.62
382.63	350.27
383.01	355.02
383.39	351.63
383.77	343.49
384.15	346.43
384.53	351.63
384.91	364.06
385.29	379.43
385.67	352.76
386.049	360.44
386.429	384.17
386.809	354.79
387.189	367
387.568	348.92
387.948	356.15
388.328	361.35
388.707	382.14
389.087	364.28
389.466	359.99
389.846	387.56
390.225	361.8
390.605	372.42
390.984	354.34
391.363	371.06
391.743	378.07
392.122	374.68
392.501	386.88
392.881	387.79
393.26	383.94
393.639	386.43
394.018	379.43
394.397	394.57
394.776	395.7
395.155	408.35
395.534	405.64
395.913	376.04
396.292	395.92
396.671	391.18
397.05	414.68
397.429	403.61
397.808	417.16
398.186	390.05
398.565	404.74
398.944	407.45
399.323	405.64
399.701	416.94
400.08	428.69
400.458	414.9
400.837	417.62
401.215	421.46
401.594	409.25
401.972	429.82
402.351	423.72
402.729	427.79
403.107	417.39
403.486	410.38
403.864	439.54
404.242	444.96
404.62	435.92
404.999	441.57
405.377	448.12
405.755	434.79
406.133	446.32
406.511	456.26
406.889	436.82
407.267	447.67
407.645	456.71
408.023	465.07
408.401	453.77
408.779	479.76
409.156	444.96
409.534	474.11
409.912	462.59
410.29	472.3
410.667	469.14
411.045	492.64
411.422	491.51
411.8	477.95
412.178	464.17
412.555	476.37
412.933	498.29
413.31	511.4
413.687	509.37
414.065	512.75
414.442	495.13
414.819	507.56
415.197	513.66
415.574	506.2
415.951	547.33
416.328	515.47
416.705	541.68
417.082	512.53
417.46	501.46
417.837	545.97
418.214	549.14
418.591	543.94
418.967	535.13
419.344	551.17
419.721	559.31
420.098	547.56
420.475	563.15
420.852	570.61
421.228	577.16
421.605	558.4
421.982	559.99
422.358	578.97
422.735	576.26
423.111	574.9
423.488	584.39
423.864	590.49
424.241	590.27
424.617	573.09
424.994	603.15
425.37	581.68
425.746	598.4
426.123	609.02
426.499	609.25
426.875	608.8
427.251	629.59
427.627	646.54
428.003	626.88
428.379	616.25
428.756	648.8
429.132	626.88
429.507	666.42
429.883	659.19
430.259	663.71
430.635	652.19
431.011	670.04
431.387	686.54
431.763	689.7
432.138	699.87
432.514	700.55
432.89	699.64
433.265	711.39
433.641	722.24
434.016	710.04
434.392	736.7
434.767	740.77
435.143	752.52
435.518	757.72
435.894	782.13
436.269	770.6
436.644	745.07
437.02	766.08
437.395	758.4
437.77	772.41
438.145	780.54
438.52	793.43
438.895	783.93
439.271	805.4
439.646	823.26
440.021	836.14
440.395	834.33
440.77	809.92
441.145	817.61
441.52	841.33
441.895	846.08
442.27	847.44
442.645	842.01
443.019	866.87
443.394	830.26
443.769	854.44
444.143	879.3
444.518	861.9
444.892	880.43
445.267	859.86
445.641	870.49
446.016	877.49
446.39	894.44
446.764	933.99
447.139	900.99
447.513	897.15
447.887	896.25
448.262	922.69
448.636	934.66
449.01	936.7
449.384	932.86
449.758	933.08
450.132	970.37
450.506	955.91
450.88	967.88
451.254	964.95
451.628	939.64
452.002	1003.59
452.376	1004.49
452.75	1006.98
453.123	1001.33
453.497	1016.92
453.871	1026.87
454.244	1022.57
454.618	1066.86
454.992	1031.61
455.365	1066.64
455.739	1100.99
456.112	1098.05
456.486	1089.24
456.859	1119.97
457.232	1142.34
457.606	1112.06
457.979	1138.73
458.352	1169.91
458.725	1158.39
459.099	1159.74
459.472	1199.97
459.845	1244.26
460.218	1218.5
460.591	1228.67
460.964	1213.08
461.337	1268.67
461.71	1263.02
462.083	1272.28
462.456	1282.23
462.829	1300.98
463.201	1313.19
463.574	1327.2
463.947	1337.14
464.32	1359.51
464.692	1370.36
465.065	1361.77
465.438	1407.42
465.81	1394.54
466.183	1439.74
466.555	1451.26
466.928	1476.8
467.3	1489.45
467.672	1478.15
468.045	1545.27
468.417	1543.01
468.789	1556.34
469.161	1566.51
469.534	1604.93
469.906	1599.05
470.278	1651.93
470.65	1649.22
471.022	1696.68
471.394	1718.15
471.766	1744.81
472.138	1751.82
472.51	1777.81
472.882	1847.86
473.253	1870.46
473.625	1867.97
473.997	1899.39
474.369	1895.77
474.74	1917.69
475.112	1969.67
475.484	2023.45
475.855	2037.69
476.227	2077.46
476.598	2128.53
476.97	2135.54
477.341	2197
477.713	2234.52
478.084	2256.44
478.455	2335.76
478.827	2356.55
479.198	2419.82
479.569	2450.33
479.94	2487.39
480.311	2533.72
480.682	2570.33
481.053	2643.09
481.424	2694.84
481.795	2730.1
482.166	2739.36
482.537	2824.33
482.908	2854.16
483.279	2900.49
483.65	2949.75
484.021	3026.59
484.391	3058.68
484.762	3100.71
485.133	3139.13
485.503	3204.66
485.874	3257.99
486.244	3283.76
486.615	3363.08
486.985	3437.2
487.356	3471.77
487.726	3496.63
488.097	3616.4
488.467	3627.93
488.837	3672.45
489.207	3756.51
489.578	3828.83
489.948	3866.79
490.318	3936.62
490.688	3916.51
491.058	3984.75
491.428	4085.54
491.798	4109.04
492.168	4173.22
492.538	4188.36
492.908	4309.94
493.278	4319.89
493.648	4399.88
494.017	4445.53
494.387	4437.4
494.757	4494.57
495.126	4608.47
495.496	4552.65
495.866	4659.54
496.235	4689.82
496.605	4760.33
496.974	4734.79
497.344	4821.12
497.713	4862.47
498.082	4911.96
498.452	4922.13
498.821	4989.7
499.19	4975.69
499.559	5093.43
499.928	5087.78
500.298	5134.33
500.667	5155.34
501.036	5157.6
501.405	5226.3
501.774	5179.98
502.143	5283.02
502.512	5326.87
502.88	5378.16
503.249	5386.3
503.618	5433.98
503.987	5478.27
504.356	5470.14
504.724	5500.19
505.093	5503.81
505.462	5563.92
505.83	5565.5
506.199	5616.58
506.567	5695.9
506.936	5657.93
507.304	5749.91
507.672	5729.57
508.041	5824.48
508.409	5799.17
508.777	5874.2
509.145	5895.66
509.514	5939.5
509.882	5949
510.25	5997.81
510.618	6021.76
510.986	6032.16
511.354	6016.79
511.722	6118.71
512.09	6129.78
512.458	6199.84
512.826	6216.11
513.193	6224.24
513.561	6224.24
513.929	6271.25
514.297	6302.89
514.664	6325.26
515.032	6355.31
515.4	6464.46
515.767	6469.66
516.135	6461.07
516.502	6352.83
516.869	6516.89
517.237	6542.88
517.604	6561.41
517.972	6617.45
518.339	6598.7
518.706	6615.87
519.073	6694.51
519.44	6651.12
519.808	6797.34
520.175	6727.05
520.542	6821.52
520.909	6858.35
521.276	6783.55
521.643	6902.42
522.009	6922.76
522.376	6997.33
522.743	6982.19
523.11	7087.27
523.477	7136.76
523.843	7219.47
524.21	7231.9
524.577	7268.06
524.943	7272.8
525.31	7270.32
525.676	7369.52
526.043	7403.87
526.409	7444.1
526.776	7528.16
527.142	7520.93
527.508	7545.11
527.874	7620.36
528.241	7641.83
528.607	7684.32
528.973	7728.16
529.339	7736.29
529.705	7803.64
530.071	7906.46
530.437	7866.91
530.803	7984.65
531.169	7968.15
531.535	7984.65
531.901	8056.74
532.267	8007.93
532.632	8154.14
532.998	8068.49
533.364	8212.67
533.73	8210.18
534.095	8250.18
534.461	8310.06
534.826	8415.6
535.192	8432.32
535.557	8378.76
535.923	8366.79
536.288	8450.63
536.653	8506.89
537.019	8433.9
537.384	8520
537.749	8606.33
538.114	8587.12
538.479	8599.55
538.845	8704.63
539.21	8654.46
539.575	8710.51
539.94	8781.01
540.305	8852.2
540.67	8840.9
541.034	8891.07
541.399	8951.18
541.764	8977.39
542.129	9016.26
542.494	8898.98
542.858	9042.7
543.223	9046.09
543.587	9045.19
543.952	9145.07
544.316	9173.32
544.681	9180.1
545.045	9182.36
545.41	9287.21
545.774	9297.83
546.138	9331.73
546.503	9377.83
546.867	9379.87
547.231	9501.67
547.595	9558.39
547.959	9495.34
548.324	9556.58
548.688	9627.09
549.052	9654.66
549.416	9647.2
549.779	9663.93
550.143	9696.47
550.507	9749.12
550.871	9769.01
551.235	9789.57
551.599	9905.5
551.962	9865.28
552.326	9923.13
552.689	9966.07
553.053	9895.56
553.417	9918.84
553.78	10057.81
554.143	10040.64
554.507	10080.86
554.87	10090.81
555.234	10191.82
555.597	10204.25
555.96	10187.53
556.323	10192.5
556.686	10241.99
557.05	10309.56
557.413	10350.24
557.776	10345.72
558.139	10462.32
558.502	10425.26
558.865	10476.33
559.228	10574.64
559.59	10572.83
559.953	10614.41
560.316	10682.43
560.679	10694.86
561.041	10740.96
561.404	10758.81
561.767	10866.61
562.129	10879.26
562.492	10938.24
562.854	10890.11
563.217	10974.85
563.579	10980.05
563.941	11054.62
564.304	11107.73
564.666	11138.46
565.028	11154.51
565.39	11196.54
565.753	11274.96
566.115	11256.2
566.477	11344.79
566.839	11359.25
567.201	11459.36
567.563	11349.53
567.925	11533.48
568.287	11548.85
568.648	11521.96
569.01	11627.72
569.372	11725.34
569.734	11646.25
570.095	11694.16
570.457	11756.53
570.819	11833.81
571.18	11908.16
571.542	11860.71
571.903	12010.08
572.265	11947.71
572.626	12055.05
572.987	12140.7
573.349	12219.57
573.71	12256.4
574.071	12288.49
574.432	12365.78
574.794	12532.33
575.155	12569.39
575.516	12526.45
575.877	12643.96
576.238	12667.69
576.599	12810.28
576.96	12832.43
577.32	12909.27
577.681	13075.36
578.042	13108.81
578.403	13172.53
578.763	13308.12
579.124	13393.77
579.485	13529.36
579.845	13647.55
580.206	13655.01
580.566	13774.55
580.927	13864.04
581.287	14039.18
581.648	14124.6
582.008	14310.13
582.368	14446.4
582.728	14542.22
583.089	14741.53
583.449	14897.91
583.809	15062.65
584.169	15309.65
584.529	15393.49
584.889	15694.95
585.249	15797.78
585.609	15946.02
585.969	16211.33
586.329	16405.22
586.688	16643.63
587.048	16892.89
587.408	17095.37
587.768	17360.9
588.127	17540.78
588.487	17668.01
588.846	18096.25
589.206	18266.19
589.565	18534.43
589.925	18827.98
590.284	19000.63
590.643	19326.95
591.003	19565.36
591.362	19952.47
591.721	20208.06
592.08	20486.24
592.44	20801.94
592.799	21129.39
593.158	21315.15
593.517	21769.15
593.876	22051.62
594.235	22282.8
594.593	22570.93
594.952	22991.03
595.311	23061.54
595.67	23574.52
596.029	24051.12
596.387	24214.05
596.746	24589.18
597.104	24725.68
597.463	25012.22
597.822	25519.33
598.18	25545.99
598.538	25991.41
598.897	26389.14
599.255	26425.07
599.613	27173.3
599.972	27129.46
600.33	27534.87
600.688	27886.05
601.046	28241.07
601.404	28525.8
601.762	28690.55
602.12	29258.89
602.478	29479
602.836	29754.92
603.194	29761.93
603.552	30297.28
603.91	30506.09
604.268	30875.12
604.625	31003.93
604.983	31399.17
605.341	31609.11
605.698	31864.47
606.056	32094.07
606.413	32539.94
606.771	32697.67
607.128	33054.5
607.485	33146.25
607.843	33373.13
608.2	33800.47
608.557	34144.19
608.914	34106
609.272	34510.51
609.629	34767
609.986	35152.07
610.343	35176.48
610.7	35549.8
611.057	35805.16
611.414	35864.59
611.771	36122.44
612.127	36553.16
612.484	36593.16
612.841	37010.1
613.198	36998.35
613.554	37221.62
613.911	37521.05
614.267	37670.2
614.624	37888.95
614.98	38031.09
615.337	38395.6
615.693	38322.38
616.05	38535.71
616.406	38936.83
616.762	38868.81
617.118	38964.85
617.475	39090.05
617.831	39433.77
618.187	39622.24
618.543	39668.11
618.899	40068.55
619.255	40207.08
619.611	40234.87
619.967	40436
620.323	40754.63
620.678	40567.07
621.034	40552.61
621.39	40778.36
621.746	40927.51
622.101	41340.16
622.457	41114.17
622.812	41264.68
623.168	41456.99
623.523	41633.26
623.879	41761.84
624.234	41630.77
624.589	41817.21
624.945	41968.84
625.3	42120.93
625.655	42101.04
626.01	42134.26
626.365	42239.79
626.72	42259.45
627.075	42276.85
627.43	42344.2
627.785	42407.92
628.14	42506.68
628.495	42610.41
628.85	42662.38
629.205	42668.48
629.559	42986.67
629.914	42758.42
630.269	42715.71
630.623	42804.75
630.978	42694.7
631.332	42984.86
631.687	42943.5
632.041	42859.66
632.396	43148.7
632.75	42942.6
633.104	43050.85
633.459	42920.45
633.813	43069.15
634.167	43035.7
634.521	43105.53
634.875	43090.62
635.229	43076.83
635.583	42959.1
635.937	42969.94
636.291	42898.31
636.645	43005.42
636.999	42920.45
637.352	43024.63
637.706	42886.33
638.06	43035.03
638.413	42967.68
638.767	42944.86
639.121	43048.13
639.474	42972.88
639.828	42984.63
640.181	43010.17
640.534	43002.71
640.888	42968.81
641.241	42826.44
641.594	42975.14
641.947	43046.33
642.301	42819.89
642.654	43010.62
643.007	42969.27
643.36	42970.17
643.713	42919.1
644.066	43120.67
644.419	42847.91
644.771	42576.73
645.124	42298.77
645.477	42196.18
645.83	42065.56
646.182	41887.26
646.535	41723.42
646.888	41834.83
647.24	41608.62
647.593	41866.02
647.945	41691.56
648.298	41647.72
648.65	41560.04
649.002	41535.41
649.355	41635.06
649.707	41700.82
650.059	41820.14
650.411	42279.34
650.763	42328.15
651.115	42752.1
651.467	42504.87
651.819	42558.88
652.171	42506.68
652.523	42391.43
652.875	42429.39
653.227	42350.98
653.578	42715.71
653.93	42521.14
654.282	42375.38
654.633	42261.26
654.985	42315.05
655.337	42334.48
655.688	42377.64
656.039	42694.7
656.391	42209.51
656.742	42176.74
657.094	42262.84
657.445	42390.52
657.796	42312.56
658.147	42333.12
658.498	42210.42
658.849	42316.63
659.2	42171.55
659.551	42014.49
659.902	42265.1
660.253	42260.58
660.604	42284.76
660.955	42082.28
661.306	42226.01
661.656	42252.45
662.007	42112.79
662.358	42263.52
662.708	42200.47
663.059	42190.3
663.409	41987.82
663.76	42303.52
664.11	42234.6
664.461	42341.71
664.811	42311.88
665.161	42223.3
665.511	42147.82
665.862	42082.28
666.212	42272.11
666.562	42188.27
666.912	42183.98
667.262	42099.01
667.612	42151.66
667.962	42171.55
668.312	41949.18
668.662	42209.74
669.011	42024.43
669.361	42059.69
669.711	41967.94
670.06	41961.38
670.41	41848.39
670.76	41845.45
671.109	42073.02
671.459	41822.18
671.808	41918.9
672.157	41896.3
672.507	41736.53
672.856	41771.11
673.205	41806.36
673.554	42014.26
673.904	41805
674.253	42115.28
674.602	41847.04
674.951	41286.15
675.3	41213.38
675.649	41689.53
675.998	41596.87
676.346	41741.95
676.695	41815.17
677.044	41512.35
677.393	41632.8
677.741	41688.17
678.09	41576.08
678.438	41489.53
678.787	41657.21
679.135	41577.21
679.484	41203.21
679.832	41505.8
680.181	41148.97
680.529	41320.5
680.877	41190.78
681.225	41200.95
681.573	41484.56
681.922	40990.79
682.27	40968.87
682.618	41065.13
682.966	40916.66
683.314	41115.08
683.661	40940.17
684.009	40697.46
684.357	40791.24
684.705	40725.26
685.053	40683.9
685.4	40622.66
685.748	40668.76
686.095	40439.16
686.443	40308.32
686.79	40382.44
687.138	40441.2
687.485	40391.25
687.832	40202.56
688.18	40146.97
688.527	39992.62
688.874	39977.25
689.221	39978.16
689.568	39820.2
689.915	39672.4
690.262	39715.57
690.609	39661.78
690.956	39572.52
691.303	39303.15
691.65	39156.03
691.997	39279.19
692.344	39092.53
692.69	39053.89
693.037	38906.1
693.383	38702.71
693.73	38749.94
694.077	38600.79
694.423	38710.17
694.769	38482.38
695.116	38465.66
695.462	38421.59
695.808	38399.44
696.155	38234.02
696.501	37915.61
696.847	37961.71
697.193	37721.72
697.539	37940.02
697.885	37763.07
698.231	37598.33
698.577	37556.98
698.923	37548.17
699.269	37377.1
699.614	37260.94
699.96	37258.23
700.306	37173.26
700.651	37075.41
700.997	36919.93
701.342	36967.39
701.688	36777.56
702.033	36632.48
702.379	36620.96
702.724	36534.18
703.069	36621.64
703.415	36237.01
703.76	36147.98
704.105	36217.58
704.45	36088.77
704.795	36063.91
705.14	35830.02
705.485	35771.04
705.83	35634.32
706.175	35833.41
706.52	35649.01
706.865	35620.08
707.209	35509.12
707.554	35271.16
707.899	35404.72
708.243	35162.24
708.588	35153.2
708.932	34895.58
709.277	34851.96
709.621	35002.02
709.966	34825.07
710.31	35035.24
710.654	34597.51
710.998	34659.2
711.342	34606.77
711.687	34399.1
712.031	34390.51
712.375	34181.25
712.719	34378.08
713.063	34221.47
713.407	34227.57
713.75	34034.13
714.094	34029.84
714.438	33753.91
714.782	33868.71
715.125	33672.79
715.469	33844.31
715.812	33604.31
716.156	33412.91
716.499	33469.63
716.843	33592.56
717.186	33342.63
717.53	33436.86
717.873	33602.05
718.216	33374.94
718.559	33182.86
718.902	32951
719.246	33012.47
719.589	32880.27
719.932	32910.1
720.275	32872.58
720.617	32962.3
720.96	32822.41
721.303	32747.16
721.646	32726.82
721.989	32620.61
722.331	32606.15
722.674	32675.75
723.016	32577.67
723.359	32543.33
723.701	32511.69
724.044	32405.02
724.386	32044.81
724.729	32359.15
725.071	32045.94
725.413	32157.35
725.755	32059.04
726.097	32049.78
726.439	31795.1
726.782	31896.56
727.124	32040.06
727.465	31750.8
727.807	31737.7
728.149	31702.9
728.491	31646.63
728.833	31717.81
729.175	31669.68
729.516	31517.14
729.858	31421.09
730.199	31485.27
730.541	31414.77
730.882	31484.37
731.224	31343.81
731.565	31186.07
731.906	31187.43
732.248	31189.46
732.589	31162.8
732.93	31008.9
733.271	31010.71
733.612	31107.66
733.953	31013.65
734.294	30910.15
734.635	30895.68
734.976	31002.12
735.317	30778.63
735.658	30745.86
735.999	30634
736.339	30628.8
736.68	30796.7
737.021	30639.87
737.361	30500.21
737.702	30536.6
738.042	30425.19
738.383	30331.41
738.723	30410.95
739.063	30283.5
739.404	30376.6
739.744	30267.45
740.084	30074.01
740.424	30093.22
740.764	30149.49
741.104	30197.17
741.444	30023.39
741.784	29929.38
742.124	30048.93
742.464	29928.93
742.804	29942.72
743.143	29886.9
743.483	29995.37
743.823	29742.27
744.162	29871.98
744.502	29905.65
744.841	29756.28
745.181	29783.85
745.52	29563.97
745.86	29660.46
746.199	29588.83
746.538	29480.13
746.877	29710.41
747.216	29584.53
747.556	29562.39
747.895	29449.17
748.234	29224.09
748.573	29420.02
748.911	29246.91
749.25	29210.53
749.589	29142.74
749.928	29253.92
750.267	29169.18
750.605	29180.48
750.944	28989.07
751.283	28904.32
751.621	29149.97
751.96	28834.27
752.298	28890.54
752.636	28948.84
752.975	28785.68
753.313	28609.87
753.651	28788.17
753.989	28648.51
754.327	28507.05
754.666	28451
755.004	28448.52
755.342	28512.7
755.679	28361.51
756.017	28211.69
756.355	28247.62
756.693	28124.46
757.031	28187.06
757.368	28022.99
757.706	28137.34
758.044	27931.24
758.381	28053.95
758.719	27925.14
759.056	27965.59
