Data from hue_50_FLMS001491_49.txt Node
Date: Mon Feb 06 15:10:12 GMT 2017
User: dcchb
Spectrometer: FLMS00149
Trigger mode: 0
Integration Time (sec): 2.000000E-2
Scans to average: 10
Electric dark correction enabled: true
Nonlinearity correction enabled: false
Boxcar width: 0
XAxis mode: Wavelengths
Number of Pixels in Spectrum: 2048
>>>>>Begin Spectral Data<<<<<
341.393	-17.68
341.776	-17.68
342.16	-17.68
342.543	-66.27
342.927	-59.26
343.31	-75.76
343.693	-53.39
344.077	-81.86
344.46	-59.26
344.843	-58.59
345.226	-46.83
345.61	-26.72
345.993	-24.91
346.376	-4.58
346.759	20.73
347.142	34.07
347.525	39.04
347.908	61.18
348.291	81.75
348.674	97.34
349.057	97.79
349.44	113.84
349.823	149.54
350.206	156.1
350.588	187.06
350.971	210.56
351.354	222.31
351.737	217.56
352.119	248.98
352.502	260.5
352.884	274.29
353.267	301.4
353.65	283.78
354.032	291.69
354.414	327.62
354.797	310.44
355.179	314.74
355.562	331.69
355.944	324
356.326	328.97
356.709	328.97
357.091	333.72
357.473	326.94
357.855	331.91
358.238	364.68
358.62	349.09
359.002	345.02
359.384	327.39
359.766	334.4
360.148	319.48
360.53	331.91
360.912	333.04
361.294	329.88
361.676	331.01
362.057	338.92
362.439	324.45
362.821	319.26
363.203	340.95
363.584	320.16
363.966	315.19
364.348	337.79
364.729	352.48
365.111	315.64
365.493	302.76
365.874	285.13
366.256	297.34
366.637	328.52
367.019	307.51
367.4	308.41
367.781	308.18
368.163	302.76
368.544	305.02
368.925	310.67
369.306	324.23
369.688	323.32
370.069	313.38
370.45	301.18
370.831	313.38
371.212	305.25
371.593	305.47
371.974	298.69
372.355	301.18
372.736	308.86
373.117	318.13
373.498	320.61
373.879	336.66
374.26	312.03
374.641	311.35
375.021	329.2
375.402	320.84
375.783	309.54
376.163	326.49
376.544	320.84
376.925	313.61
377.305	334.85
377.686	342.53
378.066	306.38
378.447	314.74
378.827	341.86
379.208	340.95
379.588	338.24
379.968	325.36
380.349	340.27
380.729	338.69
381.109	330.78
381.489	340.95
381.87	345.02
382.25	325.81
382.63	336.66
383.01	335.75
383.39	361.52
383.77	330.33
384.15	343.66
384.53	342.76
384.91	317
385.29	334.17
385.67	357
386.049	359.93
386.429	360.39
386.809	339.82
387.189	348.86
387.568	357
387.948	328.3
388.328	356.09
388.707	359.26
389.087	351.35
389.466	357.67
389.846	362.42
390.225	355.41
390.605	373.94
390.984	357.9
391.363	349.76
391.743	331.91
392.122	362.19
392.501	370.1
392.881	360.16
393.26	339.37
393.639	356.77
394.018	371.46
394.397	358.13
394.776	387.5
395.155	375.3
395.534	362.42
395.913	357.9
396.292	365.13
396.671	385.7
397.05	370.78
397.429	371.23
397.808	377.33
398.186	382.08
398.565	386.15
398.944	380.72
399.323	373.04
399.701	382.31
400.08	389.31
400.458	385.02
400.837	378.46
401.215	398.58
401.594	370.1
401.972	385.47
402.351	391.57
402.729	383.21
403.107	388.41
403.486	397.22
403.864	389.99
404.242	409.42
404.62	374.17
404.999	391.8
405.377	397.67
405.755	417.11
406.133	396.32
406.511	400.61
406.889	394.28
407.267	400.84
407.645	398.8
408.023	417.56
408.401	394.74
408.779	418.46
409.156	413.04
409.534	415.3
409.912	422.31
410.29	420.72
410.667	424.79
411.045	435.41
411.422	448.29
411.8	418.92
412.178	415.98
412.555	455.98
412.933	431.34
413.31	434.06
413.687	437.67
414.065	436.32
414.442	445.81
414.819	446.49
415.197	434.28
415.574	466.6
415.951	455.3
416.328	467.73
416.705	469.54
417.082	463.66
417.46	458.01
417.837	463.21
418.214	471.34
418.591	468.41
418.967	450.33
419.344	491.46
419.721	475.19
420.098	479.25
420.475	474.73
420.852	482.87
421.228	490.33
421.605	487.39
421.982	482.19
422.358	480.61
422.735	510.44
423.111	490.78
423.488	510.21
423.864	516.77
424.241	515.64
424.617	515.41
424.994	526.94
425.37	531.91
425.746	535.52
426.123	525.81
426.499	531.68
426.875	512.25
427.251	534.17
427.627	521.96
428.003	552.47
428.379	556.09
428.756	557.44
429.132	546.14
429.507	571.23
429.883	559.7
430.259	559.48
430.635	562.64
431.011	585.92
431.387	550.21
431.763	573.04
432.138	590.44
432.514	568.29
432.89	587.05
433.265	625.01
433.641	603.09
434.016	612.36
434.392	626.82
434.767	611.9
435.143	624.56
435.518	618.68
435.894	625.01
436.269	617.55
436.644	627.72
437.02	636.76
437.395	629.76
437.77	652.58
438.145	659.59
438.52	648.06
438.895	656.42
439.271	673.15
439.646	673.37
440.021	669.53
440.395	670.43
440.77	656.88
441.145	702.52
441.52	681.06
441.895	656.88
442.27	684.9
442.645	707.5
443.019	691.9
443.394	726.48
443.769	709.3
444.143	693.48
444.518	709.53
444.892	693.94
445.267	712.02
445.641	710.21
446.016	713.37
446.39	717.66
446.764	723.09
447.139	734.84
447.513	731.45
447.887	746.82
448.262	724.67
448.636	746.82
449.01	724.9
449.384	759.92
449.758	742.07
450.132	767.15
450.506	770.77
450.88	772.8
451.254	787.72
451.628	776.65
452.002	766.7
452.376	807.15
452.75	781.39
453.123	789.75
453.497	829.07
453.871	799.92
454.244	834.95
454.618	853.25
454.992	835.18
455.365	851.9
455.739	865.91
456.112	856.87
456.486	880.82
456.859	882.41
457.232	899.81
457.606	890.09
457.979	910.65
458.352	929.18
458.725	914.04
459.099	931.22
459.472	929.18
459.845	966.47
460.218	948.62
460.591	951.56
460.964	972.57
461.337	993.14
461.71	1001.05
462.083	1027.94
462.456	1003.98
462.829	1013.7
463.201	1036.53
463.574	1057.09
463.947	1063.19
464.32	1066.81
464.692	1097.54
465.065	1094.6
465.438	1116.52
465.81	1129.86
466.183	1138.9
466.555	1169.86
466.928	1180.7
467.3	1166.01
467.672	1200.59
468.045	1254.83
468.417	1235.17
468.789	1267.25
469.161	1270.42
469.534	1317.87
469.906	1310.64
470.278	1347.25
470.65	1349.29
471.022	1382.28
471.394	1424.31
471.766	1441.26
472.138	1458.44
472.51	1477.64
472.882	1527.59
473.253	1563.29
473.625	1571.2
473.997	1639.67
474.369	1674.7
474.74	1681.48
475.112	1710.63
475.484	1762.38
475.855	1815.71
476.227	1822.49
476.598	1870.85
476.97	1953.79
477.341	1981.36
477.713	2021.36
478.084	2078.31
478.455	2119.89
478.827	2186.1
479.198	2252.54
479.569	2294.57
479.94	2327.57
480.311	2471.29
480.682	2538.86
481.053	2586.77
481.424	2669.93
481.795	2747.67
482.166	2764.39
482.537	2851.85
482.908	2993.54
483.279	3012.07
483.65	3153.98
484.021	3248.9
484.391	3337.71
484.762	3382.23
485.133	3489.12
485.503	3583.58
485.874	3725.27
486.244	3784.7
486.615	3859.28
486.985	4007.07
487.356	4139.04
487.726	4221.75
488.097	4337.23
488.467	4375.2
488.837	4544.46
489.207	4700.84
489.578	4774.51
489.948	4894.05
490.318	4977.21
490.688	5118.45
491.058	5278.22
491.428	5390.76
491.798	5469.18
492.168	5688.16
492.538	5756.63
492.908	5915.49
493.278	6015.15
493.648	6147.35
494.017	6279.33
494.387	6392.77
494.757	6500.79
495.126	6711.18
495.496	6732.65
495.866	6858.29
496.235	7015.8
496.605	7161.34
496.974	7325.17
497.344	7399.52
497.713	7514.77
498.082	7562.23
498.452	7757.93
498.821	7875.22
499.19	7936.68
499.559	8114.76
499.928	8184.36
500.298	8271.14
500.667	8448.99
501.036	8445.82
501.405	8725.59
501.774	8712.93
502.143	8851.01
502.512	9008.97
502.88	9095.52
503.249	9160.38
503.618	9349.08
503.987	9413.71
504.356	9514.95
504.724	9584.78
505.093	9742.74
505.462	9817.76
505.83	9980.92
506.199	10061.6
506.567	10152.22
506.936	10230.63
507.304	10380.69
507.672	10502.27
508.041	10547.69
508.409	10718.98
508.777	10796.5
509.145	10925.31
509.514	10979.99
509.882	11089.14
510.25	11167.56
510.618	11283.04
510.986	11351.06
511.354	11497.04
511.722	11611.84
512.09	11760.76
512.458	11728
512.826	11907.88
513.193	11978.16
513.561	12100.64
513.929	12160.98
514.297	12356.23
514.664	12507.86
515.032	12468.77
515.4	12642.55
515.767	12693.4
516.135	12787.4
516.502	12712.83
516.869	12988.75
517.237	13102.88
517.604	13049.09
517.972	13242.08
518.339	13374.28
518.706	13373.15
519.073	13484.33
519.44	13584.9
519.808	13712.58
520.175	13754.61
520.542	13915.74
520.909	13979.46
521.276	13999.35
521.643	14239.57
522.009	14337.42
522.376	14434.82
522.743	14512.78
523.11	14676.85
523.477	14781.48
523.843	14914.35
524.21	15079.1
524.577	15188.24
524.943	15223.5
525.31	15263.95
525.676	15511.63
526.043	15538.07
526.409	15607.22
526.776	15714.11
527.142	15766.99
527.508	15918.4
527.874	16033.19
528.241	16162.46
528.607	16289.46
528.973	16410.36
529.339	16452.84
529.705	16586.17
530.071	16608.55
530.437	16717.24
530.803	16905.71
531.169	17113.39
531.535	16963.34
531.901	17063
532.267	17269.32
532.632	17255.76
532.998	17335.76
533.364	17390.45
533.73	17534.4
534.095	17647.62
534.461	17675.41
534.826	17830.66
535.192	17894.16
535.557	18011.67
535.923	18011.9
536.288	18019.58
536.653	18182.74
537.019	18186.58
537.384	18223.65
537.749	18403.53
538.114	18478.1
538.479	18509.97
538.845	18524.43
539.21	18523.98
539.575	18620.02
539.94	18715.16
540.305	18809.17
540.67	18849.84
541.034	18912.89
541.399	19074.92
541.764	19081.48
542.129	19116.05
542.494	19154.69
542.858	19269.04
543.223	19318.76
543.587	19406.66
543.952	19470.84
544.316	19552.42
544.681	19674
545.045	19661.8
545.41	19695.7
545.774	19777.05
546.138	19790.84
546.503	19975.01
546.867	19956.48
547.231	20110.15
547.595	20055.46
547.959	20189.92
548.324	20245.96
548.688	20317.15
549.052	20332.97
549.416	20359.86
549.779	20471.27
550.143	20525.51
550.507	20671.94
550.871	20745.39
551.235	20773.63
551.599	20897.47
551.962	20949.9
552.326	20947.87
552.689	21116.22
553.053	21005.94
553.417	21162.1
553.78	21399.38
554.143	21317.8
554.507	21449.1
554.87	21531.35
555.234	21750.78
555.597	21623.56
555.96	21691.58
556.323	21830.78
556.686	21798.47
557.05	21974.05
557.413	22141.51
557.776	22071.45
558.139	22239.58
558.502	22301.28
558.865	22360.94
559.228	22546.02
559.59	22609.29
559.953	22726.13
560.316	22837.76
560.679	22789.63
561.041	23016.97
561.404	23042.28
561.767	23230.07
562.129	23123.18
562.492	23407.01
562.854	23329.27
563.217	23418.76
563.579	23561.13
563.941	23737.62
564.304	23737.4
564.666	23866.21
565.028	24041.12
565.39	24103.72
565.753	24138.29
566.115	24275.46
566.477	24376.25
566.839	24338.74
567.201	24530.15
567.563	24606.75
567.925	24838.84
568.287	24796.58
568.648	24899.85
569.01	24934.88
569.372	25123.8
569.734	25074.99
570.095	25215.33
570.457	25357.24
570.819	25391.82
571.18	25487.41
571.542	25640.63
571.903	25731.7
572.265	25809.66
572.626	25957.45
572.987	25938.24
573.349	26090.56
573.71	26190.22
574.071	26249.65
574.432	26383.66
574.794	26612.58
575.155	26554.73
575.516	26445.58
575.877	26622.52
576.238	26745
576.599	26947.48
576.96	26997.2
577.32	27031.32
577.681	27142.73
578.042	27246.68
578.403	27342.95
578.763	27289.4
579.124	27424.08
579.485	27647.35
579.845	27825.43
580.206	27744.98
580.566	27773.9
580.927	27820.45
581.287	28038.08
581.648	27974.58
582.008	28282.36
582.368	28121.69
582.728	28354.45
583.089	28401.68
583.449	28558.97
583.809	28606.42
584.169	28787.66
584.529	28820.43
584.889	29067.43
585.249	28928
585.609	28972.06
585.969	29224.71
586.329	29204.15
586.688	29441.43
587.048	29498.83
587.408	29375.44
587.768	29551.03
588.127	29655.89
588.487	29783.34
588.846	29919.83
589.206	29871.7
589.565	29862.89
589.925	30235.31
590.284	30206.38
590.643	30421.74
591.003	30515.07
591.362	30662.19
591.721	30659.93
592.08	30639.36
592.44	30981.28
592.799	30945.8
593.158	30846.59
593.517	31059.01
593.876	31321.83
594.235	31245.9
594.593	31327.03
594.952	31473.01
595.311	31421.26
595.67	31615.84
596.029	31854.93
596.387	31766.34
596.746	31928.82
597.104	32032.1
597.463	31976.73
597.822	32158.42
598.18	32158.19
598.538	32039.33
598.897	32369.04
599.255	32275.71
599.613	32731.06
599.972	32645.64
600.33	32806.99
600.688	32604.28
601.046	32859.64
601.404	33137.38
601.762	33130.6
602.12	33213.99
602.478	33258.96
602.836	33297.6
603.194	33228.22
603.552	33394.09
603.91	33315.9
604.268	33577.37
604.625	33610.36
604.983	33630.47
605.341	33561.09
605.698	33819.85
606.056	33912.5
606.413	33919.05
606.771	34069.33
607.128	34202.66
607.485	33981.87
607.843	34103.68
608.2	34426.16
608.557	34519.26
608.914	34300.51
609.272	34537.57
609.629	34675.64
609.986	34745.92
610.343	34809.2
610.7	34927.84
611.057	34863.66
611.414	34993.6
611.771	35104.56
612.127	35166.93
612.484	35250.99
612.841	35347.04
613.198	35257.55
613.554	35388.84
613.911	35519.24
614.267	35687.82
614.624	35666.12
614.98	35708.16
615.337	35829.74
615.693	35825.67
616.05	35880.13
616.406	36041.71
616.762	35950.18
617.118	35921.71
617.475	36038.09
617.831	36247.58
618.187	36167.35
618.543	36219.33
618.899	36345.2
619.255	36428.14
619.611	36337.75
619.967	36607.12
620.323	36602.37
620.678	36483.5
621.034	36558.53
621.39	36717.4
621.746	36554.24
622.101	36956.94
622.457	36564.86
622.812	36766.21
623.168	36809.15
623.523	36868.35
623.879	37023.15
624.234	36802.37
624.589	37060.21
624.945	37027.44
625.3	37043.26
625.655	37162.58
626.01	37213.88
626.365	37192.41
626.72	37180.21
627.075	37130.94
627.43	37107.44
627.785	37097.27
628.14	37205.29
628.495	37321
628.85	37200.32
629.205	37179.08
629.559	37240.09
629.914	37208.46
630.269	37250.94
630.623	37204.61
630.978	37055.01
631.332	37184.5
631.687	37347.66
632.041	37281
632.396	37217.04
632.75	37114.9
633.104	37090.72
633.459	37092.75
633.813	36970.72
634.167	37006.2
634.521	37170.27
634.875	37112.64
635.229	37129.14
635.583	36907.9
635.937	36832.87
636.291	36914.23
636.645	36942.02
636.999	36857.96
637.352	37046.43
637.706	36742.25
638.06	36934.34
638.413	36852.31
638.767	36737.51
639.121	36838.07
639.474	36642.6
639.828	36728.7
640.181	36704.74
640.534	36820.44
640.888	36506.78
641.241	36543.39
641.594	36634.69
641.947	36645.53
642.301	36555.37
642.654	36560.56
643.007	36653.22
643.36	36450.06
643.713	36548.36
644.066	36631.3
644.419	36451.87
644.771	36116.06
645.124	35742.28
645.477	35903.41
645.83	35541.83
646.182	35415.96
646.535	35252.8
646.888	35486.24
647.24	35280.6
647.593	35392.01
647.945	35354.27
648.298	35199.92
648.65	35185.23
649.002	35048.74
649.355	35325.79
649.707	35120.15
650.059	35329.18
650.411	35692.34
650.763	35765.1
651.115	36083.74
651.467	35940.92
651.819	36088.94
652.171	35927.81
652.523	35923.07
652.875	35876.29
653.227	35748.16
653.578	35937.98
653.93	35894.82
654.282	35720.59
654.633	35731.66
654.985	35762.17
655.337	35744.31
655.688	35696.86
656.039	35911.32
656.391	35541.61
656.742	35586.13
657.094	35663.19
657.445	35794.93
657.796	35704.32
658.147	35688.72
658.498	35413.48
658.849	35709.74
659.2	35673.81
659.551	35433.59
659.902	35675.16
660.253	35513.13
660.604	35599.46
660.955	35321.95
661.306	35557.2
661.656	35492.57
662.007	35369.63
662.358	35509.97
662.708	35382.06
663.059	35379.8
663.409	35231.79
663.76	35294.61
664.11	35541.61
664.461	35401.72
664.811	35444.21
665.161	35429.07
665.511	35178.23
665.862	35359.01
666.212	35370.54
666.562	35483.53
666.912	35343.87
667.262	35446.7
667.612	35341.39
667.962	35490.99
668.312	35344.78
668.662	35430.88
669.011	35461.16
669.361	35414.61
669.711	35175.97
670.06	35333.7
670.41	35162.86
670.76	35189.98
671.109	35196.31
671.459	35197.66
671.808	35280.6
672.157	35335.29
672.507	34991.79
672.856	35023.88
673.205	35119.92
673.554	35134.84
673.904	34994.28
674.253	35188.17
674.602	34968.97
674.951	34471.81
675.3	34487.17
675.649	34939.14
675.998	34848.29
676.346	34930.78
676.695	34962.87
677.044	34680.16
677.393	34876.09
677.741	34877.44
678.09	34735.53
678.438	34783.89
678.787	34860.27
679.135	34751.35
679.484	34537.79
679.832	34694.62
680.181	34444.69
680.529	34719.71
680.877	34513.39
681.225	34361.53
681.573	34635.42
681.922	34411.02
682.27	34367.63
682.618	34270.91
682.966	34320.62
683.314	34330.57
683.661	34110.46
684.009	34163.56
684.357	34015.77
684.705	33801.31
685.053	33978.94
685.4	33864.14
685.748	33809.22
686.095	33856.91
686.443	33652.17
686.79	33705.5
687.138	33661.88
687.485	33678.15
687.832	33552.96
688.18	33626.63
688.527	33328.11
688.874	33356.13
689.221	33374.89
689.568	33244.27
689.915	33152.97
690.262	33242.46
690.609	32998.62
690.956	33007.66
691.303	32929.47
691.65	32653.55
691.997	32733.09
692.344	32615.81
692.69	32530.61
693.037	32627.33
693.383	32270.28
693.73	32430.5
694.077	32273.67
694.423	32279.32
694.769	32094.01
695.116	31948.03
695.462	32038.42
695.808	31802.27
696.155	32030.29
696.501	31730.63
696.847	31785.1
697.193	31567.93
697.539	31617.64
697.885	31496.74
698.231	31398.44
698.577	31350.53
698.923	31271.89
699.269	31161.16
699.614	30965.46
699.96	30983.76
700.306	30989.64
700.651	30733.82
700.997	30828.06
701.342	30691.57
701.688	30596.65
702.033	30443.21
702.379	30519.37
702.724	30457
703.069	30510.1
703.415	30057.01
703.76	30119.6
704.105	30119.6
704.45	30138.59
704.795	29834.41
705.14	29842.1
705.485	29940.63
705.83	29679.39
706.175	29694.76
706.52	29684.13
706.865	29579.05
707.209	29480.52
707.554	29323.47
707.899	29494.31
708.243	29336.57
708.588	29312.17
708.932	29025.62
709.277	28984.94
709.621	29011.16
709.966	28812.52
710.31	28935.45
710.654	28736.14
710.998	28834.67
711.342	28691.62
711.687	28646.65
712.031	28607.1
712.375	28409.82
712.719	28471.29
713.063	28434.68
713.407	28441.46
713.75	28232.2
714.094	28253.21
714.438	28166.66
714.782	28195.13
715.125	28093.89
715.469	28031.3
715.812	27911.07
716.156	27781.13
716.499	27868.36
716.843	27889.15
717.186	27689.38
717.53	27811.19
717.873	27782.26
718.216	27593.34
718.559	27587.24
718.902	27448.71
719.246	27463.85
719.589	27361.48
719.932	27251.66
720.275	27387.47
720.617	27217.76
720.96	27135.73
721.303	27132.56
721.646	27278.77
721.989	26978.9
722.331	27055.73
722.674	27013.47
723.016	27032.91
723.359	26966.47
723.701	26941.38
724.044	26719.69
724.386	26741.84
724.729	26847.37
725.071	26734.16
725.413	26605.8
725.755	26691.67
726.097	26471.56
726.439	26449.64
726.782	26468.85
727.124	26542.52
727.465	26352.92
727.807	26395.41
728.149	26300.95
728.491	26306.6
728.833	26324.45
729.175	26199.71
729.516	26104.34
729.858	26147.73
730.199	26105.7
730.541	26134.85
730.882	26024.12
731.224	26090.1
731.565	25895.53
731.906	25933.95
732.248	25880.62
732.589	25823.22
732.93	25691.25
733.271	25675.65
733.612	25809.21
733.953	25841.98
734.294	25574.64
734.635	25660.51
734.976	25650.57
735.317	25397.69
735.658	25503
735.999	25483.57
736.339	25379.84
736.68	25458.48
737.021	25387.3
737.361	25275.89
737.702	25412.83
738.042	25265.72
738.383	25249.9
738.723	25209.68
739.063	25155.44
739.404	25157.7
739.744	25121.54
740.084	25019.62
740.424	25024.6
740.764	24987.31
741.104	25025.05
741.444	24882
741.784	24873.41
742.124	24838.84
742.464	24748.22
742.804	24814.21
743.143	24749.58
743.483	24764.49
743.823	24505.06
744.162	24644.27
744.502	24607.88
744.841	24439.75
745.181	24592.97
745.52	24442.92
745.86	24604.04
746.199	24394.33
746.538	24317.27
746.877	24525.17
747.216	24437.95
747.556	24271.85
747.895	24437.72
748.234	24183.49
748.573	24211.06
748.911	24134.45
749.25	24063.72
749.589	23991.4
749.928	24131.51
750.267	24087.67
750.605	23826.21
750.944	24013.55
751.283	23861.69
751.621	23908.69
751.96	23724.97
752.298	23818.53
752.636	23736.27
752.975	23578.76
753.313	23569.49
753.651	23641.36
753.989	23557.97
754.327	23514.81
754.666	23328.6
755.004	23417.18
755.342	23414.92
755.679	23343.28
756.017	23196.17
756.355	23401.14
756.693	23226.68
757.031	23209.5
757.368	22945.78
