Data from hue_320_FLMS001491_95.txt Node
Date: Mon Feb 06 15:47:59 GMT 2017
User: dcchb
Spectrometer: FLMS00149
Trigger mode: 0
Integration Time (sec): 2.000000E-2
Scans to average: 10
Electric dark correction enabled: true
Nonlinearity correction enabled: false
Boxcar width: 0
XAxis mode: Wavelengths
Number of Pixels in Spectrum: 2048
>>>>>Begin Spectral Data<<<<<
341.393	3.7
341.776	3.7
342.16	3.7
342.543	-62.51
342.927	-79.24
343.31	-71.1
343.693	-69.74
344.077	-65.22
344.46	-51.21
344.843	-57.09
345.226	-46.47
345.61	-28.62
345.993	-15.28
346.376	0.76
346.759	24.94
347.142	15.68
347.525	39.63
347.908	62.68
348.291	68.78
348.674	84.6
349.057	107.65
349.44	115.11
349.823	143.58
350.206	149.46
350.588	187.2
350.971	218.38
351.354	220.19
351.737	235.56
352.119	238.95
352.502	262.9
352.884	284.15
353.267	273.75
353.65	296.57
354.032	297.7
354.414	303.81
354.797	300.64
355.179	308.33
355.562	314.65
355.944	346.97
356.326	317.36
356.709	324.14
357.091	320.08
357.473	337.25
357.855	332.28
358.238	328.21
358.62	352.62
359.002	332.28
359.384	325.5
359.766	337.7
360.148	333.86
360.53	343.13
360.912	347.65
361.294	336.35
361.676	321.66
362.057	329.12
362.439	334.31
362.821	332.28
363.203	319.4
363.584	315.1
363.966	323.47
364.348	344.93
364.729	316.69
365.111	322.11
365.493	301.55
365.874	320.3
366.256	334.77
366.637	308.1
367.019	320.75
367.4	318.49
367.781	293.64
368.163	306.29
368.544	325.5
368.925	294.99
369.306	314.88
369.688	292.51
370.069	301.55
370.45	294.09
370.831	295.22
371.212	315.1
371.593	306.52
371.974	298.38
372.355	304.71
372.736	313.3
373.117	311.04
373.498	318.95
373.879	313.97
374.26	286.4
374.641	336.12
375.021	305.16
375.402	289.57
375.783	323.47
376.163	327.53
376.544	313.97
376.925	313.75
377.305	324.37
377.686	313.97
378.066	309.91
378.447	330.47
378.827	332.51
379.208	319.4
379.588	319.4
379.968	340.41
380.349	323.92
380.729	319.85
381.109	313.07
381.489	332.96
381.87	325.5
382.25	322.34
382.63	330.47
383.01	353.3
383.39	350.81
383.77	332.96
384.15	331.15
384.53	354.43
384.91	338.83
385.29	325.05
385.67	337.03
386.049	349.23
386.429	353.07
386.809	347.19
387.189	327.99
387.568	351.04
387.948	349
388.328	353.07
388.707	336.57
389.087	366.4
389.466	358.95
389.846	359.62
390.225	355.33
390.605	364.82
390.984	361.66
391.363	348.55
391.743	334.77
392.122	372.05
392.501	365.5
392.881	354.2
393.26	346.52
393.639	359.4
394.018	375.67
394.397	358.72
394.776	376.8
395.155	368.89
395.534	386.74
395.913	393.75
396.292	374.99
396.671	394.65
397.05	366.85
397.429	385.61
397.808	366.85
398.186	388.55
398.565	369.34
398.944	389.91
399.323	400.53
399.701	382.67
400.08	396.01
400.458	411.15
400.837	405.05
401.215	401.2
401.594	409.57
401.972	367.53
402.351	403.69
402.729	395.33
403.107	410.02
403.486	417.02
403.864	403.01
404.242	423.12
404.62	426.74
404.999	419.51
405.377	414.99
405.755	396.46
406.133	421.77
406.511	412.96
406.889	440.98
407.267	426.51
407.645	448.43
408.023	432.16
408.401	445.72
408.779	448.89
409.156	458.83
409.534	439.85
409.912	461.99
410.29	469
410.667	483.24
411.045	490.47
411.422	464.93
411.8	475.1
412.178	499.28
412.555	489.79
412.933	495.89
413.31	506.29
413.687	520.07
414.065	517.36
414.442	510.58
414.819	510.81
415.197	537.02
415.574	558.26
415.951	537.02
416.328	564.59
416.705	571.82
417.082	569.34
417.46	562.1
417.837	574.76
418.214	592.39
418.591	579.5
418.967	600.07
419.344	608.2
419.721	616.34
420.098	610.01
420.475	620.18
420.852	635.32
421.228	618.6
421.605	643.23
421.982	635.32
422.358	677.13
422.735	651.82
423.111	675.32
423.488	679.84
423.864	673.06
424.241	666.06
424.617	709.44
424.994	687.75
425.37	692.95
425.746	692.5
426.123	721.87
426.499	712.61
426.875	725.04
427.251	710.8
427.627	748.31
428.003	757.13
428.379	742.89
428.756	758.93
429.132	765.94
429.507	788.09
429.883	801.19
430.259	788.54
430.635	787.41
431.011	805.71
431.387	821.76
431.763	842.32
432.138	843.23
432.514	852.49
432.89	847.07
433.265	841.19
433.641	840.29
434.016	874.19
434.392	891.81
434.767	894.98
435.143	909.21
435.518	922.09
435.894	927.74
436.269	930
436.644	944.47
437.02	941.08
437.395	954.18
437.77	958.93
438.145	956.9
438.52	971.58
438.895	992.6
439.271	993.28
439.646	1004.8
440.021	1016.1
440.395	1034.86
440.77	995.99
441.145	1038.7
441.52	1043.67
441.895	1054.75
442.27	1058.81
442.645	1012.71
443.019	1036.22
443.394	1080.73
443.769	1081.41
444.143	1071.24
444.518	1083.67
444.892	1070.34
445.267	1073.95
445.641	1081.19
446.016	1106.72
446.39	1084.12
446.764	1087.97
447.139	1091.58
447.513	1106.5
447.887	1095.2
448.262	1124.8
448.636	1104.46
449.01	1124.12
449.384	1137.46
449.758	1122.77
450.132	1141.07
450.506	1149.43
450.88	1124.12
451.254	1146.95
451.628	1165.25
452.002	1172.26
452.376	1162.54
452.75	1172.48
453.123	1209.09
453.497	1200.28
453.871	1196.44
454.244	1219.49
454.618	1217.68
454.992	1218.36
455.365	1242.54
455.739	1238.02
456.112	1239.6
456.486	1251.13
456.859	1279.6
457.232	1308.75
457.606	1280.73
457.979	1292.71
458.352	1321.18
458.725	1313.95
459.099	1334.96
459.472	1348.07
459.845	1344.91
460.218	1355.53
460.591	1389.43
460.964	1367.51
461.337	1421.52
461.71	1394.4
462.083	1424.45
462.456	1401.4
462.829	1393.95
463.201	1442.31
463.574	1433.49
463.947	1457.45
464.32	1500.38
464.692	1489.54
465.065	1484.57
465.438	1497.22
465.81	1517.33
466.183	1543.77
466.555	1567.95
466.928	1577.44
467.3	1539.93
467.672	1564.34
468.045	1615.86
468.417	1615.41
468.789	1623.54
469.161	1627.84
469.534	1651.79
469.906	1664
470.278	1693.37
470.65	1694.5
471.022	1707.38
471.394	1745.12
471.766	1761.17
472.138	1779.02
472.51	1783.99
472.882	1821.73
473.253	1811.79
473.625	1852.47
473.997	1875.29
474.369	1866.93
474.74	1882.07
475.112	1934.27
475.484	1941.73
475.855	1971.33
476.227	1969.98
476.598	2002.07
476.97	2034.61
477.341	2065.12
477.713	2093.59
478.084	2099.92
478.455	2125.9
478.827	2130.2
479.198	2190.99
479.569	2169.97
479.94	2237.31
480.311	2243.19
480.682	2280.93
481.053	2322.06
481.424	2355.28
481.795	2369.29
482.166	2391.43
482.537	2379.91
482.908	2464.2
483.279	2472.79
483.65	2462.39
484.021	2532.9
484.391	2524.54
484.762	2559.57
485.133	2571.54
485.503	2597.08
485.874	2618.77
486.244	2684.76
486.615	2704.65
486.985	2728.83
487.356	2758.43
487.726	2774.7
488.097	2839.11
488.467	2831.2
488.837	2868.26
489.207	2900.8
489.578	2908.71
489.948	2944.19
490.318	3030.06
490.688	2998.88
491.058	3037.52
491.428	3043.85
491.798	3069.83
492.168	3148.25
492.538	3142.15
492.908	3215.59
493.278	3187.8
493.648	3232.09
494.017	3246.33
494.387	3251.98
494.757	3284.74
495.126	3317.51
495.496	3310.05
495.866	3356.15
496.235	3352.99
496.605	3395.02
496.974	3389.15
497.344	3395.25
497.713	3429.6
498.082	3429.37
498.452	3487.22
498.821	3506.43
499.19	3502.82
499.559	3523.61
499.928	3533.78
500.298	3560.9
500.667	3569.26
501.036	3583.27
501.405	3624.4
501.774	3625.98
502.143	3628.24
502.512	3645.86
502.88	3650.16
503.249	3639.31
503.618	3648.8
503.987	3689.71
504.356	3711.63
504.724	3740.33
505.093	3722.7
505.462	3730.16
505.83	3722.92
506.199	3787.78
506.567	3860.77
506.936	3800.89
507.304	3835.01
507.672	3845.41
508.041	3854.45
508.409	3912.75
508.777	3913.43
509.145	3900.1
509.514	3888.8
509.882	3936.25
510.25	3965.18
510.618	3964.73
510.986	3981.9
511.354	4014.44
511.722	4025.74
512.09	4013.54
512.458	3997.04
512.826	4035.68
513.193	4062.58
513.561	4013.76
513.929	4083.14
514.297	4076.14
514.664	4103.25
515.032	4108
515.4	4182.12
515.767	4149.81
516.135	4146.42
516.502	4149.35
516.869	4198.84
517.237	4177.38
517.604	4135.8
517.972	4232.29
518.339	4222.12
518.706	4201.33
519.073	4233.42
519.44	4261.89
519.808	4293.08
520.175	4280.88
520.542	4293.31
520.909	4279.97
521.276	4269.8
521.643	4307.99
522.009	4358.61
522.376	4351.38
522.743	4358.61
523.11	4393.87
523.477	4477.71
523.843	4470.7
524.21	4472.96
524.577	4494.43
524.943	4511.15
525.31	4496.24
525.676	4563.81
526.043	4588.21
526.409	4577.82
526.776	4608.1
527.142	4634.54
527.508	4685.84
527.874	4696.68
528.241	4701.2
528.607	4686.97
528.973	4699.85
529.339	4774.65
529.705	4791.37
530.071	4854.42
530.437	4845.16
530.803	4842.22
531.169	4901.88
531.535	4853.74
531.901	4894.65
532.267	4933.06
532.632	4899.16
532.998	4960.41
533.364	4981.2
533.73	4966.28
534.095	5019.61
534.461	5045.38
534.826	5106.62
535.192	5083.79
535.557	5105.26
535.923	5153.17
536.288	5203.56
536.653	5176.45
537.019	5159.05
537.384	5186.84
537.749	5201.98
538.114	5230
538.479	5270.68
538.845	5270.91
539.21	5253.51
539.575	5301.41
539.94	5305.03
540.305	5337.57
540.67	5321.07
541.034	5385.71
541.399	5382.09
541.764	5453.5
542.129	5477.23
542.494	5488.53
542.858	5504.12
543.223	5502.09
543.587	5488.3
543.952	5474.07
544.316	5616.43
544.681	5574.18
545.045	5686.04
545.41	5696.43
545.774	5688.52
546.138	5644.46
546.503	5724.68
546.867	5679.03
547.231	5774.62
547.595	5742.08
547.959	5817.78
548.324	5804.9
548.688	5860.72
549.052	5838.12
549.416	5880.16
549.779	5891.68
550.143	5892.81
550.507	5967.39
550.871	5938.23
551.235	5945.01
551.599	6002.64
551.962	5995.86
552.326	6033.15
552.689	6030.89
553.053	6138.91
553.417	6045.35
553.78	6108.62
554.143	6074.28
554.507	6091.22
554.87	6148.85
555.234	6227.49
555.597	6194.27
555.96	6164.67
556.323	6216.19
556.686	6191.56
557.05	6257.32
557.413	6272.01
557.776	6308.62
558.139	6405.57
558.502	6308.39
558.865	6346.36
559.228	6413.02
559.59	6445.34
559.953	6413.93
560.316	6468.39
560.679	6450.99
561.041	6510.2
561.404	6550.2
561.767	6573.25
562.129	6503.64
562.492	6560.82
562.854	6573.25
563.217	6575.96
563.579	6586.8
563.941	6658.21
564.304	6682.17
564.666	6667.25
565.028	6725.11
565.39	6732.11
565.753	6707.03
566.115	6778.44
566.477	6802.62
566.839	6848.72
567.201	6860.92
567.563	6879.68
567.925	6847.81
568.287	6905.67
568.648	6940.92
569.01	6960.13
569.372	7036.96
569.734	6987.92
570.095	7071.54
570.457	7090.07
570.819	7149.95
571.18	7165.32
571.542	7197.18
571.903	7231.31
572.265	7249.84
572.626	7237.18
572.987	7299.55
573.349	7384.3
573.71	7461.36
574.071	7497.51
574.432	7557.63
574.794	7553.78
575.155	7663.61
575.516	7641.01
575.877	7670.62
576.238	7761.01
576.599	7810.5
576.96	7919.42
577.32	7955.13
577.681	8038.52
578.042	8123.26
578.403	8163.03
578.763	8247.1
579.124	8335.68
579.485	8498.17
579.845	8547.43
580.206	8649.12
580.566	8703.58
580.927	8791.04
581.287	8944.93
581.648	9066.74
582.008	9222.22
582.368	9325.49
582.728	9541.98
583.089	9615.65
583.449	9791.92
583.809	9908.98
584.169	10124.11
584.529	10240.95
584.889	10528.17
585.249	10621.73
585.609	10769.52
585.969	11043.64
586.329	11190.52
586.688	11447.47
587.048	11524.08
587.408	11811.3
587.768	11974.01
588.127	12246.09
588.487	12445.86
588.846	12786.42
589.206	12933.08
589.565	13190.7
589.925	13464.82
590.284	13658.26
590.643	13893.05
591.003	14260.95
591.362	14600.6
591.721	14773.26
592.08	14958.56
592.44	15337.08
592.799	15612.1
593.158	15832.66
593.517	16103.16
593.876	16441.23
594.235	16641.91
594.593	16977.04
594.952	17263.59
595.311	17453.64
595.67	17863.8
596.029	18224.24
596.387	18467.17
596.746	18780.16
597.104	18962.52
597.463	19292.01
597.822	19536.07
598.18	19862.16
598.538	20144.41
598.897	20486.78
599.255	20617.62
599.613	21037.27
599.972	21242.46
600.33	21645.17
600.688	21842.45
601.046	22165.15
601.404	22442.21
601.762	22728.07
602.12	23044.9
602.478	23366.7
602.836	23591.78
603.194	23676.98
603.552	23905.22
603.91	24065.89
604.268	24610.96
604.625	24751.52
604.983	24954.46
605.341	25133.21
605.698	25491.39
606.056	25601.22
606.413	25968.89
606.771	26284.14
607.128	26556.67
607.485	26582.89
607.843	26802.32
608.2	27179.94
608.557	27522.07
608.914	27489.98
609.272	27975.39
609.629	28084.77
609.986	28354.59
610.343	28424.2
610.7	28820.8
611.057	28991.41
611.414	29010.85
611.771	29300.33
612.127	29524.73
612.484	29697.83
612.841	29918.17
613.198	30084.27
613.554	30215.56
613.911	30450.13
614.267	30599.28
614.624	30768.32
614.98	30905.26
615.337	31225.03
615.693	31336.21
616.05	31444
616.406	31746.82
616.762	31754.28
617.118	31991.33
617.475	32102.52
617.831	32231.78
618.187	32322.17
618.543	32516.29
618.899	32848.26
619.255	32878.54
619.611	32823.4
619.967	33156.5
620.323	33227.01
620.678	33300.68
621.034	33197.18
621.39	33369.15
621.746	33547
622.101	33946.76
622.457	33682.14
622.812	33968.68
623.168	34159.64
623.523	34057.04
623.879	34293.19
624.234	34263.59
624.589	34330.71
624.945	34571.15
625.3	34689.57
625.655	34590.36
626.01	34687.76
626.365	34887.3
626.72	34838.26
627.075	34934.99
627.43	34981.31
627.785	34918.26
628.14	35188.99
628.495	35221.53
628.85	35137.47
629.205	35162.1
629.559	35344.01
629.914	35228.54
630.269	35302.21
630.623	35288.87
630.978	35259.95
631.332	35459.04
631.687	35704.68
632.041	35414.97
632.396	35521.86
632.75	35437.12
633.104	35637.11
633.459	35567.51
633.813	35520.28
634.167	35492.94
634.521	35619.49
634.875	35539.72
635.229	35583.1
635.583	35551.01
635.937	35521.18
636.291	35574.74
636.645	35615.19
636.999	35557.57
637.352	35630.11
637.706	35544.01
638.06	35633.27
638.413	35635.98
638.767	35514.63
639.121	35595.31
639.474	35407.74
639.828	35527.06
640.181	35641.86
640.534	35469.66
640.888	35572.93
641.241	35358.48
641.594	35308.76
641.947	35601.63
642.301	35519.38
642.654	35570
643.007	35515.08
643.36	35497
643.713	35362.54
644.066	35528.64
644.419	35440.28
644.771	35142.66
645.124	34868.77
645.477	34890.01
645.83	34531.15
646.182	34575.22
646.535	34461.78
646.888	34488.44
647.24	34259.3
647.593	34428.56
647.945	34373.64
648.298	34401.21
648.65	34411.84
649.002	34083.03
649.355	34220.88
649.707	34216.59
650.059	34624.49
650.411	34851.37
650.763	34790.58
651.115	35224.47
651.467	35097.69
651.819	35188.99
652.171	35159.84
652.523	34971.37
652.875	34971.14
653.227	34932.5
653.578	34979.28
653.93	35102.44
654.282	34937.02
654.633	34817.25
654.985	34892.5
655.337	34930.69
655.688	34832.84
656.039	35007.75
656.391	34714.43
656.742	34786.74
657.094	34779.06
657.445	34883.01
657.796	34864.03
658.147	34860.41
658.498	34838.26
658.849	34850.69
659.2	34781.32
659.551	34811.82
659.902	34759.62
660.253	34793.29
660.604	34857.25
660.955	34673.3
661.306	34834.42
661.656	34866.06
662.007	34783.12
662.358	34718.27
662.708	34763.46
663.059	34747.42
663.409	34555.56
663.76	34815.67
664.11	34794.65
664.461	34732.5
664.811	34812.05
665.161	34737.02
665.511	34621.32
665.862	34647.08
666.212	34790.81
666.562	34758.04
666.912	34695.44
667.262	34555.11
667.612	34605.73
667.962	34663.58
668.312	34625.16
668.662	34698.16
669.011	34595.11
669.361	34577.25
669.711	34457.26
670.06	34414.77
670.41	34497.03
670.76	34388.11
671.109	34638.5
671.459	34578.61
671.808	34312.4
672.157	34586.75
672.507	34392.17
672.856	34358.05
673.205	34403.47
673.554	34367.77
673.904	34369.58
674.253	34608.89
674.602	34409.35
674.951	33837.39
675.3	33895.46
675.649	34318.73
675.998	34303.14
676.346	34257.72
676.695	34406.41
677.044	34109.7
677.393	34196.93
677.741	34309.01
678.09	34298.39
678.438	34130.94
678.787	34199.64
679.135	34113.99
679.484	33877.61
679.832	33995.12
680.181	33848.69
680.529	34034.22
680.877	33930.94
681.225	33819.99
681.573	34053.43
681.922	33822.47
682.27	33796.94
682.618	33664.74
682.966	33617.28
683.314	33836.03
683.661	33598.75
684.009	33466.32
684.357	33476.49
684.705	33346.78
685.053	33386.33
685.4	33289.15
685.748	33238.98
686.095	33340.45
686.443	33071.53
686.79	33063.85
687.138	33078.99
687.485	33104.3
687.832	32971.65
688.18	32974.58
688.527	32802.61
688.874	32832.67
689.221	32707.02
689.568	32733.46
689.915	32423.41
690.262	32652.56
690.609	32322.62
690.956	32363.98
691.303	32339.8
691.65	32114.27
691.997	32277.2
692.344	31992.46
692.69	32039.69
693.037	31982.52
693.383	31631.34
693.73	31835.18
694.077	31697.33
694.423	31652.59
694.769	31662.98
695.116	31529.2
695.462	31478.81
695.808	31320.62
696.155	31551.8
696.501	31180.28
696.847	31131.24
697.193	31035.43
697.539	31092.15
697.885	30902.32
698.231	30747.52
698.577	30734.19
698.923	30789.11
699.269	30585.27
699.614	30496.68
699.96	30388.89
700.306	30368.33
700.651	30235.9
700.997	30277.48
701.342	30050.82
701.688	30060.09
702.033	30018.96
702.379	29991.84
702.724	29771.73
703.069	29922.46
703.415	29544.17
703.76	29692.64
704.105	29661.23
704.45	29570.15
704.795	29424.85
705.14	29323.83
705.485	29309.6
705.83	29261.01
706.175	29280.44
706.52	29179.88
706.865	29000.23
707.209	29089.94
707.554	28872.09
707.899	28869.16
708.243	28781.93
708.588	28777.63
708.932	28544.87
709.277	28497.19
709.621	28567.7
709.966	28314.82
710.31	28434.82
710.654	28253.81
710.998	28306.69
711.342	28204.77
711.687	28203.41
712.031	28077.54
712.375	28033.7
712.719	28058.1
713.063	27898.11
713.407	28133.13
713.75	27742.86
714.094	27948.95
714.438	27812.46
714.782	27795.51
715.125	27623.99
715.469	27634.39
715.812	27531.56
716.156	27338.35
716.499	27468.74
716.843	27384
717.186	27268.07
717.53	27397.56
717.873	27373.6
718.216	27226.04
718.559	27079.37
718.902	27049.99
719.246	27020.39
719.589	26992.6
719.932	26825.14
720.275	26880.28
720.617	26917.57
720.96	26643.23
721.303	26861.3
721.646	26749.66
721.989	26625.37
722.331	26628.99
722.674	26673.06
723.016	26521.2
723.359	26485.49
723.701	26543.79
724.044	26365.95
724.386	26238.49
724.729	26378.15
725.071	26280.07
725.413	26293.4
725.755	26277.13
726.097	26090.02
726.439	26049.8
726.782	25935
727.124	26169.57
727.465	25819.52
727.807	25870.36
728.149	25769.12
728.491	25888.67
728.833	25907.43
729.175	25781.55
729.516	25624.72
729.858	25771.38
730.199	25676.7
730.541	25698.39
730.882	25591.73
731.224	25745.17
731.565	25416.82
731.906	25496.82
732.248	25401.45
732.589	25357.84
732.93	25228.8
733.271	25321.45
733.612	25346.76
733.953	25333.88
734.294	25112.42
734.635	25131.4
734.976	25232.87
735.317	25101.57
735.658	25039.65
735.999	25065.41
736.339	24944.74
736.68	24957.62
737.021	24901.8
737.361	24801.92
737.702	24905.87
738.042	24819.55
738.383	24770.96
738.723	24899.32
739.063	24710.17
739.404	24747.23
739.744	24604.18
740.084	24560.79
740.424	24596.73
740.764	24617.06
741.104	24641.24
741.444	24460.91
741.784	24444.64
742.124	24549.5
742.464	24444.19
742.804	24404.64
743.143	24279.9
743.483	24322.61
743.823	24183.63
744.162	24212.33
744.502	24237.41
744.841	24068.83
745.181	24267.92
745.52	23969.85
745.86	24051.88
746.199	24057.76
746.538	23995.16
746.877	24051.43
747.216	23965.33
747.556	23981.38
747.895	23842.4
748.234	23776.18
748.573	23858.21
748.911	23700.7
749.25	23725.56
749.589	23635.85
749.928	23812.57
750.267	23702.06
750.605	23642.85
750.944	23644.89
751.283	23458.23
751.621	23459.81
751.96	23387.49
752.298	23341.17
752.636	23385.91
752.975	23213.71
753.313	23083.77
753.651	23217.33
753.989	23121.06
754.327	23103.88
754.666	23009.2
755.004	23010.1
755.342	23008.29
755.679	22927.84
756.017	22732.14
756.355	22843.33
756.693	22721.52
757.031	22660.05
757.368	22659.38
757.706	22495.54
758.044	22347.07
758.381	22486.95
758.719	22284.7
759.056	22437.69
759.394	22271.14
759.731	22145.27
760.068	22192.95
760.405	22105.72
760.743	22004.03
