Data from hue_36_FLMS001491_00041.txt Node
Date: Tue Feb 07 17:29:50 GMT 2017
User: dcchb
Spectrometer: FLMS00149
Trigger mode: 0
Integration Time (sec): 2.000000E-2
Scans to average: 10
Electric dark correction enabled: true
Nonlinearity correction enabled: false
Boxcar width: 0
XAxis mode: Wavelengths
Number of Pixels in Spectrum: 2048
>>>>>Begin Spectral Data<<<<<
341.393	-4.49
341.776	-4.49
342.16	-4.49
342.543	-42.23
342.927	-60.76
343.31	-71.61
343.693	-82.46
344.077	-57.15
344.46	-54.43
344.843	-48.56
345.226	-40.42
345.61	-34.1
345.993	-12.17
346.376	-8.33
346.759	31.21
347.142	15.85
347.525	40.48
347.908	46.35
348.291	78.9
348.674	89.52
349.057	106.92
349.44	127.26
349.823	152.11
350.206	181.27
350.588	189.85
350.971	203.19
351.354	242.06
351.737	235.73
352.119	245.9
352.502	273.02
352.884	266.69
353.267	281.15
353.65	301.49
354.032	291.09
354.414	313.92
354.797	305.56
355.179	331.54
355.562	329.96
355.944	323.64
356.326	339.23
356.709	344.2
357.091	335.61
357.473	342.17
357.855	350.3
358.238	356.4
358.62	333.8
359.002	350.08
359.384	330.42
359.766	332.45
360.148	341.94
360.53	350.53
360.912	355.95
361.294	342.84
361.676	320.92
362.057	333.13
362.439	325.44
362.821	344.65
363.203	322.28
363.584	332.9
363.966	333.8
364.348	327.25
364.729	337.19
365.111	339.23
365.493	308.95
365.874	342.84
366.256	315.27
366.637	304.2
367.019	324.31
367.4	329.29
367.781	322.96
368.163	342.17
368.544	312.79
368.925	327.03
369.306	331.32
369.688	297.42
370.069	313.92
370.45	315.73
370.831	322.96
371.212	323.41
371.593	296.52
371.974	310.75
372.355	326.8
372.736	330.87
373.117	321.6
373.498	317.31
373.879	305.78
374.26	331.54
374.641	316.4
375.021	302.17
375.402	324.54
375.783	324.99
376.163	326.12
376.544	323.86
376.925	353.69
377.305	315.05
377.686	343.07
378.066	310.98
378.447	327.7
378.827	332.45
379.208	329.29
379.588	338.55
379.968	317.53
380.349	336.29
380.729	347.36
381.109	337.19
381.489	364.76
381.87	320.02
382.25	343.3
382.63	323.18
383.01	364.31
383.39	353.92
383.77	345.1
384.15	357.08
384.53	329.51
384.91	338.78
385.29	352.34
385.67	350.53
386.049	357.31
386.429	344.2
386.809	327.7
387.189	335.16
387.568	363.18
387.948	374.26
388.328	371.09
388.707	361.83
389.087	369.96
389.466	362.28
389.846	376.52
390.225	355.95
390.605	362.73
390.984	383.75
391.363	355.73
391.743	374.93
392.122	371.32
392.501	386.46
392.881	368.83
393.26	381.94
393.639	368.61
394.018	368.15
394.397	368.83
394.776	377.87
395.155	393.92
395.534	359.79
395.913	377.42
396.292	387.81
396.671	392.56
397.05	379.23
397.429	386.68
397.808	390.75
398.186	374.03
398.565	404.99
398.944	396.85
399.323	391.43
399.701	399.79
400.08	404.54
400.458	393.92
400.837	403.63
401.215	409.73
401.594	426.01
401.972	402.96
402.351	399.34
402.729	417.19
403.107	412.9
403.486	381.04
403.864	406.35
404.242	413.12
404.62	406.12
404.999	407.02
405.377	404.09
405.755	425.1
406.133	417.64
406.511	417.87
406.889	414.71
407.267	425.55
407.645	430.98
408.023	419.23
408.401	436.17
408.779	451.77
409.156	443.18
409.534	445.89
409.912	458.32
410.29	450.41
410.667	436.17
411.045	451.32
411.422	439.79
411.8	468.49
412.178	472.78
412.555	469.85
412.933	450.41
413.31	461.26
413.687	478.21
414.065	480.47
414.442	478.89
414.819	485.21
415.197	485.89
415.574	482.5
415.951	483.63
416.328	496.29
416.705	478.43
417.082	485.44
417.46	522.05
417.837	507.36
418.214	519.11
418.591	504.42
418.967	504.65
419.344	504.65
419.721	497.42
420.098	503.74
420.475	507.81
420.852	511.88
421.228	522.95
421.605	519.11
421.982	525.44
422.358	551.2
422.735	553.23
423.111	534.03
423.488	548.71
423.864	554.59
424.241	543.97
424.617	554.59
424.994	549.17
425.37	579.45
425.746	576.28
426.123	546.45
426.499	539.45
426.875	583.52
427.251	576.74
427.627	574.93
428.003	570.18
428.379	578.54
428.756	599.33
429.132	588.49
429.507	574.25
429.883	597.53
430.259	594.81
430.635	609.96
431.011	613.57
431.387	625.55
431.763	628.94
432.138	619.67
432.514	619.67
432.89	637.3
433.265	636.85
433.641	655.15
434.016	674.36
434.392	661.25
434.767	633.46
435.143	653.12
435.518	654.02
435.894	663.29
436.269	674.13
436.644	694.7
437.02	690.63
437.395	712.1
437.77	695.83
438.145	691.08
438.52	688.37
438.895	707.35
439.271	716.62
439.646	733.12
440.021	738.54
440.395	720.69
440.77	715.94
441.145	731.53
441.52	756.17
441.895	741.03
442.27	765.21
442.645	774.25
443.019	747.13
443.394	754.36
443.769	792.32
444.143	776.05
444.518	781.7
444.892	769.27
445.267	782.15
445.641	765.21
446.016	797.52
446.39	785.09
446.764	786.22
447.139	797.07
447.513	822.83
447.887	801.36
448.262	787.8
448.636	815.83
449.01	818.99
449.384	840.91
449.758	821.02
450.132	843.17
450.506	842.27
450.88	856.05
451.254	849.05
451.628	865.99
452.002	871.42
452.376	863.73
452.75	868.03
453.123	896.28
453.497	912.32
453.871	887.46
454.244	915.94
454.618	917.29
454.992	925.43
455.365	928.82
455.739	945.77
456.112	950.74
456.486	957.07
456.859	961.58
457.232	975.37
457.606	985.09
457.979	992.77
458.352	1020.34
458.725	1042.26
459.099	1018.53
459.472	1045.42
459.845	1062.83
460.218	1057.18
460.591	1077.29
460.964	1054.69
461.337	1083.39
461.71	1121.13
462.083	1113.22
462.456	1103.5
462.829	1135.37
463.201	1128.59
463.574	1151.41
463.947	1162.48
464.32	1193.67
464.692	1187.57
465.065	1195.03
465.438	1218.75
465.81	1251.52
466.183	1256.49
466.555	1293.78
466.928	1237.74
467.3	1272.31
467.672	1338.52
468.045	1339.88
468.417	1326.77
468.789	1381.46
469.161	1372.65
469.534	1399.31
469.906	1423.72
470.278	1470.05
470.65	1488.58
471.022	1495.36
471.394	1497.84
471.766	1531.29
472.138	1596.82
472.51	1617.16
472.882	1638.86
473.253	1671.4
473.625	1716.82
473.997	1752.52
474.369	1747.78
474.74	1772.19
475.112	1771.96
475.484	1849.47
475.855	1868.45
476.227	1929.02
476.598	1994.78
476.97	2012.63
477.341	2065.28
477.713	2138.96
478.084	2134.44
478.455	2193.19
478.827	2240.2
479.198	2312.51
479.569	2360.87
479.94	2433.18
480.311	2459.85
480.682	2506.18
481.053	2636.8
481.424	2681.99
481.795	2733.74
482.166	2790.24
482.537	2872.27
482.908	2932.15
483.279	2963.57
483.65	3084.69
484.021	3182.32
484.391	3199.27
484.762	3307.29
485.133	3382.99
485.503	3417.11
485.874	3571.46
486.244	3608.29
486.615	3735.07
486.985	3796.99
487.356	3911.79
487.726	3956.99
488.097	4083.08
488.467	4189.3
488.837	4302.06
489.207	4354.94
489.578	4455.73
489.948	4542.51
490.318	4636.52
490.688	4719.45
491.058	4878.54
491.428	4926.23
491.798	5016.39
492.168	5132.77
492.538	5253
492.908	5281.92
493.278	5480.11
493.648	5517.17
494.017	5640.33
494.387	5772.31
494.757	5810.27
495.126	5885.52
495.496	6021.79
495.866	6074.9
496.235	6231.28
496.605	6248
496.974	6343.59
497.344	6468.33
497.713	6517.6
498.082	6602.79
498.452	6710.81
498.821	6825.84
499.19	6828.1
499.559	6918.72
499.928	7035.78
500.298	7118.26
500.667	7226.5
501.036	7258.37
501.405	7305.82
501.774	7342.89
502.143	7495.42
502.512	7573.39
502.88	7649.32
503.249	7713.95
503.618	7786.49
503.987	7833.27
504.356	7976.77
504.724	8008.63
505.093	8081.4
505.462	8100.83
505.83	8216.54
506.199	8316.87
506.567	8358
506.936	8435.96
507.304	8470.09
507.672	8547.15
508.041	8630.54
508.409	8723.41
508.777	8807.93
509.145	8881.83
509.514	8865.33
509.882	8982.16
510.25	8976.29
510.618	9080.47
510.986	9132.44
511.354	9218.09
511.722	9344.64
512.09	9323.62
512.458	9356.39
512.826	9529.95
513.193	9593.45
513.561	9594.58
513.929	9693.78
514.297	9712.32
514.664	9829.37
515.032	9879.77
515.4	9900.78
515.767	10021.23
516.135	10008.58
516.502	10004.51
516.869	10157.05
517.237	10214
517.604	10171.51
517.972	10299.64
518.339	10426.42
518.706	10402.47
519.073	10498.51
519.44	10523.14
519.808	10675.68
520.175	10652.86
520.542	10753.19
520.909	10890.14
521.276	10845.84
521.643	10966.97
522.009	11066.18
522.376	11043.35
522.743	11070.7
523.11	11193.63
523.477	11326.74
523.843	11341.88
524.21	11455.55
524.577	11538.03
524.943	11588.2
525.31	11713.84
525.676	11756.78
526.043	11844.01
526.409	11844.69
526.776	12065.7
527.142	12015.08
527.508	12093.27
527.874	12091.24
528.241	12280.16
528.607	12340.04
528.973	12348.4
529.339	12387.05
529.705	12533.03
530.071	12547.72
530.437	12742.29
530.803	12705
531.169	12799.69
531.535	12793.82
531.901	12885.11
532.267	12919.24
532.632	13041.27
532.998	13103.86
533.364	13148.38
533.73	13205.1
534.095	13264.76
534.461	13365.78
534.826	13415.04
535.192	13408.26
535.557	13441.48
535.923	13552.44
536.288	13577.3
536.653	13708.14
537.019	13540.92
537.384	13715.6
537.749	13787.69
538.114	13898.87
538.479	13817.97
538.845	13933.9
539.21	13939.32
539.575	14095.48
539.94	14116.49
540.305	14125.53
540.67	14166.66
541.034	14263.61
541.399	14403.72
541.764	14394
542.129	14444.85
542.494	14431.29
542.858	14496.6
543.223	14550.83
543.587	14648
543.952	14622.02
544.316	14643.71
544.681	14749.47
545.045	14797.61
545.41	14890.48
545.774	14934.78
546.138	14976.81
546.503	14993.31
546.867	14995.57
547.231	15156.47
547.595	15170.25
547.959	15245.28
548.324	15243.02
548.688	15306.97
549.052	15457.93
549.416	15397.82
549.779	15435.55
550.143	15486.17
550.507	15589.22
550.871	15674.64
551.235	15651.82
551.599	15841.19
551.962	15800.52
552.326	15920.74
552.689	15983.56
553.053	15966.84
553.417	15930.91
553.78	16177.23
554.143	16113.73
554.507	16214.97
554.87	16230.79
555.234	16433.72
555.597	16385.81
555.96	16471.69
556.323	16529.09
556.686	16591
557.05	16553.04
557.413	16650.21
557.776	16666.93
558.139	16824.22
558.502	16855.86
558.865	16822.64
559.228	17042.97
559.59	17005
559.953	17095.85
560.316	17194.15
560.679	17169.29
561.041	17320.7
561.404	17416.29
561.767	17495.39
562.129	17374.94
562.492	17579.45
562.854	17612.9
563.217	17562.96
563.579	17631.2
563.941	17769.05
564.304	17866.23
564.666	17953.91
565.028	18024.87
565.39	18074.58
565.753	18111.19
566.115	18203.39
566.477	18308.25
566.839	18278.64
567.201	18448.36
567.563	18418.08
567.925	18556.15
568.287	18521.8
568.648	18758.18
569.01	18798.4
569.372	18953.88
569.734	18771.74
570.095	18999.3
570.457	19057.15
570.819	19072.07
571.18	19189.58
571.542	19245.85
571.903	19368.33
572.265	19380.31
572.626	19457.6
572.987	19485.62
573.349	19603.13
573.71	19578.72
574.071	19860.75
574.432	19843.57
574.794	20072.49
575.155	19991.37
575.516	20069.11
575.877	20220.51
576.238	20270.46
576.599	20524.01
576.96	20562.2
577.32	20710.9
577.681	20748.86
578.042	20939.36
578.403	21043.77
578.763	21178
579.124	21307.94
579.485	21549.52
579.845	21664.32
580.206	21702.51
580.566	21879.45
580.927	21960.81
581.287	22231.31
581.648	22275.6
582.008	22460.45
582.368	22675.59
582.728	22738.19
583.089	22920.56
583.449	23193.99
583.809	23229.47
584.169	23572.06
584.529	23593.76
584.889	24013.41
585.249	24004.14
585.609	24169.11
585.969	24547.41
586.329	24630.57
586.688	24943.78
587.048	25076.21
587.408	25202.98
587.768	25416.31
588.127	25504.44
588.487	25800.93
588.846	26281.82
589.206	26120.92
589.565	26481.37
589.925	26771.53
590.284	26947.57
590.643	27208.13
591.003	27476.82
591.362	27663.03
591.721	27783.7
592.08	28066.41
592.44	28343.92
592.799	28498.94
593.158	28729.67
593.517	28936.67
593.876	29282.65
594.235	29297.79
594.593	29683.77
594.952	29973.48
595.311	30006.7
595.67	30330.3
596.029	30669.73
596.387	30942.04
596.746	31066.33
597.104	31220.45
597.463	31325.08
597.822	31794.22
598.18	31767.33
598.538	31982.46
598.897	32299.07
599.255	32315.56
599.613	33040.29
599.972	32910.12
600.33	33174.07
600.688	33360.28
601.046	33531.58
601.404	33751.23
601.762	33953.49
602.12	34307.83
602.478	34422.63
602.836	34433.25
603.194	34577.42
603.552	34737.42
603.91	34852.22
604.268	35076.39
604.625	35145.54
604.983	35374.24
605.341	35512.54
605.698	35806.77
606.056	36037.05
606.413	36162.47
606.771	36397.26
607.128	36387.77
607.485	36515.45
607.843	36671.15
608.2	36943.92
608.557	37036.79
608.914	37049.45
609.272	37366.28
609.629	37508.87
609.986	37812.14
610.343	37683.33
610.7	38110.89
611.057	38150.66
611.414	38216.2
611.771	38368.74
612.127	38592.91
612.484	38718.11
612.841	38857.76
613.198	38808.5
613.554	38974.82
613.911	39222.27
614.267	39431.76
614.624	39390.4
614.98	39410.07
615.337	39834.01
615.693	39674.01
616.05	39779.55
616.406	40025.42
616.762	40030.16
617.118	40136.15
617.475	40175.92
617.831	40401.45
618.187	40406.88
618.543	40430.15
618.899	40724.83
619.255	40850.48
619.611	40784.27
619.967	41091.15
620.323	41139.96
620.678	41229.68
621.034	40878.5
621.39	41089.57
621.746	41058.61
622.101	41633.74
622.457	41354.65
622.812	41429.22
623.168	41655.43
623.523	41642.1
623.879	41882.99
624.234	41452.27
624.589	41844.8
624.945	41712.38
625.3	41977.23
625.655	41909.21
626.01	41935.65
626.365	42107.62
626.72	42071.01
627.075	42130.67
627.43	42182.2
627.785	42074.63
628.14	42207.05
628.495	42267.17
628.85	42188.07
629.205	42040.73
629.559	42391.91
629.914	42139.94
630.269	42340.84
630.623	42146.26
630.978	42165.25
631.332	42350.1
631.687	42496.99
632.041	42293.38
632.396	42256.32
632.75	42286.6
633.104	42259.93
633.459	42282.08
633.813	42136.32
634.167	42321.4
634.521	42278.24
634.875	42329.99
635.229	42303.55
635.583	42040.5
635.937	42224.45
636.291	42026.95
636.645	42177.45
636.999	42169.31
637.352	42253.83
637.706	42026.72
638.06	42160.28
638.413	42095.42
638.767	41813.17
639.121	42109.88
639.474	41824.92
639.828	41857.68
640.181	42087.74
640.534	42012.71
640.888	41938.81
641.241	41726.84
641.594	41825.14
641.947	42008.42
642.301	41705.37
642.654	41900.62
643.007	42010.9
643.36	41912.15
643.713	41733.39
644.066	42007.51
644.419	41674.41
644.771	41542.44
645.124	41148.32
645.477	41167.08
645.83	40907.43
646.182	40774.78
646.535	40541.56
646.888	40690.71
647.24	40566.42
647.593	40660.43
647.945	40639.41
648.298	40432.64
648.65	40370.27
649.002	40274.45
649.355	40483.94
649.707	40416.14
650.059	40616.59
650.411	41025.84
650.763	40903.13
651.115	41516
651.467	41283.01
651.819	41311.71
652.171	41205.27
652.523	41176.57
652.875	41086.41
653.227	40918.05
653.578	41293.86
653.93	41060.42
654.282	40968.89
654.633	40865.62
654.985	41072.85
655.337	41020.87
655.688	41044.15
656.039	41215.67
656.391	40914.66
656.742	41017.93
657.094	40938.39
657.445	41066.29
657.796	40950.36
658.147	40883.02
658.498	40927.54
658.849	40965.28
659.2	40930.48
659.551	40837.82
659.902	41036.92
660.253	40870.59
660.604	41106.52
660.955	40708.79
661.306	40900.42
661.656	40786.98
662.007	40877.82
662.358	40881.89
662.708	40898.61
663.059	40902.91
663.409	40690.03
663.76	40948.1
664.11	40932.29
664.461	40911.04
664.811	40825.4
665.161	40812.29
665.511	40734.1
665.862	40720.99
666.212	40775
666.562	40884.83
666.912	40742.91
667.262	40741.78
667.612	40824.94
667.962	40739.97
668.312	40746.3
668.662	40800.31
669.011	40678.73
669.361	40650.71
669.711	40720.31
670.06	40696.81
670.41	40665.17
670.76	40457.95
671.109	40605.74
671.459	40598.06
671.808	40426.08
672.157	40544.5
672.507	40365.75
672.856	40448.91
673.205	40453.43
673.554	40440.09
673.904	40460.21
674.253	40717.38
674.602	40485.52
674.951	40001.91
675.3	39770.06
675.649	40413.2
675.998	40361.45
676.346	40344.96
676.695	40531.17
677.044	40190.38
677.393	40330.27
677.741	40455.46
678.09	40133.21
678.438	40151.06
678.787	40252.3
679.135	40148.8
679.484	39900.67
679.832	40212.98
680.181	39766.67
680.529	40017.28
680.877	39914.23
681.225	39744.29
681.573	40039.65
681.922	39787
682.27	39613.22
682.618	39774.35
682.966	39594.02
683.314	39664.07
683.661	39514.7
684.009	39250.52
684.357	39319.22
684.705	39361.03
685.053	39334.36
685.4	39186.12
685.748	39024.31
686.095	39121.94
686.443	39086.68
686.79	38982.28
687.138	38936.86
687.485	38941.38
687.832	38792.45
688.18	38766.47
688.527	38617.32
688.874	38735.05
689.221	38571.44
689.568	38543.42
689.915	38461.39
690.262	38389.08
690.609	38366.93
690.956	38094.62
691.303	38053.94
691.65	37983.66
691.997	37959.26
692.344	37667.74
692.69	37776.89
693.037	37636.33
693.383	37374.41
693.73	37591.36
694.077	37278.14
694.423	37406.95
694.769	37021.65
695.116	37146.85
695.462	37176.45
695.808	37001.99
696.155	36924.71
696.501	36820.3
696.847	36685.39
697.193	36473.87
697.539	36667.31
697.885	36322.46
698.231	36455.34
698.577	36260.09
698.923	36370.82
699.269	36075.92
699.614	36004.73
699.96	35793.21
700.306	35834.79
700.651	35771.07
700.997	35655.59
701.342	35562.71
701.688	35468.25
702.033	35365.88
702.379	35536.04
702.724	35290.63
703.069	35320.23
703.415	34917.75
703.76	35133.79
704.105	35031.88
704.45	34880.24
704.795	34729.74
705.14	34571.1
705.485	34683.41
705.83	34381.5
706.175	34541.49
706.52	34475.05
706.865	34253.36
707.209	34283.87
707.554	34139.7
707.899	34083.43
708.243	34046.14
708.588	33849.31
708.932	33722.08
709.277	33837.78
709.621	33682.76
709.966	33510.11
710.31	33516.44
710.654	33258.36
710.998	33454.06
711.342	33478.92
711.687	33294.07
712.031	33201.87
712.375	33032.83
712.719	33061.98
713.063	33024.02
713.407	33118.48
713.75	32884.36
714.094	32856.11
714.438	32695.44
714.782	32786.96
715.125	32611.6
715.469	32681.65
715.812	32580.87
716.156	32270.14
716.499	32309.91
716.843	32411.38
717.186	32140.43
717.53	32457.48
717.873	32300.65
718.216	32234.66
718.559	32021.33
718.902	31849.13
719.246	31957.15
719.589	31796.71
719.932	31747.44
720.275	31650.5
720.617	31671.29
720.96	31581.8
721.303	31547.67
721.646	31626.09
721.989	31336.61
722.331	31562.36
722.674	31433.78
723.016	31446.21
723.359	31264.29
723.701	31350.84
724.044	31129.83
724.386	31152.2
724.729	31295.02
725.071	31063.84
725.413	31053.22
725.755	30936.39
726.097	30806.9
726.439	30834.92
726.782	30725.55
727.124	30991.76
727.465	30650.97
727.807	30763.29
728.149	30611.43
728.491	30474.93
728.833	30615.04
729.175	30502.73
729.516	30450.08
729.858	30370.98
730.199	30370.98
730.541	30235.84
730.882	30289.63
731.224	30310.42
731.565	30208.95
731.906	30215.28
732.248	30231.78
732.589	29897.1
732.93	29894.38
733.271	29865.23
733.612	30033.81
733.953	29989.3
734.294	29778.45
734.635	29865.01
734.976	29830.66
735.317	29618.91
735.658	29654.62
735.999	29672.69
736.339	29633.15
736.68	29644.67
737.021	29576.2
737.361	29385.02
737.702	29512.25
738.042	29399.93
738.383	29305.92
738.723	29354.74
739.063	29354.96
739.404	29396.09
739.744	29249.88
740.084	29099.83
740.424	29274.29
740.764	29077.23
741.104	29240.62
741.444	29029.32
741.784	29021.19
742.124	29049.43
742.464	28960.17
742.804	28830
743.143	28782.32
743.483	28826.16
743.823	28809.89
744.162	28742.78
744.502	28644.02
744.841	28602.21
745.181	28730.57
745.52	28542.1
745.86	28649.22
746.199	28610.58
746.538	28438.38
746.877	28566.73
747.216	28454.42
747.556	28319.51
747.895	28404.48
748.234	28190.47
748.573	28258.04
748.911	28204.48
749.25	28211.26
749.589	28079.29
749.928	28197.25
750.267	28088.78
750.605	28057.14
750.944	27945.73
751.283	27832.29
751.621	27860.31
751.96	27711.39
752.298	27656.02
752.636	27656.25
752.975	27490.6
753.313	27452.87
753.651	27600.43
753.989	27428.23
754.327	27415.13
754.666	27295.36
755.004	27381
755.342	27371.51
755.679	27305.52
756.017	27160.9
756.355	27109.6
756.693	27042.48
757.031	27137.17
757.368	26844.52
