Data from hue_230_FLMS001491_00016.txt Node
Date: Tue Feb 07 16:36:52 GMT 2017
User: dcchb
Spectrometer: FLMS00149
Trigger mode: 0
Integration Time (sec): 2.000000E-2
Scans to average: 10
Electric dark correction enabled: true
Nonlinearity correction enabled: false
Boxcar width: 0
XAxis mode: Wavelengths
Number of Pixels in Spectrum: 2048
>>>>>Begin Spectral Data<<<<<
341.393	-32.17
341.776	-32.17
342.16	-32.17
342.543	-47.99
342.927	-80.08
343.31	-69.69
343.693	-72.63
344.077	-78.73
344.46	-64.72
344.843	-75.11
345.226	-53.42
345.61	-21.1
345.993	-6.86
346.376	-8.67
346.759	10.54
347.142	20.25
347.525	36.98
347.908	63.42
348.291	91.21
348.674	106.35
349.057	122.17
349.44	132.34
349.823	145.67
350.206	145
350.588	198.1
350.971	183.64
351.354	216.41
351.737	220.25
352.119	234.03
352.502	252.79
352.884	256.41
353.267	265.67
353.65	293.01
354.032	276.07
354.414	298.44
354.797	300.25
355.179	316.07
355.562	302.51
355.944	302.05
356.326	323.75
356.709	319.23
357.091	327.59
357.473	328.72
357.855	328.72
358.238	330.08
358.62	318.1
359.002	324.43
359.384	325.1
359.766	332.34
360.148	346.35
360.53	336.18
360.912	332.11
361.294	329.62
361.676	320.13
362.057	330.98
362.439	329.4
362.821	303.64
363.203	332.34
363.584	312.22
363.966	314.71
364.348	325.56
364.729	302.96
365.111	319.68
365.493	298.21
365.874	316.52
366.256	321.94
366.637	303.18
367.019	306.35
367.4	294.6
367.781	310.19
368.163	300.02
368.544	291.43
368.925	306.35
369.306	309.51
369.688	286.69
370.069	297.76
370.45	320.36
370.831	314.94
371.212	303.64
371.593	307.03
371.974	299.34
372.355	282.39
372.736	284.88
373.117	297.31
373.498	308.38
373.879	319.91
374.26	320.13
374.641	311.55
375.021	316.97
375.402	312.22
375.783	309.96
376.163	304.09
376.544	310.64
376.925	304.77
377.305	316.74
377.686	310.19
378.066	305.9
378.447	326.46
378.827	302.96
379.208	318.1
379.588	326.91
379.968	323.07
380.349	308.61
380.729	329.17
381.109	339.12
381.489	331.66
381.87	326.69
382.25	304.09
382.63	330.75
383.01	333.69
383.39	325.78
383.77	318.55
384.15	338.89
384.53	334.82
384.91	341.15
385.29	336.18
385.67	331.88
386.049	346.35
386.429	342.51
386.809	329.4
387.189	373.46
387.568	341.83
387.948	318.32
388.328	353.35
388.707	349.96
389.087	344.99
389.466	348.38
389.846	346.35
390.225	347.93
390.605	343.41
390.984	352.67
391.363	352.45
391.743	372.11
392.122	367.14
392.501	365.1
392.881	376.18
393.26	359.91
393.639	378.44
394.018	384.99
394.397	350.19
394.776	362.62
395.155	366.91
395.534	370.75
395.913	385.89
396.292	368.72
396.671	372.33
397.05	387.02
397.429	378.89
397.808	396.06
398.186	390.64
398.565	380.47
398.944	386.12
399.323	406.46
399.701	414.14
400.08	396.74
400.458	403.75
400.837	424.08
401.215	391.54
401.594	401.49
401.972	396.29
402.351	420.24
402.729	425.21
403.107	412.79
403.486	414.59
403.864	428.83
404.242	428.38
404.62	414.14
404.999	447.81
405.377	448.27
405.755	435.61
406.133	441.49
406.511	442.16
406.889	477.19
407.267	440.36
407.645	457.98
408.023	439.23
408.401	466.8
408.779	467.02
409.156	490.07
409.534	476.29
409.912	484.2
410.29	506.12
410.667	504.31
411.045	530.52
411.422	505.21
411.8	510.64
412.178	535.72
412.555	537.75
412.933	549.73
413.31	568.71
413.687	580.92
414.065	551.31
414.442	546.12
414.819	579.79
415.197	584.08
415.574	592.89
415.951	585.44
416.328	625.21
416.705	626.79
417.082	593.12
417.46	625.89
417.837	623.85
418.214	643.74
418.591	633.12
418.967	647.36
419.344	654.36
419.721	654.14
420.098	681.25
420.475	663.4
420.852	674.93
421.228	698.65
421.605	709.73
421.982	704.53
422.358	720.35
422.735	721.93
423.111	730.74
423.488	765.54
423.864	746.56
424.241	787.24
424.617	771.65
424.994	791.08
425.37	803.74
425.746	802.15
426.123	799.89
426.499	838.54
426.875	855.26
427.251	870.17
427.627	899.33
428.003	885.77
428.379	877.86
428.756	886.45
429.132	912.66
429.507	909.27
429.883	911.08
430.259	931.87
430.635	923.05
431.011	949.27
431.387	967.35
431.763	987.69
432.138	979.32
432.514	1023.39
432.89	1017.29
433.265	1062.49
433.641	1068.81
434.016	1067.46
434.392	1053.9
434.767	1113.78
435.143	1098.19
435.518	1136.61
435.894	1106.33
436.269	1171.41
436.644	1194.69
437.02	1198.08
437.395	1201.24
437.77	1228.36
438.145	1273.55
438.52	1264.06
438.895	1283.05
439.271	1283.95
439.646	1331.41
440.021	1347
440.395	1339.99
440.77	1345.19
441.145	1347.68
441.52	1387.68
441.895	1415.92
442.27	1391.29
442.645	1429.26
443.019	1441.23
443.394	1439.2
443.769	1478.07
444.143	1447.56
444.518	1488.01
444.892	1477.39
445.267	1502.02
445.641	1505.64
446.016	1538.86
446.39	1540.44
446.764	1548.58
447.139	1509.71
447.513	1559.42
447.887	1545.41
448.262	1600.33
448.636	1580.21
449.01	1618.86
449.384	1634.67
449.758	1615.69
450.132	1672.64
450.506	1683.94
450.88	1670.15
451.254	1657.95
451.628	1736.59
452.002	1711.28
452.376	1736.14
452.75	1722.58
453.123	1752.19
453.497	1778.85
453.871	1778.63
454.244	1837.38
454.618	1836.03
454.992	1873.54
455.365	1840.77
455.739	1895.68
456.112	1915.12
456.486	1963.71
456.859	1956.7
457.232	1996.25
457.606	2005.96
457.979	1999.86
458.352	2026.75
458.725	2071.5
459.099	2074.89
459.472	2095.23
459.845	2135
460.218	2167.32
460.591	2179.52
460.964	2160.54
461.337	2177.94
461.71	2232.17
462.083	2274.43
462.456	2255.22
462.829	2285.5
463.201	2352.17
463.574	2308.1
463.947	2326.86
464.32	2406.41
464.692	2410.02
465.065	2412.28
465.438	2460.87
465.81	2480.75
466.183	2508.78
466.555	2562.56
466.928	2600.75
467.3	2574.99
467.672	2615.44
468.045	2703.57
468.417	2693.63
468.789	2711.26
469.161	2717.13
469.534	2792.61
469.906	2785.83
470.278	2856.11
470.65	2859.28
471.022	2970.01
471.394	2952.83
471.766	2982.66
472.138	3016.33
472.51	3073.96
472.882	3092.26
473.253	3166.16
473.625	3184.92
473.997	3280.73
474.369	3240.06
474.74	3302.65
475.112	3346.72
475.484	3415.42
475.855	3456.77
476.227	3492.25
476.598	3541.07
476.97	3552.14
477.341	3630.33
477.713	3662.87
478.084	3735.18
478.455	3803.21
478.827	3819.02
479.198	3875.97
479.569	3931.79
479.94	4002.3
480.311	4017.44
480.682	4092.24
481.053	4195.96
481.424	4266.02
481.795	4289.07
482.166	4335.85
482.537	4389.86
482.908	4476.63
483.279	4515.73
483.65	4581.26
484.021	4682.5
484.391	4713.69
484.762	4686.12
485.133	4755.27
485.503	4816.51
485.874	4914.59
486.244	4965.89
486.615	5024.87
486.985	5070.06
487.356	5137.41
487.726	5154.58
488.097	5294.24
488.467	5245.2
488.837	5378.53
489.207	5437.06
489.578	5466.21
489.948	5543.27
490.318	5612.88
490.688	5607.23
491.058	5703.95
491.428	5736.04
491.798	5777.39
492.168	5926.99
492.538	5882.02
492.908	5997.72
493.278	5996.82
493.648	5999.31
494.017	6095.57
494.387	6186.19
494.757	6167.66
495.126	6284.72
495.496	6226.64
495.866	6283.82
496.235	6312.74
496.605	6358.62
496.974	6416.92
497.344	6493.53
497.713	6483.59
498.082	6561.55
498.452	6605.62
498.821	6622.79
499.19	6633.41
499.559	6686.75
499.928	6690.36
500.298	6736.01
500.667	6743.01
501.036	6767.19
501.405	6825.95
501.774	6731.94
502.143	6810.13
502.512	6870.02
502.88	6947.98
503.249	6840.41
503.618	6961.09
503.987	6983.01
504.356	7049
504.724	7023.23
505.093	7100.75
505.462	7064.81
505.83	7124.25
506.199	7168.77
506.567	7182.33
506.936	7119.95
507.304	7258.26
507.672	7238.14
508.041	7253.06
508.409	7325.6
508.777	7298.71
509.145	7421.42
509.514	7434.97
509.882	7376.44
510.25	7401.53
510.618	7454.63
510.986	7417.8
511.354	7534.86
511.722	7599.26
512.09	7560.39
512.458	7567.17
512.826	7564.46
513.193	7602.88
513.561	7661.41
513.929	7643.1
514.297	7745.25
514.664	7740.5
515.032	7767.85
515.4	7742.31
515.767	7757.45
516.135	7812.59
516.502	7753.61
516.869	7805.13
517.237	7828.86
517.604	7777.56
517.972	7822.31
518.339	7844.91
518.706	7806.26
519.073	7891.23
519.44	7902.76
519.808	7886.94
520.175	7936.43
520.542	7984.34
520.909	7957.9
521.276	7953.38
521.643	8042.19
522.009	8054.62
522.376	8055.52
522.743	8121.51
523.11	8142.75
523.477	8161.51
523.843	8187.27
524.21	8255.29
524.577	8238.12
524.943	8278.12
525.31	8314.05
525.676	8286.48
526.043	8361.5
526.409	8310.66
526.776	8382.52
527.142	8326.93
527.508	8333.93
527.874	8431.78
528.241	8398.56
528.607	8405.57
528.973	8424.78
529.339	8421.84
529.705	8482.18
530.071	8488.05
530.437	8506.58
530.803	8495.96
531.169	8590.2
531.535	8406.93
531.901	8500.03
532.267	8462.29
532.632	8500.48
532.998	8488.96
533.364	8578.9
533.73	8542.74
534.095	8590.88
534.461	8528.5
534.826	8502.74
535.192	8523.53
535.557	8514.95
535.923	8509.75
536.288	8532.12
536.653	8565.11
537.019	8520.82
537.384	8506.81
537.749	8480.6
538.114	8560.82
538.479	8504.55
538.845	8509.07
539.21	8422.52
539.575	8459.35
539.94	8388.62
540.305	8466.36
540.67	8442.86
541.034	8409.64
541.399	8403.08
541.764	8419.58
542.129	8452.12
542.494	8417.77
542.858	8439.02
543.223	8417.1
543.587	8374.16
543.952	8365.8
544.316	8383.2
544.681	8325.35
545.045	8387.49
545.41	8381.84
545.774	8413.93
546.138	8327.38
546.503	8347.94
546.867	8282.41
547.231	8301.84
547.595	8309.08
547.959	8256.42
548.324	8348.4
548.688	8267.72
549.052	8252.81
549.416	8217.33
549.779	8215.29
550.143	8207.84
550.507	8272.24
550.871	8218.23
551.235	8245.12
551.599	8279.02
551.962	8225.46
552.326	8230.43
552.689	8212.35
553.053	8178.91
553.417	8158.12
553.78	8288.28
554.143	8197.44
554.507	8205.58
554.87	8185.69
555.234	8272.69
555.597	8107.5
555.96	8117.22
556.323	8152.24
556.686	8155.63
557.05	8217.33
557.413	8183.43
557.776	8161.73
558.139	8174.16
558.502	8154.28
558.865	8194.5
559.228	8259.13
559.59	8231.79
559.953	8187.5
560.316	8232.92
560.679	8315.63
561.041	8253.03
561.404	8216.42
561.767	8296.87
562.129	8221.85
562.492	8368.73
562.854	8319.92
563.217	8235.63
563.579	8361.05
563.941	8335.97
564.304	8371.67
564.666	8375.29
565.028	8368.51
565.39	8435.17
565.753	8404.21
566.115	8445.79
566.477	8500.93
566.839	8473.82
567.201	8516.98
567.563	8538
567.925	8544.32
568.287	8548.17
568.648	8577.77
569.01	8582.97
569.372	8608.95
569.734	8592.68
570.095	8638.56
570.457	8695.05
570.819	8623.64
571.18	8722.85
571.542	8654.38
571.903	8710.19
572.265	8777.76
572.626	8671.33
572.987	8773.24
573.349	8741.83
573.71	8793.58
574.071	8799.01
574.432	8850.3
574.794	8902.05
575.155	8859.34
575.516	8847.82
575.877	8931.43
576.238	8900.25
576.599	8927.36
576.96	8928.95
577.32	8949.74
577.681	9047.59
578.042	9095.95
578.403	8985.44
578.763	9026.57
579.124	9079.45
579.485	9048.04
579.845	9128.71
580.206	9080.81
580.566	9067.25
580.927	9115.16
581.287	9177.08
581.648	9132.78
582.008	9257.3
582.368	9202.16
582.728	9213.91
583.089	9229.5
583.449	9225.44
583.809	9236.96
584.169	9237.19
584.529	9217.98
584.889	9350.18
585.249	9284.19
585.609	9235.6
585.969	9348.37
586.329	9307.92
586.688	9333
587.048	9343.85
587.408	9300.46
587.768	9351.76
588.127	9275.38
588.487	9356.96
588.846	9364.87
589.206	9343.62
589.565	9354.47
589.925	9423.4
590.284	9392.21
590.643	9375.94
591.003	9432.89
591.362	9454.58
591.721	9508.14
592.08	9491.42
592.44	9483.51
592.799	9509.27
593.158	9495.03
593.517	9500.91
593.876	9448.48
594.235	9488.48
594.593	9484.86
594.952	9533.9
595.311	9472.21
595.67	9564.86
596.029	9657.97
596.387	9630.17
596.746	9635.59
597.104	9554.69
597.463	9501.13
597.822	9592.88
598.18	9602.83
598.538	9572.54
598.897	9593.11
599.255	9606.22
599.613	9721.24
599.972	9612.77
600.33	9677.17
600.688	9585.2
601.046	9681.24
601.404	9649.83
601.762	9704.07
602.12	9694.12
602.478	9654.35
602.836	9701.13
603.194	9583.62
603.552	9718.76
603.91	9674.24
604.268	9727.57
604.625	9675.59
604.983	9768.7
605.341	9710.39
605.698	9747.91
606.056	9756.95
606.413	9811.86
606.771	9807.57
607.128	9827.91
607.485	9772.54
607.843	9749.26
608.2	9787.45
608.557	9879.2
608.914	9872.2
609.272	9851.41
609.629	9871.52
609.986	9908.81
610.343	9791.07
610.7	9882.59
611.057	9897.96
611.414	9887.11
611.771	9862.71
612.127	9947.68
612.484	9894.34
612.841	9955.59
613.198	9929.37
613.554	9984.06
613.911	9964.62
614.267	9946.77
614.624	9985.87
614.98	9942.93
615.337	10028.8
615.693	10008.01
616.05	9959.43
616.406	9992.19
616.762	10038.3
617.118	9991.97
617.475	10065.87
617.831	10077.16
618.187	10099.99
618.543	10086.88
618.899	10085.3
619.255	10074.68
619.611	10091.18
619.967	10161.68
620.323	10170.72
620.678	10107.67
621.034	10081.46
621.39	10077.84
621.746	10119.65
622.101	10197.61
622.457	10065.87
622.812	10109.25
623.168	10121.23
623.523	10106.54
623.879	10145.19
624.234	10086.66
624.589	10086.2
624.945	10168.46
625.3	10119.65
625.655	10072.64
626.01	10125.07
626.365	10148.35
626.72	10068.13
627.075	10043.27
627.43	10066.09
627.785	10075.81
628.14	10127.56
628.495	10111.74
628.85	10052.08
629.205	10090.5
629.559	10077.84
629.914	10067.67
630.269	10101.34
630.623	10075.36
630.978	9990.84
631.332	10130.5
631.687	10004.17
632.041	10017.73
632.396	9992.19
632.75	9925.98
633.104	10001.69
633.459	9908.13
633.813	9965.53
634.167	9913.33
634.521	9880.56
634.875	9913.55
635.229	9903.16
635.583	9887.79
635.937	9843.72
636.291	9821.8
636.645	9813.44
636.999	9823.61
637.352	9818.19
637.706	9800.79
638.06	9762.14
638.413	9795.36
638.767	9748.13
639.121	9836.49
639.474	9715.82
639.828	9713.56
640.181	9776.61
640.534	9703.39
640.888	9728.02
641.241	9612.54
641.594	9646.22
641.947	9738.87
642.301	9683.05
642.654	9694.35
643.007	9674.69
643.36	9689.83
643.713	9648.93
644.066	9689.38
644.419	9568.93
644.771	9591.08
645.124	9460.68
645.477	9465.2
645.83	9402.83
646.182	9342.04
646.535	9320.35
646.888	9335.26
647.24	9326
647.593	9384.98
647.945	9307.24
648.298	9260.24
648.65	9260.46
649.002	9234.7
649.355	9382.72
649.707	9299.33
650.059	9340.01
650.411	9394.02
650.763	9464.75
651.115	9538.87
651.467	9495.71
651.819	9496.16
652.171	9459.1
652.523	9495.48
652.875	9495.94
653.227	9467.69
653.578	9502.49
653.93	9538.2
654.282	9448.71
654.633	9436.96
654.985	9457.75
655.337	9458.42
655.688	9507.69
656.039	9504.3
656.391	9406.22
656.742	9515.15
657.094	9481.93
657.445	9506.33
657.796	9485.99
658.147	9458.42
658.498	9438.09
658.849	9449.84
659.2	9468.37
659.551	9493.45
659.902	9490.74
660.253	9459.55
660.604	9491.64
660.955	9406.45
661.306	9445.09
661.656	9421.59
662.007	9406.45
662.358	9414.13
662.708	9443.51
663.059	9436.5
663.409	9341.59
663.76	9560.57
664.11	9464.53
664.461	9494.35
664.811	9534.13
665.161	9422.49
665.511	9430.63
665.862	9400.57
666.212	9512.66
666.562	9484.64
666.912	9492.32
667.262	9488.48
667.612	9440.12
667.962	9514.69
668.312	9425.88
668.662	9493.45
669.011	9425.43
669.361	9515.37
669.711	9376.62
670.06	9406.22
670.41	9499.78
670.76	9435.15
671.109	9545.43
671.459	9503.17
671.808	9423.62
672.157	9423.17
672.507	9391.31
672.856	9398.31
673.205	9389.72
673.554	9439.22
673.904	9368.71
674.253	9420.68
674.602	9419.55
674.951	9237.19
675.3	9169.39
675.649	9290.07
675.998	9344.75
676.346	9349.95
676.695	9413
677.044	9293.91
677.393	9317.18
677.741	9294.13
678.09	9336.17
678.438	9379.56
678.787	9302.95
679.135	9252.1
679.484	9224.08
679.832	9258.43
680.181	9165.78
680.529	9201.71
680.877	9189.96
681.225	9150.18
681.573	9186.57
681.922	9115.16
682.27	9064.99
682.618	9095.95
682.966	9109.51
683.314	9103.4
683.661	9063.86
684.009	8995.84
684.357	9063.86
684.705	8958.78
685.053	8957.87
685.4	8974.82
685.748	8891.43
686.095	8921.04
686.443	8876.07
686.79	8774.15
687.138	8919.23
687.485	8855.28
687.832	8850.98
688.18	8905.9
688.527	8888.27
688.874	8794.71
689.221	8776.18
689.568	8703.87
689.915	8752.23
690.262	8705.22
690.609	8656.41
690.956	8694.6
691.303	8568.5
691.65	8583.19
691.997	8579.12
692.344	8536.64
692.69	8553.59
693.037	8517.43
693.383	8437.89
693.73	8476.98
694.077	8420.94
694.423	8457.09
694.769	8383.65
695.116	8374.16
695.462	8307.72
695.808	8310.21
696.155	8378.23
696.501	8232.47
696.847	8270.66
697.193	8193.37
697.539	8196.99
697.885	8130.1
698.231	8140.04
698.577	8139.81
698.923	8057.56
699.269	8018.46
699.614	8015.52
699.96	7941.85
700.306	7991.57
700.651	7884
700.997	7843.32
701.342	7873.61
701.688	7874.96
702.033	7834.29
702.379	7874.96
702.724	7717.23
703.069	7836.09
703.415	7713.61
703.76	7649.21
704.105	7753.84
704.45	7716.32
704.795	7574.63
705.14	7597
705.485	7576.44
705.83	7523.11
706.175	7522.43
706.52	7521.07
706.865	7421.42
707.209	7443.11
707.554	7397.01
707.899	7463.67
708.243	7372.6
708.588	7367.18
708.932	7289.44
709.277	7285.83
709.621	7346.84
709.966	7219.39
710.31	7288.54
710.654	7218.93
710.998	7253.28
711.342	7271.59
711.687	7203.12
712.031	7180.07
712.375	7178.26
712.719	7198.14
713.063	7140.07
713.407	7145.72
713.75	7158.37
714.094	7119.28
714.438	7084.7
714.782	7119.73
715.125	7071.82
715.469	7089.45
715.812	7120.86
716.156	7009.67
716.499	7011.26
716.843	6982.56
717.186	6969
717.53	7030.01
717.873	6940.07
718.216	6966.74
718.559	6956.34
718.902	6894.65
719.246	6914.76
719.589	6857.36
719.932	6878.83
720.275	6888.55
720.617	6822.33
720.96	6883.58
721.303	6837.02
721.646	6834.31
721.989	6804.93
722.331	6830.02
722.674	6769.68
723.016	6854.88
723.359	6778.95
723.701	6833.63
724.044	6775.56
724.386	6742.56
724.729	6798.15
725.071	6783.47
725.413	6726.29
725.755	6731.72
726.097	6740.75
726.439	6661.89
726.782	6682
727.124	6768.78
727.465	6734.43
727.807	6771.49
728.149	6715.67
728.491	6684.03
728.833	6720.87
729.175	6689.46
729.516	6711.83
729.858	6687.2
730.199	6670.7
730.541	6685.39
730.882	6729.46
731.224	6667.76
731.565	6662.79
731.906	6623.92
732.248	6704.37
732.589	6630.7
732.93	6616.01
733.271	6604.71
733.612	6707.54
733.953	6638.84
734.294	6626.86
734.635	6672.96
734.976	6685.84
735.317	6647.65
735.658	6675.9
735.999	6677.71
736.339	6639.97
736.68	6672.51
737.021	6702.56
737.361	6647.88
737.702	6698.95
738.042	6677.25
738.383	6680.87
738.723	6672.73
739.063	6719.51
739.404	6700.76
739.744	6667.54
740.084	6628.67
740.424	6711.6
740.764	6680.42
741.104	6691.49
741.444	6692.17
741.784	6686.97
742.124	6718.83
742.464	6749.34
742.804	6747.53
743.143	6763.13
743.483	6728.55
743.823	6819.85
744.162	6797.02
744.502	6837.48
744.841	6802
745.181	6900.98
745.52	6892.16
745.86	6943.24
746.199	6926.96
746.538	6898.26
746.877	6935.1
747.216	7010.35
747.556	7017.81
747.895	7096.9
748.234	7075.89
748.573	7077.02
748.911	7200.86
749.25	7226.84
749.589	7248.99
749.928	7312.72
750.267	7395.65
750.605	7368.08
750.944	7393.39
751.283	7480.17
751.621	7522.66
751.96	7597.23
752.298	7634.06
752.636	7731.46
752.975	7809.2
753.313	7827.05
753.651	7950.44
753.989	7946.82
754.327	8026.6
754.666	8099.14
755.004	8234.28
755.342	8340.26
755.679	8398.11
756.017	8445.57
756.355	8623.64
756.693	8669.74
757.031	8755.84
757.368	8866.12
757.706	9006.68
758.044	9092.56
758.381	9189.73
758.719	9274.02
759.056	9456.16
759.394	9576.84
759.731	9584.3
760.068	9712.88
760.405	9817.74
760.743	9982.7
761.08	10081.91
761.417	10138.86
761.754	10283.49
762.091	10437.83
762.428	10474.89
762.765	10668.34
763.102	10838.05
763.438	10879.18
763.775	10994.2
764.112	11091.38
764.449	11266.51
764.785	11285.04
765.122	11355.1
765.458	11429.9
765.795	11589.44
766.131	11710.79
766.467	11741.98
766.804	11795.76
767.14	11903.78
767.476	12101.97
767.812	12114.17
768.148	12236.88
