Data from hue_10_FLMS001491_90.txt Node
Date: Mon Feb 06 15:32:42 GMT 2017
User: dcchb
Spectrometer: FLMS00149
Trigger mode: 0
Integration Time (sec): 2.000000E-2
Scans to average: 10
Electric dark correction enabled: true
Nonlinearity correction enabled: false
Boxcar width: 0
XAxis mode: Wavelengths
Number of Pixels in Spectrum: 2048
>>>>>Begin Spectral Data<<<<<
341.393	-19.66
341.776	-19.66
342.16	-19.66
342.543	-80.68
342.927	-52.88
343.31	-44.97
343.693	-92.2
344.077	-58.3
344.46	-72.54
344.843	-62.37
345.226	-32.32
345.61	-34.58
345.993	-3.39
346.376	-14.01
346.759	-2.26
347.142	37.97
347.525	35.48
347.908	61.69
348.291	78.87
348.674	83.84
349.057	119.09
349.44	127.68
349.823	131.52
350.206	163.84
350.588	187.79
350.971	212.88
351.354	219.88
351.737	236.38
352.119	257.85
352.502	252.65
352.884	267.56
353.267	280.67
353.65	301.24
354.032	313.66
354.414	298.98
354.797	305.3
355.179	317.05
355.562	309.82
355.944	336.94
356.326	346.88
356.709	340.56
357.091	324.96
357.473	336.26
357.855	331.29
358.238	330.16
358.62	343.04
359.002	351.18
359.384	337.17
359.766	345.3
360.148	346.43
360.53	330.61
360.912	331.06
361.294	315.47
361.676	341.01
362.057	327.9
362.439	325.42
362.821	333.32
363.203	323.16
363.584	327.45
363.966	322.7
364.348	333.1
364.729	344.85
365.111	316.38
365.493	312.53
365.874	319.77
366.256	327
366.637	319.77
367.019	299.65
367.4	343.49
367.781	321.57
368.163	334.45
368.544	313.89
368.925	303.04
369.306	338.75
369.688	308.47
370.069	307.34
370.45	315.02
370.831	305.53
371.212	315.92
371.593	323.83
371.974	318.86
372.355	313.89
372.736	319.99
373.117	327.9
373.498	333.55
373.879	310.27
374.26	329.26
374.641	329.26
375.021	315.92
375.402	306.21
375.783	304.4
376.163	342.59
376.544	321.35
376.925	311.18
377.305	338.52
377.686	334.23
378.066	328.13
378.447	318.86
378.827	330.61
379.208	357.28
379.588	346.21
379.968	322.03
380.349	359.54
380.729	320.22
381.109	317.51
381.489	328.13
381.87	334.23
382.25	343.27
382.63	325.42
383.01	326.09
383.39	344.17
383.77	325.42
384.15	337.17
384.53	352.53
384.91	348.69
385.29	320.44
385.67	346.66
386.049	367.67
386.429	343.27
386.809	340.56
387.189	349.82
387.568	335.13
387.948	351.4
388.328	366.54
388.707	362.02
389.087	336.94
389.466	360.67
389.846	360.89
390.225	359.76
390.605	366.09
390.984	355.7
391.363	344.4
391.743	372.42
392.122	350.27
392.501	355.02
392.881	374.91
393.26	373.1
393.639	368.35
394.018	371.97
394.397	367.45
394.776	385.3
395.155	369.03
395.534	385.75
395.913	363.83
396.292	362.02
396.671	365.19
397.05	361.35
397.429	358.86
397.808	375.58
398.186	372.19
398.565	373.1
398.944	377.39
399.323	382.14
399.701	373.32
400.08	353.89
400.458	402.25
400.837	375.81
401.215	401.12
401.594	386.66
401.972	387.56
402.351	386.66
402.729	404.74
403.107	406.09
403.486	410.16
403.864	411.06
404.242	406.54
404.62	403.38
404.999	406.99
405.377	412.87
405.755	395.02
406.133	398.18
406.511	400.44
406.889	418.29
407.267	395.92
407.645	427.11
408.023	414.23
408.401	444.28
408.779	409.25
409.156	430.05
409.534	410.16
409.912	436.37
410.29	434.34
410.667	427.11
411.045	434.34
411.422	431.18
411.8	458.74
412.178	461.46
412.555	461.46
412.933	452.42
413.31	437.05
413.687	451.51
414.065	461.68
414.442	464.39
414.819	464.85
415.197	477.5
415.574	461.46
415.951	465.52
416.328	482.25
416.705	465.07
417.082	477.05
417.46	488.57
417.837	486.54
418.214	495.35
418.591	498.74
418.967	493.77
419.344	491.06
419.721	494.9
420.098	508.46
420.475	502.13
420.852	504.85
421.228	491.74
421.605	492.64
421.982	501.23
422.358	525.86
422.735	505.98
423.111	527.67
423.488	538.29
423.864	510.5
424.241	528.12
424.617	519.99
424.994	519.31
425.37	543.94
425.746	523.38
426.123	552.53
426.499	552.98
426.875	543.04
427.251	570.83
427.627	566.99
428.003	568.35
428.379	569.25
428.756	579.65
429.132	563.15
429.507	574
429.883	572.64
430.259	600.66
430.635	557.5
431.011	596.37
431.387	607.22
431.763	612.19
432.138	609.25
432.514	606.99
432.89	607.22
433.265	633.43
433.641	612.87
434.016	613.54
434.392	623.49
434.767	649.93
435.143	651.51
435.518	644.73
435.894	659.87
436.269	663.49
436.644	675.46
437.02	664.84
437.395	670.04
437.77	642.92
438.145	700.77
438.52	685.18
438.895	698.51
439.271	709.36
439.646	700.32
440.021	720.43
440.395	712.52
440.77	709.81
441.145	719.08
441.52	711.62
441.895	714.56
442.27	727.21
442.645	710.49
443.019	747.1
443.394	729.47
443.769	729.47
444.143	732.64
444.518	733.31
444.892	730.83
445.267	748
445.641	773.54
446.016	761.56
446.39	766.76
446.764	763.6
447.139	750.71
447.513	768.34
447.887	763.6
448.262	768.57
448.636	794.1
449.01	775.57
449.384	795.01
449.758	797.27
450.132	799.75
450.506	779.64
450.88	780.77
451.254	813.09
451.628	807.21
452.002	805.85
452.376	839.75
452.75	835.46
453.123	822.58
453.497	858.73
453.871	850.6
454.244	862.35
454.618	877.04
454.992	854.67
455.365	884.5
455.739	903.71
456.112	912.07
456.486	890.6
456.859	923.37
457.232	920.43
457.606	900.99
457.979	901.67
458.352	939.86
458.725	953.65
459.099	964.72
459.472	971.05
459.845	971.27
460.218	975.12
460.591	1006.53
460.964	999.07
461.337	1023.25
461.71	1039.07
462.083	1035.68
462.456	1017.83
462.829	1056.92
463.201	1050.37
463.574	1044.49
463.947	1068.9
464.32	1078.39
464.692	1081.78
465.065	1122.46
465.438	1121.1
465.81	1124.94
466.183	1157.03
466.555	1147.99
466.928	1177.6
467.3	1146.41
467.672	1190.03
468.045	1216.24
468.417	1199.06
468.789	1233.19
469.161	1249.01
469.534	1264.37
469.906	1287.2
470.278	1273.19
470.65	1313.86
471.022	1345.73
471.394	1347.54
471.766	1357.7
472.138	1378.27
472.51	1402.45
472.882	1441.54
473.253	1446.06
473.625	1455.55
473.997	1487.19
474.369	1506.63
474.74	1497.59
475.112	1537.81
475.484	1550.02
475.855	1574.65
476.227	1611.03
476.598	1656.23
476.97	1642.67
477.341	1689.67
477.713	1746.62
478.084	1736.23
478.455	1800.86
478.827	1783.68
479.198	1847.41
479.569	1852.83
479.94	1908.2
480.311	1911.36
480.682	1977.58
481.053	2023.68
481.424	2065.03
481.795	2049.89
482.166	2126.5
482.537	2140.96
482.908	2194.29
483.279	2217.34
483.65	2252.6
484.021	2315.65
484.391	2315.42
484.762	2365.59
485.133	2393.84
485.503	2405.36
485.874	2483.1
486.244	2514.74
486.615	2564.45
486.985	2603.77
487.356	2681.96
487.726	2658.01
488.097	2748.18
488.467	2742.75
488.837	2802.19
489.207	2821.85
489.578	2856.87
489.948	2930.09
490.318	2968.74
490.688	2988.85
491.058	3084.89
491.428	3078.34
491.798	3136.64
492.168	3215.06
492.538	3194.49
492.908	3241.95
493.278	3271.78
493.648	3304.32
494.017	3338.67
494.387	3365.11
494.757	3406.01
495.126	3458.89
495.496	3439.91
495.866	3473.35
496.235	3540.47
496.605	3579.79
496.974	3625.67
497.344	3651.43
497.713	3666.57
498.082	3710.18
498.452	3713.35
498.821	3749.05
499.19	3803.97
499.559	3814.36
499.928	3824.53
500.298	3863.85
500.667	3881.93
501.036	3899.11
501.405	3916.96
501.774	3944.3
502.143	3962.83
502.512	3957.64
502.88	4012.55
503.249	4020.23
503.618	4034.02
503.987	4064.07
504.356	4116.73
504.724	4117.63
505.093	4163.05
505.462	4149.27
505.83	4154.92
506.199	4211.41
506.567	4260.68
506.936	4229.27
507.304	4272.2
507.672	4336.38
508.041	4352.88
508.409	4337.29
508.777	4387.91
509.145	4399.43
509.514	4390.17
509.882	4455.93
510.25	4459.54
510.618	4464.97
510.986	4480.79
511.354	4490.73
511.722	4562.59
512.09	4554.91
512.458	4576.83
512.826	4657.05
513.193	4609.14
513.561	4650.73
513.929	4668.13
514.297	4712.64
514.664	4706.99
515.032	4677.62
515.4	4767.11
515.767	4754
516.135	4797.39
516.502	4744.28
516.869	4837.39
517.237	4809.82
517.604	4795.81
517.972	4911.28
518.339	4891.62
518.706	4863.83
519.073	4890.27
519.44	4909.25
519.808	4986.54
520.175	4936.37
520.542	5001.68
520.909	4983.37
521.276	5019.53
521.643	5032.86
522.009	5092.52
522.376	5096.36
522.743	5126.87
523.11	5174.55
523.477	5156.7
523.843	5215.68
524.21	5246.87
524.577	5308.56
524.943	5334.77
525.31	5313.08
525.676	5322.8
526.043	5396.69
526.409	5363.47
526.776	5479.4
527.142	5512.4
527.508	5507.65
527.874	5558.95
528.241	5554.2
528.607	5586.52
528.973	5610.25
529.339	5617.93
529.705	5702
530.071	5680.08
530.437	5730.02
530.803	5713.75
531.169	5789.45
531.535	5772.28
531.901	5778.61
532.267	5847.08
532.632	5859.73
532.998	5892.05
533.364	5925.49
533.73	5872.16
534.095	5948.32
534.461	5950.35
534.826	5982.44
535.192	6057.24
535.557	6053.17
535.923	6101.08
536.288	6070.57
536.653	6127.07
537.019	6094.08
537.384	6151.25
537.749	6218.37
538.114	6212.49
538.479	6210.91
538.845	6244.81
539.21	6281.87
539.575	6259.04
539.94	6307.86
540.305	6372.04
540.67	6374.3
541.034	6412.03
541.399	6455.65
541.764	6400.51
542.129	6457.46
542.494	6522.77
542.858	6562.09
543.223	6560.73
543.587	6598.02
543.952	6574.52
544.316	6587.17
544.681	6620.62
545.045	6671.24
545.41	6698.35
545.774	6751.46
546.138	6765.02
546.503	6836.88
546.867	6777.9
547.231	6847.96
547.595	6862.42
547.959	6969.99
548.324	6859.25
548.688	6897.45
549.052	6951
549.416	6957.11
549.779	7032.58
550.143	6993.04
550.507	7074.84
550.871	7031.45
551.235	7082.53
551.599	7100.15
551.962	7118.23
552.326	7187.83
552.689	7189.42
553.053	7159.13
553.417	7195.29
553.78	7307.15
554.143	7209.98
554.507	7304.44
554.87	7344.21
555.234	7378.11
555.597	7386.25
555.96	7444.78
556.323	7398.68
556.686	7424.21
557.05	7486.81
557.413	7470.76
557.776	7491.33
558.139	7521.16
558.502	7589.18
558.865	7557.09
559.228	7569.97
559.59	7640.93
559.953	7633.7
560.316	7762.06
560.679	7749.63
561.041	7724.77
561.404	7716.63
561.767	7842.73
562.129	7798.44
562.492	7901.04
562.854	7880.47
563.217	7881.83
563.579	7993.01
563.941	7979.23
564.304	7979.68
564.666	8050.86
565.028	8022.84
565.39	8089.05
565.753	8128.37
566.115	8149.39
566.477	8219.9
566.839	8209.73
567.201	8196.85
567.563	8219.22
567.925	8293.79
568.287	8341.93
568.648	8371.53
569.01	8386.45
569.372	8409.04
569.734	8413.79
570.095	8529.95
570.457	8536.27
570.819	8616.5
571.18	8594.35
571.542	8680.68
571.903	8689.26
572.265	8686.55
572.626	8765.42
572.987	8784.63
573.349	8791.63
573.71	8899.88
574.071	8891.52
574.432	8964.96
574.794	9075.02
575.155	9121.57
575.516	9115.47
575.877	9221
576.238	9279.76
576.599	9393.2
576.96	9438.4
577.32	9443.59
577.681	9597.71
578.042	9702.57
578.403	9759.07
578.763	9850.81
579.124	9875.22
579.485	9991.83
579.845	10149.34
580.206	10130.36
580.566	10267.07
580.927	10433.17
581.287	10612.83
581.648	10678.82
582.008	10848.3
582.368	10966.72
582.728	11107.73
583.089	11218.69
583.449	11290.1
583.809	11458.68
584.169	11672.01
584.529	11749.52
584.889	12093.24
585.249	12227.25
585.609	12361.03
585.969	12651.64
586.329	12779.78
586.688	13026.1
587.048	13105.64
587.408	13410.27
587.768	13584.05
588.127	13819.07
588.487	13964.38
588.846	14475.1
589.206	14563.46
589.565	14836.67
589.925	15111.69
590.284	15321.18
590.643	15646.14
591.003	15847.49
591.362	16112.34
591.721	16402.05
592.08	16644.53
592.44	17019.44
592.799	17205.88
593.158	17453.78
593.517	17810.15
593.876	18118.17
594.235	18377.6
594.593	18668.21
594.952	19067.75
595.311	19259.61
595.67	19660.27
596.029	19998.34
596.387	20366.02
596.746	20534.38
597.104	20742.05
597.463	21135.72
597.822	21552.65
598.18	21690.5
598.538	21964.62
598.897	22446.87
599.255	22445.74
599.613	23086.62
599.972	23298.6
600.33	23653.16
600.688	23845.47
601.046	24210.21
601.404	24698.33
601.762	24810.87
602.12	25274.36
602.478	25498.31
602.836	25720.45
603.194	25829.15
603.552	26294.45
603.91	26430.04
604.268	26776.7
604.625	27015.79
604.983	27295.33
605.341	27591.59
605.698	27896.67
606.056	28184.8
606.413	28374.4
606.771	28657.55
607.128	28977.32
607.485	29027.71
607.843	29348.15
608.2	29724.19
608.557	30075.59
608.914	30182.71
609.272	30416.15
609.629	30737.72
609.986	31015.46
610.343	31057.26
610.7	31570.92
611.057	31820.86
611.414	31749.9
611.771	32090.46
612.127	32268.76
612.484	32576.77
612.841	32801.17
613.198	32815.41
613.554	32903.09
613.911	33245.68
614.267	33354.15
614.624	33505.79
614.98	33907.58
615.337	34084.3
615.693	34249.95
616.05	34389.38
616.406	34604.06
616.762	34702.14
617.118	34836.6
617.475	35049.93
617.831	35335.79
618.187	35406.75
618.543	35525.17
618.899	35809.23
619.255	35913.41
619.611	35938.72
619.967	36180.74
620.323	36464.8
620.678	36325.6
621.034	36381.64
621.39	36467.29
621.746	36571.92
622.101	37221.17
622.457	36876.09
622.812	37115.63
623.168	37366.02
623.523	37408.51
623.879	37539.8
624.234	37291.22
624.589	37639.01
624.945	37674.72
625.3	37906.12
625.655	37827.25
626.01	37864.54
626.365	38073.8
626.72	38045.33
627.075	38147.7
627.43	38194.25
627.785	38245.32
628.14	38345.66
628.495	38582.04
628.85	38287.58
629.205	38389.73
629.559	38632.2
629.914	38499.55
630.269	38627.01
630.623	38520.57
630.978	38465.66
631.332	38705.42
631.687	38841.69
632.041	38696.16
632.396	38897.96
632.75	38742.26
633.104	38823.61
633.459	38605.31
633.813	38601.02
634.167	38751.07
634.521	38772.99
634.875	38865.64
635.229	38836.72
635.583	38589.49
635.937	38924.63
636.291	38833.33
636.645	38732.31
636.999	38790.17
637.352	38882.59
637.706	38724.41
638.06	38951.29
638.413	38765.53
638.767	38773.67
639.121	38798.75
639.474	38591.75
639.828	38625.88
640.181	38813.44
640.534	38799.88
640.888	38713.56
641.241	38500.91
641.594	38613.9
641.947	38659.1
642.301	38647.12
642.654	38601.24
643.007	38614.35
643.36	38566.67
643.713	38513.56
644.066	38816.38
644.419	38479.44
644.771	38233.34
645.124	37952.9
645.477	37788.16
645.83	37861.83
646.182	37643.76
646.535	37528.05
646.888	37577.99
647.24	37425.23
647.593	37674.04
647.945	37494.83
648.298	37411.22
648.65	37429.52
649.002	37231.34
649.355	37480.82
649.707	37255.29
650.059	37506.58
650.411	37892.79
650.763	38077.64
651.115	38495.71
651.467	38184.31
651.819	38141.82
652.171	38093.46
652.523	38010.75
652.875	38090.52
653.227	37974.82
653.578	38219.56
653.93	38111.09
654.282	37901.6
654.633	37928.04
654.985	38134.82
655.337	38019.79
655.688	37950.19
656.039	38049.62
656.391	37875.16
656.742	37921.71
657.094	37906.8
657.445	37915.16
657.796	37809.18
658.147	37862.28
658.498	37733.02
658.849	37956.74
659.2	37834.49
659.551	37791.55
659.902	37955.61
660.253	37799.68
660.604	37794.03
660.955	37681.5
661.306	37772.57
661.656	37842.39
662.007	37789.74
662.358	37771.21
662.708	37742.06
663.059	37762.4
663.409	37534.38
663.76	37744.32
664.11	37744.54
664.461	37850.3
664.811	37676.3
665.161	37679.24
665.511	37580.93
665.862	37819.8
666.212	37744.09
666.562	37684.21
666.912	37785
667.262	37624.55
667.612	37587.03
667.962	37567.83
668.312	37669.74
668.662	37805.33
669.011	37583.64
669.361	37691.66
669.711	37620.03
670.06	37514.04
670.41	37335.52
670.76	37563.08
671.109	37605.34
671.459	37432.69
671.808	37488.96
672.157	37514.95
672.507	37234.05
672.856	37272.01
673.205	37348.62
673.554	37479.01
673.904	37453.7
674.253	37434.72
674.602	37387.49
674.951	36864.34
675.3	36620.96
675.649	37337.1
675.998	37222.52
676.346	37263.65
676.695	37385.68
677.044	36952.93
677.393	37236.08
677.741	37196.31
678.09	37131.68
678.438	37102.75
678.787	36991.57
679.135	37202.64
679.484	36840.61
679.832	36914.74
680.181	36872.93
680.529	36971.68
680.877	36821.63
681.225	36852.36
681.573	36937.33
681.922	36706.15
682.27	36632.48
682.618	36688.3
682.966	36615.31
683.314	36638.81
683.661	36626.16
684.009	36392.26
684.357	36354.52
684.705	36306.62
685.053	36272.49
685.4	36212.83
685.748	35996.57
686.095	36043.8
686.443	35740.53
686.79	35968.32
687.138	35932.16
687.485	35891.94
687.832	35742.56
688.18	35746.4
688.527	35570.14
688.874	35623.24
689.221	35539.4
689.568	35408.11
689.915	35299.18
690.262	35296.7
690.609	35045.86
690.956	35119.08
691.303	34938.52
691.65	34897.39
691.997	34980.78
692.344	34778.29
692.69	34785.53
693.037	34661.46
693.383	34519.77
693.73	34610.16
694.077	34305.54
694.423	34380.79
694.769	34415.37
695.116	34155.94
695.462	34098.31
695.808	34050.63
696.155	34107.13
696.501	33873.01
696.847	33778.55
697.193	33597.99
697.539	33724.31
697.885	33392.57
698.231	33423.98
698.577	33530.19
698.923	33252.23
699.269	33160.03
699.614	32994.84
699.96	32973.82
700.306	32926.37
700.651	32943.54
700.997	32648.18
701.342	32676.2
701.688	32638.01
702.033	32574.74
702.379	32595.3
702.724	32384.23
703.069	32423.1
703.415	32042.1
703.76	32065.15
704.105	32199.15
704.45	32038.93
704.795	31877.81
705.14	31760.97
705.485	31896.11
705.83	31665.16
706.175	31708.77
706.52	31515.78
706.865	31431.94
707.209	31483.24
707.554	31341.1
707.899	31400.76
708.243	31224.26
708.588	31162.34
708.932	30931.39
709.277	30907.66
709.621	30965.29
709.966	30731.4
710.31	30888.45
710.654	30540.44
710.998	30554.68
711.342	30518.52
711.687	30485.75
712.031	30243.72
712.375	30233.1
712.719	30347.9
713.063	30200.79
713.407	30385.42
713.75	30160.79
714.094	30145.42
714.438	29937.74
714.782	30047.12
715.125	29947.91
715.469	29969.38
715.812	29859.55
716.156	29733.23
716.499	29650.07
716.843	29758.99
717.186	29611.42
717.53	29730.07
717.873	29596.74
718.216	29535.49
718.559	29489.39
718.902	29157.88
719.246	29297.76
719.589	29221.83
719.932	29127.14
720.275	29167.14
720.617	29045.11
720.96	29195.62
721.303	28985
721.646	29044.89
721.989	28738
722.331	28948.62
722.674	28817.77
723.016	28726.02
723.359	28645.57
723.701	28744.1
724.044	28546.82
724.386	28413.49
724.729	28546.82
725.071	28519.48
725.413	28368.07
725.755	28387.05
726.097	28279.71
726.439	28202.65
726.782	28195.42
727.124	28265.92
727.465	28135.76
727.807	28072.48
728.149	28177.34
728.491	28000.39
728.833	27977.57
729.175	27843.56
729.516	27703
729.858	27813.28
730.199	27802.43
730.541	27660.97
730.882	27899.15
731.224	27846.95
731.565	27637.92
731.906	27553.85
732.248	27524.93
732.589	27574.19
732.93	27353.63
733.271	27474.76
733.612	27396.57
733.953	27445.61
734.294	27332.16
734.635	27211.26
734.976	27330.81
735.317	27104.82
735.658	27131.04
735.999	27110.47
736.339	26985.51
736.68	27161.55
737.021	27062.34
737.361	26968.1
737.702	27060.98
738.042	26952.06
738.383	26802.46
738.723	26922.91
739.063	26792.06
739.404	26977.37
739.744	26708.22
740.084	26595.46
740.424	26778.5
740.764	26555.69
741.104	26700.31
741.444	26570.37
741.784	26512.52
742.124	26538.51
742.464	26338.29
742.804	26264.17
743.143	26362.47
743.483	26343.49
743.823	26215.36
744.162	26211.06
744.502	26262.13
744.841	26131.97
745.181	26173.55
745.52	26087.9
745.86	26169.03
746.199	26036.6
746.538	26119.54
746.877	26068.47
747.216	25983.5
747.556	25942.37
747.895	25898.08
748.234	25816.95
748.573	25917.51
748.911	25723.39
749.25	25775.37
749.589	25657.18
749.928	25649.27
750.267	25727.01
750.605	25606.78
750.944	25563.4
751.283	25474.58
751.621	25531.98
751.96	25418.54
752.298	25467.58
752.636	25277.08
752.975	25190.52
753.313	25160.02
753.651	25284.31
753.989	25120.24
754.327	25061.26
754.666	24945.11
755.004	25031.66
755.342	25093.13
755.679	24831.21
756.017	24721.16
756.355	24823.08
756.693	24768.16
757.031	24741.95
757.368	24549.41
757.706	24583.31
758.044	24363.88
758.381	24539.47
758.719	24407.72
759.056	24411.79
759.394	24312.36
759.731	24119.37
760.068	24264.22
760.405	24120.72
760.743	23958.92
