Data from hue_200_FLMS001491_00004.txt Node
Date: Tue Feb 07 16:42:44 GMT 2017
User: dcchb
Spectrometer: FLMS00149
Trigger mode: 0
Integration Time (sec): 2.000000E-2
Scans to average: 10
Electric dark correction enabled: true
Nonlinearity correction enabled: false
Boxcar width: 0
XAxis mode: Wavelengths
Number of Pixels in Spectrum: 2048
>>>>>Begin Spectral Data<<<<<
341.393	-19.22
341.776	-19.22
342.16	-19.22
342.543	-53.8
342.927	-67.13
343.31	-62.61
343.693	-54.02
344.077	-82.72
344.46	-61.26
344.843	-61.71
345.226	-30.97
345.61	-44.53
345.993	-1.6
346.376	15.58
346.759	24.84
347.142	23.26
347.525	42.47
347.908	64.62
348.291	65.75
348.674	64.39
349.057	98.51
349.44	118.17
349.823	137.84
350.206	176.93
350.588	185.07
350.971	212.64
351.354	225.74
351.737	239.75
352.119	262.35
352.502	255.57
352.884	272.52
353.267	305.97
353.65	298.51
354.032	305.06
354.414	308.23
354.797	315.46
355.179	332.86
355.562	325.4
355.944	326.53
356.326	326.3
356.709	326.3
357.091	336.02
357.473	340.32
357.855	335.34
358.238	340.54
358.62	355.91
359.002	357.49
359.384	350.94
359.766	354.33
360.148	344.84
360.53	333.99
360.912	341.67
361.294	332.41
361.676	322.92
362.057	338.96
362.439	338.96
362.821	335.34
363.203	350.49
363.584	321.56
363.966	324.5
364.348	333.31
364.729	333.31
365.111	333.54
365.493	312.29
365.874	323.59
366.256	326.76
366.637	308.68
367.019	330.6
367.4	317.27
367.781	309.13
368.163	329.69
368.544	333.08
368.925	320.66
369.306	341.67
369.688	319.3
370.069	334.67
370.45	332.18
370.831	311.62
371.212	312.52
371.593	337.38
371.974	335.12
372.355	320.43
372.736	312.75
373.117	318.17
373.498	344.38
373.879	316.59
374.26	320.66
374.641	324.05
375.021	315.01
375.402	338.73
375.783	315.46
376.163	344.38
376.544	324.05
376.925	345.29
377.305	324.27
377.686	336.02
378.066	345.51
378.447	332.63
378.827	338.51
379.208	318.17
379.588	342.58
379.968	312.52
380.349	342.12
380.729	347.32
381.109	328.34
381.489	355.46
381.87	319.07
382.25	336.93
382.63	337.83
383.01	343.93
383.39	367.21
383.77	342.58
384.15	363.37
384.53	385.96
384.91	349.13
385.29	360.2
385.67	345.06
386.049	340.09
386.429	373.08
386.809	350.94
387.189	359.52
387.568	364.5
387.948	362.46
388.328	361.78
388.707	368.34
389.087	379.86
389.466	383.25
389.846	386.64
390.225	388.45
390.605	405.4
390.984	381.44
391.363	390.94
391.743	390.03
392.122	390.26
392.501	369.24
392.881	402.01
393.26	387.09
393.639	379.64
394.018	388.45
394.397	407.21
394.776	400.65
395.155	409.47
395.534	393.2
395.913	393.65
396.292	405.17
396.671	420.77
397.05	434.1
397.429	412.4
397.808	422.35
398.186	419.18
398.565	418.51
398.944	446.08
399.323	425.51
399.701	451.27
400.08	430.71
400.458	428.68
400.837	444.27
401.215	453.99
401.594	441.1
401.972	460.09
402.351	454.66
402.729	433.65
403.107	467.54
403.486	447.66
403.864	492.63
404.242	482.46
404.62	472.52
404.999	479.07
405.377	484.27
405.755	472.74
406.133	502.8
406.511	489.01
406.889	498.73
407.267	496.92
407.645	540.08
408.023	518.16
408.401	545.96
408.779	531.05
409.156	543.47
409.534	537.6
409.912	558.39
410.29	587.54
410.667	571.5
411.045	587.77
411.422	566.07
411.8	610.37
412.178	590.93
412.555	623.7
412.933	643.58
413.31	650.36
413.687	647.2
414.065	674.09
414.442	663.7
414.819	673.64
415.197	684.49
415.574	698.27
415.951	703.24
416.328	726.75
416.705	742.79
417.082	749.34
417.46	760.19
417.837	750.93
418.214	762.23
418.591	774.88
418.967	793.19
419.344	792.28
419.721	808.78
420.098	810.81
420.475	820.76
420.852	874.31
421.228	866.63
421.605	890.13
421.982	907.98
422.358	922.22
422.735	918.61
423.111	925.84
423.488	974.88
423.864	966.97
424.241	985.95
424.617	1023.46
424.994	1021.65
425.37	1058.94
425.746	1078.38
426.123	1086.96
426.499	1085.38
426.875	1107.08
427.251	1157.7
427.627	1151.37
428.003	1144.36
428.379	1156.57
428.756	1198.15
429.132	1217.58
429.507	1228.65
429.883	1234.98
430.259	1265.72
430.635	1239.28
431.011	1273.17
431.387	1298.71
431.763	1333.51
432.138	1320.63
432.514	1371.7
432.89	1369.67
433.265	1395.2
433.641	1420.29
434.016	1451.47
434.392	1493.05
434.767	1511.13
435.143	1526.05
435.518	1548.19
435.894	1564.69
436.269	1620.51
436.644	1634.97
437.02	1673.84
437.395	1681.3
437.77	1699.6
438.145	1748.87
438.52	1780.05
438.895	1788.64
439.271	1827.96
439.646	1893.72
440.021	1913.38
440.395	1920.84
440.77	1934.62
441.145	1974.62
441.52	2034.28
441.895	1987.5
442.27	2055.98
442.645	2062.08
443.019	2075.86
443.394	2104.79
443.769	2149.53
444.143	2168.29
444.518	2184.79
444.892	2196.99
445.267	2240.6
445.641	2257.33
446.016	2225.46
446.39	2298.23
446.764	2277.21
447.139	2326.7
447.513	2305.01
447.887	2358.57
448.262	2347.49
448.636	2368.96
449.01	2415.97
449.384	2461.16
449.758	2422.97
450.132	2505.68
450.506	2516.08
450.88	2555.17
451.254	2566.47
451.628	2605.57
452.002	2627.49
452.376	2600.82
452.75	2662.51
453.123	2685.56
453.497	2714.04
453.871	2702.51
454.244	2755.62
454.618	2789.29
454.992	2839.23
455.365	2799.01
455.739	2870.42
456.112	2926.46
456.486	2943.64
456.859	2983.64
457.232	3046.23
457.606	3036.52
457.979	3083.52
458.352	3123.75
458.725	3193.35
459.099	3249.84
459.472	3276.96
459.845	3306.57
460.218	3328.71
460.591	3328.26
460.964	3400.12
461.337	3428.37
461.71	3501.59
462.083	3575.71
462.456	3524.86
462.829	3603.28
463.201	3638.99
463.574	3652.32
463.947	3710.85
464.32	3748.14
464.692	3792.43
465.065	3814.35
465.438	3886.89
465.81	3931.86
466.183	3990.84
466.555	4038.52
466.928	4088.47
467.3	4085.3
467.672	4135.47
468.045	4275.35
468.417	4255.47
468.789	4354.9
469.161	4408.01
469.534	4431.28
469.906	4525.29
470.278	4542.92
470.65	4617.49
471.022	4669.24
471.394	4790.82
471.766	4795.34
472.138	4807.54
472.51	4948.78
472.882	5040.31
473.253	5066.52
473.625	5108.55
473.997	5224.03
474.369	5290.47
474.74	5297.25
475.112	5409.34
475.484	5481.42
475.855	5584.7
476.227	5577.92
476.598	5779.49
476.97	5848.65
477.341	5915.99
477.713	5969.09
478.084	6048.19
478.455	6205.7
478.827	6211.35
479.198	6405.47
479.569	6380.61
479.94	6520.72
480.311	6665.12
480.682	6761.62
481.053	6896.08
481.424	6917.77
481.795	7001.61
482.166	7134.94
482.537	7196.41
482.908	7339.23
483.279	7470.52
483.65	7511.88
484.021	7709.16
484.391	7784.19
484.762	7837.75
485.133	7902.15
485.503	7956.84
485.874	8178.08
486.244	8188.47
486.615	8336.49
486.985	8473.44
487.356	8569.93
487.726	8623.94
488.097	8765.18
488.467	8758.85
488.837	8997.72
489.207	9066.64
489.578	9154.1
489.948	9216.47
490.318	9285.39
490.688	9387.99
491.058	9466.86
491.428	9563.35
491.798	9656.68
492.168	9845.38
492.538	9830.69
492.908	9915.66
493.278	10081.53
493.648	10089.21
494.017	10166.95
494.387	10285.59
494.757	10312.03
495.126	10453.27
495.496	10445.36
495.866	10528.07
496.235	10605.13
496.605	10660.95
496.974	10753.6
497.344	10780.72
497.713	10801.74
498.082	10966.03
498.452	10993.6
498.821	10973.48
499.19	10945.23
499.559	11104.33
499.928	11100.48
500.298	11190.43
500.667	11243.31
501.036	11279.24
501.405	11315.62
501.774	11330.31
502.143	11445.11
502.512	11422.28
502.88	11474.94
503.249	11521.26
503.618	11533.92
503.987	11579.34
504.356	11606.91
504.724	11727.14
505.093	11715.38
505.462	11699.79
505.83	11770.3
506.199	11854.59
506.567	11955.38
506.936	11929.62
507.304	11963.51
507.672	12020.46
508.041	12084.64
508.409	12187.91
508.777	12174.81
509.145	12205.09
509.514	12176.84
509.882	12269.27
510.25	12189.04
510.618	12283.96
510.986	12247.8
511.354	12342.03
511.722	12454.8
512.09	12431.75
512.458	12379.55
512.826	12537.74
513.193	12478.75
513.561	12450.51
513.929	12560.79
514.297	12616.6
514.664	12577.96
515.032	12681.46
515.4	12688.01
515.767	12681.23
516.135	12742.25
516.502	12619.54
516.869	12798.52
517.237	12753.77
517.604	12729.37
517.972	12826.32
518.339	12789.48
518.706	12762.14
519.073	12818.41
519.44	12909.25
519.808	13029.7
520.175	12939.31
520.542	13008.01
520.909	12968.91
521.276	12950.61
521.643	13006.2
522.009	13020.66
522.376	13035.58
522.743	13078.96
523.11	13167.1
523.477	13159.41
523.843	13124.84
524.21	13250.94
524.577	13263.14
524.943	13179.53
525.31	13263.14
525.676	13263.82
526.043	13290.71
526.409	13356.02
526.776	13417.26
527.142	13356.7
527.508	13358.73
527.874	13394.89
528.241	13416.36
528.607	13390.14
528.973	13476.92
529.339	13422.91
529.705	13518.73
530.071	13476.92
530.437	13445.06
530.803	13445.51
531.169	13491.61
531.535	13401.22
531.901	13311.05
532.267	13312.4
532.632	13305.17
532.998	13295
533.364	13316.7
533.73	13271.73
534.095	13315.34
534.461	13259.07
534.826	13240.54
535.192	13172.52
535.557	13238.96
535.923	13121.22
536.288	13153.09
536.653	13141.56
537.019	13002.81
537.384	13092.3
537.749	13044.84
538.114	12963.71
538.479	12940.21
538.845	12956.03
539.21	12888.91
539.575	12843.49
539.94	12806.2
540.305	12840.55
540.67	12755.58
541.034	12738.41
541.399	12660.67
541.764	12599.88
542.129	12575.93
542.494	12509.26
542.858	12470.17
543.223	12515.81
543.587	12521.01
543.952	12387.91
544.316	12455.25
544.681	12311.75
545.045	12375.71
545.41	12346.1
545.774	12292.09
546.138	12159.89
546.503	12201.92
546.867	12121.93
547.231	12182.94
547.595	12034.47
547.959	11999.44
548.324	12026.79
548.688	11922.61
549.052	11878.54
549.416	11855.49
549.779	11742.73
550.143	11829.96
550.507	11781.82
550.871	11740.69
551.235	11704.54
551.599	11746.57
551.962	11722.62
552.326	11617.76
552.689	11687.36
553.053	11504.32
553.417	11483.3
553.78	11580.47
554.143	11437.65
554.507	11434.71
554.87	11418.67
555.234	11439.23
555.597	11357.2
555.96	11371.44
556.323	11233.81
556.686	11302.51
557.05	11321.95
557.413	11267.94
557.776	11206.47
558.139	11240.59
558.502	11209.63
558.865	11182.29
559.228	11285.79
559.59	11194.72
559.953	11166.7
560.316	11112.91
560.679	11203.31
561.041	11140.48
561.404	11233.81
561.767	11198.11
562.129	11134.83
562.492	11171.44
562.854	11160.37
563.217	11131.22
563.579	11126.7
563.941	11189.07
564.304	11142.97
564.666	11137.77
565.028	11143.87
565.39	11091.9
565.753	11168.73
566.115	11239.92
566.477	11172.57
566.839	11136.64
567.201	11217.77
567.563	11171.22
567.925	11240.14
568.287	11245.11
568.648	11226.36
569.01	11204.66
569.372	11279.92
569.734	11139.81
570.095	11258.22
570.457	11247.6
570.819	11239.24
571.18	11297.32
571.542	11344.32
571.903	11306.58
572.265	11271.55
572.626	11298.9
572.987	11302.29
573.349	11321.72
573.71	11367.6
574.071	11292.57
574.432	11338.67
574.794	11463.64
575.155	11320.37
575.516	11270.2
575.877	11363.75
576.238	11330.54
576.599	11378.67
576.96	11371.21
577.32	11380.93
577.681	11434.94
578.042	11370.76
578.403	11371.21
578.763	11399.46
579.124	11400.59
579.485	11457.76
579.845	11474.03
580.206	11400.82
580.566	11404.66
580.927	11394.71
581.287	11410.76
581.648	11384.09
582.008	11472.9
582.368	11361.72
582.728	11399.69
583.089	11330.08
583.449	11375.28
583.809	11403.08
584.169	11514.03
584.529	11424.32
584.889	11370.31
585.249	11404.66
585.609	11368.05
585.969	11414.83
586.329	11358.56
586.688	11362.17
587.048	11370.08
587.408	11322.85
587.768	11358.33
588.127	11413.7
588.487	11294.38
588.846	11340.48
589.206	11280.14
589.565	11317.43
589.925	11319.46
590.284	11363.98
590.643	11369.4
591.003	11393.13
591.362	11398.1
591.721	11317.43
592.08	11327.15
592.44	11303.42
592.799	11295.73
593.158	11313.59
593.517	11289.41
593.876	11302.51
594.235	11238.11
594.593	11340.7
594.952	11282.85
595.311	11229.07
595.67	11277.2
596.029	11297.99
596.387	11339.35
596.746	11329.63
597.104	11222.52
597.463	11242.18
597.822	11218.45
598.18	11257.77
598.538	11225.45
598.897	11257.09
599.255	11192.23
599.613	11296.86
599.972	11238.11
600.33	11257.77
600.688	11232.23
601.046	11279.24
601.404	11272.91
601.762	11248.05
602.12	11276.07
602.478	11229.3
602.836	11227.04
603.194	11211.89
603.552	11239.69
603.91	11191.78
604.268	11183.42
604.625	11259.8
604.983	11239.92
605.341	11156.75
605.698	11229.52
606.056	11239.92
606.413	11177.09
606.771	11203.99
607.128	11245.34
607.485	11209.63
607.843	11181.16
608.2	11298.67
608.557	11290.99
608.914	11163.99
609.272	11320.59
609.629	11326.69
609.986	11337.99
610.343	11254.61
610.7	11341.38
611.057	11332.57
611.414	11274.27
611.771	11269.75
612.127	11343.87
612.484	11396.97
612.841	11427.71
613.198	11314.49
613.554	11308.16
613.911	11430.19
614.267	11422.06
614.624	11409.63
614.98	11389.06
615.337	11482.17
615.693	11440.36
616.05	11419.35
616.406	11441.49
616.762	11425.22
617.118	11436.75
617.475	11395.84
617.831	11500.7
618.187	11513.81
618.543	11440.81
618.899	11442.85
619.255	11443.07
619.611	11448.95
619.967	11535.95
620.323	11520.81
620.678	11495.05
621.034	11462.28
621.39	11508.61
621.746	11472.45
622.101	11609.17
622.457	11504.99
622.812	11436.07
623.168	11492.57
623.523	11458.22
623.879	11472.68
624.234	11445.11
624.589	11537.54
624.945	11423.64
625.3	11540.02
625.655	11503.41
626.01	11519.46
626.365	11471.55
626.72	11432
627.075	11388.39
627.43	11484.43
627.785	11438.33
628.14	11435.62
628.495	11441.49
628.85	11500.7
629.205	11437.88
629.559	11450.08
629.914	11366.92
630.269	11440.14
630.623	11405.11
630.978	11342.51
631.332	11378.9
631.687	11373.7
632.041	11301.84
632.396	11274.04
632.75	11283.53
633.104	11286.47
633.459	11220.71
633.813	11288.73
634.167	11189.97
634.521	11193.36
634.875	11253.93
635.229	11238.33
635.583	11156.3
635.937	11152.91
636.291	11140.48
636.645	11160.82
636.999	11126.02
637.352	11143.2
637.706	11072.24
638.06	11139.13
638.413	11095.51
638.767	11112.91
639.121	11073.37
639.474	11037.66
639.828	10993.14
640.181	10996.76
640.534	11046.25
640.888	11001.28
641.241	10987.72
641.594	11024.55
641.947	11022.75
642.301	10950.88
642.654	10922.18
643.007	10976.42
643.36	10937.55
643.713	10887.16
644.066	10894.39
644.419	10875.18
644.771	10829.31
645.124	10753.15
645.477	10729.2
645.83	10660.04
646.182	10607.84
646.535	10561.52
646.888	10608.75
647.24	10466.15
647.593	10494.17
647.945	10540.5
648.298	10445.81
648.65	10449.88
649.002	10463.44
649.355	10536.66
649.707	10545.92
650.059	10566.26
650.411	10727.61
650.763	10667.95
651.115	10794.05
651.467	10773.26
651.819	10756.54
652.171	10747.73
652.523	10738.69
652.875	10723.55
653.227	10667.28
653.578	10794.5
653.93	10679.71
654.282	10685.35
654.633	10685.13
654.985	10695.07
655.337	10721.51
655.688	10740.49
656.039	10805.58
656.391	10685.81
656.742	10673.38
657.094	10722.42
657.445	10760.15
657.796	10696.88
658.147	10688.74
658.498	10709.31
658.849	10762.64
659.2	10672.7
659.551	10754.51
659.902	10732.59
660.253	10763.77
660.604	10794.73
660.955	10698.91
661.306	10787.72
661.656	10727.39
662.007	10823.2
662.358	10745.47
662.708	10787.95
663.059	10772.58
663.409	10713.15
663.76	10794.96
664.11	10800.15
664.461	10792.7
664.811	10780.72
665.161	10777.78
665.511	10789.31
665.862	10790.89
666.212	10752.92
666.562	10821.62
666.912	10751.57
667.262	10781.62
667.612	10753.38
667.962	10770.1
668.312	10753.6
668.662	10788.63
669.011	10738.69
669.361	10745.92
669.711	10785.24
670.06	10767.84
670.41	10799.25
670.76	10682.64
671.109	10733.49
671.459	10732.59
671.808	10684.45
672.157	10669.08
672.507	10680.61
672.856	10687.39
673.205	10667.05
673.554	10709.53
673.904	10663.21
674.253	10708.18
674.602	10720.16
674.951	10542.76
675.3	10490.11
675.649	10579.59
675.998	10627.96
676.346	10619.82
676.695	10603.32
677.044	10479.26
677.393	10570.33
677.741	10560.39
678.09	10541.18
678.438	10511.8
678.787	10514.06
679.135	10563.55
679.484	10444.01
679.832	10533.72
680.181	10404.68
680.529	10514.74
680.877	10391.35
681.225	10399.71
681.573	10469.54
681.922	10277.68
682.27	10315.42
682.618	10292.82
682.966	10346.61
683.314	10314.29
683.661	10194.75
684.009	10236.1
684.357	10202.43
684.705	10199.94
685.053	10170.79
685.4	10200.4
685.748	10157.91
686.095	10143.67
686.443	10093.96
686.79	10029.33
687.138	10066.61
687.485	10086.73
687.832	9969.67
688.18	10004.02
688.527	9997.01
688.874	9916.11
689.221	9937.35
689.568	9860.74
689.915	9823.68
690.262	9837.02
690.609	9759.05
690.956	9775.32
691.303	9753.85
691.65	9717.92
691.997	9716.11
692.344	9628.43
692.69	9557.47
693.037	9621.65
693.383	9507.98
693.73	9512.96
694.077	9399.74
694.423	9381.21
694.769	9359.97
695.116	9373.75
695.462	9365.16
695.808	9311.15
696.155	9372.17
696.501	9256.01
696.847	9169.24
697.193	9218.95
697.539	9178.73
697.885	9144.6
698.231	9060.99
698.577	9046.98
698.923	9012.18
699.269	9027.09
699.614	8948
699.96	8893.99
700.306	8901.9
700.651	8918.17
700.997	8821.22
701.342	8791.39
701.688	8811.05
702.033	8732.19
702.379	8769.7
702.724	8714.11
703.069	8666.65
703.415	8678.18
703.76	8620.55
704.105	8569.48
704.45	8585.52
704.795	8528.58
705.14	8461.23
705.485	8484.96
705.83	8443.38
706.175	8390.95
706.52	8422.36
706.865	8350.95
707.209	8291.29
707.554	8337.62
707.899	8415.13
708.243	8298.52
708.588	8272.76
708.932	8195.7
709.277	8189.6
709.621	8223.5
709.966	8112.31
710.31	8150.05
710.654	8032.32
710.998	8080.9
711.342	8065.31
711.687	8083.39
712.031	7977.63
712.375	7949.83
712.719	8013.56
713.063	7922.26
713.407	8002.71
713.75	7934.47
714.094	7943.51
714.438	7910.51
714.782	7900.57
715.125	7915.48
715.469	7851.08
715.812	7860.12
716.156	7781.7
716.499	7785.77
716.843	7809.05
717.186	7824.86
717.53	7869.84
717.873	7846.79
718.216	7721.36
718.559	7742.83
718.902	7624.87
719.246	7658.54
719.589	7649.28
719.932	7691.31
720.275	7661.48
720.617	7629.39
720.96	7654.93
721.303	7618.32
721.646	7633.68
721.989	7580.8
722.331	7618.77
722.674	7602.95
723.016	7593.68
723.359	7677.75
723.701	7630.07
724.044	7562.05
724.386	7551.43
724.729	7545.32
725.071	7556.4
725.413	7553.46
725.755	7525.21
726.097	7546
726.439	7503.52
726.782	7464.2
727.124	7523.4
727.465	7459.68
727.807	7440.02
728.149	7466
728.491	7383.07
728.833	7517.3
729.175	7480.69
729.516	7481.37
729.858	7482.28
730.199	7450.64
730.541	7426.91
730.882	7435.04
731.224	7447.02
731.565	7437.98
731.906	7429.62
732.248	7436.85
732.589	7388.04
732.93	7409.28
733.271	7399.79
733.612	7438.89
733.953	7458.09
734.294	7390.98
734.635	7419.45
734.976	7423.07
735.317	7438.66
735.658	7428.04
735.999	7414.71
736.339	7492.67
736.68	7451.32
737.021	7444.08
737.361	7430.52
737.702	7495.61
738.042	7501.48
738.383	7478.89
738.723	7506.68
739.063	7524.53
739.404	7496.29
739.744	7489.73
740.084	7492.9
740.424	7441.6
740.764	7543.74
741.104	7602.72
741.444	7502.16
741.784	7545.32
742.124	7660.8
742.464	7562.05
742.804	7564.76
743.143	7591.65
743.483	7684.53
743.823	7672.33
744.162	7684.53
744.502	7715.94
744.841	7754.13
745.181	7778.76
745.52	7753.91
745.86	7868.71
746.199	7867.12
746.538	7894.92
746.877	7932.21
747.216	8004.07
747.556	8041.36
747.895	8074.8
748.234	8098.98
748.573	8185.08
748.911	8189.6
749.25	8298.3
749.589	8307.34
749.928	8442.48
750.267	8524.96
750.605	8567.44
750.944	8629.82
751.283	8642.47
751.621	8849.7
751.96	8871.84
752.298	8969.69
752.636	9077.94
752.975	9151.84
753.313	9214.43
753.651	9370.36
753.989	9453.3
754.327	9559.73
754.666	9605.16
755.004	9778.26
755.342	9903.23
755.679	10023.23
756.017	10138.02
756.355	10319.71
756.693	10410.56
757.031	10658.91
757.368	10709.08
757.706	10834.28
758.044	11029.53
