Data from hue_110_FLMS001491_00065.txt Node
Date: Tue Feb 07 17:01:40 GMT 2017
User: dcchb
Spectrometer: FLMS00149
Trigger mode: 0
Integration Time (sec): 2.000000E-2
Scans to average: 10
Electric dark correction enabled: true
Nonlinearity correction enabled: false
Boxcar width: 0
XAxis mode: Wavelengths
Number of Pixels in Spectrum: 2048
>>>>>Begin Spectral Data<<<<<
341.393	-33.01
341.776	-33.01
342.16	-33.01
342.543	-58.09
342.927	-75.94
343.31	-68.94
343.693	-68.26
344.077	-83.85
344.46	-70.29
344.843	-54.7
345.226	-40.47
345.61	-35.95
345.993	-15.61
346.376	-14.25
346.759	30.04
347.142	44.5
347.525	49.93
347.908	50.15
348.291	91.51
348.674	90.6
349.057	95.58
349.44	112.53
349.823	131.73
350.206	165.86
350.588	205.63
350.971	219.42
351.354	225.52
351.737	226.19
352.119	231.17
352.502	252.41
352.884	263.48
353.267	262.58
353.65	280.2
354.032	291.96
354.414	301.22
354.797	320.88
355.179	321.33
355.562	326.76
355.944	325.4
356.326	334.67
356.709	319.53
357.091	338.96
357.473	351.84
357.855	319.75
358.238	322.24
358.62	324.27
359.002	332.63
359.384	343.93
359.766	356.59
360.148	329.69
360.53	338.06
360.912	344.61
361.294	336.93
361.676	324.72
362.057	326.08
362.439	312.75
362.821	312.52
363.203	333.54
363.584	315.46
363.966	311.62
364.348	332.18
364.729	330.15
365.111	311.84
365.493	296.48
365.874	287.44
366.256	292.63
366.637	310.94
367.019	322.69
367.4	313.88
367.781	300.54
368.163	312.07
368.544	300.77
368.925	306.42
369.306	312.07
369.688	319.98
370.069	310.71
370.45	319.53
370.831	307.1
371.212	313.65
371.593	320.66
371.974	305.97
372.355	322.69
372.736	299.64
373.117	306.64
373.498	320.66
373.879	298.74
374.26	287.21
374.641	301.22
375.021	305.97
375.402	311.84
375.783	333.54
376.163	318.62
376.544	304.38
376.925	319.07
377.305	333.54
377.686	332.63
378.066	334.67
378.447	331.5
378.827	323.82
379.208	328.34
379.588	311.62
379.968	313.42
380.349	326.53
380.729	334.44
381.109	321.56
381.489	331.95
381.87	348.23
382.25	354.33
382.63	351.16
383.01	329.92
383.39	355.68
383.77	351.84
384.15	341.9
384.53	338.96
384.91	358.62
385.29	330.82
385.67	347.1
386.049	331.05
386.429	352.29
386.809	333.76
387.189	354.55
387.568	335.8
387.948	337.6
388.328	357.04
388.707	351.62
389.087	363.59
389.466	363.82
389.846	366.98
390.225	354.1
390.605	367.66
390.984	362.69
391.363	366.3
391.743	362.91
392.122	364.5
392.501	359.52
392.881	389.58
393.26	374.67
393.639	369.02
394.018	367.43
394.397	370.6
394.776	385.29
395.155	379.86
395.534	402.24
395.913	363.14
396.292	392.52
396.671	395.68
397.05	380.09
397.429	383.48
397.808	395.46
398.186	367.43
398.565	390.03
398.944	377.6
399.323	396.59
399.701	411.73
400.08	414.21
400.458	402.69
400.837	376.02
401.215	416.25
401.594	408.79
401.972	423.93
402.351	416.7
402.729	412.63
403.107	412.18
403.486	400.65
403.864	417.15
404.242	404.95
404.62	433.87
404.999	425.96
405.377	426.87
405.755	430.71
406.133	408.34
406.511	434.78
406.889	434.55
407.267	432.29
407.645	429.58
408.023	459.18
408.401	445.17
408.779	450.37
409.156	469.58
409.534	439.07
409.912	465.28
410.29	434.78
410.667	449.24
411.045	448.11
411.422	452.4
411.8	464.38
412.178	480.43
412.555	496.24
412.933	505.06
413.31	508.22
413.687	500.54
414.065	478.17
414.442	468.22
414.819	480.2
415.197	523.59
415.574	488.56
415.951	498.73
416.328	518.62
416.705	516.36
417.082	510.71
417.46	542.34
417.837	519.52
418.214	534.66
418.591	539.63
418.967	534.89
419.344	552.29
419.721	522.01
420.098	536.24
420.475	543.02
420.852	542.8
421.228	569.91
421.605	563.81
421.982	566.52
422.358	564.72
422.735	545.73
423.111	578.95
423.488	577.82
423.864	574.43
424.241	556.36
424.617	596.13
424.994	584.6
425.37	594.09
425.746	596.81
426.123	611.95
426.499	601.55
426.875	615.56
427.251	631.83
427.627	599.29
428.003	649.01
428.379	629.57
428.756	650.59
429.132	630.03
429.507	645.62
429.883	644.49
430.259	663.7
430.635	656.92
431.011	700.08
431.387	677.71
431.763	684.26
432.138	703.92
432.514	702.34
432.89	685.84
433.265	731.49
433.641	722.45
434.016	739.63
434.392	719.29
434.767	714.77
435.143	729.68
435.518	746.63
435.894	760.64
436.269	766.97
436.644	786.41
437.02	785.73
437.395	774.2
437.77	797.93
438.145	796.12
438.52	811.04
438.895	773.75
439.271	784.15
439.646	849.23
440.021	827.31
440.395	825.95
440.77	829.12
441.145	846.74
441.52	852.39
441.895	862.56
442.27	868.21
442.645	854.65
443.019	883.58
443.394	884.48
443.769	875.22
444.143	866.18
444.518	888.32
444.892	870.92
445.267	897.36
445.641	900.75
446.016	911.83
446.39	898.04
446.764	932.16
447.139	920.87
447.513	931.71
447.887	921.32
448.262	938.04
448.636	954.76
449.01	978.72
449.384	978.94
449.758	963.35
450.132	969
450.506	973.29
450.88	979.85
451.254	994.99
451.628	1010.58
452.002	1018.04
452.376	1026.17
452.75	1056.91
453.123	1043.35
453.497	1015.55
453.871	1067.75
454.244	1093.06
454.618	1089
454.992	1090.8
455.365	1116.34
455.739	1147.3
456.112	1122.67
456.486	1147.98
456.859	1163.35
457.232	1186.85
457.606	1170.35
457.979	1204.47
458.352	1224.59
458.725	1238.6
459.099	1253.06
459.472	1277.92
459.845	1271.14
460.218	1290.57
460.591	1280.86
460.964	1312.27
461.337	1336.45
461.71	1378.25
462.083	1364.47
462.456	1352.72
462.829	1396.79
463.201	1411.02
463.574	1432.94
463.947	1458.93
464.32	1480.4
464.692	1488.31
465.065	1484.01
465.438	1523.56
465.81	1561.75
466.183	1589.55
466.555	1631.36
466.928	1627.51
467.3	1664.8
467.672	1657.8
468.045	1711.58
468.417	1742.31
468.789	1752.48
469.161	1768.53
469.534	1775.53
469.906	1854.63
470.278	1885.36
470.65	1882.87
471.022	1928.07
471.394	1987.28
471.766	2029.54
472.138	2046.71
472.51	2100.04
472.882	2149.31
473.253	2188.63
473.625	2233.83
473.997	2281.73
474.369	2308.85
474.74	2400.15
475.112	2431.33
475.484	2482.41
475.855	2498.68
476.227	2552.69
476.598	2665.9
476.97	2736.41
477.341	2785.45
477.713	2862.06
478.084	2905.22
478.455	3003.97
478.827	3036.97
479.198	3166.23
479.569	3258.43
479.94	3337.07
480.311	3429.27
480.682	3482.61
481.053	3597.63
481.424	3683.05
481.795	3767.12
482.166	3862.48
482.537	3979.99
482.908	4143.61
483.279	4188.8
483.65	4306.77
484.021	4436.93
484.391	4512.64
484.762	4645.29
485.133	4705.85
485.503	4867.65
485.874	4983.36
486.244	5168.44
486.615	5275.1
486.985	5382.44
487.356	5560.74
487.726	5672.15
488.097	5794.18
488.467	5930.68
488.837	6070.79
489.207	6215.19
489.578	6331.34
489.948	6535.18
490.318	6617.21
490.688	6738.79
491.058	6878.9
491.428	7061.95
491.798	7147.82
492.168	7417.19
492.538	7515.49
492.908	7643.63
493.278	7847.01
493.648	7959.78
494.017	8070.73
494.387	8219.66
494.757	8375.13
495.126	8467.11
495.496	8637.05
495.866	8699.19
496.235	8874.78
496.605	8994.33
496.974	9086.3
497.344	9251.04
497.713	9441.32
498.082	9539.4
498.452	9715.66
498.821	9781.65
499.19	9840.41
499.559	9995.2
499.928	10152.04
500.298	10288.08
500.667	10423.89
501.036	10406.94
501.405	10576.43
501.774	10689.42
502.143	10776.65
502.512	10842.41
502.88	11075.85
503.249	11057.77
503.618	11183.19
503.987	11229.97
504.356	11289.63
504.724	11465.22
505.093	11476.52
505.462	11657.31
505.83	11681.49
506.199	11829.05
506.567	11914.25
506.936	11930.52
507.304	12147.92
507.672	12124.19
508.041	12333.9
508.409	12326.22
508.777	12430.62
509.145	12531.18
509.514	12542.03
509.882	12679.2
510.25	12652.31
510.618	12772.31
510.986	12811.4
511.354	12955.13
511.722	13022.92
512.09	13126.42
512.458	13048.23
512.826	13202.8
513.193	13221.56
513.561	13264.5
513.929	13472.4
514.297	13527.31
514.664	13596.69
515.032	13624.03
515.4	13669.46
515.767	13742.68
516.135	13721.88
516.502	13692.51
516.869	13939.96
517.237	13956
517.604	13947.87
517.972	13927.3
518.339	14038.03
518.706	14099.28
519.073	14076.68
519.44	14130.24
519.808	14191.48
520.175	14303.79
520.542	14327.29
520.909	14433.96
521.276	14387.63
521.643	14471.24
522.009	14561.64
522.376	14623.56
522.743	14686.15
523.11	14721.18
523.477	14765.02
523.843	14833.49
524.21	14893.83
524.577	14929.76
524.943	15015.86
525.31	15063.09
525.676	15079.82
526.043	15218.12
526.409	15146.48
526.776	15290.43
527.142	15250.43
527.508	15266.93
527.874	15406.59
528.241	15467.38
528.607	15304.89
528.973	15466.02
529.339	15433.48
529.705	15563.19
530.071	15540.59
530.437	15555.28
530.803	15628.73
531.169	15571.1
531.535	15504.66
531.901	15488.84
532.267	15529.07
532.632	15640.48
532.998	15662.17
533.364	15629.63
533.73	15581.05
534.095	15659.01
534.461	15630.08
534.826	15687.71
535.192	15689.29
535.557	15706.01
535.923	15645.68
536.288	15577.88
536.653	15615.39
537.019	15550.99
537.384	15598.22
537.749	15526.58
538.114	15497.43
538.479	15541.95
538.845	15512.35
539.21	15494.49
539.575	15470.77
539.94	15388.73
540.305	15487.49
540.67	15376.98
541.034	15383.31
541.399	15403.65
541.764	15351.22
542.129	15322.07
542.494	15338.34
542.858	15349.64
543.223	15313.03
543.587	15297.66
543.952	15206.37
544.316	15202.98
544.681	15193.94
545.045	15224.22
545.41	15216.31
545.774	15084.56
546.138	15149.64
546.503	15038.01
546.867	15024
547.231	15110.32
547.595	15033.49
547.959	15030.78
548.324	14962.08
548.688	14920.95
549.052	15036.88
549.416	14794.85
549.779	14862.87
550.143	14880.27
550.507	14857.22
550.871	14816.09
551.235	14829.88
551.599	14791.46
551.962	14743.1
552.326	14756.89
552.689	14784
553.053	14749.2
553.417	14675.08
553.78	14794.17
554.143	14628.3
554.507	14779.03
554.87	14692.93
555.234	14807.73
555.597	14574.07
555.96	14642.31
556.323	14559.6
556.686	14566.38
557.05	14711.24
557.413	14565.03
557.776	14517.34
558.139	14689.54
558.502	14586.27
558.865	14578.36
559.228	14603.67
559.59	14641.63
559.953	14601.41
560.316	14676.89
560.679	14605.48
561.041	14673.27
561.404	14706.94
561.767	14841.86
562.129	14614.52
562.492	14790.11
562.854	14724.57
563.217	14698.81
563.579	14738.36
563.941	14765.25
564.304	14779.26
564.666	14838.92
565.028	14801.63
565.39	14777.45
565.753	14860.84
566.115	14846.15
566.477	14864.23
566.839	14870.56
567.201	14945.58
567.563	14939.03
567.925	15064.45
568.287	14960.5
568.648	14974.51
569.01	15052.25
569.372	15109.87
569.734	14989.42
570.095	15098.35
570.457	15121.4
570.819	15035.3
571.18	15103.54
571.542	15216.08
571.903	15103.32
572.265	15139.93
572.626	15122.98
572.987	15082.3
573.349	15180.6
573.71	15259.02
574.071	15182.64
574.432	15267.83
574.794	15315.06
575.155	15265.57
575.516	15219.25
575.877	15275.97
576.238	15303.54
576.599	15250.43
576.96	15275.06
577.32	15263.09
577.681	15373.59
578.042	15355.06
578.403	15423.08
578.763	15391.45
579.124	15400.94
579.485	15351.22
579.845	15387.38
580.206	15421.28
580.566	15292.69
580.927	15416.76
581.287	15399.81
581.648	15311.67
582.008	15363.65
582.368	15304.89
582.728	15390.32
583.089	15306.48
583.449	15378.79
583.809	15371.11
584.169	15370.43
584.529	15281.39
584.889	15423.31
585.249	15219.7
585.609	15295.18
585.969	15396.64
586.329	15299.47
586.688	15323.2
587.048	15308.74
587.408	15181.51
587.768	15175.63
588.127	15195.07
588.487	15201.62
588.846	15264.67
589.206	15124.79
589.565	15162.53
589.925	15258.57
590.284	15174.28
590.643	15208.17
591.003	15184.45
591.362	15181.28
591.721	15178.57
592.08	15189.42
592.44	15217.89
592.799	15201.62
593.158	15128.85
593.517	15096.76
593.876	15104.67
594.235	15127.5
594.593	15133.6
594.952	15085.92
595.311	15056.31
595.67	15067.39
596.029	15156.42
596.387	15212.02
596.746	15096.54
597.104	15033.04
597.463	15054.28
597.822	15147.84
598.18	15008.63
598.538	14934.28
598.897	15051.79
599.255	14987.84
599.613	15206.59
599.972	15029.65
600.33	15128.63
600.688	15011.12
601.046	15003.43
601.404	15155.29
601.762	15144.67
602.12	15144.45
602.478	15113.03
602.836	15052.02
603.194	15166.37
603.552	15141.06
603.91	15033.26
604.268	15046.14
604.625	15025.35
604.983	15090.66
605.341	15049.53
605.698	15153.71
606.056	15184.67
606.413	15057.44
606.771	15117.1
607.128	15109.65
607.485	15046.14
607.843	14987.16
608.2	15048.86
608.557	15094.5
608.914	15066.26
609.272	15217.66
609.629	15180.38
609.986	15176.54
610.343	15137.89
610.7	15244.33
611.057	15108.06
611.414	15142.19
611.771	15136.09
612.127	15214.5
612.484	15248.85
612.841	15297.66
613.198	15155.07
613.554	15225.8
613.911	15337.89
614.267	15273.03
614.624	15276.42
614.98	15341.05
615.337	15362.75
615.693	15312.35
616.05	15458.79
616.406	15429.64
616.762	15388.51
617.118	15415.85
617.475	15442.29
617.831	15412.01
618.187	15461.05
618.543	15504.89
618.899	15607.49
619.255	15551.44
619.611	15449.75
619.967	15505.34
620.323	15583.76
620.678	15562.29
621.034	15535.62
621.39	15435.06
621.746	15435.06
622.101	15681.83
622.457	15473.93
622.812	15460.37
623.168	15597.99
623.523	15556.86
623.879	15534.72
624.234	15470.31
624.589	15522.52
624.945	15519.13
625.3	15469.86
625.655	15498.34
626.01	15516.41
626.365	15559.12
626.72	15478.67
627.075	15473.93
627.43	15499.24
627.785	15464.89
628.14	15476.42
628.495	15560.25
628.85	15510.09
629.205	15448.17
629.559	15555.51
629.914	15507.6
630.269	15462.63
630.623	15342.86
630.978	15400.03
631.332	15442.52
631.687	15338.57
632.041	15385.57
632.396	15349.19
632.75	15265.35
633.104	15308.96
633.459	15270.32
633.813	15241.17
634.167	15292.01
634.521	15230.09
634.875	15253.82
635.229	15174.5
635.583	15209.76
635.937	15150.55
636.291	15090.21
636.645	15136.31
636.999	15097.67
637.352	15137.44
637.706	15041.62
638.06	15058.57
638.413	15109.42
638.767	15051.34
639.121	15075.07
639.474	14948.07
639.828	14934.73
640.181	15006.37
640.534	14898.58
640.888	14938.58
641.241	14819.26
641.594	14887.5
641.947	14915.07
642.301	14934.73
642.654	14945.58
643.007	14945.58
643.36	14910.78
643.713	14853.61
644.066	14954.85
644.419	14833.72
644.771	14799.6
645.124	14593.73
645.477	14549.43
645.83	14507.85
646.182	14413.62
646.535	14377.69
646.888	14487.06
647.24	14321.42
647.593	14407.29
647.945	14361.64
648.298	14215.88
648.65	14251.14
649.002	14280.74
649.355	14397.57
649.707	14329.55
650.059	14388.53
650.411	14578.81
650.763	14580.62
651.115	14739.03
651.467	14657.91
651.819	14636.66
652.171	14640.28
652.523	14589.21
652.875	14640.5
653.227	14566.83
653.578	14726.15
653.93	14640.28
654.282	14616.55
654.633	14602.99
654.985	14601.18
655.337	14703.55
655.688	14693.16
656.039	14671.46
656.391	14596.89
656.742	14660.39
657.094	14647.28
657.445	14694.06
657.796	14664.69
658.147	14672.14
658.498	14650.22
658.849	14692.25
659.2	14624.69
659.551	14643.67
659.902	14644.8
660.253	14634.63
660.604	14722.99
660.955	14578.81
661.306	14707.4
661.656	14674.63
662.007	14715.08
662.358	14624.46
662.708	14702.2
663.059	14756.43
663.409	14596.44
663.76	14719.37
664.11	14768.86
664.461	14725.7
664.811	14755.08
665.161	14730.9
665.511	14577.46
665.862	14640.05
666.212	14821.29
666.562	14774.74
666.912	14732.71
667.262	14707.17
667.612	14653.61
667.962	14720.5
668.312	14682.31
668.662	14687.51
669.011	14742.65
669.361	14712.82
669.711	14721.63
670.06	14604.12
670.41	14700.62
670.76	14653.84
671.109	14668.07
671.459	14730.9
671.808	14600.05
672.157	14602.54
672.507	14589.43
672.856	14562.77
673.205	14646.83
673.554	14668.75
673.904	14578.59
674.253	14625.36
674.602	14538.36
674.951	14306.73
675.3	14343.11
675.649	14541.98
675.998	14504.01
676.346	14540.17
676.695	14533.84
677.044	14370
677.393	14415.65
677.741	14436.44
678.09	14326.39
678.438	14317.8
678.787	14421.53
679.135	14300.17
679.484	14229.67
679.832	14344.02
680.181	14251.36
680.529	14270.57
680.877	14174.98
681.225	14225.83
681.573	14304.69
681.922	14110.58
682.27	14070.8
682.618	14211.36
682.966	14038.71
683.314	14090.46
683.661	14069.45
684.009	13957.58
684.357	13969.34
684.705	13948.77
685.053	13971.37
685.4	13893.63
685.748	13872.84
686.095	13905.38
686.443	13837.81
686.79	13758.72
687.138	13818.83
687.485	13746.29
687.832	13751.04
688.18	13728.66
688.527	13597.37
688.874	13633.75
689.221	13530.25
689.568	13521.66
689.915	13523.25
690.262	13492.29
690.609	13381.78
690.956	13351.27
691.303	13424.27
691.65	13331.84
691.997	13277.38
692.344	13207.32
692.69	13257.72
693.037	13262.24
693.383	13071.73
693.73	13030.15
694.077	12966.2
694.423	12972.53
694.769	12897.5
695.116	12901.57
695.462	12885.97
695.808	12793.55
696.155	12928.23
696.501	12727.56
696.847	12730.95
697.193	12548.13
697.539	12647.11
697.885	12581.35
698.231	12477.17
698.577	12486.21
698.923	12402.15
699.269	12368.25
699.614	12301.36
699.96	12286.22
700.306	12239.21
700.651	12206.44
700.997	12173.68
701.342	12100.23
701.688	12098.65
702.033	12066.79
702.379	11968.26
702.724	12000.57
703.069	11966.45
703.415	11836.51
703.76	11858.21
704.105	11909.96
704.45	11766.23
704.795	11756.51
705.14	11662.5
705.485	11685.55
705.83	11538.67
706.175	11551.32
706.52	11604.43
706.865	11498.44
707.209	11455.05
707.554	11434.94
707.899	11380.7
708.243	11382.74
708.588	11421.61
708.932	11203.08
709.277	11286.24
709.621	11219.8
709.966	11107.49
710.31	11199.24
710.654	11096.19
710.998	11123.08
711.342	11062.75
711.687	11047.38
712.031	10949.08
712.375	10946.59
712.719	11047.6
713.063	10991.56
713.407	10967.83
713.75	10889.64
714.094	10933.26
714.438	10850.32
714.782	10890.55
715.125	10804.22
715.469	10813.03
715.812	10722.42
716.156	10739.82
716.499	10754.51
716.843	10784.11
717.186	10681.06
717.53	10797.67
717.873	10755.18
718.216	10790.89
718.559	10729.42
718.902	10615.75
719.246	10639.25
719.589	10622.08
719.932	10512.7
720.275	10568.97
720.617	10587.28
720.96	10537.56
721.303	10580.72
721.646	10493.27
721.989	10499.14
722.331	10553.38
722.674	10506.15
723.016	10488.07
723.359	10489.65
723.701	10483.1
724.044	10405.81
724.386	10370.56
724.729	10424.12
725.071	10388.64
725.413	10371.24
725.755	10405.14
726.097	10314.74
726.439	10234.97
726.782	10281.07
727.124	10378.24
727.465	10339.6
727.807	10193.39
728.149	10292.14
728.491	10190.45
728.833	10271.35
729.175	10178.25
729.516	10237.91
729.858	10222.77
730.199	10277.91
730.541	10168.08
730.882	10273.61
731.224	10344.12
731.565	10199.04
731.906	10272.94
732.248	10252.6
732.589	10168.76
732.93	10208.31
733.271	10169.66
733.612	10179.38
733.953	10211.47
734.294	10162.66
734.635	10164.46
734.976	10159.04
735.317	10110.45
735.658	10236.78
735.999	10194.52
736.339	10117.01
736.68	10222.09
737.021	10180.06
737.361	10149.55
737.702	10195.2
738.042	10178.48
738.383	10173.96
738.723	10171.7
739.063	10203.33
739.404	10299.15
739.744	10235.42
740.084	10198.14
740.424	10345.02
740.764	10265.7
741.104	10317.68
741.444	10255.54
741.784	10277.46
742.124	10269.55
742.464	10384.8
742.804	10340.73
743.143	10345.48
743.483	10408.53
743.823	10375.53
744.162	10419.82
744.502	10454.4
744.841	10458.02
745.181	10504.34
745.52	10502.99
745.86	10603.1
746.199	10633.83
746.538	10576.43
746.877	10757.67
747.216	10821.4
747.556	10802.64
747.895	10877.67
748.234	10845.8
748.573	10931
748.911	10971.45
749.25	11096.64
749.589	11081.5
749.928	11162.18
750.267	11247.15
750.605	11325.34
750.944	11299.8
751.283	11445.56
751.621	11597.2
751.96	11723.29
752.298	11742.28
752.636	11889.84
752.975	11887.36
753.313	12022.27
753.651	12142.27
753.989	12174.36
754.327	12254.13
754.666	12420.9
755.004	12562.59
755.342	12688.24
755.679	12823.6
756.017	12884.17
