Data from hue_330_FLMS001491_36.txt Node
Date: Mon Feb 06 15:45:18 GMT 2017
User: dcchb
Spectrometer: FLMS00149
Trigger mode: 0
Integration Time (sec): 2.000000E-2
Scans to average: 10
Electric dark correction enabled: true
Nonlinearity correction enabled: false
Boxcar width: 0
XAxis mode: Wavelengths
Number of Pixels in Spectrum: 2048
>>>>>Begin Spectral Data<<<<<
341.393	-3.19
341.776	-3.19
342.16	-3.19
342.543	-41.61
342.927	-76.64
343.31	-62.4
343.693	-63.76
344.077	-66.92
344.46	-54.04
344.843	-56.52
345.226	-39.12
345.61	-20.82
345.993	-28.73
346.376	-12.23
346.759	-0.25
347.142	-4.77
347.525	28.22
347.908	71.38
348.291	87.2
348.674	107.31
349.057	115.45
349.44	118.61
349.823	143.02
350.206	152.51
350.588	182.79
350.971	218.72
351.354	216.92
351.737	226.18
352.119	239.51
352.502	272.73
352.884	264.6
353.267	260.3
353.65	301.21
354.032	287.2
354.414	298.95
354.797	295.78
355.179	337.36
355.562	315.9
355.944	321.55
356.326	335.56
356.709	341.43
357.091	334.88
357.473	330.58
357.855	330.58
358.238	335.33
358.62	322.68
359.002	341.66
359.384	335.56
359.766	322.45
360.148	337.14
360.53	349.34
360.912	349.57
361.294	335.78
361.676	333.07
362.057	327.19
362.439	337.59
362.821	316.12
363.203	308.21
363.584	311.83
363.966	326.97
364.348	294.65
364.729	320.87
365.111	321.55
365.493	327.87
365.874	305.5
366.256	311.38
366.637	306.86
367.019	293.07
367.4	295.33
367.781	299.85
368.163	292.62
368.544	310.02
368.925	295.78
369.306	300.53
369.688	313.18
370.069	305.5
370.45	293.07
370.831	300.98
371.212	309.34
371.593	310.92
371.974	315.9
372.355	323.13
372.736	314.54
373.117	325.84
373.498	289.68
373.879	307.08
374.26	304.6
374.641	299.4
375.021	316.57
375.402	330.58
375.783	309.79
376.163	324.26
376.544	332.62
376.925	336.01
377.305	322.22
377.686	323.81
378.066	313.64
378.447	317.48
378.827	343.69
379.208	321.32
379.588	319.74
379.968	340.08
380.349	328.1
380.729	328.78
381.109	331.71
381.489	339.4
381.87	327.19
382.25	348.66
382.63	339.85
383.01	326.97
383.39	324.93
383.77	339.62
384.15	327.19
384.53	327.65
384.91	340.08
385.29	341.21
385.67	328.78
386.049	336.01
386.429	340.98
386.809	336.46
387.189	335.33
387.568	349.34
387.948	365.16
388.328	368.78
388.707	343.92
389.087	342.11
389.466	339.62
389.846	361.54
390.225	351.83
390.605	340.53
390.984	357.02
391.363	371.71
391.743	371.26
392.122	349.57
392.501	348.66
392.881	360.19
393.26	357.02
393.639	378.72
394.018	378.04
394.397	355.67
394.776	369.45
395.155	393.63
395.534	353.63
395.913	363.58
396.292	361.77
396.671	355.67
397.05	350.7
397.429	359.74
397.808	371.71
398.186	392.73
398.565	385.72
398.944	380.07
399.323	390.92
399.701	373.75
400.08	402.22
400.458	397.48
400.837	380.07
401.215	386.18
401.594	379.85
401.972	366.29
402.351	383.01
402.729	397.25
403.107	374.43
403.486	406.97
403.864	393.86
404.242	395.89
404.62	422.79
404.999	404.25
405.377	417.81
405.755	402.45
406.133	405.61
406.511	407.19
406.889	405.16
407.267	420.98
407.645	433.86
408.023	418.27
408.401	451.49
408.779	435.89
409.156	433.86
409.534	447.19
409.912	424.37
410.29	469.34
410.667	468.21
411.045	463.91
411.422	479.96
411.8	468.21
412.178	477.02
412.555	464.82
412.933	469.56
413.31	478.15
413.687	490.13
414.065	494.87
414.442	500.75
414.819	529
415.197	516.12
415.574	528.32
415.951	530.13
416.328	524.7
416.705	541.2
417.082	533.07
417.46	538.49
417.837	541.65
418.214	556.12
418.591	557.02
418.967	580.97
419.344	583.69
419.721	580.97
420.098	584.36
420.475	574.42
420.852	597.7
421.228	584.82
421.605	615.32
421.982	614.64
422.358	623.68
422.735	606.06
423.111	635.89
423.488	620.97
423.864	644.93
424.241	636.57
424.617	651.25
424.994	665.94
425.37	650.58
425.746	668.2
426.123	678.82
426.499	665.26
426.875	681.99
427.251	694.19
427.627	702.78
428.003	704.59
428.379	704.36
428.756	712.95
429.132	728.09
429.507	732.16
429.883	777.13
430.259	736
430.635	742.55
431.011	764.47
431.387	782.32
431.763	789.1
432.138	777.8
432.514	820.06
432.89	790.46
433.265	791.14
433.641	835.66
434.016	820.97
434.392	833.62
434.767	849.89
435.143	850.8
435.518	887.18
435.894	863.68
436.269	866.39
436.644	891.93
437.02	895.99
437.395	878.59
437.77	918.59
438.145	927.4
438.52	911.81
438.895	917.91
439.271	932.83
439.646	969.66
440.021	942.32
440.395	927.63
440.77	942.09
441.145	946.84
441.52	975.99
441.895	972.38
442.27	992.26
442.645	985.71
443.019	1016.22
443.394	1008.76
443.769	966.5
444.143	1015.76
444.518	1017.12
444.892	996.78
445.267	1001.75
445.641	1003.79
446.016	1035.42
446.39	1041.53
446.764	1020.28
447.139	1019.38
447.513	1040.85
447.887	1029.1
448.262	1055.31
448.636	1047.85
449.01	1053.5
449.384	1085.14
449.758	1073.84
450.132	1098.7
450.506	1076.33
450.88	1071.81
451.254	1064.35
451.628	1093.05
452.002	1094.41
452.376	1115.87
452.75	1111.58
453.123	1110.9
453.497	1111.35
453.871	1119.72
454.244	1158.59
454.618	1161.98
454.992	1168.08
455.365	1143.67
455.739	1166.72
456.112	1192.03
456.486	1205.14
456.859	1180.28
457.232	1201.3
457.606	1216.66
457.979	1196.55
458.352	1226.15
458.725	1243.55
459.099	1256.21
459.472	1268.19
459.845	1269.09
460.218	1294.4
460.591	1307.51
460.964	1283.55
461.337	1289.2
461.71	1309.77
462.083	1345.47
462.456	1321.29
462.829	1341.41
463.201	1371.69
463.574	1344.12
463.947	1360.16
464.32	1397.45
464.692	1423.66
465.065	1443.1
465.438	1399.93
465.81	1427.5
466.183	1432.7
466.555	1483.77
466.928	1439.26
467.3	1465.7
467.672	1471.57
468.045	1523.77
468.417	1548.18
468.789	1544.79
469.161	1504.11
469.534	1560.38
469.906	1595.41
470.278	1585.01
470.65	1575.52
471.022	1650.55
471.394	1646.93
471.766	1649.42
472.138	1673.37
472.51	1681.74
472.882	1707.95
473.253	1714.5
473.625	1753.82
473.997	1752.92
474.369	1817.78
474.74	1765.58
475.112	1813.71
475.484	1832.69
475.855	1868.85
476.227	1849.87
476.598	1905.23
476.97	1914.95
477.341	1963.54
477.713	1978.22
478.084	1951.56
478.455	1998.11
478.827	2047.6
479.198	2093.02
479.569	2094.38
479.94	2148.84
480.311	2157.43
480.682	2163.98
481.053	2194.49
481.424	2268.84
481.795	2261.83
482.166	2310.19
482.537	2302.96
482.908	2324.88
483.279	2362.62
483.65	2394.94
484.021	2407.82
484.391	2451.43
484.762	2476.06
485.133	2459.57
485.503	2516.74
485.874	2555.16
486.244	2558.55
486.615	2603.97
486.985	2625.67
487.356	2670.18
487.726	2684.19
488.097	2756.51
488.467	2742.72
488.837	2802.16
489.207	2766.9
489.578	2817.75
489.948	2860.69
490.318	2861.37
490.688	2880.57
491.058	2919.89
491.428	2951.31
491.798	2969.61
492.168	3064.98
492.538	3043.73
492.908	3061.36
493.278	3088.03
493.648	3090.29
494.017	3169.15
494.387	3168.7
494.757	3192.2
495.126	3211.64
495.496	3234.24
495.866	3272.43
496.235	3258.87
496.605	3289.6
496.974	3335.03
497.344	3310.62
497.713	3344.52
498.082	3322.6
498.452	3362.6
498.821	3386.1
499.19	3389.71
499.559	3388.81
499.928	3404.18
500.298	3474.68
500.667	3517.39
501.036	3465.64
501.405	3499.99
501.774	3506.32
502.143	3527.79
502.512	3522.82
502.88	3577.05
503.249	3567.34
503.618	3589.93
503.987	3589.71
504.356	3581.12
504.724	3625.41
505.093	3678.29
505.462	3625.87
505.83	3647.56
506.199	3673.77
506.567	3691.17
506.936	3706.09
507.304	3748.8
507.672	3751.74
508.041	3736.82
508.409	3760.32
508.777	3766.43
509.145	3791.06
509.514	3801
509.882	3844.16
510.25	3799.42
510.618	3858.63
510.986	3844.16
511.354	3886.65
511.722	3883.94
512.09	3937.5
512.458	3901.11
512.826	3922.81
513.193	3945.63
513.561	3932.07
513.929	3930.72
514.297	3980.43
514.664	4013.65
515.032	3974.33
515.4	3995.8
515.767	4026.08
516.135	4071.28
516.502	4015.46
516.869	4056.59
517.237	4083.03
517.604	4007.1
517.972	4102.01
518.339	4077.38
518.706	4102.24
519.073	4084.38
519.44	4074.44
519.808	4140.88
520.175	4117.15
520.542	4156.25
520.909	4175.23
521.276	4164.38
521.643	4156.47
522.009	4154.21
522.376	4180.65
522.743	4234.21
523.11	4245.96
523.477	4284.15
523.843	4278.96
524.21	4304.72
524.577	4305.17
524.943	4332.29
525.31	4364.6
525.676	4384.26
526.043	4418.61
526.409	4429.01
526.776	4467.42
527.142	4506.97
527.508	4527.54
527.874	4522.11
528.241	4558.27
528.607	4536.8
528.973	4554.43
529.339	4515.33
529.705	4652.28
530.071	4629.68
530.437	4633.07
530.803	4656.57
531.169	4652.05
531.535	4662.9
531.901	4718.49
532.267	4754.65
532.632	4786.51
532.998	4793.52
533.364	4793.74
533.73	4787.19
534.095	4805.72
534.461	4862.89
534.826	4861.31
535.192	4886.4
535.557	4908.32
535.923	4915.1
536.288	4918.94
536.653	4993.06
537.019	4960.97
537.384	4970.69
537.749	4994.87
538.114	5039.16
538.479	5062.66
538.845	5120.97
539.21	5062.21
539.575	5107.18
539.94	5144.7
540.305	5177.24
540.67	5129.55
541.034	5185.37
541.399	5207.29
541.764	5204.13
542.129	5226.95
542.494	5220.63
542.858	5293.84
543.223	5278.25
543.587	5304.92
543.952	5341.3
544.316	5349.44
544.681	5382.66
545.045	5406.61
545.41	5411.58
545.774	5507.62
546.138	5500.84
546.503	5501.52
546.867	5493.61
547.231	5513.95
547.595	5531.35
547.959	5598.24
548.324	5550.33
548.688	5579.26
549.052	5643.21
549.416	5634.85
549.779	5622.87
550.143	5660.84
550.507	5694.51
550.871	5731.12
551.235	5695.87
551.599	5718.92
551.962	5776.54
552.326	5802.98
552.689	5797.33
553.053	5818.8
553.417	5807.5
553.78	5858.57
554.143	5847.73
554.507	5872.36
554.87	5912.13
555.234	5924.34
555.597	5903.09
555.96	5995.97
556.323	5914.17
556.686	5960.49
557.05	6006.82
557.413	5989.87
557.776	6032.13
558.139	6054.95
558.502	6083.43
558.865	6106.7
559.228	6138.34
559.59	6119.13
559.953	6140.6
560.316	6228.06
560.679	6141.96
561.041	6188.06
561.404	6187.38
561.767	6261.28
562.129	6235.29
562.492	6345.34
562.854	6288.85
563.217	6333.59
563.579	6314.38
563.941	6353.48
564.304	6368.39
564.666	6415.17
565.028	6388.5
565.39	6379.69
565.753	6444.77
566.115	6517.09
566.477	6507.37
566.839	6478.45
567.201	6571.78
567.563	6568.39
567.925	6638.44
568.287	6625.56
568.648	6624.66
569.01	6662.4
569.372	6719.34
569.734	6697.2
570.095	6748.04
570.457	6799.57
570.819	6812.45
571.18	6797.76
571.542	6918.43
571.903	6911.43
572.265	6955.27
572.626	6996.85
572.987	7029.17
573.349	7056.51
573.71	7111.42
574.071	7113.68
574.432	7158.88
574.794	7272.77
575.155	7313.68
575.516	7320.01
575.877	7407.23
576.238	7403.17
576.599	7505.09
576.96	7567.68
577.32	7604.52
577.681	7700.79
578.042	7808.35
578.403	7863.04
578.763	7966.77
579.124	8005.64
579.485	8147.55
579.845	8240.21
580.206	8322.24
580.566	8393.65
580.927	8527.43
581.287	8673.19
581.648	8780.98
582.008	8953.86
582.368	9015.1
582.728	9192.5
583.089	9328.77
583.449	9473.39
583.809	9713.39
584.169	9831.58
584.529	9970.11
584.889	10162.42
585.249	10264.79
585.609	10510.88
585.969	10721.72
586.329	10939.8
586.688	11072.9
587.048	11342.72
587.408	11499.56
587.768	11780.45
588.127	11997.17
588.487	12252.08
588.846	12562.13
589.206	12615.46
589.565	12892.29
589.925	13301.09
590.284	13444.82
590.643	13735.88
591.003	14039.15
591.362	14306.49
591.721	14548.52
592.08	14738.79
592.44	15121.83
592.799	15301.49
593.158	15604.76
593.517	15947.8
593.876	16196.83
594.235	16463.04
594.593	16765.41
594.952	17053.53
595.311	17372.85
595.67	17676.57
596.029	17938.94
596.387	18206.95
596.746	18540.73
597.104	18725.81
597.463	19021.62
597.822	19425
598.18	19614.82
598.538	19898.88
598.897	20274.24
599.255	20465.2
599.613	20917.39
599.972	21103.15
600.33	21406.87
600.688	21664.03
601.046	22056.79
601.404	22247.75
601.762	22520.06
602.12	22915.53
602.478	23180.83
602.836	23325.23
603.194	23537.88
603.552	23778.33
603.91	24010.19
604.268	24360.24
604.625	24487.92
604.983	24944.85
605.341	25090.16
605.698	25453.99
606.056	25730.37
606.413	25827.09
606.771	26215.78
607.128	26406.74
607.485	26503
607.843	26665.49
608.2	27124.46
608.557	27436.09
608.914	27547.27
609.272	27849.41
609.629	28092.34
609.986	28355.84
610.343	28492.1
610.7	28802.15
611.057	28856.61
611.414	29121.92
611.771	29271.74
612.127	29602.13
612.484	29756.93
612.841	29964.83
613.198	30013.19
613.554	30251.61
613.911	30487.31
614.267	30676.45
614.624	30740.18
614.98	30939.05
615.337	31094.07
615.693	31355.53
616.05	31428.3
616.406	31802.75
616.762	31717.1
617.118	32024.89
617.475	32101.73
617.831	32335.39
618.187	32401.83
618.543	32556.63
618.899	32804.53
619.255	32931.31
619.611	32964.53
619.967	33221.02
620.323	33309.83
620.678	33222.38
621.034	33319.55
621.39	33478.19
621.746	33623.49
622.101	33955.92
622.457	33797.95
622.812	33998.85
623.168	34085.86
623.523	34250.6
623.879	34331.5
624.234	34338.05
624.589	34429.8
624.945	34567.65
625.3	34652.85
625.655	34819.85
626.01	34759.74
626.365	34925.83
626.72	34949.11
627.075	35030.69
627.43	35069.11
627.785	35062.78
628.14	35238.14
628.495	35298.7
628.85	35387.52
629.205	35337.12
629.559	35523.33
629.914	35388.87
630.269	35494.41
630.623	35418.48
630.978	35466.84
631.332	35675.64
631.687	35763.55
632.041	35543.9
632.396	35716.77
632.75	35604.69
633.104	35651.24
633.459	35656.89
633.813	35751.8
634.167	35759.48
634.521	35611.69
634.875	35779.14
635.229	35782.08
635.583	35644.01
635.937	35718.81
636.291	35574.18
636.645	35774.62
636.999	35776.21
637.352	35867.05
637.706	35723.78
638.06	35849.88
638.413	35826.83
638.767	35723.1
639.121	35794.74
639.474	35559.94
639.828	35686.94
640.181	35805.13
640.534	35748.41
640.888	35615.98
641.241	35539.15
641.594	35670.67
641.947	35592.48
642.301	35684.01
642.654	35757.9
643.007	35819.14
643.36	35671.58
643.713	35583.44
644.066	35774.85
644.419	35561.52
644.771	35415.54
645.124	34963.57
645.477	35084.92
645.83	34890.81
646.182	34740.75
646.535	34659.63
646.888	34797.7
647.24	34539.85
647.593	34687.42
647.945	34624.15
648.298	34553.19
648.65	34385.51
649.002	34414.66
649.355	34660.76
649.707	34519.29
650.059	34679.51
650.411	35075.66
650.763	35153.17
651.115	35369.21
651.467	35307.97
651.819	35420.06
652.171	35403.56
652.523	35455.99
652.875	35490.56
653.227	35192.49
653.578	35391.13
653.93	35302.09
654.282	35078.82
654.633	35201.31
654.985	35116.56
655.337	35130.12
655.688	35226.62
656.039	35116.56
656.391	34981.65
656.742	35052.84
657.094	35062.1
657.445	35209.89
657.796	35073.4
658.147	35004.7
658.498	35026.62
658.849	34971.26
659.2	35043.12
659.551	35012.61
659.902	35228.88
660.253	34916.34
660.604	34995.21
660.955	34937.36
661.306	35090.35
661.656	34949.11
662.007	34987.75
662.358	35066.17
662.708	34975.55
663.059	34836.34
663.409	34815.33
663.76	34906.17
664.11	34992.27
664.461	35065.04
664.811	34975.1
665.161	34965.38
665.511	35007.19
665.862	34870.92
666.212	34996.34
666.562	35116.34
666.912	34955.89
667.262	34951.82
667.612	34902.1
667.962	35003.12
668.312	34881.99
668.662	35034.08
669.011	34869.11
669.361	34856
669.711	34876.12
670.06	34891.03
670.41	34700.3
670.76	34821.66
671.109	34934.65
671.459	34816.91
671.808	34682.45
672.157	34853.52
672.507	34675.9
672.856	34694.43
673.205	34616.01
673.554	34726.06
673.904	34677.7
674.253	34965.15
674.602	34682.9
674.951	34151.62
675.3	34005.41
675.649	34668.21
675.998	34661.89
676.346	34601.55
676.695	34842.67
677.044	34548.44
677.393	34570.59
677.741	34697.14
678.09	34487.43
678.438	34384.83
678.787	34477.03
679.135	34479.97
679.484	34302.35
679.832	34399.29
680.181	34219.64
680.529	34298.05
680.877	34125.4
681.225	34234.55
681.573	34394.1
681.922	34167.43
682.27	33954.56
682.618	34057.38
682.966	33926.54
683.314	34068
683.661	33830.04
684.009	33830.95
684.357	33658.75
684.705	33660.56
685.053	33716.83
685.4	33710.27
685.748	33445.42
686.095	33428.25
686.443	33467.11
686.79	33367.46
687.138	33391.86
687.485	33508.7
687.832	33319.77
688.18	33300.57
688.527	33195.03
688.874	33135.37
689.221	33010.4
689.568	33037.75
689.915	32998.2
690.262	32952.33
690.609	32884.08
690.956	32701.94
691.303	32692.9
691.65	32651.99
691.997	32522.73
692.344	32364.32
692.69	32359.57
693.037	32346.24
693.383	32146.47
693.73	32098.79
694.077	32066.02
694.423	32059.92
694.769	31960.04
695.116	31982.41
695.462	31809.98
695.808	31634.39
696.155	31838.23
696.501	31485.25
696.847	31630.78
697.193	31379.94
697.539	31436.21
697.885	31166.84
698.231	31075.31
698.577	31147.85
698.923	31135.88
699.269	30968.42
699.614	30820.63
699.96	30714.19
700.306	30800.97
700.651	30676.91
700.997	30557.81
701.342	30490.02
701.688	30480.07
702.033	30300.87
702.379	30397.36
702.724	30245.5
703.069	30333.64
703.415	29960.99
703.76	29973.42
704.105	30035.11
704.45	29965.74
704.795	29729.81
705.14	29715.12
705.485	29612.07
705.83	29596.93
706.175	29681.9
706.52	29536.6
706.865	29353.55
707.209	29323.95
707.554	29235.36
707.899	29358.52
708.243	29153.1
708.588	29025.65
708.932	28928.93
709.277	28886.67
709.621	28891.19
709.966	28702.04
710.31	28801.93
710.654	28634.93
710.998	28610.52
711.342	28523.97
711.687	28540.92
712.031	28432.44
712.375	28172.34
712.719	28363.07
713.063	28392.22
713.407	28344.99
713.75	28166.24
714.094	28172.79
714.438	28044.66
714.782	28068.84
715.125	27786.13
715.469	27980.25
715.812	27893.93
716.156	27706.36
716.499	27827.26
716.843	27740.94
717.186	27613.03
717.53	27627.27
717.873	27539.36
718.216	27478.12
718.559	27420.95
718.902	27342.98
719.246	27314.06
719.589	27266.6
719.932	27085.81
720.275	27076.55
720.617	27173.04
720.96	27151.35
721.303	26971.24
721.646	27171.91
721.989	26771.47
722.331	27042.65
722.674	26891.24
723.016	27001.97
723.359	26831.81
723.701	26772.83
724.044	26633.17
724.386	26644.02
724.729	26609.22
725.071	26625.03
725.413	26570.12
725.755	26490.8
726.097	26402.22
726.439	26268.89
726.782	26343.69
727.124	26459.62
727.465	26248.77
727.807	26296
728.149	26171.94
728.491	26197.25
728.833	26143.01
729.175	26093.07
729.516	26069.57
729.858	25980.31
730.199	26061.21
730.541	25911.15
730.882	25924.04
731.224	25946.86
731.565	25733.53
731.906	25844.94
732.248	25778.28
732.589	25649.92
732.93	25573.76
733.271	25623.25
733.612	25571.73
733.953	25637.49
734.294	25509.13
734.635	25340.32
734.976	25469.81
735.317	25432.75
735.658	25381.68
735.999	25390.04
736.339	25270.04
736.68	25327.89
737.021	25241.57
737.361	25169.03
737.702	25327.44
738.042	25153.43
738.383	25176.03
738.723	25206.99
739.063	25030.73
739.404	25161.34
739.744	24982.37
740.084	24799.77
740.424	24942.59
740.764	24864.85
741.104	24936.72
741.444	24810.62
741.784	24663.96
742.124	24866.21
742.464	24707.12
742.804	24561.13
743.143	24588.93
743.483	24560
743.823	24442.72
744.162	24451.76
744.502	24576.27
744.841	24413.12
745.181	24438.2
745.52	24353.68
745.86	24400.01
746.199	24286.11
746.538	24234.59
746.877	24332.67
747.216	24343.29
747.556	24182.84
747.895	24147.13
748.234	24143.52
748.573	24033.24
748.911	24066.68
749.25	23990.53
749.589	23965.44
749.928	23914.37
750.267	23881.15
750.605	23748.73
750.944	23787.14
751.283	23706.92
751.621	23778.1
751.96	23578.11
752.298	23597.77
752.636	23645
752.975	23486.13
753.313	23400.49
753.651	23613.59
753.989	23332.47
754.327	23246.82
754.666	23172.47
755.004	23175.18
755.342	23278.23
755.679	23067.84
756.017	22938.13
756.355	23165.46
756.693	23010.21
757.031	22989.2
757.368	22822.87
757.706	22884.79
758.044	22789.2
758.381	22820.39
758.719	22762.99
759.056	22680.96
759.394	22674.86
759.731	22411.36
760.068	22523
760.405	22381.98
