Data from hue_80_FLMS001491_52.txt Node
Date: Mon Feb 06 15:23:13 GMT 2017
User: dcchb
Spectrometer: FLMS00149
Trigger mode: 0
Integration Time (sec): 2.000000E-2
Scans to average: 10
Electric dark correction enabled: true
Nonlinearity correction enabled: false
Boxcar width: 0
XAxis mode: Wavelengths
Number of Pixels in Spectrum: 2048
>>>>>Begin Spectral Data<<<<<
341.393	-6.02
341.776	-6.02
342.16	-6.02
342.543	-67.71
342.927	-52.8
343.31	-71.78
343.693	-65.45
344.077	-67.94
344.46	-55.96
344.843	-34.72
345.226	-45.79
345.61	-43.53
345.993	-31.1
346.376	-4.43
346.759	13.64
347.142	25.62
347.525	74.43
347.908	43.7
348.291	76.69
348.674	83.47
349.057	103.13
349.44	145.17
349.823	144.49
350.206	143.36
350.588	197.59
350.971	205.05
351.354	225.62
351.737	203.92
352.119	244.6
352.502	252.96
352.884	256.35
353.267	283.02
353.65	293.86
354.032	277.37
354.414	318.72
354.797	307.65
355.179	312.62
355.562	319.85
355.944	321.21
356.326	337.03
356.709	336.8
357.091	324.14
357.473	347.87
357.855	333.41
358.238	344.48
358.62	354.88
359.002	341.32
359.384	327.76
359.766	337.25
360.148	348.1
360.53	360.53
360.912	325.73
361.294	325.5
361.676	321.43
362.057	337.93
362.439	305.39
362.821	320.53
363.203	319.4
363.584	339.06
363.966	340.19
364.348	304.71
364.729	321.88
365.111	292.28
365.493	309.46
365.874	298.83
366.256	342.9
366.637	290.7
367.019	300.42
367.4	309.91
367.781	313.3
368.163	302
368.544	311.04
368.925	303.13
369.306	300.42
369.688	308.33
370.069	312.17
370.45	303.81
370.831	284.15
371.212	302
371.593	326.86
371.974	306.74
372.355	301.77
372.736	307.65
373.117	302
373.498	317.36
373.879	299.96
374.26	305.16
374.641	311.49
375.021	299.51
375.402	310.36
375.783	341.32
376.163	318.72
376.544	323.47
376.925	335.67
377.305	331.15
377.686	314.43
378.066	322.34
378.447	314.65
378.827	345.61
379.208	346.97
379.588	299.96
379.968	330.47
380.349	349
380.729	318.95
381.109	316.69
381.489	323.47
381.87	351.04
382.25	324.14
382.63	332.28
383.01	338.61
383.39	346.74
383.77	340.64
384.15	338.15
384.53	335.67
384.91	341.32
385.29	345.16
385.67	344.26
386.049	349.45
386.429	333.86
386.809	357.82
387.189	360.3
387.568	337.93
387.948	350.58
388.328	342.45
388.707	351.04
389.087	346.74
389.466	374.99
389.846	349.68
390.225	367.08
390.605	361.88
390.984	356.46
391.363	356.91
391.743	350.81
392.122	355.56
392.501	373.41
392.881	355.56
393.26	393.97
393.639	356.01
394.018	364.37
394.397	378.83
394.776	380.64
395.155	357.59
395.534	351.26
395.913	365.27
396.292	403.24
396.671	381.77
397.05	383.8
397.429	402.56
397.808	390.58
398.186	396.46
398.565	371.15
398.944	391.03
399.323	386.52
399.701	402.56
400.08	388.55
400.458	390.58
400.837	373.63
401.215	378.61
401.594	409.57
401.972	400.75
402.351	406.63
402.729	384.93
403.107	396.23
403.486	379.28
403.864	411.37
404.242	415.44
404.62	396.01
404.999	415.22
405.377	405.05
405.755	433.75
406.133	420.64
406.511	411.83
406.889	423.35
407.267	408.21
407.645	434.42
408.023	428.77
408.401	436.01
408.779	435.33
409.156	455.21
409.534	444.37
409.912	457.93
410.29	433.52
410.667	444.82
411.045	465.38
411.422	478.26
411.8	453.18
412.178	465.84
412.555	464.48
412.933	480.07
413.31	451.37
413.687	464.25
414.065	472.16
414.442	465.61
414.819	472.84
415.197	464.71
415.574	466.74
415.951	474.2
416.328	491.82
416.705	460.86
417.082	500.41
417.46	497.92
417.837	497.02
418.214	495.44
418.591	493.18
418.967	494.54
419.344	489.79
419.721	508.09
420.098	504.7
420.475	507.19
420.852	517.36
421.228	514.2
421.605	551.48
421.982	543.57
422.358	530.47
422.735	528.66
423.111	513.07
423.488	548.54
423.864	540.41
424.241	551.48
424.617	537.92
424.994	539.28
425.37	562.33
425.746	561.2
426.123	561.43
426.499	566.4
426.875	576.57
427.251	569.79
427.627	567.98
428.003	569.11
428.379	574.76
428.756	577.02
429.132	586.06
429.507	611.14
429.883	575.44
430.259	612.05
430.635	613.85
431.011	612.27
431.387	626.28
431.763	645.49
432.138	647.75
432.514	644.59
432.89	648.88
433.265	644.36
433.641	666.28
434.016	660.18
434.392	662.67
434.767	667.64
435.143	674.87
435.518	677.36
435.894	672.84
436.269	671.48
436.644	678.48
437.02	673.51
437.395	713.96
437.77	710.8
438.145	718.03
438.52	723.91
438.895	711.93
439.271	702.67
439.646	738.37
440.021	730.01
440.395	725.72
440.77	739.27
441.145	757.8
441.52	736.56
441.895	766.62
442.27	795.09
442.645	773.62
443.019	783.34
443.394	745.6
443.769	784.47
444.143	767.3
444.518	786.73
444.892	792.61
445.267	795.32
445.641	805.49
446.016	826.5
446.39	832.38
446.764	817.24
447.139	818.82
447.513	815.43
447.887	855.66
448.262	850.23
448.636	842.55
449.01	840.74
449.384	842.77
449.758	888.2
450.132	863.56
450.506	880.74
450.88	908.99
451.254	873.28
451.628	876.22
452.002	900.4
452.376	921.42
452.75	900.85
453.123	915.31
453.497	919.83
453.871	934.98
454.244	927.07
454.618	1007.52
454.992	968.65
455.365	974.07
455.739	1000.06
456.112	1024.24
456.486	994.18
456.859	1022.88
457.232	1035.09
457.606	1015.43
457.979	1016.1
458.352	1052.49
458.725	1087.97
459.099	1066.72
459.472	1108.98
459.845	1144.91
460.218	1138.59
460.591	1140.62
460.964	1118.47
461.337	1159.38
461.71	1175.42
462.083	1219.26
462.456	1216.78
462.829	1200.96
463.201	1240.5
463.574	1251.13
463.947	1246.38
464.32	1256.1
464.692	1262.2
465.065	1310.11
465.438	1322.54
465.81	1350.11
466.183	1356.89
466.555	1409.09
466.928	1396.88
467.3	1402.99
467.672	1411.12
468.045	1473.94
468.417	1474.85
468.789	1465.81
469.161	1523.89
469.534	1525.47
469.906	1605.92
470.278	1576.99
470.65	1612.25
471.022	1649.08
471.394	1696.31
471.766	1725.69
472.138	1776.08
472.51	1800.49
472.882	1832.13
473.253	1884.78
473.625	1903.31
473.997	1943.31
474.369	1981.28
474.74	2037.32
475.112	2072.57
475.484	2135.62
475.855	2175.17
476.227	2165.68
476.598	2260.36
476.97	2292.45
477.341	2374.03
477.713	2433.02
478.084	2502.62
478.455	2554.37
478.827	2632.33
479.198	2752.33
479.569	2753.46
479.94	2858.31
480.311	2894.47
480.682	3035.26
481.053	3123.84
481.424	3204.29
481.795	3262.15
482.166	3360.45
482.537	3443.38
482.908	3526.55
483.279	3635.24
483.65	3758.4
484.021	3846.31
484.391	3955.69
484.762	4056.48
485.133	4143.93
485.503	4228.67
485.874	4400.87
486.244	4484.03
486.615	4610.13
486.985	4693.75
487.356	4873.85
487.726	4953.85
488.097	5147.97
488.467	5239.04
488.837	5353.84
489.207	5502.09
489.578	5639.48
489.948	5788.86
490.318	5919.25
490.688	5990.44
491.058	6195.18
491.428	6323.08
491.798	6446.92
492.168	6666.8
492.538	6756.52
492.908	6933.01
493.278	7031.54
493.648	7160.12
494.017	7354.92
494.387	7407.12
494.757	7599.43
495.126	7766.21
495.496	7845.53
495.866	8021.79
496.235	8116.93
496.605	8265.63
496.974	8384.05
497.344	8482.35
497.713	8635.79
498.082	8803.24
498.452	8978.83
498.821	9113.29
499.19	9080.52
499.559	9317.13
499.928	9422.21
500.298	9516.44
500.667	9689.77
501.036	9729.77
501.405	9878.24
501.774	9971.35
502.143	10107.62
502.512	10261.51
502.88	10398.91
503.249	10445.01
503.618	10507.83
503.987	10623.76
504.356	10779.46
504.724	10851.1
505.093	10907.14
505.462	11016.97
505.83	11139.23
506.199	11317.98
506.567	11449.95
506.936	11430.07
507.304	11622.6
507.672	11792.09
508.041	11691.3
508.409	11957.06
508.777	12007.68
509.145	12145.98
509.514	12150.5
509.882	12221.23
510.25	12388.01
510.618	12477.04
510.986	12439.53
511.354	12705.06
511.722	12778.51
512.09	12848.33
512.458	12875.68
512.826	13005.62
513.193	13024.38
513.561	13156.12
513.929	13299.85
514.297	13278.38
514.664	13406.29
515.032	13502.78
515.4	13496.68
515.767	13700.97
516.135	13700.06
516.502	13695.09
516.869	13887.18
517.237	13850.12
517.604	13915.65
517.972	14012.15
518.339	14134.63
518.706	14100.28
519.073	14190.9
519.44	14293.72
519.808	14394.28
520.175	14422.08
520.542	14545.01
520.909	14639.93
521.276	14572.58
521.643	14705.01
522.009	14859.81
522.376	14963.31
522.743	14867.72
523.11	15114.72
523.477	15081.27
523.843	15303.64
524.21	15382.96
524.577	15389.51
524.943	15406.23
525.31	15550.41
525.676	15604.19
526.043	15653.68
526.409	15704.3
526.776	15855.26
527.142	15851.19
527.508	15991.08
527.874	15968.25
528.241	16024.3
528.607	16048.48
528.973	16118.76
529.339	16156.04
529.705	16321.01
530.071	16430.61
530.437	16337.06
530.803	16407.34
531.169	16536.6
531.535	16394.23
531.901	16453.66
532.267	16500.22
532.632	16630.16
532.998	16528.92
533.364	16622.7
533.73	16553.32
534.095	16719.87
534.461	16680.1
534.826	16751.51
535.192	16804.16
535.557	16817.04
535.923	16817.72
536.288	16836.7
536.653	16822.69
537.019	16867.44
537.384	16825.63
537.749	16878.29
538.114	16846.2
538.479	16851.85
538.845	16884.16
539.21	16764.62
539.575	16817.04
539.94	16834.67
540.305	16951.28
540.67	16812.75
541.034	16844.16
541.399	16946.53
541.764	16858.85
542.129	16934.1
542.494	16868.79
542.858	16907.89
543.223	16936.81
543.587	16937.94
543.952	16913.76
544.316	16883.26
544.681	16851.85
545.045	16902.69
545.41	16965.74
545.774	17036.92
546.138	16871.51
546.503	16894.56
546.867	16872.86
547.231	16986.08
547.595	16986.76
547.959	16964.38
548.324	16900.88
548.688	16888
549.052	16890.94
549.416	16875.35
549.779	16947.89
550.143	16837.61
550.507	16925.74
550.871	16965.29
551.235	16876.93
551.599	16922.58
551.962	16916.25
552.326	16883.03
552.689	17019.07
553.053	16892.07
553.417	16848.23
553.78	17065.62
554.143	16927.1
554.507	16936.36
554.87	16930.71
555.234	17046.19
555.597	16863.82
555.96	16955.8
556.323	16975.23
556.686	16889.36
557.05	17020.43
557.413	17029.02
557.776	17009.58
558.139	17036.92
558.502	17083.7
558.865	17142.46
559.228	17194.21
559.59	17115.11
559.953	17172.74
560.316	17293.87
560.679	17210.71
561.041	17325.96
561.404	17338.39
561.767	17402.11
562.129	17353.53
562.492	17420.64
562.854	17479.17
563.217	17332.28
563.579	17394.66
563.941	17523.92
564.304	17525.5
564.666	17651.82
565.028	17591.49
565.39	17645.72
565.753	17710.81
566.115	17655.89
566.477	17738.38
566.839	17765.04
567.201	17861.76
567.563	17867.41
567.925	17882.55
568.287	17877.81
568.648	17890.01
569.01	18015.43
569.372	18078.03
569.734	18096.11
570.095	17996.45
570.457	18155.09
570.819	18131.36
571.18	18150.57
571.542	18152.15
571.903	18137.91
572.265	18219.04
572.626	18334.52
572.987	18222.66
573.349	18274.86
573.71	18334.74
574.071	18387.62
574.432	18346.72
574.794	18486.38
575.155	18459.03
575.516	18331.13
575.877	18432.14
576.238	18534.06
576.599	18630.56
576.96	18607.96
577.32	18546.49
577.681	18553.27
578.042	18600.27
578.403	18597.79
578.763	18666.71
579.124	18645.47
579.485	18660.61
579.845	18706.26
580.206	18660.16
580.566	18669.2
580.927	18605.92
581.287	18629.43
581.648	18689.08
582.008	18817.67
582.368	18667.62
582.728	18680.5
583.089	18671.68
583.449	18698.58
583.809	18646.37
584.169	18661.29
584.529	18598.24
584.889	18757.56
585.249	18633.49
585.609	18588.52
585.969	18622.42
586.329	18609.99
586.688	18678.92
587.048	18595.3
587.408	18592.14
587.768	18614.06
588.127	18556.21
588.487	18538.35
588.846	18678.01
589.206	18481.86
589.565	18606.6
589.925	18653.83
590.284	18585.58
590.643	18579.48
591.003	18568.64
591.362	18658.8
591.721	18533.16
592.08	18495.42
592.44	18526.15
592.799	18579.03
593.158	18544.91
593.517	18577
593.876	18523.89
594.235	18560.95
594.593	18450.22
594.952	18450.22
595.311	18515.53
595.67	18506.49
596.029	18541.29
596.387	18533.83
596.746	18595.08
597.104	18521.86
597.463	18574.51
597.822	18608.64
598.18	18490.67
598.538	18485.47
598.897	18667.84
599.255	18470.11
599.613	18672.36
599.972	18509.88
600.33	18605.47
600.688	18401.63
601.046	18534.51
601.404	18627.62
601.762	18529.77
602.12	18627.17
602.478	18689.08
602.836	18618.8
603.194	18515.98
603.552	18578.81
603.91	18558.47
604.268	18591.91
604.625	18498.58
604.983	18607.05
605.341	18528.41
605.698	18574.96
606.056	18642.31
606.413	18626.04
606.771	18737.22
607.128	18611.8
607.485	18679.59
607.843	18636.2
608.2	18670.55
608.557	18676.66
608.914	18629.88
609.272	18738.12
609.629	18746.48
609.986	18909.87
610.343	18748.52
610.7	18876.42
611.057	18836.2
611.414	18827.61
611.771	18888.85
612.127	18940.6
612.484	18951.22
612.841	18906.48
613.198	18915.97
613.554	18935.63
613.911	19141.28
614.267	19061.73
614.624	18975.86
614.98	19066.93
615.337	19099.02
615.693	19136.98
616.05	19117.77
616.406	19095.85
616.762	19078.91
617.118	19111.22
617.475	19040.71
617.831	19179.47
618.187	19159.35
618.543	19149.19
618.899	19274.15
619.255	19214.95
619.611	19277.09
619.967	19256.53
620.323	19280.71
620.678	19203.2
621.034	19197.55
621.39	19139.24
621.746	19111.67
622.101	19416.75
622.457	19319.35
622.812	19308.73
623.168	19380.14
623.523	19362.97
623.879	19382.85
624.234	19298.11
624.589	19361.16
624.945	19385.11
625.3	19323.87
625.655	19367.03
626.01	19333.59
626.365	19331.1
626.72	19312.35
627.075	19322.06
627.43	19309.41
627.785	19192.35
628.14	19266.7
628.495	19280.26
628.85	19288.39
629.205	19244.32
629.559	19320.93
629.914	19234.38
630.269	19219.24
630.623	19182.86
630.978	19255.62
631.332	19230.54
631.687	19280.48
632.041	19193.03
632.396	19238.45
632.75	19118.23
633.104	19175.63
633.459	18991.22
633.813	19062.63
634.167	19014.73
634.521	19071.67
634.875	19138.79
635.229	19014.73
635.583	18956.65
635.937	19013.6
636.291	19027.16
636.645	18925.01
636.999	18909.64
637.352	18954.61
637.706	18817.9
638.06	18831.45
638.413	18892.92
638.767	18804.11
639.121	18808.63
639.474	18809.53
639.828	18750.55
640.181	18768.18
640.534	18728.63
640.888	18667.84
641.241	18620.61
641.594	18731.8
641.947	18723.66
642.301	18563.21
642.654	18666.03
643.007	18732.7
643.36	18630.33
643.713	18641.4
644.066	18661.97
644.419	18489.09
644.771	18467.85
645.124	18205.48
645.477	18250
645.83	18161.87
646.182	18120.06
646.535	17990.8
646.888	17944.25
647.24	17879.16
647.593	17936.11
647.945	17940.63
648.298	17895.21
648.65	17914.64
649.002	17878.71
649.355	17954.87
649.707	17885.49
650.059	18012.27
650.411	18290
650.763	18233.73
651.115	18567.96
651.467	18426.49
651.819	18314.41
652.171	18446.38
652.523	18458.81
652.875	18352.14
653.227	18258.14
653.578	18474.63
653.93	18431.24
654.282	18315.31
654.633	18248.87
654.985	18330.9
655.337	18276.21
655.688	18299.26
656.039	18398.92
656.391	18177.46
656.742	18315.99
657.094	18270.34
657.445	18334.74
657.796	18380.84
658.147	18336.55
658.498	18352.37
658.849	18341.98
659.2	18300.62
659.551	18254.29
659.902	18292.94
660.253	18307.63
660.604	18349.66
660.955	18220.85
661.306	18352.14
661.656	18317.34
662.007	18273.28
662.358	18397.12
662.708	18285.25
663.059	18308.98
663.409	18246.61
663.76	18393.95
664.11	18337.91
664.461	18361.18
664.811	18359.15
665.161	18428.98
665.511	18430.11
665.862	18318.02
666.212	18339.04
666.562	18442.54
666.912	18307.17
667.262	18323.22
667.612	18348.3
667.962	18359.6
668.312	18386.95
668.662	18413.39
669.011	18247.51
669.361	18320.28
669.711	18255.88
670.06	18286.38
670.41	18306.95
670.76	18278.02
671.109	18299.72
671.459	18198.7
671.808	18211.58
672.157	18316.21
672.507	18204.8
672.856	18185.6
673.205	18195.99
673.554	18195.76
673.904	18156.9
674.253	18278.25
674.602	18202.54
674.951	17800.29
675.3	17759.39
675.649	18084.58
675.998	17997.35
676.346	18119.38
676.695	18200.74
677.044	17968.2
677.393	18027.41
677.741	18056.56
678.09	18030.12
678.438	18010.46
678.787	17962.78
679.135	17918.48
679.484	17829.67
679.832	17910.8
680.181	17868.77
680.529	17893.63
680.877	17831.93
681.225	17766.4
681.573	17886.85
681.922	17697.7
682.27	17824.25
682.618	17788.09
682.966	17626.29
683.314	17684.14
683.661	17545.84
684.009	17519.85
684.357	17526.4
684.705	17450.25
685.053	17582.67
685.4	17412.06
685.748	17316.69
686.095	17218.39
686.443	17304.26
686.79	17235.34
687.138	17217.26
687.485	17186.07
687.832	17146.75
688.18	17157.83
688.527	17079.18
688.874	17059.3
689.221	17002.58
689.568	16979.53
689.915	16953.31
690.262	16921.45
690.609	16787.44
690.956	16629.7
691.303	16642.81
691.65	16643.04
691.997	16572.76
692.344	16525.98
692.69	16541.57
693.037	16579.54
693.383	16375.93
693.73	16351.29
694.077	16239.88
694.423	16217.96
694.769	16205.08
695.116	16164.86
695.462	16158.76
695.808	16045.99
696.155	16089.38
696.501	15994.47
696.847	15933.9
697.193	15804.64
697.539	15891.87
697.885	15706.56
698.231	15718.99
698.577	15672.89
698.923	15728.71
699.269	15580.92
699.614	15439.23
699.96	15476.51
700.306	15346.8
700.651	15400.81
700.997	15210.98
701.342	15271.55
701.688	15186.35
702.033	15078.33
702.379	15088.28
702.724	14980.93
703.069	15014.38
703.415	14858.45
703.76	14897.77
704.105	14862.74
704.45	14854.84
704.795	14773.03
705.14	14721.96
705.485	14746.36
705.83	14622.75
706.175	14555.86
706.52	14600.83
706.865	14526.03
707.209	14491.46
707.554	14416.88
707.899	14476.09
708.243	14319.71
708.588	14281.97
708.932	14183.89
709.277	14224.12
709.621	14242.65
709.966	14159.49
710.31	14147.74
710.654	13965.59
710.998	14006.27
711.342	14066.16
711.687	13928.08
712.031	13877.23
712.375	13783.23
712.719	13888.31
713.063	13756.56
713.407	13818.7
713.75	13754.07
714.094	13688.31
714.438	13642.66
714.782	13687.18
715.125	13570.8
715.469	13640.63
715.812	13539.16
716.156	13566.96
716.499	13479.28
716.843	13529.9
717.186	13443.8
717.53	13555.43
717.873	13524.25
718.216	13512.95
718.559	13375.1
718.902	13256.46
719.246	13316.8
719.589	13326.51
719.932	13247.19
720.275	13280.19
720.617	13282.45
720.96	13176.01
721.303	13223.69
721.646	13261.2
721.989	13093.75
722.331	13119.74
722.674	13162.22
723.016	13116.35
723.359	13103.24
723.701	13166.97
724.044	13066.86
724.386	13073.41
724.729	13041.32
725.071	13053.53
725.413	13015.56
725.755	13062.34
726.097	13024.38
726.439	12956.81
726.782	12932.17
727.124	12975.79
727.465	12926.52
727.807	12910.03
728.149	12959.52
728.491	12965.85
728.833	12928.56
729.175	12920.42
729.516	12896.47
729.858	12849.46
730.199	12883.36
730.541	12855.34
730.882	12840.2
731.224	12809.92
731.565	12713.65
731.906	12765.85
732.248	12784.38
732.589	12753.42
732.93	12797.04
733.271	12737.6
733.612	12742.57
733.953	12722.91
734.294	12736.92
734.635	12700.09
734.976	12699.41
735.317	12699.86
735.658	12727.89
735.999	12769.47
736.339	12706.64
736.68	12800.43
737.021	12768.34
737.361	12715.68
737.702	12813.76
738.042	12749.13
738.383	12716.36
738.723	12815.79
739.063	12704.16
739.404	12785.06
739.744	12840.65
740.084	12760.43
740.424	12763.14
740.764	12754.78
741.104	12830.93
741.444	12808.34
741.784	12777.83
742.124	12806.98
742.464	12807.88
742.804	12828.67
743.143	12850.59
743.483	12939.86
743.823	12800.2
744.162	12901.21
744.502	12919.29
744.841	12960.2
745.181	13071.61
745.52	12982.57
745.86	13117.25
746.199	13132.17
746.538	13099.63
746.877	13240.87
747.216	13260.75
747.556	13226.18
747.895	13280.41
748.234	13324.93
748.573	13360.19
748.911	13408.09
749.25	13511.59
749.589	13502.55
749.928	13533.29
750.267	13679.95
750.605	13688.09
750.944	13750.23
751.283	13801.3
751.621	13907.52
751.96	13946.61
752.298	14069.32
752.636	14157.45
752.975	14183.67
753.313	14186.15
753.651	14406.49
753.989	14384.34
754.327	14455.52
754.666	14646.25
755.004	14753.14
755.342	14861.84
755.679	14887.83
756.017	14930.54
756.355	15103.64
