Data from hue_60_FLMS001491_93.txt Node
Date: Mon Feb 06 15:18:13 GMT 2017
User: dcchb
Spectrometer: FLMS00149
Trigger mode: 0
Integration Time (sec): 2.000000E-2
Scans to average: 10
Electric dark correction enabled: true
Nonlinearity correction enabled: false
Boxcar width: 0
XAxis mode: Wavelengths
Number of Pixels in Spectrum: 2048
>>>>>Begin Spectral Data<<<<<
341.393	18.5
341.776	18.5
342.16	18.5
342.543	-48.16
342.927	-80.93
343.31	-65.34
343.693	-53.36
344.077	-67.37
344.46	-61.27
344.843	-63.98
345.226	-43.87
345.61	-17.88
345.993	-26.24
346.376	-17.2
346.759	13.98
347.142	25.51
347.525	41.78
347.908	55.11
348.291	82.46
348.674	86.52
349.057	111.16
349.44	140.53
349.823	155.9
350.206	153.41
350.588	211.94
350.971	238.38
351.354	236.8
351.737	250.59
352.119	274.54
352.502	277.93
352.884	294.2
353.267	304.82
353.65	317.7
354.032	300.53
354.414	337.36
354.797	330.81
355.179	366.74
355.562	340.98
355.944	357.25
356.326	333.52
356.709	351.15
357.091	340.75
357.473	354.76
357.855	345.95
358.238	370.81
358.62	365.39
359.002	363.8
359.384	359.96
359.766	344.6
360.148	373.97
360.53	351.6
360.912	349.34
361.294	361.77
361.676	347.99
362.057	359.28
362.439	335.33
362.821	339.4
363.203	369.23
363.584	360.87
363.966	355.67
364.348	325.16
364.729	348.21
365.111	364.48
365.493	341.43
365.874	316.8
366.256	341.88
366.637	322.9
367.019	331.49
367.4	340.08
367.781	330.81
368.163	316.8
368.544	330.13
368.925	321.09
369.306	325.61
369.688	343.92
370.069	316.35
370.45	337.59
370.831	327.42
371.212	334.43
371.593	328.55
371.974	329.68
372.355	345.27
372.736	334.2
373.117	328.1
373.498	319.29
373.879	333.97
374.26	337.82
374.641	347.08
375.021	315.9
375.402	329.23
375.783	341.66
376.163	353.63
376.544	345.5
376.925	353.86
377.305	354.99
377.686	315.22
378.066	353.18
378.447	329.23
378.827	361.77
379.208	375.33
379.588	357.02
379.968	347.99
380.349	352.96
380.729	344.82
381.109	359.06
381.489	354.09
381.87	334.2
382.25	355.44
382.63	354.09
383.01	362.22
383.39	353.86
383.77	341.66
384.15	349.79
384.53	364.03
384.91	348.89
385.29	378.72
385.67	367.87
386.049	349.34
386.429	344.14
386.809	389.11
387.189	370.13
387.568	374.2
387.948	352.73
388.328	366.29
388.707	374.43
389.087	359.28
389.466	384.37
389.846	363.58
390.225	367.65
390.605	381.88
390.984	369.23
391.363	385.05
391.743	379.85
392.122	366.29
392.501	392.05
392.881	406.97
393.26	414.42
393.639	391.83
394.018	405.61
394.397	393.63
394.776	403.35
395.155	366.06
395.534	398.61
395.913	388.89
396.292	416.46
396.671	410.13
397.05	417.81
397.429	395.67
397.808	409.9
398.186	376.91
398.565	403.35
398.944	397.48
399.323	426.85
399.701	400.19
400.08	414.2
400.458	399.28
400.837	416.01
401.215	419.4
401.594	420.53
401.972	409.23
402.351	428.89
402.729	423.46
403.107	441.77
403.486	404.71
403.864	447.42
404.242	435.67
404.62	436.34
404.999	413.29
405.377	446.51
405.755	429.34
406.133	427.31
406.511	432.73
406.889	456
407.267	433.63
407.645	466.17
408.023	450.58
408.401	442.9
408.779	462.33
409.156	472.28
409.534	482.9
409.912	460.07
410.29	476.34
410.667	458.72
411.045	467.98
411.422	473.18
411.8	470.69
412.178	467.76
412.555	482.44
412.933	475.44
413.31	486.96
413.687	506.63
414.065	496.91
414.442	512.05
414.819	488.32
415.197	507.53
415.574	545.49
415.951	540.52
416.328	531.94
416.705	497.36
417.082	514.53
417.46	550.92
417.837	525.83
418.214	517.47
418.591	548.21
418.967	529.9
419.344	552.5
419.721	545.04
420.098	551.6
420.475	540.3
420.852	539.39
421.228	573.29
421.605	541.65
421.982	558.38
422.358	567.87
422.735	570.58
423.111	563.8
423.488	569.67
423.864	592.05
424.241	572.39
424.617	577.58
424.994	575.1
425.37	600.41
425.746	579.39
426.123	607.87
426.499	587.3
426.875	634.08
427.251	610.58
427.627	618.94
428.003	599.73
428.379	629.11
428.756	630.01
429.132	629.33
429.507	640.41
429.883	625.49
430.259	648.09
430.635	653.51
431.011	661.65
431.387	664.36
431.763	691.48
432.138	678.6
432.514	678.82
432.89	688.99
433.265	689.9
433.641	715.43
434.016	706.39
434.392	732.83
434.767	732.61
435.143	714.98
435.518	726.28
435.894	747.07
436.269	736.68
436.644	746.62
437.02	756.34
437.395	778.48
437.77	778.26
438.145	776.9
438.52	764.92
438.895	779.61
439.271	776.9
439.646	790.46
440.021	777.8
440.395	787.97
440.77	790.91
441.145	794.75
441.52	833.85
441.895	807.18
442.27	824.58
442.645	806.73
443.019	826.62
443.394	848.76
443.769	839.05
444.143	855.54
444.518	836.11
444.892	851.02
445.267	824.58
445.641	846.28
446.016	873.17
446.39	886.05
446.764	852.83
447.139	871.81
447.513	908.42
447.887	885.15
448.262	905.71
448.636	903.68
449.01	914.3
449.384	922.21
449.758	911.36
450.132	913.39
450.506	933.73
450.88	944.13
451.254	950
451.628	933.51
452.002	941.19
452.376	987.97
452.75	949.1
453.123	969.21
453.497	995.88
453.871	977.35
454.244	978.93
454.618	1001.53
454.992	1007.63
455.365	1036.78
455.739	1037.46
456.112	1086.27
456.486	1049.44
456.859	1066.38
457.232	1093.95
457.606	1103.9
457.979	1109.55
458.352	1147.96
458.725	1144.12
459.099	1128.3
459.472	1170.11
459.845	1174.4
460.218	1187.51
460.591	1193.16
460.964	1187.96
461.337	1214.4
461.71	1241.75
462.083	1253.95
462.456	1287.4
462.829	1282.88
463.201	1302.08
463.574	1307.51
463.947	1300.95
464.32	1352.25
464.692	1358.13
465.065	1372.14
465.438	1378.47
465.81	1430.67
466.183	1427.96
466.555	1464.57
466.928	1486.49
467.3	1480.38
467.672	1503.21
468.045	1569.2
468.417	1543.89
468.789	1554.28
469.161	1552.47
469.534	1611.91
469.906	1634.51
470.278	1675.86
470.65	1700.49
471.022	1745.91
471.394	1803.99
471.766	1824.33
472.138	1819.13
472.51	1860.71
472.882	1931.67
473.253	1964.89
473.625	2015.74
473.997	2031.78
474.369	2083.31
474.74	2100.93
475.112	2150.65
475.484	2224.55
475.855	2263.64
476.227	2340.25
476.598	2395.61
476.97	2425.67
477.341	2481.71
477.713	2548.38
478.084	2602.62
478.455	2754.25
478.827	2752.89
479.198	2882.83
479.569	2933.45
479.94	3034.92
480.311	3117.63
480.682	3196.95
481.053	3311.75
481.424	3395.81
481.795	3459.32
482.166	3562.59
482.537	3716.94
482.908	3773.21
483.279	3840.32
483.65	3970.71
484.021	4144.04
484.391	4252.74
484.762	4306.98
485.133	4412.74
485.503	4546.29
485.874	4696.8
486.244	4790.58
486.615	4949.45
486.985	5052.27
487.356	5209.33
487.726	5334.75
488.097	5546.04
488.467	5644.8
488.837	5861.51
489.207	5985.13
489.578	6140.6
489.948	6267.15
490.318	6399.35
490.688	6549.18
491.058	6747.14
491.428	6917.08
491.798	7068.49
492.168	7270.97
492.538	7371.3
492.908	7600.22
493.278	7785.76
493.648	7853.55
494.017	8103.49
494.387	8281.34
494.757	8457.15
495.126	8633.64
495.496	8781.89
495.866	8893.98
496.235	9086.06
496.605	9271.82
496.974	9386.62
497.344	9634.75
497.713	9763.78
498.082	9944.34
498.452	10157.67
498.821	10293.03
499.19	10382.52
499.559	10637.66
499.928	10653.7
500.298	10891.44
500.667	11175.27
501.036	11184.54
501.405	11394.47
501.774	11497.97
502.143	11733.22
502.512	11796.05
502.88	11977.28
503.249	12210.72
503.618	12326.2
503.987	12450.04
504.356	12593.99
504.724	12738.17
505.093	12956.92
505.462	13077.14
505.83	13205.73
506.199	13414.31
506.567	13692.72
506.936	13721.64
507.304	13984.46
507.672	14033.95
508.041	14187.17
508.409	14323.66
508.777	14492.47
509.145	14665.57
509.514	14753.93
509.882	15007.03
510.25	15043.19
510.618	15227.82
510.986	15393.69
511.354	15602.5
511.722	15742.83
512.09	15864.41
512.458	15935.37
512.826	16284.06
513.193	16313.44
513.561	16376.94
513.929	16634.34
514.297	16778.29
514.664	16914.78
515.032	17099.41
515.4	17192.06
515.767	17409.23
516.135	17554.76
516.502	17454.2
516.869	17806.28
517.237	17992.04
517.604	17990.01
517.972	18215.31
518.339	18286.72
518.706	18524.46
519.073	18557.9
519.44	18719.71
519.808	19065.46
520.175	18947.95
520.542	19331.67
520.909	19440.59
521.276	19446.92
521.643	19608.95
522.009	19904.53
522.376	20014.59
522.743	20163.51
523.11	20229.95
523.477	20565.08
523.843	20691.86
524.21	20951.51
524.577	21134.33
524.943	21097.04
525.31	21245.74
525.676	21610.93
526.043	21549.69
526.409	21695.67
526.776	22092.72
527.142	22144.02
527.508	22252.95
527.874	22487.52
528.241	22651.13
528.607	22656.1
528.973	22905.58
529.339	22965.7
529.705	23287.72
530.071	23349.19
530.437	23466.47
530.803	23600.26
531.169	23863.75
531.535	23709.18
531.901	23846.12
532.267	24055.16
532.632	24126.12
532.998	24298.32
533.364	24489.72
533.73	24551.87
534.095	24773.33
534.461	24809.04
534.826	24821.47
535.192	24970.61
535.557	25271.17
535.923	25136.71
536.288	25298.74
536.653	25383.71
537.019	25399.98
537.384	25568.11
537.749	25659.18
538.114	25847.2
538.479	25882.68
538.845	25977.82
539.21	25962
539.575	26059.85
539.94	26194.09
540.305	26310.01
540.67	26404.48
541.034	26503.91
541.399	26633.17
541.764	26620.29
542.129	26756.33
542.494	26732.15
542.858	26997
543.223	26956.78
543.587	27171.46
543.952	27133.5
544.316	27291.91
544.681	27203.78
545.045	27453.04
545.41	27473.15
545.774	27589.53
546.138	27701.16
546.503	27777.77
546.867	27839.24
547.231	28001.04
547.595	28110.42
547.959	28220.47
548.324	28260.47
548.688	28309.96
549.052	28337.98
549.416	28519.45
549.779	28638.09
550.143	28710.86
550.507	28819.55
550.871	28903.84
551.235	28821.59
551.599	29070.85
551.962	29104.29
552.326	29222.03
552.689	29366.21
553.053	29342.93
553.417	29374.57
553.78	29824.05
554.143	29625.41
554.507	29787.21
554.87	29948.34
555.234	30190.59
555.597	29990.6
555.96	30057.71
556.323	30369.79
556.686	30360.53
557.05	30556
557.413	30677.13
557.776	30793.74
558.139	31050.45
558.502	31103.33
558.865	31239.38
559.228	31421.52
559.59	31645.24
559.953	31513.49
560.316	31878.91
560.679	31786.93
561.041	32050.65
561.404	32184.66
561.767	32340.82
562.129	32197.54
562.492	32592.56
562.854	32574.03
563.217	32746.91
563.579	32916.62
563.941	33115.03
564.304	33140.12
564.666	33328.13
565.028	33360.22
565.39	33589.15
565.753	33761.57
566.115	33873.88
566.477	33910.49
566.839	34028.46
567.201	34361.55
567.563	34219.64
567.925	34606.75
568.287	34646.29
568.648	34618.95
569.01	34863.46
569.372	35117.47
569.734	34944.36
570.095	35342.32
570.457	35342.09
570.819	35467.97
571.18	35617.79
571.542	35657.79
571.903	35677.68
572.265	35982.75
572.626	35938.24
572.987	36095.07
573.349	36223.88
573.71	36242.18
574.071	36495.51
574.432	36426.58
574.794	36715.16
575.155	36695.96
575.516	36605.11
575.877	36735.05
576.238	37009.17
576.599	36989.51
576.96	36950.86
577.32	37071.77
577.681	37203.97
578.042	37321.7
578.403	37355.37
578.763	37427.46
579.124	37432.43
579.485	37607.8
579.845	37636.95
580.206	37567.12
580.566	37660.22
580.927	37730.28
581.287	37702.71
581.648	37744.74
582.008	37945.64
582.368	37780
582.728	37966.21
583.089	37836.04
583.449	38082.13
583.809	38052.3
584.169	38149.93
584.529	37951.74
584.889	38420.43
585.249	38064.73
585.609	37953.55
585.969	38220.21
586.329	38104.96
586.688	38288.46
587.048	38082.13
587.408	38194.9
587.768	38225.63
588.127	38054.11
588.487	38080.78
588.846	38406.87
589.206	38203.26
589.565	38139.53
589.925	38510.37
590.284	38332.07
590.643	38396.25
591.003	38518.06
591.362	38508.11
591.721	38511.73
592.08	38457.94
592.44	38533.87
592.799	38560.54
593.158	38544.72
593.517	38550.37
593.876	38691.38
594.235	38469.02
594.593	38558.05
594.952	38668.11
595.311	38585.62
595.67	38650.71
596.029	38933.19
596.387	38901.32
596.746	39001.88
597.104	38822.45
597.463	38785.84
597.822	38875.33
598.18	38868.55
598.538	38822.45
598.897	39116.23
599.255	38868.78
599.613	39493.4
599.972	39043.46
600.33	39280.29
600.688	39015.44
601.046	39278.04
601.404	39507.86
601.762	39458.6
602.12	39548.54
602.478	39396
602.836	39451.36
603.194	39391.93
603.552	39481.42
603.91	39506.96
604.268	39561.64
604.625	39548.76
604.983	39787.85
605.341	39568.87
605.698	39722.77
606.056	39791.02
606.413	39748.08
606.771	39940.62
607.128	40047.05
607.485	39821.52
607.843	39976.77
608.2	40347.61
608.557	40281.62
608.914	40277.33
609.272	40366.14
609.629	40554.16
609.986	40708.73
610.343	40499.47
610.7	40762.29
611.057	40742.18
611.414	40788.96
611.771	40738.79
612.127	40907.6
612.484	40838.22
612.841	41236.18
613.198	40930.42
613.554	41065.11
613.911	41191.21
614.267	41223.52
614.624	41322.28
614.98	41420.58
615.337	41417.41
615.693	41535.15
616.05	41534.25
616.406	41634.58
616.762	41577.64
617.118	41523.85
617.475	41558.65
617.831	41714.81
618.187	41774.69
618.543	41851.3
618.899	42143.95
619.255	42065.08
619.611	42011.52
619.967	42170.61
620.323	42248.8
620.678	42195.7
621.034	42033.89
621.39	42160.22
621.746	42087.23
622.101	42546.88
622.457	42280.89
622.812	42326.32
623.168	42494.22
623.523	42431.85
623.879	42605.63
624.234	42331.74
624.589	42459.42
624.945	42614.9
625.3	42636.59
625.655	42554.11
626.01	42588.68
626.365	42610.6
626.72	42790.03
627.075	42677.49
627.43	42643.14
627.785	42533.54
628.14	42664.84
628.495	42743.03
628.85	42687.44
629.205	42501.45
629.559	42843.59
629.914	42662.8
630.269	42827.77
630.623	42569.25
630.978	42477.27
631.332	42742.35
631.687	42837.26
632.041	42620.55
632.396	42666.87
632.75	42601.11
633.104	42551.4
633.459	42473.66
633.813	42455.8
634.167	42543.71
634.521	42509.59
634.875	42641.34
635.229	42411.96
635.583	42243.15
635.937	42346.43
636.291	42296.26
636.645	42364.73
636.999	42074.57
637.352	42382.81
637.706	42237.28
638.06	42328.35
638.413	42176.94
638.767	42091.75
639.121	42129.49
639.474	41943.73
639.828	42009.71
640.181	42157.96
640.534	42042.03
640.888	41924.75
641.241	41816.5
641.594	41925.42
641.947	41970.85
642.301	41917.74
642.654	41727.01
643.007	41899.21
643.36	41766.78
643.713	41855.82
644.066	41907.57
644.419	41729.95
644.771	41303.97
645.124	41083.86
645.477	40999.57
645.83	40745.79
646.182	40715.06
646.535	40469.87
646.888	40537.66
647.24	40340.15
647.593	40468.74
647.945	40444.56
648.298	40301.06
648.65	40283.21
649.002	40100.84
649.355	40256.99
649.707	40172.93
650.059	40484.78
650.411	40834.6
650.763	41017.88
651.115	41210.64
651.467	41171.32
651.819	41207.7
652.171	41081.6
652.523	41074.15
652.875	41002.06
653.227	40802.97
653.578	41099.46
653.93	41056.97
654.282	40874.83
654.633	40819.92
654.985	40908.05
655.337	40814.49
655.688	40848.62
656.039	41044.54
656.391	40659.47
656.742	40773.36
657.094	40788.28
657.445	40897.43
657.796	40702.4
658.147	40690.88
658.498	40746.7
658.849	40755.96
659.2	40623.99
659.551	40711.22
659.902	40687.04
660.253	40750.09
660.604	40692.24
660.955	40431.23
661.306	40678.68
661.656	40594.84
662.007	40626.25
662.358	40653.14
662.708	40622.41
663.059	40596.19
663.409	40309.19
663.76	40754.61
664.11	40602.75
664.461	40574.95
664.811	40561.17
665.161	40482.3
665.511	40489.3
665.862	40527.49
666.212	40555.52
666.562	40654.5
666.912	40425.12
667.262	40488.17
667.612	40429.42
667.962	40455.41
668.312	40414.28
668.662	40595.06
669.011	40451.34
669.361	40381.51
669.711	40389.19
670.06	40238.24
670.41	40228.97
670.76	40102.19
671.109	40313.04
671.459	40209.31
671.808	40210.21
672.157	40254.28
672.507	40092.48
672.856	40002.31
673.205	40184.9
673.554	40216.09
673.904	40019.71
674.253	40211.12
674.602	40065.58
674.951	39618.82
675.3	39456.11
675.649	39939.26
675.998	40004.12
676.346	39949.88
676.695	40037.79
677.044	39931.8
677.393	40041.18
677.741	39906.95
678.09	39913.72
678.438	39772.03
678.787	39854.97
679.135	39926.83
679.484	39757.57
679.832	39786.5
680.181	39557.58
680.529	39671.25
680.877	39690.45
681.225	39548.08
681.573	39759.15
681.922	39420.4
682.27	39292.05
682.618	39366.62
682.966	39127.3
683.314	39288.2
683.661	38989.91
684.009	38991.26
684.357	39067.42
684.705	38982.45
685.053	38853.19
685.4	38906.29
685.748	38599.63
686.095	38725.06
686.443	38521.44
686.79	38445.06
687.138	38633.98
687.485	38537.49
687.832	38426.53
688.18	38443.71
688.527	38259.08
688.874	38252.98
689.221	38052.98
689.568	37964.85
689.915	37948.58
690.262	38019.99
690.609	37868.13
690.956	37839.2
691.303	37765.08
691.65	37620.23
691.997	37582.94
692.344	37368.25
692.69	37327.13
693.037	37339.78
693.383	37080.58
693.73	37182.95
694.077	36904.99
694.423	36936.85
694.769	36739.12
695.116	36730.08
695.462	36613.7
695.808	36459.58
696.155	36712.23
696.501	36491.22
696.847	36363.08
697.193	36195.63
697.539	36306.14
697.885	35822.76
698.231	35990.89
698.577	35933.04
698.923	35761.29
699.269	35702.76
699.614	35528.53
699.96	35483.33
700.306	35490.79
700.651	35349.1
700.997	35200.18
701.342	35263.68
701.688	35265.03
702.033	35025.49
702.379	34910.24
702.724	34861.88
703.069	34938.71
703.415	34635.67
703.76	34612.62
704.105	34658.95
704.45	34482
704.795	34374.21
705.14	34129.02
705.485	34350.48
705.83	34133.76
706.175	34196.81
706.52	34010.38
706.865	33861.45
707.209	33872.08
707.554	33702.14
707.899	33862.58
708.243	33666.88
708.588	33631.86
708.932	33365.65
709.277	33281.81
709.621	33348.02
709.966	33113.23
710.31	33294.92
710.654	33032.32
710.998	33141.02
711.342	33090.85
711.687	32869.16
712.031	32727.25
712.375	32635.72
712.719	32764.08
713.063	32556.86
713.407	32746.68
713.75	32507.14
714.094	32499.23
714.438	32451.77
714.782	32398.89
715.125	32213.81
715.469	32275.06
715.812	32074.16
716.156	32003.42
716.499	31944.67
716.843	31925.46
717.186	31696.31
717.53	31863.77
717.873	31865.8
718.216	31760.72
718.559	31614.28
718.902	31465.13
719.246	31534.51
719.589	31445.7
719.932	31324.35
720.275	31379.26
720.617	31223.56
720.96	31270.34
721.303	31221.52
721.646	31195.31
721.989	31001.42
722.331	31141.98
722.674	30944.47
723.016	30905.37
723.359	30900.18
723.701	30901.08
724.044	30732.27
724.386	30551.48
724.729	30745.15
725.071	30657.7
725.413	30739.05
725.755	30621.31
726.097	30499.96
726.439	30370.02
726.782	30349.68
727.124	30368.44
727.465	30430.13
727.807	30285.96
728.149	30195.11
728.491	30245.73
728.833	30241.89
729.175	30052.74
729.516	29966.19
729.858	29944.5
730.199	29960.77
730.541	29923.93
730.882	29863.14
731.224	29900.2
731.565	29673.77
731.906	29714.22
732.248	29688.23
732.589	29637.16
732.93	29567.56
733.271	29528.23
733.612	29584.73
733.953	29588.57
734.294	29406.66
734.635	29275.13
734.976	29249.37
735.317	29200.11
735.658	29255.47
735.999	29125.53
736.339	29132.99
736.68	29185.19
737.021	28989.27
737.361	29022.03
737.702	29070.62
738.042	28970.74
738.383	28827.69
738.723	28918.08
739.063	28839.67
739.404	28841.93
739.744	28743.17
740.084	28653.23
740.424	28692.78
740.764	28591.76
741.104	28663.62
741.444	28437.42
741.784	28417.76
742.124	28459.79
742.464	28455.49
742.804	28330.07
743.143	28297.76
743.483	28298.89
743.823	28240.36
744.162	28184.32
744.502	28300.47
744.841	28044.21
745.181	28124.2
745.52	27971.21
745.86	28065.67
746.199	27918.56
746.538	27842.4
746.877	27989.97
747.216	27965.34
747.556	27886.02
747.895	27903.87
748.234	27732.58
748.573	27782.29
748.911	27675.63
749.25	27565.35
749.589	27302.3
749.928	27469.53
750.267	27425.69
750.605	27454.84
750.944	27238.35
751.283	27204.91
751.621	27247.16
751.96	27103.67
752.298	27129.65
752.636	27164
752.975	26913.84
753.313	26855.99
753.651	27087.17
753.989	26703.9
754.327	26790.91
754.666	26644.92
755.004	26694.64
755.342	26733.51
755.679	26595.43
756.017	26524.7
756.355	26497.81
