Data from hue_130_FLMS001491_00034.txt Node
Date: Tue Feb 07 16:57:31 GMT 2017
User: dcchb
Spectrometer: FLMS00149
Trigger mode: 0
Integration Time (sec): 2.000000E-2
Scans to average: 10
Electric dark correction enabled: true
Nonlinearity correction enabled: false
Boxcar width: 0
XAxis mode: Wavelengths
Number of Pixels in Spectrum: 2048
>>>>>Begin Spectral Data<<<<<
341.393	-22.81
341.776	-22.81
342.16	-22.81
342.543	-65.29
342.927	-70.27
343.31	-68.46
343.693	-68.68
344.077	-80.66
344.46	-56.03
344.843	-62.13
345.226	-38.85
345.61	-16.48
345.993	-14.45
346.376	-7.9
346.759	30.97
347.142	29.84
347.525	59.67
347.908	53.12
348.291	65.1
348.674	81.82
349.057	93.12
349.44	128.6
349.823	152.55
350.206	149.39
350.588	188.94
350.971	208.14
351.354	233.23
351.737	234.13
352.119	248.6
352.502	281.36
352.884	280.68
353.267	273
353.65	285.66
354.032	291.08
354.414	280.23
354.797	299.67
355.179	324.3
355.562	294.02
355.944	319.55
356.326	336.95
356.709	325.66
357.091	340.57
357.473	318.65
357.855	322.27
358.238	355.71
358.62	331.76
359.002	345.77
359.384	343.73
359.766	342.15
360.148	319.78
360.53	346.67
360.912	324.53
361.294	331.08
361.676	331.98
362.057	335.37
362.439	315.26
362.821	326.56
363.203	323.85
363.584	350.29
363.966	330.85
364.348	331.98
364.729	316.62
365.111	310.29
365.493	318.65
365.874	309.16
366.256	334.47
366.637	316.39
367.019	307.12
367.4	288.59
367.781	309.61
368.163	296.73
368.544	299.67
368.925	297.86
369.306	303.06
369.688	294.47
370.069	316.84
370.45	319.78
370.831	294.02
371.212	315.71
371.593	299.67
371.974	324.07
372.355	303.28
372.736	307.12
373.117	321.36
373.498	311.42
373.879	315.03
374.26	310.51
374.641	320.91
375.021	301.25
375.402	319.1
375.783	310.06
376.163	314.81
376.544	334.24
376.925	327.69
377.305	336.05
377.686	325.2
378.066	311.87
378.447	304.41
378.827	318.88
379.208	329.72
379.588	324.07
379.968	334.47
380.349	330.4
380.729	322.72
381.109	344.41
381.489	341.02
381.87	326.11
382.25	334.47
382.63	328.82
383.01	325.66
383.39	312.32
383.77	351.87
384.15	311.19
384.53	334.69
384.91	350.74
385.29	343.73
385.67	334.24
386.049	331.98
386.429	348.71
386.809	341.47
387.189	363.62
387.568	348.93
387.948	339.89
388.328	355.26
388.707	336.28
389.087	358.2
389.466	332.89
389.846	349.84
390.225	380.12
390.605	364.52
390.984	365.88
391.363	361.36
391.743	364.07
392.122	373.11
392.501	365.88
392.881	379.67
393.26	398.2
393.639	398.87
394.018	370.85
394.397	391.87
394.776	388.48
395.155	365.88
395.534	388.03
395.913	371.08
396.292	394.13
396.671	376.05
397.05	378.99
397.429	405.88
397.808	373.79
398.186	407.46
398.565	383.73
398.944	376.73
399.323	379.67
399.701	398.2
400.08	394.35
400.458	388.93
400.837	414.24
401.215	409.04
401.594	392.77
401.972	414.24
402.351	398.2
402.729	416.95
403.107	409.72
403.486	416.5
403.864	418.53
404.242	419.44
404.62	408.59
404.999	419.44
405.377	430.74
405.755	415.14
406.133	449.95
406.511	417.86
406.889	436.84
407.267	439.32
407.645	421.25
408.023	442.71
408.401	434.58
408.779	461.92
409.156	443.39
409.534	447.46
409.912	470.51
410.29	459.89
410.667	447.23
411.045	453.79
411.422	468.02
411.8	456.05
412.178	484.52
412.555	473.22
412.933	471.41
413.31	494.69
413.687	479.78
414.065	489.94
414.442	469.61
414.819	500.34
415.197	497.4
415.574	508.93
415.951	488.14
416.328	501.47
416.705	522.49
417.082	508.25
417.46	488.14
417.837	527.91
418.214	520
418.591	508.93
418.967	537.4
419.344	527.23
419.721	510.51
420.098	534.69
420.475	523.62
420.852	535.14
421.228	550.28
421.605	545.08
421.982	539.21
422.358	529.04
422.735	556.84
423.111	568.59
423.488	521.58
423.864	551.19
424.241	565.2
424.617	568.36
424.994	563.39
425.37	582.6
425.746	597.51
426.123	591.86
426.499	583.28
426.875	584.63
427.251	588.7
427.627	594.12
428.003	623.27
428.379	608.59
428.756	598.19
429.132	612.88
429.507	633.67
429.883	649.49
430.259	648.36
430.635	636.16
431.011	638.87
431.387	658.3
431.763	646.32
432.138	672.99
432.514	676.15
432.89	676.61
433.265	687.68
433.641	690.17
434.016	714.57
434.392	718.41
434.767	717.74
435.143	711.41
435.518	717.96
435.894	757.73
436.269	728.58
436.644	734.68
437.02	738.3
437.395	741.46
437.77	747.11
438.145	744.85
438.52	771.97
438.895	772.88
439.271	785.08
439.646	782.14
440.021	795.47
440.395	770.62
440.77	785.53
441.145	819.2
441.52	830.27
441.895	825.98
442.27	834.12
442.645	828.69
443.019	824.17
443.394	829.14
443.769	839.54
444.143	839.31
444.518	876.6
444.892	868.47
445.267	851.74
445.641	879.99
446.016	859.65
446.39	889.48
446.764	896.71
447.139	863.49
447.513	907.33
447.887	890.84
448.262	918.18
448.636	897.39
449.01	928.8
449.384	920.67
449.758	932.19
450.132	955.47
450.506	954.79
450.88	945.98
451.254	929.03
451.628	957.96
452.002	988.69
452.376	968.12
452.75	975.58
453.123	976.03
453.497	1017.84
453.871	1010.16
454.244	1028.24
454.618	1027.78
454.992	1028.01
455.365	1045.41
455.739	1085.64
456.112	1085.86
456.486	1085.86
456.859	1099.42
457.232	1123.37
457.606	1124.05
457.979	1144.62
458.352	1164.5
458.725	1189.59
459.099	1195.91
459.472	1200.89
459.845	1216.48
460.218	1242.02
460.591	1239.3
460.964	1250.83
461.337	1263.48
461.71	1287.44
462.083	1286.31
462.456	1291.28
462.829	1328.11
463.201	1357.27
463.574	1372.86
463.947	1354.33
464.32	1416.25
464.692	1429.58
465.065	1435
465.438	1465.51
465.81	1479.75
466.183	1499.41
466.555	1535.12
466.928	1548.67
467.3	1557.94
467.672	1546.64
468.045	1627.09
468.417	1638.16
468.789	1677.48
469.161	1689.24
469.534	1728.78
469.906	1745.05
470.278	1769.01
470.65	1822.79
471.022	1871.38
471.394	1889
471.766	1914.09
472.138	1972.62
472.51	2000.41
472.882	2010.81
473.253	2014.42
473.625	2066.63
473.997	2164.7
474.369	2206.96
474.74	2195.44
475.112	2266.17
475.484	2353.4
475.855	2403.11
476.227	2426.62
476.598	2523.79
476.97	2541.42
477.341	2621.41
477.713	2703.22
478.084	2736.21
478.455	2820.28
478.827	2890.56
479.198	2989.77
479.569	3006.94
479.94	3165.35
480.311	3186.15
480.682	3293.03
481.053	3398.12
481.424	3507.27
481.795	3574.61
482.166	3658.67
482.537	3737.99
482.908	3894.83
483.279	3952.45
483.65	4091.88
484.021	4230.41
484.391	4282.61
484.762	4376.62
485.133	4475.6
485.503	4590.85
485.874	4743.62
486.244	4816.38
486.615	4951.52
486.985	5088.69
487.356	5258.86
487.726	5329.37
488.097	5476.25
488.467	5584.5
488.837	5716.25
489.207	5877.6
489.578	6022
489.948	6156.01
490.318	6333.41
490.688	6365.04
491.058	6563.01
491.428	6648.65
491.798	6829.44
492.168	7012.71
492.538	7052.48
492.908	7220.84
493.278	7359.82
493.648	7490.66
494.017	7648.85
494.387	7774.5
494.757	7901.05
495.126	8091.1
495.496	8094.49
495.866	8254.94
496.235	8352.34
496.605	8515.5
496.974	8664.42
497.344	8795.04
497.713	8931.53
498.082	8949.61
498.452	9143.28
498.821	9202.71
499.19	9352.08
499.559	9448.81
499.928	9563.15
500.298	9686.31
500.667	9738.52
501.036	9864.84
501.405	9959.3
501.774	10004.72
502.143	10118.39
502.512	10209.46
502.88	10348.44
503.249	10403.81
503.618	10456.01
503.987	10576.23
504.356	10667.08
504.724	10742.78
505.093	10793.63
505.462	10868.43
505.83	11012.61
506.199	11051.25
506.567	11203.79
506.936	11207.18
507.304	11397.68
507.672	11484.68
508.041	11424.8
508.409	11609.2
508.777	11674.51
509.145	11733.49
509.514	11742.3
509.882	11904.11
510.25	11880.15
510.618	11945.01
510.986	11932.36
511.354	12164.67
511.722	12202.63
512.09	12320.82
512.458	12241.95
512.826	12298.9
513.193	12362.4
513.561	12401.5
513.929	12533.7
514.297	12557.2
514.664	12649.4
515.032	12589.06
515.4	12777.53
515.767	12790.64
516.135	12828.6
516.502	12697.31
516.869	13009.62
517.237	12928.71
517.604	12867.47
517.972	13023.17
518.339	13098.88
518.706	13000.35
519.073	13125.54
519.44	13104.3
519.808	13291.64
520.175	13251.64
520.542	13333.67
520.909	13369.38
521.276	13424.07
521.643	13468.81
522.009	13513.78
522.376	13602.14
522.743	13579.77
523.11	13647.11
523.477	13662.48
523.843	13668.81
524.21	13803.72
524.577	13859.54
524.943	13903.38
525.31	13883.04
525.676	13904.28
526.043	14004.39
526.409	14022.24
526.776	14075.35
527.142	14120.32
527.508	14079.42
527.874	14160.09
528.241	14135.46
528.607	14146.08
528.973	14197.38
529.339	14220.66
529.705	14237.15
530.071	14278.51
530.437	14321.22
530.803	14304.27
531.169	14321.67
531.535	14223.82
531.901	14279.19
532.267	14248.68
532.632	14291.84
532.998	14195.12
533.364	14283.48
533.73	14351.05
534.095	14335
534.461	14291.39
534.826	14350.82
535.192	14344.04
535.557	14288.9
535.923	14277.15
536.288	14324.61
536.653	14345.85
537.019	14206.65
537.384	14231.5
537.749	14230.15
538.114	14269.02
538.479	14076.93
538.845	14060.66
539.21	14068.34
539.575	14014.56
539.94	14072.41
540.305	14039.87
540.67	13911.51
541.034	13987.22
541.399	14017.05
541.764	13898.63
542.129	13985.18
542.494	13956.71
542.858	13853.66
543.223	13788.35
543.587	13848.69
543.952	13700.67
544.316	13766.66
544.681	13739.09
545.045	13778.86
545.41	13752.65
545.774	13677.17
546.138	13595.36
546.503	13659.54
546.867	13617.51
547.231	13594.91
547.595	13619.32
547.959	13620.67
548.324	13489.15
548.688	13468.36
549.052	13531.41
549.416	13523.73
549.779	13437.85
550.143	13341.58
550.507	13309.49
550.871	13378.65
551.235	13338.87
551.599	13257.29
551.962	13268.82
552.326	13247.8
552.689	13229.5
553.053	13125.77
553.417	13146.56
553.78	13241.47
554.143	13168.26
554.507	13121.25
554.87	13111.31
555.234	13186.33
555.597	13101.82
555.96	13103.17
556.323	13030.41
556.686	13006.9
557.05	13127.8
557.413	13084.87
557.776	13060.46
558.139	13068.37
558.502	13019.11
558.865	13071.99
559.228	13020.01
559.59	13000.8
559.953	13119.44
560.316	13131.42
560.679	13013.46
561.041	13151.76
561.404	13172.78
561.767	13141.36
562.129	13064.76
562.492	13225.2
562.854	13092.78
563.217	13104.53
563.579	13151.53
563.941	13096.39
564.304	13162.38
564.666	13221.59
565.028	13177.97
565.39	13234.92
565.753	13241.25
566.115	13277.41
566.477	13205.54
566.839	13196.96
567.201	13277.63
567.563	13240.8
567.925	13371.64
568.287	13332.09
568.648	13344.97
569.01	13366.44
569.372	13441.92
569.734	13349.95
570.095	13417.06
570.457	13404.18
570.819	13481.69
571.18	13374.8
571.542	13534.8
571.903	13476.95
572.265	13524.4
572.626	13443.95
572.987	13515.14
573.349	13507
573.71	13538.64
574.071	13514.46
574.432	13535.7
574.794	13660.45
575.155	13523.27
575.516	13582.71
575.877	13622.71
576.238	13647.11
576.599	13651.63
576.96	13592.43
577.32	13572.31
577.681	13655.93
578.042	13710.61
578.403	13602.82
578.763	13609.6
579.124	13560.79
579.485	13644.63
579.845	13659.77
580.206	13664.97
580.566	13596.27
580.927	13700.9
581.287	13634.46
581.648	13628.13
582.008	13671.97
582.368	13562.6
582.728	13676.49
583.089	13580.22
583.449	13679.88
583.809	13691.41
584.169	13694.34
584.529	13541.35
584.889	13723.27
585.249	13513.33
585.609	13560.79
585.969	13624.97
586.329	13494.8
586.688	13555.36
587.048	13515.59
587.408	13525.08
587.768	13528.92
588.127	13470.39
588.487	13395.59
588.846	13570.96
589.206	13459.55
589.565	13417.97
589.925	13477.85
590.284	13437.63
590.643	13531.64
591.003	13495.48
591.362	13469.94
591.721	13497.29
592.08	13487.57
592.44	13463.61
592.799	13500.22
593.158	13401.24
593.517	13427.68
593.876	13422.49
594.235	13307.46
594.593	13438.08
594.952	13415.48
595.311	13409.61
595.67	13397.18
596.029	13484.18
596.387	13343.39
596.746	13412.77
597.104	13312.88
597.463	13336.16
597.822	13339.55
598.18	13294.58
598.538	13313.11
598.897	13354.92
599.255	13325.77
599.613	13447.12
599.972	13304.98
600.33	13318.76
600.688	13244.86
601.046	13351.3
601.404	13371.41
601.762	13404.63
602.12	13470.85
602.478	13383.39
602.836	13417.06
603.194	13287.57
603.552	13286.9
603.91	13222.04
604.268	13276.05
604.625	13255.71
604.983	13401.92
605.341	13214.81
605.698	13451.64
606.056	13373.67
606.413	13405.54
606.771	13377.97
607.128	13436.72
607.485	13332.54
607.843	13352.88
608.2	13400.79
608.557	13449.15
608.914	13393.11
609.272	13487.12
609.629	13420.68
609.986	13450.06
610.343	13390.85
610.7	13570.73
611.057	13506.1
611.414	13499.32
611.771	13515.14
612.127	13620.9
612.484	13519.88
612.841	13603.95
613.198	13549.49
613.554	13495.25
613.911	13582.03
614.267	13587.68
614.624	13518.53
614.98	13718.52
615.337	13649.37
615.693	13614.12
616.05	13666.55
616.406	13625.64
616.762	13622.03
617.118	13641.92
617.475	13721.91
617.831	13700.67
618.187	13632.42
618.543	13730.95
618.899	13744.06
619.255	13711.07
619.611	13721.46
619.967	13747.22
620.323	13773.66
620.678	13764.62
621.034	13730.05
621.39	13726.21
621.746	13664.29
622.101	13845.07
622.457	13673.78
622.812	13711.52
623.168	13773.66
623.523	13735.7
623.879	13806.88
624.234	13658.86
624.589	13731.63
624.945	13806.2
625.3	13751.74
625.655	13755.36
626.01	13748.13
626.365	13847.11
626.72	13680.33
627.075	13758.52
627.43	13848.01
627.785	13674
628.14	13732.08
628.495	13743.83
628.85	13772.53
629.205	13693.89
629.559	13732.76
629.914	13712.65
630.269	13683.5
630.623	13693.67
630.978	13624.29
631.332	13637.4
631.687	13689.82
632.041	13583.16
632.396	13645.08
632.75	13693.21
633.104	13575.25
633.459	13551.75
633.813	13586.55
634.167	13527.12
634.521	13543.39
634.875	13500.9
635.229	13564.63
635.583	13434.92
635.937	13451.41
636.291	13481.69
636.645	13459.32
636.999	13405.31
637.352	13406.22
637.706	13320.79
638.06	13399.66
638.413	13319.89
638.767	13338.87
639.121	13368.93
639.474	13192.44
639.828	13250.97
640.181	13333.22
640.534	13321.7
640.888	13178.88
641.241	13197.41
641.594	13164.64
641.947	13227.69
642.301	13171.19
642.654	13293.68
643.007	13256.84
643.36	13185.88
643.713	13142.72
644.066	13254.81
644.419	13219.78
644.771	13166.9
645.124	13023.63
645.477	12997.19
645.83	12917.64
646.182	12807.59
646.535	12725.33
646.888	12830.64
647.24	12704.99
647.593	12730.53
647.945	12749.74
648.298	12659.34
648.65	12736.85
649.002	12680.81
649.355	12762.62
649.707	12742.5
650.059	12750.19
650.411	12965.1
650.763	12957.87
651.115	13069.95
651.467	13003.29
651.819	12956.51
652.171	12923.74
652.523	12979.56
652.875	13012.55
653.227	12928.04
653.578	13047.35
653.93	12972.1
654.282	12950.63
654.633	12880.13
654.985	12944.53
655.337	12960.13
655.688	12970.75
656.039	12949.05
656.391	12907.02
656.742	12932.1
657.094	12880.13
657.445	13055.49
657.796	13012.1
658.147	12977.07
658.498	12962.39
658.849	13006.68
659.2	13029.28
659.551	12959.45
659.902	13121.03
660.253	12967.36
660.604	13103.62
660.955	12965.1
661.306	13017.3
661.656	13028.37
662.007	13030.86
662.358	13034.02
662.708	13025.89
663.059	13010.07
663.409	12916.28
663.76	13078.31
664.11	12987.24
664.461	13030.63
664.811	12988.6
665.161	13008.94
665.511	12980.24
665.862	13017.52
666.212	13046.68
666.562	13085.55
666.912	13064.08
667.262	13013.46
667.612	13086.45
667.962	13060.24
668.312	13045.32
668.662	13128.93
669.011	13047.35
669.361	12999.9
669.711	13078.09
670.06	13014.59
670.41	12991.31
670.76	12973.01
671.109	12997.19
671.459	13045.77
671.808	12994.02
672.157	12966.23
672.507	12895.49
672.856	12941.82
673.205	12888.71
673.554	12926.91
673.904	12922.61
674.253	12964.87
674.602	12938.21
674.951	12817.3
675.3	12651.66
675.649	12881.03
675.998	12854.37
676.346	12895.27
676.695	12853.01
677.044	12781.15
677.393	12760.36
677.741	12815.95
678.09	12775.05
678.438	12717.42
678.787	12786.12
679.135	12823.18
679.484	12625.22
679.832	12693.01
680.181	12642.85
680.529	12704.31
680.877	12655.05
681.225	12607.14
681.573	12693.01
681.922	12622.96
682.27	12571.21
682.618	12551.77
682.966	12466.35
683.314	12553.36
683.661	12462.29
684.009	12437.88
684.357	12344.77
684.705	12392.23
685.053	12359.92
685.4	12272.91
685.748	12261.84
686.095	12335.73
686.443	12255.29
686.79	12255.51
687.138	12247.15
687.485	12188.39
687.832	12132.8
688.18	12220.03
688.527	12099.81
688.874	12082.63
689.221	11991.79
689.568	11985.46
689.915	12022.75
690.262	11969.42
690.609	11940.49
690.956	11873.6
691.303	11830.89
691.65	11787.95
691.997	11743.43
692.344	11727.84
692.69	11672.93
693.037	11679.93
693.383	11572.59
693.73	11605.58
694.077	11525.36
694.423	11496.44
694.769	11518.58
695.116	11432.26
695.462	11423.89
695.808	11415.53
696.155	11462.09
696.501	11341.41
696.847	11276.78
697.193	11284.46
697.539	11120.17
697.885	11181.64
698.231	11153.17
698.577	11020.06
698.923	11036.56
699.269	10924.02
699.614	10932.38
699.96	10921.53
700.306	10889.67
700.651	10841.31
700.997	10849.9
701.342	10806.74
701.688	10682.9
702.033	10733.74
702.379	10724.7
702.724	10616.91
703.069	10668.66
703.415	10500.3
703.76	10504.37
704.105	10578.72
704.45	10522.45
704.795	10382.34
705.14	10395.22
705.485	10420.53
705.83	10299.4
706.175	10275
706.52	10334.88
706.865	10262.57
707.209	10201.1
707.554	10195.9
707.899	10158.17
708.243	10137.6
708.588	10144.38
708.932	10064.83
709.277	10021.45
709.621	9995.01
709.966	10004.27
710.31	9961.11
710.654	9957.49
710.998	9907.1
711.342	9907.78
711.687	9869.36
712.031	9797.04
712.375	9811.51
712.719	9806.99
713.063	9767.44
713.407	9849.7
713.75	9721.57
714.094	9758.4
714.438	9758.85
714.782	9682.92
715.125	9655.81
715.469	9651.51
715.812	9576.71
716.156	9575.58
716.499	9554.57
716.843	9549.37
717.186	9512.98
717.53	9545.3
717.873	9533.77
718.216	9536.26
718.559	9512.31
718.902	9440.9
719.246	9563.83
719.589	9447
719.932	9427.79
720.275	9349.6
720.617	9398.19
720.96	9342.59
721.303	9346.44
721.646	9406.09
721.989	9255.14
722.331	9356.6
722.674	9271.86
723.016	9291.97
723.359	9335.59
723.701	9296.94
724.044	9175.37
724.386	9233.22
724.729	9252.2
725.071	9234.57
725.413	9208.81
725.755	9288.81
726.097	9192.77
726.439	9132.88
726.782	9129.04
727.124	9237.29
727.465	9155.71
727.807	9190.05
728.149	9165.65
728.491	9201.58
728.833	9208.59
729.175	9117.06
729.516	9155.48
729.858	9080.91
730.199	9086.55
730.541	9098.98
730.882	9165.42
731.224	9125.65
731.565	9139.89
731.906	9103.96
732.248	9110.96
732.589	9075.71
732.93	9057.63
733.271	9072.09
733.612	9110.74
733.953	9110.96
734.294	9044.75
734.635	9018.08
734.976	9053.34
735.317	9072.54
735.658	9017.63
735.999	9077.29
736.339	8956.39
736.68	9088.14
737.021	9043.17
737.361	9038.42
737.702	9098.53
738.042	9092.43
738.383	9023.73
738.723	9112.09
739.063	9070.96
739.404	9092.43
739.744	9158.19
740.084	9131.3
740.424	9148.7
740.764	9080.68
741.104	9153.22
741.444	9187.8
741.784	9102.6
742.124	9137.18
742.464	9186.21
742.804	9215.59
743.143	9180.11
743.483	9327.45
743.823	9212.2
744.162	9336.94
744.502	9295.14
744.841	9341.24
745.181	9360.45
745.52	9401.12
745.86	9410.84
746.199	9496.04
746.538	9484.06
746.877	9550.27
747.216	9579.2
747.556	9602.47
747.895	9701.45
748.234	9691.51
748.573	9773.32
748.911	9841.11
749.25	9916.14
749.589	9888.57
749.928	10002.91
750.267	10090.82
750.605	10086.75
750.944	10182.8
751.283	10196.36
751.621	10262.12
751.96	10343.7
752.298	10470.7
752.636	10554.99
752.975	10622.56
753.313	10762.44
753.651	10814.42
753.989	10950.69
754.327	11028.88
754.666	11059.84
755.004	11217.57
755.342	11377.34
755.679	11492.14
756.017	11627.51
756.355	11779.82
756.693	11797.44
757.031	12046.03
757.368	12044.67
757.706	12274.49
758.044	12385.23
758.381	12540.48
758.719	12651.43
