Data from hue_110_FLMS001491_00002.txt Node
Date: Tue Feb 07 17:00:48 GMT 2017
User: dcchb
Spectrometer: FLMS00149
Trigger mode: 0
Integration Time (sec): 2.000000E-2
Scans to average: 10
Electric dark correction enabled: true
Nonlinearity correction enabled: false
Boxcar width: 0
XAxis mode: Wavelengths
Number of Pixels in Spectrum: 2048
>>>>>Begin Spectral Data<<<<<
341.393	-30.58
341.776	-30.58
342.16	-30.58
342.543	-78.03
342.927	-67.87
343.31	-78.49
343.693	-52.95
344.077	-66.28
344.46	-61.09
344.843	-68.09
345.226	-40.75
345.61	-28.54
345.993	-21.09
346.376	-18.15
346.759	27.5
347.142	45.8
347.525	43.77
347.908	67.95
348.291	57.55
348.674	79.48
349.057	113.37
349.44	126.25
349.823	127.84
350.206	170.77
350.588	195.18
350.971	202.64
351.354	215.29
351.737	254.61
352.119	239.92
352.502	263.43
352.884	254.84
353.267	277.44
353.65	300.03
354.032	297.1
354.414	308.85
354.797	307.49
355.179	332.8
355.562	311.56
355.944	316.53
356.326	326.25
356.709	328.73
357.091	318.34
357.473	336.19
357.855	344.55
358.238	320.6
358.62	341.39
359.002	332.12
359.384	343.42
359.766	335.74
360.148	348.39
360.53	342.97
360.912	328.51
361.294	328.51
361.676	333.25
362.057	328.28
362.439	322.63
362.821	317.66
363.203	323.08
363.584	347.26
363.966	328.73
364.348	310.2
364.729	320.82
365.111	294.84
365.493	298.9
365.874	300.71
366.256	315.18
366.637	324.21
367.019	318.57
367.4	306.81
367.781	307.27
368.163	322.63
368.544	321.05
368.925	319.69
369.306	323.76
369.688	315.63
370.069	325.34
370.45	304.1
370.831	321.5
371.212	304.1
371.593	316.31
371.974	305.46
372.355	302.75
372.736	292.8
373.117	310.88
373.498	297.1
373.879	305.68
374.26	308.17
374.641	296.19
375.021	316.53
375.402	311.33
375.783	309.98
376.163	322.63
376.544	325.12
376.925	321.73
377.305	298.23
377.686	344.78
378.066	320.6
378.447	326.7
378.827	341.16
379.208	322.86
379.588	310.66
379.968	341.39
380.349	326.7
380.729	315.18
381.109	340.49
381.489	357.21
381.87	330.77
382.25	330.32
382.63	333.71
383.01	334.61
383.39	340.49
383.77	337.77
384.15	332.12
384.53	338.9
384.91	361.95
385.29	326.93
385.67	330.09
386.049	359.69
386.429	339.36
386.809	352.24
387.189	344.1
387.568	328.73
387.948	329.41
388.328	362.41
388.707	356.53
389.087	369.86
389.466	371.67
389.846	351.56
390.225	368.28
390.605	359.69
390.984	373.03
391.363	348.85
391.743	379.58
392.122	374.83
392.501	381.39
392.881	348.85
393.26	366.47
393.639	385
394.018	335.29
394.397	384.78
394.776	378.68
395.155	375.29
395.534	370.09
395.913	380.94
396.292	385.46
396.671	394.04
397.05	407.6
397.429	394.95
397.808	381.39
398.186	397.43
398.565	392.24
398.944	378.22
399.323	387.72
399.701	408.28
400.08	385.68
400.458	418.68
400.837	407.83
401.215	405.12
401.594	394.5
401.972	406.47
402.351	408.28
402.729	409.86
403.107	416.42
403.486	431.56
403.864	405.34
404.242	413.25
404.62	419.35
404.999	418.22
405.377	418.68
405.755	429.52
406.133	439.47
406.511	453.7
406.889	447.6
407.267	431.78
407.645	425.23
408.023	442.4
408.401	432.46
408.779	454.61
409.156	456.19
409.534	450.76
409.912	433.36
410.29	453.93
410.667	450.76
411.045	472.91
411.422	475.62
411.8	464.1
412.178	458.9
412.555	476.98
412.933	467.04
413.31	469.07
413.687	469.75
414.065	477.66
414.442	510.88
414.819	472.69
415.197	504.55
415.574	522.18
415.951	510.42
416.328	524.21
416.705	508.39
417.082	504.1
417.46	508.84
417.837	515.17
418.214	511.33
418.591	533.02
418.967	531.21
419.344	526.02
419.721	549.29
420.098	514.27
420.475	542.51
420.852	561.95
421.228	529.18
421.605	557.2
421.982	544.77
422.358	539.12
422.735	570.31
423.111	535.96
423.488	540.03
423.864	571.44
424.241	579.35
424.617	592.91
424.994	594.72
425.37	580.03
425.746	593.13
426.123	589.07
426.499	584.55
426.875	600.14
427.251	616.86
427.627	620.48
428.003	615.28
428.379	615.96
428.756	620.48
429.132	622.96
429.507	644.21
429.883	630.42
430.259	630.2
430.635	643.75
431.011	641.04
431.387	664.77
431.763	674.94
432.138	673.81
432.514	675.84
432.89	685.34
433.265	704.09
433.641	680.59
434.016	705
434.392	701.38
434.767	684.88
435.143	700.93
435.518	732.11
435.894	719.46
436.269	735.28
436.644	724.2
437.02	759.46
437.395	752.68
437.77	772.79
438.145	770.3
438.52	782.96
438.895	809.17
439.271	787.71
439.646	793.13
440.021	802.85
440.395	805.33
440.77	791.32
441.145	820.92
441.52	831.77
441.895	837.42
442.27	851.88
442.645	838.55
443.019	833.81
443.394	856.63
443.769	866.57
444.143	868.61
444.518	871.54
444.892	867.25
445.267	867.25
445.641	880.81
446.016	888.49
446.39	897.31
446.764	911.32
447.139	883.52
447.513	928.72
447.887	894.82
448.262	898.21
448.636	909.51
449.01	917.19
449.384	926.68
449.758	953.58
450.132	977.3
450.506	974.82
450.88	941.15
451.254	956.51
451.628	969.85
452.002	975.5
452.376	995.38
452.75	1022.95
453.123	1021.82
453.497	1050.98
453.871	1011.88
454.244	1054.59
454.618	1065.66
454.992	1086
455.365	1081.26
455.739	1082.39
456.112	1100.92
456.486	1091.43
456.859	1099.56
457.232	1122.61
457.606	1146.34
457.979	1151.99
458.352	1187.02
458.725	1193.57
459.099	1211.65
459.472	1219.11
459.845	1229.5
460.218	1274.25
460.591	1263.4
460.964	1273.12
461.337	1318.31
461.71	1300.91
462.083	1321.93
462.456	1345.88
462.829	1330.52
463.201	1389.5
463.574	1360.57
463.947	1394.47
464.32	1427.46
464.692	1453
465.065	1447.35
465.438	1488.03
465.81	1519.44
466.183	1537.74
466.555	1553.79
466.928	1558.76
467.3	1577.06
467.672	1586.55
468.045	1646.44
468.417	1674.01
468.789	1701.35
469.161	1678.08
469.534	1715.59
469.906	1751.07
470.278	1800.33
470.65	1813.44
471.022	1873.78
471.394	1895.92
471.766	1937.05
472.138	1964.62
472.51	2019.54
472.882	2053.66
473.253	2102.7
473.625	2128.91
473.997	2212.98
474.369	2219.31
474.74	2224.5
475.112	2311.51
475.484	2351.28
475.855	2452.75
476.227	2489.13
476.598	2548.11
476.97	2599.86
477.341	2624.27
477.713	2729.58
478.084	2763.47
478.455	2866.75
478.827	2889.8
479.198	3039.4
479.569	3081.43
479.94	3190.81
480.311	3246.62
480.682	3334.53
481.053	3471.25
481.424	3549.67
481.795	3641.19
482.166	3698.36
482.537	3781.75
482.908	3889.09
483.279	3950.33
483.65	4080.05
484.021	4217.9
484.391	4322.3
484.762	4398.91
485.133	4473.03
485.503	4588.96
485.874	4742.4
486.244	4800.03
486.615	4979.69
486.985	5109.85
487.356	5207.48
487.726	5346.91
488.097	5515.04
488.467	5603.4
488.837	5737.41
489.207	5880.45
489.578	6036.83
489.948	6127.23
490.318	6233.89
490.688	6390.72
491.058	6528.57
491.428	6698.96
491.798	6866.87
492.168	7036.13
492.538	7052.17
492.908	7262.56
493.278	7311.83
493.648	7509.11
494.017	7624.36
494.387	7747.52
494.757	7882.66
495.126	8051.92
495.496	8151.58
495.866	8278.58
496.235	8392.03
496.605	8581.17
496.974	8635.41
497.344	8768.96
497.713	8913.37
498.082	8992.24
498.452	9154.26
498.821	9220.25
499.19	9321.49
499.559	9432.22
499.928	9593.35
500.298	9677.19
500.667	9810.74
501.036	9856.85
501.405	10013.45
501.774	10011.19
502.143	10185.88
502.512	10249.83
502.88	10384.29
503.249	10431.52
503.618	10553.1
503.987	10637.62
504.356	10728.69
504.724	10797.84
505.093	10905.41
505.462	10944.05
505.83	11004.61
506.199	11167.09
506.567	11303.59
506.936	11352.17
507.304	11468.55
507.672	11460.64
508.041	11612.28
508.409	11670.36
508.777	11784.03
509.145	11851.14
509.514	11866.51
509.882	11988.77
510.25	12026.51
510.618	12132.72
510.986	12107.63
511.354	12317.8
511.722	12340.17
512.09	12529.77
512.458	12418.59
512.826	12560.05
513.193	12675.3
513.561	12645.02
513.929	12707.39
514.297	12825.13
514.664	12816.77
515.032	12916.43
515.4	12897.9
515.767	12957.78
516.135	13057.21
516.502	12948.74
516.869	13232.12
517.237	13280.03
517.604	13112.13
517.972	13262.18
518.339	13303.31
518.706	13360.71
519.073	13432.12
519.44	13485.22
519.808	13605.22
520.175	13562.28
520.542	13630.98
520.909	13675.95
521.276	13679.8
521.643	13692
522.009	13816.29
522.376	13870.3
522.743	13886.34
523.11	14006.34
523.477	14059.9
523.843	14093.34
524.21	14144.19
524.577	14202.95
524.943	14307.58
525.31	14284.98
525.676	14313.23
526.043	14426.22
526.409	14364.75
526.776	14520.9
527.142	14420.57
527.508	14569.49
527.874	14515.48
528.241	14550.28
528.607	14550.06
528.973	14657.17
529.339	14552.09
529.705	14645.65
530.071	14768.35
530.437	14709.15
530.803	14780.78
531.169	14727.23
531.535	14642.71
531.901	14765.42
532.267	14739.2
532.632	14711.86
532.998	14798.86
533.364	14756.15
533.73	14713.44
534.095	14794.57
534.461	14735.81
534.826	14739.88
535.192	14836.15
535.557	14906.88
535.923	14829.14
536.288	14748.24
536.653	14771.74
537.019	14670.28
537.384	14746.43
537.749	14730.39
538.114	14698.98
538.479	14711.86
538.845	14612.2
539.21	14610.84
539.575	14629.83
539.94	14622.14
540.305	14653.1
540.67	14572.43
541.034	14489.27
541.399	14528.81
541.764	14537.4
542.129	14422.6
542.494	14447.23
542.858	14395.94
543.223	14382.6
543.587	14576.72
543.952	14435.26
544.316	14338.54
544.681	14275.49
545.045	14302.83
545.41	14346.44
545.774	14294.24
546.138	14202.95
546.503	14220.57
546.867	14169.95
547.231	14246.56
547.595	14167.69
547.959	14131.31
548.324	14173.12
548.688	14105.55
549.052	14010.18
549.416	14014.7
549.779	14022.61
550.143	13941.71
550.507	14043.85
550.871	13894.93
551.235	13860.81
551.599	13915.5
551.962	13950.07
552.326	13887.47
552.689	13892.9
553.053	13810.87
553.417	13789.85
553.78	13886.12
554.143	13798.66
554.507	13823.75
554.87	13744.88
555.234	13870.75
555.597	13783.75
555.96	13776.29
556.323	13765.9
556.686	13740.59
557.05	13775.16
557.413	13718.44
557.776	13804.31
558.139	13760.47
558.502	13726.12
558.865	13699.46
559.228	13764.77
559.59	13790.53
559.953	13748.49
560.316	13822.62
560.679	13750.75
561.041	13817.19
561.404	13824.88
561.767	13859.23
562.129	13784.2
562.492	13889.96
562.854	13749.62
563.217	13790.75
563.579	13758.21
563.941	13909.17
564.304	13836.63
564.666	13840.47
565.028	13905.55
565.39	13839.79
565.753	13966.34
566.115	13953.91
566.477	13920.69
566.839	13993.91
567.201	13939.9
567.563	13952.56
567.925	14033.01
568.287	14041.82
568.648	14060.8
569.01	14083.85
569.372	14159.78
569.734	14092.44
570.095	14114.59
570.457	14158.43
570.819	14186.22
571.18	14154.59
571.542	14196.62
571.903	14125.43
572.265	14177.18
572.626	14287.69
572.987	14214.92
573.349	14311.19
573.71	14291.08
574.071	14360
574.432	14349.16
574.794	14458.08
575.155	14334.24
575.516	14325.88
575.877	14357.52
576.238	14346.67
576.599	14314.58
576.96	14337.18
577.32	14413.79
577.681	14465.31
578.042	14392.09
578.403	14393.9
578.763	14444.75
579.124	14388.7
579.485	14443.39
579.845	14516.16
580.206	14330.17
580.566	14397.29
580.927	14440.45
581.287	14423.05
581.648	14324.52
582.008	14393
582.368	14453.11
582.728	14365.65
583.089	14343.73
583.449	14411.3
583.809	14402.71
584.169	14440.68
584.529	14250.63
584.889	14427.8
585.249	14287.46
585.609	14270.74
585.969	14320
586.329	14370.85
586.688	14331.3
587.048	14204.75
587.408	14280.68
587.768	14304.41
588.127	14248.14
588.487	14272.32
588.846	14346.67
589.206	14221.93
589.565	14242.94
589.925	14298.08
590.284	14206.11
590.643	14192.78
591.003	14260.57
591.362	14162.27
591.721	14261.02
592.08	14156.39
592.44	14217.41
592.799	14174.47
593.158	14116.85
593.517	14138.31
593.876	14250.85
594.235	14166.79
594.593	14123.63
594.952	14083.85
595.311	14081.82
595.67	14172.66
596.029	14157.98
596.387	14194.36
596.746	14111.2
597.104	14135.38
597.463	14147.13
597.822	14175.38
598.18	14136.28
598.538	14134.92
598.897	14189.16
599.255	14106.9
599.613	14308.48
599.972	14136.96
600.33	14189.61
600.688	14174.92
601.046	14160.01
601.404	14217.18
601.762	14155.26
602.12	14275.71
602.478	14196.62
602.836	14272.55
603.194	14180.57
603.552	14175.38
603.91	14159.78
604.268	14208.6
604.625	14129.05
604.983	14177.41
605.341	14066.45
605.698	14215.83
606.056	14210.4
606.413	14111.87
606.771	14298.76
607.128	14181.03
607.485	14083.4
607.843	14164.98
608.2	14202.72
608.557	14302.38
608.914	14193.23
609.272	14261.93
609.629	14258.54
609.986	14306.22
610.343	14256.28
610.7	14333.56
611.057	14340.8
611.414	14166.56
611.771	14312.32
612.127	14393.45
612.484	14344.41
612.841	14283.62
613.198	14282.04
613.554	14372.21
613.911	14386.67
614.267	14394.58
614.624	14411.3
614.98	14345.54
615.337	14510.96
615.693	14454.01
616.05	14360.46
616.406	14521.58
616.762	14352.55
617.118	14430.96
617.475	14455.82
617.831	14509.6
618.187	14461.02
618.543	14502.37
618.899	14590.73
619.255	14602.94
619.611	14641.13
619.967	14588.47
620.323	14630.05
620.678	14564.07
621.034	14556.38
621.39	14604.29
621.746	14570.62
622.101	14735.14
622.457	14529.26
622.812	14586.89
623.168	14570.85
623.523	14615.14
623.879	14702.14
624.234	14507.12
624.589	14617.85
624.945	14645.19
625.3	14565.87
625.655	14621.01
626.01	14629.15
626.365	14574.69
626.72	14636.83
627.075	14553.9
627.43	14572.88
627.785	14570.62
628.14	14590.96
628.495	14482.71
628.85	14558.87
629.205	14486.1
629.559	14614.23
629.914	14460.57
630.269	14496.95
630.623	14507.8
630.978	14456.05
631.332	14544.41
631.687	14547.12
632.041	14503.28
632.396	14495.59
632.75	14409.27
633.104	14505.54
633.459	14425.99
633.813	14331.3
634.167	14411.75
634.521	14338.31
634.875	14450.17
635.229	14415.14
635.583	14284.3
635.937	14336.95
636.291	14223.28
636.645	14323.39
636.999	14220.8
637.352	14318.42
637.706	14138.77
638.06	14230.29
638.413	14199.33
638.767	14128.6
639.121	14179.22
639.474	14041.37
639.828	14164.98
640.181	14094.25
640.534	14163.4
640.888	14075.72
641.241	13997.53
641.594	14079.11
641.947	14142.38
642.301	14054.93
642.654	14127.69
643.007	14019
643.36	14062.38
643.713	14054.7
644.066	14047.47
644.419	13933.57
644.771	13943.29
645.124	13757.31
645.477	13769.51
645.83	13626.46
646.182	13581.04
646.535	13590.08
646.888	13573.13
647.24	13468.05
647.593	13570.65
647.945	13542.4
648.298	13450.65
648.65	13458.56
649.002	13473.25
649.355	13476.64
649.707	13505.11
650.059	13536.07
650.411	13719.79
650.763	13729.06
651.115	13883.41
651.467	13886.12
651.819	13835.27
652.171	13823.07
652.523	13757.31
652.875	13768.83
653.227	13733.58
653.578	13903.97
653.93	13818.1
654.282	13754.37
654.633	13812.67
654.985	13759.79
655.337	13796.85
655.688	13796.4
656.039	13815.61
656.391	13739.91
656.742	13802.73
657.094	13771.77
657.445	13792.34
657.796	13884.54
658.147	13780.13
658.498	13797.53
658.849	13866.23
659.2	13808.15
659.551	13781.94
659.902	13825.55
660.253	13784.2
660.604	13847.47
660.955	13706.01
661.306	13788.49
661.656	13902.16
662.007	13871.43
662.358	13930.64
662.708	13790.08
663.059	13796.85
663.409	13837.53
663.76	13845.89
664.11	13911.2
664.461	13922.5
664.811	13918.89
665.161	13848.38
665.511	13908.49
665.862	13940.35
666.212	13901.48
666.562	13893.35
666.912	13875.04
667.262	13879.79
667.612	13842.5
667.962	13908.49
668.312	13930.64
668.662	13900.13
669.011	13827.36
669.361	13846.12
669.711	13787.82
670.06	13763.18
670.41	13888.15
670.76	13772
671.109	13789.17
671.459	13754.14
671.808	13790.53
672.157	13814.48
672.507	13723.41
672.856	13673.47
673.205	13824.42
673.554	13825.55
673.904	13685.45
674.253	13763.64
674.602	13781.26
674.951	13493.59
675.3	13458.56
675.649	13686.58
675.998	13635.73
676.346	13625.33
676.695	13743.75
677.044	13572.23
677.393	13628.95
677.741	13548.27
678.09	13602.06
678.438	13543.3
678.787	13612.23
679.135	13606.35
679.484	13499.46
679.832	13549.18
680.181	13451.1
680.529	13447.49
680.877	13325
681.225	13372.46
681.573	13473.93
681.922	13381.72
682.27	13242.29
682.618	13372.69
682.966	13327.71
683.314	13343.31
683.661	13192.35
684.009	13188.06
684.357	13160.71
684.705	13147.15
685.053	13126.14
685.4	13261.05
685.748	13048.4
686.095	13090.21
686.443	13057.21
686.79	12971.79
687.138	12969.76
687.485	12996.65
687.832	12933.37
688.18	12971.57
688.527	12853.6
688.874	12843.21
689.221	12770.22
689.568	12764.79
689.915	12704
690.262	12667.84
690.609	12636.89
690.956	12581.75
691.303	12589.65
691.65	12480.73
691.997	12462.2
692.344	12426.95
692.69	12406.61
693.037	12377.68
693.383	12272.6
693.73	12343.56
694.077	12324.8
694.423	12168.2
694.769	12238.25
695.116	12186.05
695.462	12076.22
695.808	12061.31
696.155	12034.42
696.501	12040.74
696.847	12015.43
697.193	11913.29
697.539	11933.4
697.885	11818.83
698.231	11721.43
698.577	11768.21
698.923	11672.16
699.269	11603.24
699.614	11593.75
699.96	11554.2
700.306	11551.49
700.651	11532.51
700.997	11508.33
701.342	11456.35
701.688	11437.59
702.033	11287.09
702.379	11326.86
702.724	11316.47
703.069	11335.68
703.415	11170.26
703.76	11176.13
704.105	11106.53
704.45	11120.54
704.795	11007.32
705.14	11025.18
705.485	10992.41
705.83	10941.11
706.175	10954.67
706.52	10854.33
706.865	10868.34
707.209	10770.95
707.554	10784.05
707.899	10821.34
708.243	10751.29
708.588	10701.12
708.932	10569.14
709.277	10666.99
709.621	10646.43
709.966	10553.32
710.31	10602.81
710.654	10469.26
710.998	10566.88
711.342	10473.78
711.687	10467.68
712.031	10340.22
712.375	10408.7
712.719	10360.56
713.063	10362.59
713.407	10312.43
713.75	10358.75
714.094	10243.28
714.438	10281.47
714.782	10281.24
715.125	10236.04
715.469	10218.19
715.812	10133.9
716.156	10153.33
716.499	10138.19
716.843	10105.43
717.186	10045.54
717.53	10157.63
717.873	10111.98
718.216	10050.06
718.559	10022.94
718.902	9970.29
719.246	10004.19
719.589	9970.74
719.932	9935.26
720.275	9954.7
720.617	9917.86
720.96	10002.6
721.303	9904.98
721.646	9948.82
721.989	9848.26
722.331	9893
722.674	9840.35
723.016	9954.7
723.359	9836.73
723.701	9878.77
724.044	9773.01
724.386	9779.33
724.729	9808.03
725.071	9788.37
725.413	9792.67
725.755	9742.27
726.097	9790.63
726.439	9710.86
726.782	9745.21
727.124	9723.06
727.465	9660.24
727.807	9742.05
728.149	9722.39
728.491	9663.18
728.833	9694.82
729.175	9651.65
729.516	9655.72
729.858	9669.73
730.199	9714.7
730.541	9644.87
730.882	9649.85
731.224	9649.62
731.565	9662.27
731.906	9644.65
732.248	9671.09
732.589	9565.55
732.93	9602.39
733.271	9549.06
733.612	9604.87
733.953	9638.77
734.294	9617.3
734.635	9585.21
734.976	9613.01
735.317	9607.59
735.658	9561.71
735.999	9591.99
736.339	9548.6
736.68	9611.88
737.021	9594.71
737.361	9553.58
737.702	9605.1
738.042	9598.1
738.383	9602.16
738.723	9626.12
739.063	9603.29
739.404	9620.47
739.744	9653.91
740.084	9655.95
740.424	9654.82
740.764	9620.24
741.104	9709.28
741.444	9594.25
741.784	9707.92
742.124	9741.14
742.464	9719.67
742.804	9810.29
743.143	9727.81
743.483	9770.97
743.823	9745.66
744.162	9798.32
744.502	9838.09
744.841	9907.24
745.181	9996.73
745.52	9895.71
745.86	10039.89
746.199	10055.26
746.538	10102.26
746.877	10140.23
747.216	10172.32
747.556	10248.7
747.895	10261.13
748.234	10260
748.573	10408.47
748.911	10382.26
749.25	10435.59
749.589	10465.64
749.928	10551.06
750.267	10654.11
750.605	10699.76
750.944	10772.53
751.283	10802.58
751.621	10986.08
751.96	10961.45
752.298	11155.34
752.636	11278.95
752.975	11199.18
753.313	11383.13
753.651	11505.62
753.989	11529.34
754.327	11644.14
754.666	11750.81
755.004	11904.48
755.342	12073.28
755.679	12140.4
756.017	12205.71
756.355	12426.04
756.693	12494.97
757.031	12712.82
757.368	12792.81
757.706	12869.65
758.044	13128.4
