Data from hue_340_FLMS001491_78.txt Node
Date: Mon Feb 06 15:43:35 GMT 2017
User: dcchb
Spectrometer: FLMS00149
Trigger mode: 0
Integration Time (sec): 2.000000E-2
Scans to average: 10
Electric dark correction enabled: true
Nonlinearity correction enabled: false
Boxcar width: 0
XAxis mode: Wavelengths
Number of Pixels in Spectrum: 2048
>>>>>Begin Spectral Data<<<<<
341.393	-12.47
341.776	-12.47
342.16	-12.47
342.543	-63.77
342.927	-51.57
343.31	-84.11
343.693	-75.75
344.077	-59.7
344.46	-53.6
344.843	-53.15
345.226	-52.47
345.61	-31
345.993	-7.5
346.376	0.86
346.759	25.04
347.142	15.1
347.525	37.92
347.908	55.78
348.291	73.4
348.674	113.4
349.057	95.77
349.44	132.38
349.823	148.88
350.206	160.18
350.588	201.76
350.971	233.62
351.354	208.31
351.737	221.87
352.119	252.15
352.502	262.78
352.884	267.52
353.267	283.11
353.65	298.93
354.032	268.2
354.414	293.51
354.797	310.68
355.179	317.01
355.562	317.46
355.944	331.93
356.326	324.24
356.709	310.68
357.091	335.99
357.473	342.55
357.855	321.31
358.238	350.23
358.62	338.93
359.002	332.6
359.384	332.15
359.766	328.99
360.148	331.25
360.53	327.86
360.912	335.77
361.294	340.97
361.676	328.08
362.057	334.64
362.439	332.6
362.821	320.18
363.203	307.07
363.584	323.34
363.966	322.44
364.348	337.8
364.729	340.51
365.111	331.47
365.493	319.72
365.874	305.49
366.256	316.33
366.637	327.18
367.019	308.88
367.4	310.68
367.781	325.6
368.163	307.07
368.544	302.1
368.925	294.19
369.306	326.95
369.688	316.33
370.069	319.95
370.45	332.15
370.831	317.69
371.212	323.56
371.593	305.71
371.974	313.17
372.355	309.33
372.736	323.79
373.117	320.63
373.498	300.29
373.879	318.37
374.26	328.08
374.641	305.49
375.021	310.91
375.402	331.25
375.783	333.51
376.163	309.55
376.544	325.15
376.925	306.62
377.305	321.76
377.686	319.72
378.066	314.53
378.447	306.62
378.827	339.84
379.208	326.5
379.588	333.73
379.968	327.18
380.349	348.2
380.729	342.55
381.109	339.16
381.489	337.58
381.87	359.95
382.25	325.6
382.63	319.95
383.01	327.63
383.39	346.16
383.77	331.47
384.15	341.42
384.53	343.68
384.91	344.81
385.29	332.6
385.67	344.58
386.049	354.07
386.429	341.19
386.809	356.56
387.189	376.9
387.568	331.25
387.948	343.23
388.328	357.24
388.707	363.11
389.087	354.75
389.466	360.17
389.846	342.1
390.225	357.46
390.605	368.08
390.984	355.88
391.363	363.79
391.743	369.21
392.122	377.8
392.501	354.3
392.881	382.77
393.26	378.25
393.639	359.27
394.018	377.57
394.397	361.98
394.776	378.48
395.155	382.77
395.534	384.58
395.913	356.78
396.292	396.33
396.671	374.19
397.05	374.19
397.429	399.5
397.808	368.76
398.186	403.11
398.565	395.2
398.944	405.37
399.323	397.24
399.701	407.4
400.08	395.88
400.458	393.17
400.837	369.89
401.215	374.86
401.594	389.78
401.972	411.02
402.351	416.22
402.729	417.8
403.107	406.27
403.486	421.64
403.864	394.75
404.242	422.32
404.62	410.12
404.999	446.27
405.377	407.18
405.755	428.65
406.133	433.17
406.511	436.33
406.889	436.56
407.267	436.78
407.645	438.14
408.023	452.15
408.401	458.02
408.779	443.11
409.156	461.19
409.534	441.98
409.912	461.87
410.29	472.04
410.667	463.22
411.045	491.92
411.422	482.2
411.8	475.65
412.178	489.66
412.555	503
412.933	497.57
413.31	500.51
413.687	516.1
414.065	517.68
414.442	508.64
414.819	503.9
415.197	519.72
415.574	538.02
415.951	513.16
416.328	541.86
416.705	553.84
417.082	542.99
417.46	558.81
417.837	548.19
418.214	542.32
418.591	535.76
418.967	538.02
419.344	575.76
419.721	550
420.098	596.55
420.475	586.83
420.852	593.61
421.228	597.46
421.605	577.34
421.982	592.26
422.358	631.81
422.735	608.53
423.111	610.34
423.488	611.92
423.864	613.95
424.241	634.97
424.617	640.62
424.994	640.62
425.37	647.85
425.746	658.47
426.123	655.76
426.499	659.38
426.875	654.63
427.251	679.71
427.627	682.2
428.003	666.15
428.379	688.75
428.756	698.7
429.132	708.19
429.507	704.35
429.883	730.56
430.259	717.9
430.635	728.75
431.011	713.39
431.387	736.89
431.763	754.51
432.138	782.08
432.514	746.15
432.89	784.12
433.265	777.56
433.641	801.74
434.016	794.06
434.392	807.62
434.767	804
435.143	804
435.518	832.7
435.894	805.36
436.269	852.82
436.644	848.97
437.02	856.43
437.395	844.46
437.77	857.34
438.145	867.28
438.52	867.28
438.895	885.13
439.271	858.47
439.646	906.83
440.021	878.35
440.395	905.92
440.77	891.23
441.145	907.5
441.52	935.75
441.895	944.79
442.27	950.67
442.645	948.18
443.019	951.12
443.394	914.51
443.769	973.49
444.143	966.94
444.518	975.53
444.892	984.56
445.267	948.86
445.641	986.15
446.016	996.99
446.39	984.11
446.764	991.12
447.139	959.48
447.513	990.67
447.887	1022.3
448.262	998.12
448.636	998.12
449.01	1022.3
449.384	1027.28
449.758	1014.85
450.132	1021.85
450.506	1034.96
450.88	1064.79
451.254	1047.84
451.628	1036.09
452.002	1059.14
452.376	1050.1
452.75	1080.38
453.123	1064.79
453.497	1080.83
453.871	1103.66
454.244	1102.75
454.618	1107.05
454.992	1146.37
455.365	1106.14
455.739	1161.06
456.112	1160.38
456.486	1187.72
456.859	1144.33
457.232	1196.08
457.606	1224.78
457.979	1182.07
458.352	1200.6
458.725	1202.41
459.099	1232.92
459.472	1263.65
459.845	1256.87
460.218	1272.69
460.591	1267.04
460.964	1291.45
461.337	1314.73
461.71	1315.4
462.083	1315.18
462.456	1350.2
462.829	1332.58
463.201	1367.61
463.574	1363.09
463.947	1382.97
464.32	1396.31
464.692	1429.07
465.065	1399.92
465.438	1459.58
465.81	1449.64
466.183	1442.18
466.555	1467.26
466.928	1470.2
467.3	1466.59
467.672	1495.96
468.045	1542.97
468.417	1575.74
468.789	1556.98
469.161	1570.54
469.534	1603.31
469.906	1635.39
470.278	1625.23
470.65	1661.83
471.022	1680.59
471.394	1691.44
471.766	1717.88
472.138	1705.22
472.51	1749.97
472.882	1797.2
473.253	1832.68
473.625	1810.76
473.997	1870.64
474.369	1854.82
474.74	1834.71
475.112	1906.35
475.484	1919.68
475.855	1961.94
476.227	2001.03
476.598	2046.91
476.97	2032.67
477.341	2070.64
477.713	2096.4
478.084	2117.42
478.455	2173.23
478.827	2184.76
479.198	2233.35
479.569	2250.75
479.94	2322.83
480.311	2309.95
480.682	2356.51
481.053	2414.36
481.424	2408.71
481.795	2456.39
482.166	2504.75
482.537	2533.9
482.908	2553.34
483.279	2610.28
483.65	2642.15
484.021	2674.69
484.391	2690.96
484.762	2728.02
485.133	2765.99
485.503	2837.17
485.874	2824.29
486.244	2869.49
486.615	2917.17
486.985	2961.69
487.356	3019.99
487.726	3003.72
488.097	3083.27
488.467	3093.66
488.837	3194.68
489.207	3189.48
489.578	3280.78
489.948	3271.06
490.318	3290.49
490.688	3318.06
491.058	3369.81
491.428	3414.56
491.798	3410.94
492.168	3501.79
492.538	3481.9
492.908	3535.01
493.278	3555.34
493.648	3566.87
494.017	3678.28
494.387	3634.44
494.757	3697.26
495.126	3751.5
495.496	3743.81
495.866	3791.95
496.235	3802.57
496.605	3847.31
496.974	3846.64
497.344	3904.26
497.713	3927.76
498.082	3955.33
498.452	3960.08
498.821	4008.89
499.19	4026.97
499.559	3999.4
499.928	4071.71
500.298	4104.93
500.667	4116.23
501.036	4114.2
501.405	4165.72
501.774	4160.98
502.143	4215.21
502.512	4181.32
502.88	4228.55
503.249	4218.83
503.618	4252.73
503.987	4264.7
504.356	4347.19
504.724	4319.62
505.093	4314.65
505.462	4330.92
505.83	4369.79
506.199	4382.22
506.567	4421.54
506.936	4463.57
507.304	4538.6
507.672	4537.01
508.041	4531.59
508.409	4591.02
508.777	4622.66
509.145	4524.81
509.514	4558.48
509.882	4628.31
510.25	4605.03
510.618	4644.36
510.986	4678.25
511.354	4706.95
511.722	4740.4
512.09	4757.57
512.458	4793.28
512.826	4792.83
513.193	4786.27
513.561	4808.64
513.929	4811.36
514.297	4899.72
514.664	4875.76
515.032	4956.21
515.4	4926.16
515.767	4905.14
516.135	4949.88
516.502	4933.84
516.869	4959.38
517.237	4987.17
517.604	5035.08
517.972	5028.07
518.339	5046.15
518.706	5043.67
519.073	5077.34
519.44	5103.55
519.808	5191.23
520.175	5106.72
520.542	5202.76
520.909	5190.56
521.276	5182.19
521.643	5266.94
522.009	5255.64
522.376	5295.41
522.743	5311.91
523.11	5265.36
523.477	5403.21
523.843	5397.1
524.21	5394.84
524.577	5507.84
524.943	5475.75
525.31	5507.16
525.676	5548.96
526.043	5646.59
526.409	5598.45
526.776	5664.67
527.142	5582.41
527.508	5710.77
527.874	5707.83
528.241	5749.64
528.607	5742.18
528.973	5780.6
529.339	5779.01
529.705	5824.66
530.071	5884.77
530.437	5936.52
530.803	5936.52
531.169	5974.94
531.535	5950.54
531.901	5975.85
532.267	6024.66
532.632	6060.36
532.998	6049.74
533.364	6068.5
533.73	6144.2
534.095	6176.29
534.461	6168.61
534.826	6214.71
535.192	6226.46
535.557	6318.44
535.923	6280.47
536.288	6304.65
536.653	6349.62
537.019	6377.42
537.384	6350.3
537.749	6411.09
538.114	6482.95
538.479	6384.87
538.845	6458.09
539.21	6537.64
539.575	6512.55
539.94	6539.67
540.305	6595.26
540.67	6621.93
541.034	6597.3
541.399	6633.68
541.764	6691.31
542.129	6677.07
542.494	6744.19
542.858	6756.16
543.223	6801.36
543.587	6816.05
543.952	6871.64
544.316	6852.43
544.681	6891.3
545.045	6925.88
545.41	6949.61
545.774	6961.81
546.138	6986.89
546.503	7013.11
546.867	6984.41
547.231	7097.85
547.595	7112.54
547.959	7146.44
548.324	7159.54
548.688	7146.66
549.052	7204.29
549.416	7222.14
549.779	7161.35
550.143	7215.59
550.507	7292.42
550.871	7335.81
551.235	7330.61
551.599	7360.44
551.962	7396.37
552.326	7346.88
552.689	7470.5
553.053	7465.75
553.417	7463.04
553.78	7525.41
554.143	7496.94
554.507	7536.93
554.87	7597.72
555.234	7589.81
555.597	7606.31
555.96	7621.45
556.323	7658.97
556.686	7661.68
557.05	7702.13
557.413	7770.6
557.776	7801.33
558.139	7870.71
558.502	7879.07
558.865	7858.96
559.228	7957.71
559.59	7890.37
559.953	7913.2
560.316	8039.75
560.679	7985.74
561.041	8099.63
561.404	8138.73
561.767	8135.79
562.129	8089.46
562.492	8200.42
562.854	8182.12
563.217	8220.76
563.579	8197.71
563.941	8250.14
564.304	8299.17
564.666	8343.69
565.028	8326.97
565.39	8352.05
565.753	8364.26
566.115	8355.67
566.477	8468.66
566.839	8489.23
567.201	8521.77
567.563	8535.55
567.925	8571.26
568.287	8613.52
568.648	8617.36
569.01	8644.7
569.372	8718.15
569.734	8715.89
570.095	8773.51
570.457	8777.58
570.819	8866.62
571.18	8868.88
571.542	8943.23
571.903	8948.42
572.265	8985.03
572.626	9056.22
572.987	9091.92
573.349	9140.73
573.71	9215.53
574.071	9234.07
574.432	9328.3
574.794	9382.76
575.155	9392.25
575.516	9442.2
575.877	9538.69
576.238	9638.8
576.599	9667.73
576.96	9719.02
577.32	9758.35
577.681	9889.64
578.042	9949.3
578.403	10031.78
578.763	10041.28
579.124	10188.84
579.485	10315.17
579.845	10414.83
580.206	10535.05
580.566	10558.55
580.927	10670.86
581.287	10834.93
581.648	10905.89
582.008	11042.83
582.368	11213.9
582.728	11344.07
583.089	11493.67
583.449	11667.67
583.809	11856.6
584.169	12054.78
584.529	12178.85
584.889	12411.16
585.249	12453.42
585.609	12683.69
585.969	12956
586.329	13051.14
586.688	13318.93
587.048	13466.95
587.408	13612.48
587.768	13972.47
588.127	14091.56
588.487	14284.33
588.846	14630.53
589.206	14847.02
589.565	14954.14
589.925	15280.69
590.284	15538.53
590.643	15778.07
591.003	16056.03
591.362	16361.34
591.721	16733.75
592.08	16805.39
592.44	17215.55
592.799	17479.05
593.158	17683.33
593.517	17961.29
593.876	18253.49
594.235	18489.87
594.593	18895.73
594.952	19155.16
595.311	19350.64
595.67	19668.37
596.029	20071.07
596.387	20292.31
596.746	20626.08
597.104	20831.95
597.463	21085.28
597.822	21433.07
598.18	21662.44
598.538	21971.58
598.897	22283.21
599.255	22493.38
599.613	23028.5
599.972	23022.86
600.33	23551.65
600.688	23645.66
601.046	24017.41
601.404	24271.18
601.762	24588.24
602.12	24983.71
602.478	25137.38
602.836	25491.49
603.194	25576.23
603.552	25839.73
603.91	26044.47
604.268	26398.36
604.625	26659.82
604.983	26983.65
605.341	27069.98
605.698	27405.34
606.056	27656.63
606.413	27795.61
606.771	28211.87
607.128	28404.18
607.485	28565.53
607.843	28826.77
608.2	29075.35
608.557	29348.34
608.914	29506.07
609.272	29819.06
609.629	29979.28
609.986	30347.86
610.343	30309.22
610.7	30730.45
611.057	30842.76
611.414	31024.9
611.771	31281.85
612.127	31512.58
612.484	31646.13
612.841	31926.12
613.198	32076.63
613.554	32149.17
613.911	32458.99
614.267	32735.37
614.624	32596.61
614.98	32968.36
615.337	33238.86
615.693	33259.65
616.05	33428.91
616.406	33682.91
616.762	33699.18
617.118	33919.07
617.475	33937.37
617.831	34169.91
618.187	34333.97
618.543	34570.57
618.899	34909.1
619.255	34775.09
619.611	34864.8
619.967	35177.11
620.323	35252.82
620.678	35205.36
621.034	35215.53
621.39	35263.44
621.746	35350.21
622.101	35905.45
622.457	35780.49
622.812	35965.34
623.168	36001.04
623.523	36039.46
623.879	36332.79
624.234	36083.53
624.589	36374.14
624.945	36516.06
625.3	36475.61
625.655	36681.48
626.01	36664.08
626.365	36801.93
626.72	36898.42
627.075	36840.34
627.43	36951.98
627.785	36870.63
628.14	37175.7
628.495	37015.93
628.85	37182.03
629.205	37175.03
629.559	37336.38
629.914	37194.01
630.269	37316.72
630.623	37387.22
630.978	37221.13
631.332	37564.39
631.687	37592.87
632.041	37443.94
632.396	37641.45
632.75	37484.17
633.104	37541.57
633.459	37451.4
633.813	37510.38
634.167	37489.37
634.521	37555.81
634.875	37655.24
635.229	37454.11
635.583	37434.45
635.937	37412.08
636.291	37335.93
636.645	37468.12
636.999	37477.84
637.352	37521
637.706	37393.32
638.06	37559.65
638.413	37593.09
638.767	37394.91
639.121	37618.63
639.474	37445.98
639.828	37441.01
640.181	37476.03
640.534	37487.33
640.888	37399.43
641.241	37283.05
641.594	37454.11
641.947	37506.32
642.301	37362.82
642.654	37620.21
643.007	37567.56
643.36	37396.94
643.713	37306.77
644.066	37629.7
644.419	37330.05
644.771	37065.65
645.124	36717.18
645.477	36715.38
645.83	36630.63
646.182	36417.53
646.535	36344.76
646.888	36386.8
647.24	36131.44
647.593	36330.08
647.945	36272.9
648.298	36200.59
648.65	36155.17
649.002	36056.18
649.355	36227.71
649.707	36184.32
650.059	36282.85
650.411	36844.19
650.763	36828.82
651.115	37175.93
651.467	36924.64
651.819	37039.44
652.171	36963.28
652.523	37145.65
652.875	36924.86
653.227	36740.91
653.578	37056.16
653.93	37100.23
654.282	36711.53
654.633	36729.84
654.985	36826.79
655.337	36777.75
655.688	36823.17
656.039	36887.35
656.391	36585.89
656.742	36763.28
657.094	36681.25
657.445	36832.44
657.796	36776.39
658.147	36754.47
658.498	36783.85
658.849	36794.7
659.2	36540.24
659.551	36619.33
659.902	36775.49
660.253	36763.51
660.604	36647.58
660.955	36603.06
661.306	36769.84
661.656	36570.97
662.007	36694.81
662.358	36707.02
662.708	36695.72
663.059	36686.9
663.409	36445.1
663.76	36701.59
664.11	36653.46
664.461	36699.56
664.811	36571.43
665.161	36555.83
665.511	36521.26
665.862	36587.7
666.212	36638.09
666.562	36676.06
666.912	36673.12
667.262	36526.68
667.612	36534.59
667.962	36610.29
668.312	36510.64
668.662	36611.88
669.011	36519.9
669.361	36393.58
669.711	36532.1
670.06	36505.44
670.41	36280.81
670.76	36521.94
671.109	36511.54
671.459	36395.61
671.808	36236.52
672.157	36512.67
672.507	36302.05
672.856	36246.91
673.205	36287.82
673.554	36524.42
673.904	36272.22
674.253	36532.78
674.602	36199.91
674.951	35693.03
675.3	35677.89
675.649	36170.53
675.998	36150.87
676.346	36090.53
676.695	36330.53
677.044	35822.52
677.393	36049.63
677.741	36199.46
678.09	35958.79
678.438	35930.31
678.787	36037.43
679.135	35981.16
679.484	35733.26
679.832	35871.56
680.181	35728.51
680.529	35860.48
680.877	35787.04
681.225	35760.6
681.573	35870.43
681.922	35693.71
682.27	35556.76
682.618	35626.14
682.966	35537.1
683.314	35459.59
683.661	35449.2
684.009	35278.8
684.357	35237.22
684.705	35235.64
685.053	35292.14
685.4	35138.24
685.748	34925.14
686.095	34935.31
686.443	34876.78
686.79	34962.65
687.138	34971.02
687.485	34939.83
687.832	34727.41
688.18	34810.79
688.527	34672.72
688.874	34418.26
689.221	34397.02
689.568	34431.59
689.915	34394.31
690.262	34194.31
690.609	34283.35
690.956	34257.36
691.303	34098.95
691.65	33906.86
691.997	34036.8
692.344	33793.42
692.69	33769.92
693.037	33737.15
693.383	33506.2
693.73	33613.09
694.077	33378.97
694.423	33351.17
694.769	33246.32
695.116	33228.01
695.462	33155.24
695.808	33206.77
696.155	33113.44
696.501	32860.79
696.847	32975.81
697.193	32684.75
697.539	32759.55
697.885	32613.34
698.231	32604.52
698.577	32636.61
698.923	32365.43
699.269	32338.32
699.614	32165.67
699.96	32242.5
700.306	32201.37
700.651	31985.33
700.997	31925.9
701.342	31901.27
701.688	31877.99
702.033	31636.87
702.379	31612.23
702.724	31624.66
703.069	31562.52
703.415	31107.39
703.76	31190.1
704.105	31297.67
704.45	31211.11
704.795	31166.14
705.14	30967.05
705.485	30942.19
705.83	30877.34
706.175	30831.92
706.52	30767.06
706.865	30616.78
707.209	30653.39
707.554	30479.38
707.899	30629.43
708.243	30403.9
708.588	30410.46
708.932	30110.58
709.277	30114.42
709.621	30090.01
709.966	29990.58
710.31	30135.21
710.654	29808.89
710.998	29763.47
711.342	29908.78
711.687	29804.15
712.031	29656.58
712.375	29532.97
712.719	29634.43
713.063	29575
713.407	29605.73
713.75	29290.71
714.094	29394.44
714.438	29223.14
714.782	29316.47
715.125	29114.22
715.469	29115.35
715.812	29027.67
716.156	28951.06
716.499	28815.7
716.843	28885.53
717.186	28829.26
717.53	28881.91
717.873	28873.1
718.216	28738.86
718.559	28729.15
718.902	28502.94
719.246	28561.92
719.589	28442.6
719.932	28378.42
720.275	28325.99
720.617	28285.32
720.96	28342.94
721.303	28185.88
721.646	28166
721.989	28003.29
722.331	28235.37
722.674	27943.4
723.016	28040.8
723.359	28020.24
723.701	28018.88
724.044	27801.03
724.386	27677.42
724.729	27841.49
725.071	27698.21
725.413	27686.46
725.755	27725.56
726.097	27624.77
726.439	27476.07
726.782	27422.97
727.124	27628.84
727.465	27384.55
727.807	27377.54
728.149	27415.51
728.491	27338.9
728.833	27432.23
729.175	27250.54
729.516	27154.5
729.858	27099.36
730.199	27160.83
730.541	27166.47
730.882	27059.36
731.224	27251.44
731.565	26789.31
731.906	26966.93
732.248	27021.17
732.589	26707.5
732.93	26658.47
733.271	26732.36
733.612	26759.93
733.953	26733.72
734.294	26589.54
734.635	26446.49
734.976	26585.02
735.317	26465.7
735.658	26466.83
735.999	26442.43
736.339	26414.4
736.68	26477.23
737.021	26470.9
737.361	26274.97
737.702	26406.95
738.042	26337.34
738.383	26153.39
738.723	26333.28
739.063	26138.93
739.404	26140.29
739.744	26077.46
740.084	26035.21
740.424	26068.88
740.764	26025.71
741.104	26112.49
741.444	25834.31
741.784	25730.58
742.124	25907.07
742.464	25774.42
742.804	25762.67
743.143	25720.19
743.483	25595.67
743.823	25635.89
744.162	25531.26
744.502	25540.75
744.841	25467.31
745.181	25585.27
745.52	25413.07
745.86	25468.44
746.199	25354.55
746.538	25349.12
746.877	25416.01
747.216	25299.41
747.556	25326.75
747.895	25233.87
748.234	25296.47
748.573	25102.35
748.911	25134.89
749.25	25047.66
749.589	24960.66
749.928	24973.76
750.267	25053.08
750.605	24969.24
750.944	24855.8
751.283	24841.79
751.621	24728.12
751.96	24643.38
752.298	24783.26
752.636	24606.77
752.975	24569.71
753.313	24529.48
753.651	24661.91
753.989	24445.42
754.327	24331.3
754.666	24269.83
755.004	24378.07
755.342	24225.99
755.679	24254.69
756.017	24046.78
756.355	24123.39
756.693	24063.96
757.031	24091.53
757.368	23997.07
757.706	23860.8
758.044	23854.02
758.381	23844.98
758.719	23705.55
759.056	23778.77
759.394	23565.67
759.731	23535.16
760.068	23474.59
