Data from hue_22_FLMS001491_00099.txt Node
Date: Tue Feb 07 17:10:58 GMT 2017
User: dcchb
Spectrometer: FLMS00149
Trigger mode: 0
Integration Time (sec): 2.000000E-2
Scans to average: 10
Electric dark correction enabled: true
Nonlinearity correction enabled: false
Boxcar width: 0
XAxis mode: Wavelengths
Number of Pixels in Spectrum: 2048
>>>>>Begin Spectral Data<<<<<
341.393	-7.82
341.776	-7.82
342.16	-7.82
342.543	-50.76
342.927	-53.93
343.31	-72.46
343.693	-78.11
344.077	-68.84
344.46	-45.79
344.843	-48.5
345.226	-43.08
345.61	-48.5
345.993	-19.12
346.376	7.77
346.759	17.03
347.142	26.52
347.525	39.18
347.908	43.25
348.291	97.71
348.674	98.16
349.057	94.77
349.44	142.68
349.823	153.75
350.206	153.75
350.588	200.08
350.971	223.81
351.354	212.51
351.737	224.94
352.119	235.33
352.502	264.48
352.884	281.21
353.267	248.44
353.65	278.5
354.032	301.09
354.414	320.53
354.797	293.64
355.179	312.39
355.562	330.02
355.944	337.48
356.326	339.96
356.709	333.41
357.091	332.51
357.473	344.03
357.855	346.06
358.238	349
358.62	332.96
359.002	334.99
359.384	351.71
359.766	334.09
360.148	353.97
360.53	361.43
360.912	349
361.294	334.77
361.676	327.31
362.057	330.92
362.439	318.72
362.821	328.44
363.203	339.74
363.584	314.2
363.966	326.4
364.348	333.18
364.729	323.69
365.111	329.79
365.493	319.17
365.874	314.65
366.256	323.69
366.637	321.21
367.019	306.29
367.4	314.43
367.781	312.84
368.163	311.71
368.544	323.69
368.925	303.58
369.306	348.1
369.688	331.15
370.069	327.99
370.45	314.65
370.831	312.17
371.212	311.71
371.593	328.44
371.974	304.26
372.355	319.85
372.736	316.23
373.117	319.62
373.498	322.11
373.879	320.53
374.26	309.68
374.641	319.85
375.021	331.15
375.402	315.33
375.783	305.84
376.163	324.82
376.544	292.05
376.925	324.37
377.305	338.38
377.686	328.44
378.066	333.86
378.447	321.88
378.827	338.61
379.208	338.15
379.588	325.5
379.968	330.25
380.349	342.45
380.729	353.07
381.109	341.77
381.489	325.95
381.87	337.25
382.25	319.4
382.63	350.36
383.01	349.91
383.39	346.06
383.77	344.71
384.15	342.67
384.53	344.03
384.91	344.71
385.29	369.34
385.67	335.44
386.049	342.45
386.429	365.27
386.809	350.58
387.189	354.65
387.568	337.03
387.948	344.48
388.328	359.17
388.707	347.87
389.087	358.49
389.466	379.96
389.846	344.71
390.225	356.69
390.605	370.02
390.984	359.85
391.363	359.85
391.743	364.82
392.122	354.65
392.501	378.83
392.881	381.77
393.26	367.53
393.639	368.44
394.018	364.82
394.397	379.74
394.776	386.97
395.155	388.1
395.534	375.67
395.913	374.09
396.292	383.13
396.671	375.67
397.05	366.18
397.429	363.01
397.808	363.92
398.186	385.61
398.565	390.58
398.944	362.11
399.323	350.13
399.701	412.28
400.08	398.49
400.458	400.3
400.837	386.97
401.215	389
401.594	393.07
401.972	390.13
402.351	383.13
402.729	386.97
403.107	400.07
403.486	404.82
403.864	409.11
404.242	388.1
404.62	390.58
404.999	397.81
405.377	417.93
405.755	418.38
406.133	422.67
406.511	408.21
406.889	404.14
407.267	424.93
407.645	417.02
408.023	429.45
408.401	411.6
408.779	416.34
409.156	437.59
409.534	441.2
409.912	442.56
410.29	458.83
410.667	437.59
411.045	450.02
411.422	472.39
411.8	448.43
412.178	453.41
412.555	451.82
412.933	454.99
413.31	464.25
413.687	447.08
414.065	462.22
414.442	495.89
414.819	486.17
415.197	476.23
415.574	473.29
415.951	481.65
416.328	474.2
416.705	462.22
417.082	456.34
417.46	477.36
417.837	511.03
418.214	469.68
418.591	507.19
418.967	489.11
419.344	494.76
419.721	488.21
420.098	502.22
420.475	490.24
420.852	536.79
421.228	511.48
421.605	499.51
421.982	513.29
422.358	518.04
422.735	523.91
423.111	527.3
423.488	524.82
423.864	556.91
424.241	521.65
424.617	534.99
424.994	530.92
425.37	543.35
425.746	546.06
426.123	557.81
426.499	550.8
426.875	550.13
427.251	558.49
427.627	567.08
428.003	566.4
428.379	562.33
428.756	573.18
429.132	577.02
429.507	582.89
429.883	564.36
430.259	585.83
430.635	571.6
431.011	602.55
431.387	598.49
431.763	624.7
432.138	617.92
432.514	591.48
432.89	632.16
433.265	616.79
433.641	631.93
434.016	637.58
434.392	634.87
434.767	630.35
435.143	654.53
435.518	658.37
435.894	666.28
436.269	650.46
436.644	651.14
437.02	670.58
437.395	664.7
437.77	677.36
438.145	702.21
438.52	699.05
438.895	676.23
439.271	679.16
439.646	675.32
440.021	720.74
440.395	687.52
440.77	704.02
441.145	718.03
441.52	742.89
441.895	732.95
442.27	725.49
442.645	722.78
443.019	730.69
443.394	729.78
443.769	730.46
444.143	746.96
444.518	748.54
444.892	757.13
445.267	761.87
445.641	767.3
446.016	778.37
446.39	773.4
446.764	776.56
447.139	782.66
447.513	777.01
447.887	777.69
448.262	773.17
448.636	793.51
449.01	790.8
449.384	774.3
449.758	804.81
450.132	790.57
450.506	795.32
450.88	806.62
451.254	823.11
451.628	800.74
452.002	843
452.376	826.28
452.75	858.14
453.123	851.14
453.497	845.26
453.871	839.16
454.244	863.34
454.618	885.26
454.992	859.05
455.365	879.38
455.739	928.42
456.112	920.06
456.486	900.4
456.859	906.05
457.232	949.66
457.606	934.07
457.979	913.51
458.352	981.53
458.725	963.9
459.099	964.13
459.472	985.82
459.845	994.41
460.218	1018.59
460.591	1007.52
460.964	996.22
461.337	1020.17
461.71	1060.85
462.083	1035.99
462.456	1065.82
462.829	1056.1
463.201	1090.23
463.574	1105.37
463.947	1099.49
464.32	1116.44
464.692	1119.83
465.065	1125.7
465.438	1155.08
465.81	1153.27
466.183	1186.27
466.555	1213.84
466.928	1205.48
467.3	1211.8
467.672	1212.93
468.045	1239.6
468.417	1235.53
468.789	1269.2
469.161	1281.41
469.534	1293.84
469.906	1334.74
470.278	1337.45
470.65	1322.08
471.022	1390.56
471.394	1430.1
471.766	1419.03
472.138	1411.12
472.51	1464.9
472.882	1459.03
473.253	1523.21
473.625	1519.37
473.997	1554.39
474.369	1581.96
474.74	1585.13
475.112	1579.03
475.484	1642.75
475.855	1666.03
476.227	1692.92
476.598	1705.58
476.97	1738.12
477.341	1761.62
477.713	1803.88
478.084	1778.12
478.455	1869.87
478.827	1880.94
479.198	1932.01
479.569	1991.9
479.94	1998
480.311	2029.64
480.682	2086.81
481.053	2146.24
481.424	2200.7
481.795	2191.89
482.166	2254.94
482.537	2274.83
482.908	2316.18
483.279	2361.83
483.65	2404.32
484.021	2473.24
484.391	2519.34
484.762	2539.68
485.133	2548.04
485.503	2582.16
485.874	2663.74
486.244	2680.01
486.615	2732.89
486.985	2830.07
487.356	2849.05
487.726	2881.82
488.097	2934.24
488.467	2962.27
488.837	3047.69
489.207	3075.71
489.578	3121.58
489.948	3174.92
490.318	3210.17
490.688	3254.69
491.058	3312.54
491.428	3338.53
491.798	3408.58
492.168	3479.09
492.538	3518.86
492.908	3529.71
493.278	3569.48
493.648	3565.19
494.017	3698.74
494.387	3667.78
494.757	3705.52
495.126	3797.5
495.496	3779.87
495.866	3797.27
496.235	3884.5
496.605	3917.04
496.974	3941.22
497.344	3954.33
497.713	3986.19
498.082	4036.36
498.452	4079.75
498.821	4119.98
499.19	4143.03
499.559	4186.19
499.928	4207.66
500.298	4284.49
500.667	4275.68
501.036	4238.62
501.405	4314.55
501.774	4368.11
502.143	4391.83
502.512	4431.38
502.88	4471.15
503.249	4422.79
503.618	4522.45
503.987	4517.48
504.356	4516.8
504.724	4562.45
505.093	4572.85
505.462	4660.53
505.83	4652.17
506.199	4695.78
506.567	4698.04
506.936	4721.32
507.304	4795.44
507.672	4785.27
508.041	4788.21
508.409	4861.43
508.777	4830.69
509.145	4895.55
509.514	4917.7
509.882	4919.96
510.25	4971.71
510.618	5018.94
510.986	4986.17
511.354	5011.7
511.722	5051.93
512.09	5039.27
512.458	5072.04
512.826	5116.56
513.193	5170.34
513.561	5144.36
513.929	5174.41
514.297	5224.35
514.664	5291.25
515.032	5256.9
515.4	5321.75
515.767	5273.17
516.135	5323.33
516.502	5311.58
516.869	5358.81
517.237	5370.57
517.604	5366.5
517.972	5380.06
518.339	5451.47
518.706	5414.18
519.073	5460.51
519.44	5479.04
519.808	5554.29
520.175	5519.71
520.542	5541.86
520.909	5620.28
521.276	5552.48
521.643	5627.96
522.009	5661.4
522.376	5701.4
522.743	5662.31
523.11	5787.73
523.477	5831.57
523.843	5831.34
524.21	5837.22
524.577	5942.75
524.943	5910.66
525.31	5936.43
525.676	5943.66
526.043	6035.18
526.409	6011.23
526.776	6102.75
527.142	6117.89
527.508	6163.09
527.874	6242.18
528.241	6208.28
528.607	6232.69
528.973	6271.11
529.339	6294.83
529.705	6318.79
530.071	6327.15
530.437	6350.88
530.803	6433.36
531.169	6457.09
531.535	6489.86
531.901	6423.87
532.267	6471.55
532.632	6483.08
532.998	6509.07
533.364	6608.95
533.73	6653.92
534.095	6657.31
534.461	6706.12
534.826	6724.88
535.192	6786.35
535.557	6790.41
535.923	6825.44
536.288	6813.46
536.653	6838.77
537.019	6888.49
537.384	6904.99
537.749	6919.45
538.114	6920.58
538.479	6944.99
538.845	7042.39
539.21	6979.11
539.575	6997.19
539.94	6996.96
540.305	7064.76
540.67	7084.64
541.034	7153.57
541.399	7147.02
541.764	7138.43
542.129	7224.75
542.494	7225.21
542.858	7285.32
543.223	7270.63
543.587	7339.78
543.952	7355.15
544.316	7432.66
544.681	7322.83
545.045	7452.77
545.41	7496.16
545.774	7467.23
546.138	7544.29
546.503	7572.54
546.867	7582.26
547.231	7620.45
547.595	7648.92
547.959	7656.15
548.324	7662.03
548.688	7743.84
549.052	7762.37
549.416	7742.25
549.779	7758.07
550.143	7787.68
550.507	7834.46
550.871	7909.93
551.235	7914.68
551.599	7908.35
551.962	7965.75
552.326	7987.9
552.689	7956.26
553.053	7975.92
553.417	7980.67
553.78	8182.24
554.143	8056.14
554.507	8189.25
554.87	8231.05
555.234	8256.82
555.597	8215.46
555.96	8299.75
556.323	8239.87
556.686	8323.03
557.05	8363.25
557.413	8367.55
557.776	8382.46
558.139	8418.39
558.502	8469.01
558.865	8449.58
559.228	8474.44
559.59	8510.37
559.953	8567.32
560.316	8653.42
560.679	8607.32
561.041	8644.6
561.404	8678.27
561.767	8710.82
562.129	8695.68
562.492	8741.32
562.854	8742.45
563.217	8802.11
563.579	8791.27
563.941	8886.18
564.304	8944.26
564.666	8900.64
565.028	8945.61
565.39	9042.78
565.753	8974.99
566.115	9075.1
566.477	9148.54
566.839	9171.6
567.201	9205.27
567.563	9260.18
567.925	9296.79
568.287	9293.4
568.648	9266.51
569.01	9325.49
569.372	9413.62
569.734	9392.38
570.095	9490
570.457	9538.59
570.819	9551.92
571.18	9584.24
571.542	9602.77
571.903	9606.61
572.265	9720.28
572.626	9768.42
572.987	9728.87
573.349	9900.39
573.71	9941.29
574.071	9937.68
574.432	10013.38
574.794	10072.59
575.155	10074.85
575.516	10119.14
575.877	10236.65
576.238	10282.75
576.599	10444.56
576.96	10481.84
577.32	10538.56
577.681	10611.56
578.042	10652.91
578.403	10795.06
578.763	10877.54
579.124	11026.01
579.485	11173.12
579.845	11188.94
580.206	11346.23
580.566	11464.42
580.927	11629.38
581.287	11769.94
581.648	11849.94
582.008	12002.03
582.368	12130.39
582.728	12298.29
583.089	12454.22
583.449	12574.67
583.809	12759.98
584.169	13025.73
584.529	13148.21
584.889	13405.61
585.249	13532.38
585.609	13759.5
585.969	13966.5
586.329	14244
586.688	14428.41
587.048	14701.39
587.408	14892.57
587.768	15205.11
588.127	15462.05
588.487	15657.75
588.846	16032.88
589.206	16154.01
589.565	16521.23
589.925	16773.2
590.284	17034.44
590.643	17518.27
591.003	17729.11
591.362	18062.43
591.721	18386.27
592.08	18641.63
592.44	19022.41
592.799	19279.35
593.158	19595.5
593.517	19910.3
593.876	20322.71
594.235	20554.35
594.593	20981.23
594.952	21432.29
595.311	21642.45
595.67	22079.28
596.029	22525.59
596.387	22780.05
596.746	23124.22
597.104	23444.44
597.463	23837.88
597.822	24178.43
598.18	24375.04
598.538	24735.71
598.897	25264.51
599.255	25452.3
599.613	26137.02
599.972	26172.5
600.33	26662.89
600.688	26832.83
601.046	27413.38
601.404	27739.24
601.762	27934.49
602.12	28383.29
602.478	28716.39
602.836	29029.38
603.194	29213.1
603.552	29512.3
603.91	29726.76
604.268	30207.2
604.625	30485.61
604.983	30990.46
605.341	31100.51
605.698	31474.29
606.056	31951.79
606.413	32189.29
606.771	32417.76
607.128	32673.35
607.485	32935.94
607.843	33263.39
608.2	33562.37
608.557	33828.57
608.914	34130.03
609.272	34574.77
609.629	34754.2
609.986	35202.32
610.343	35209.1
610.7	35635.08
611.057	35722.08
611.414	35997.78
611.771	36197.55
612.127	36476.19
612.484	36718.44
612.841	36956.85
613.198	37051.99
613.554	37361.14
613.911	37801.58
614.267	37964.28
614.624	37973.1
614.98	38399.3
615.337	38645.85
615.693	38691.5
616.05	38853.3
616.406	39102.79
616.762	39263.46
617.118	39446.28
617.475	39580.51
617.831	39839.26
618.187	40027.73
618.543	40168.97
618.899	40526.93
619.255	40539.58
619.611	40730.54
619.967	40916.3
620.323	41222.73
620.678	41138.44
621.034	41102.73
621.39	41408.71
621.746	41444.42
622.101	41876.72
622.457	41850.28
622.812	42048.02
623.168	42125.53
623.523	42349.03
623.879	42408.24
624.234	42232.19
624.589	42598.06
624.945	42524.16
625.3	42710.37
625.655	42889.35
626.01	42842.12
626.365	43049.35
626.72	42982.23
627.075	43055.45
627.43	43221.32
627.785	43156.24
628.14	43211.38
628.495	43273.75
628.85	43360.53
629.205	43214.09
629.559	43478.72
629.914	43370.92
630.269	43507.64
630.623	43405.27
630.978	43516.45
631.332	43791.7
631.687	43824.02
632.041	43668.09
632.396	43642.33
632.75	43755.09
633.104	43795.54
633.459	43723.45
633.813	43756.9
634.167	43806.39
634.521	43810.68
634.875	43868.76
635.229	43900.17
635.583	43850.68
635.937	43838.93
636.291	43801.42
636.645	43780.18
636.999	43727.3
637.352	43946.73
637.706	43614.31
638.06	43929.55
638.413	43825.6
638.767	43738.6
639.121	43920.06
639.474	43723.91
639.828	43654.3
640.181	43751.93
640.534	43788.09
640.888	43556.45
641.241	43485.72
641.594	43544.25
641.947	43707.86
642.301	43670.35
642.654	43564.81
643.007	43664.25
643.36	43739.27
643.713	43567.3
644.066	43793.96
644.419	43551.03
644.771	43292.96
645.124	42836.7
645.477	43036.24
645.83	42624.27
646.182	42562.13
646.535	42362.36
646.888	42548.57
647.24	42352.87
647.593	42510.38
647.945	42329.82
648.298	42448.23
648.65	42351.29
649.002	42137.28
649.355	42490.49
649.707	42260.22
650.059	42498.63
650.411	43006.64
650.763	43060.87
651.115	43503.8
651.467	43304.93
651.819	43257.7
652.171	43039.18
652.523	43058.39
652.875	43104.49
653.227	43033.98
653.578	43337.93
653.93	43130.93
654.282	43103.13
654.633	43030.14
654.985	43104.94
655.337	43113.3
655.688	43132.51
656.039	43159.18
656.391	42806.64
656.742	42992.85
657.094	42942.46
657.445	43053.19
657.796	42888.22
658.147	42828.34
658.498	42869.69
658.849	42964.83
659.2	42873.53
659.551	42849.35
659.902	42931.39
660.253	42835.34
660.604	42942.23
660.955	42701.56
661.306	42879.18
661.656	42777.94
662.007	42906.53
662.358	42667.89
662.708	42949.69
663.059	42783.82
663.409	42598.96
663.76	42839.18
664.11	42738.62
664.461	42794.44
664.811	42893.65
665.161	42813.2
665.511	42600.77
665.862	42782.91
666.212	42754.21
666.562	42840.31
666.912	42826.53
667.262	42520.55
667.612	42760.99
667.962	42753.99
668.312	42695.23
668.662	42957.83
669.011	42656.14
669.361	42655.91
669.711	42579.08
670.06	42513.09
670.41	42586.99
670.76	42506.76
671.109	42592.19
671.459	42480.55
671.808	42544.5
672.157	42567.78
672.507	42317.39
672.856	42396.71
673.205	42507.67
673.554	42656.59
673.904	42441.68
674.253	42539.53
674.602	42549.25
674.951	41872.43
675.3	41663.85
675.649	42366.2
675.998	42283.04
676.346	42258.63
676.695	42303.83
677.044	42059.09
677.393	42294.57
677.741	42283.49
678.09	42177.28
678.438	42184.74
678.787	42127.34
679.135	42299.31
679.484	41855.03
679.832	42142.25
680.181	41776.16
680.529	41893.67
680.877	41656.84
681.225	41632.66
681.573	41904.29
681.922	41518.77
682.27	41467.24
682.618	41525.55
682.966	41446
683.314	41586.34
683.661	41380.01
684.009	41197.65
684.357	41180.92
684.705	41154.03
685.053	41192
685.4	41040.81
685.748	41116.07
686.095	41027.71
686.443	40831.33
686.79	40842.85
687.138	40965.11
687.485	40815.73
687.832	40750.43
688.18	40865.68
688.527	40623.65
688.874	40672.24
689.221	40396.54
689.568	40474.73
689.915	40424.78
690.262	40387.27
690.609	40046.94
690.956	39818.02
691.303	39841.75
691.65	39792.71
691.997	39780.73
692.344	39647.4
692.69	39580.74
693.037	39582.32
693.383	39096.46
693.73	39381.87
694.077	39092.16
694.423	39273.85
694.769	38963.81
695.116	38912.73
695.462	38882.9
695.808	38736.24
696.155	38788.22
696.501	38479.52
696.847	38564.04
697.193	38408.79
697.539	38378.06
697.885	38027.33
698.231	38134.9
698.577	38144.84
698.923	38069.59
699.269	37808.13
699.614	37640
699.96	37548.93
700.306	37541.24
700.651	37550.74
700.997	37281.36
701.342	37342.38
701.688	37351.19
702.033	37183.06
702.379	37078.88
702.724	36911.66
703.069	37053.57
703.415	36614.94
703.76	36738.78
704.105	36750.08
704.45	36649.52
704.795	36377.66
705.14	36359.58
705.485	36312.12
705.83	36201.17
706.175	36223.77
706.52	36016.09
706.865	35817.45
707.209	35914.17
707.554	35787.62
707.899	35875.53
708.243	35628.3
708.588	35737.45
708.932	35359.61
709.277	35401.41
709.621	35510.34
709.966	35146.28
710.31	35225.15
710.654	35001.42
710.998	35049.78
711.342	35046.17
711.687	34847.3
712.031	34743.8
712.375	34689.79
712.719	34627.42
713.063	34594.66
713.407	34764.14
713.75	34604.15
714.094	34489.57
714.438	34327.77
714.782	34311.95
715.125	34270.14
715.469	34250.71
715.812	34084.84
716.156	33951.28
716.499	33944.28
716.843	33871.28
717.186	33606.66
717.53	33873.54
717.873	33890.72
718.216	33740.21
718.559	33593.55
718.902	33387.23
719.246	33523.72
719.589	33186.56
719.932	33163.28
720.275	33196.27
720.617	33271.98
720.96	33086.9
721.303	33175.03
721.646	33083.73
721.989	32956.28
722.331	32978.88
722.674	32956.28
723.016	32960.8
723.359	32811.2
723.701	32856.85
724.044	32790.18
724.386	32557.65
724.729	32750.64
725.071	32527.37
725.413	32539.79
725.755	32535.95
726.097	32301.83
726.439	32097.32
726.782	32094.16
727.124	32278.33
727.465	32206.02
727.807	32041.05
728.149	32081.5
728.491	31934.61
728.833	31931
729.175	31955.63
729.516	31828.4
729.858	31869.98
730.199	31935.06
730.541	31820.27
730.882	31771
731.224	31757.89
731.565	31617.11
731.906	31575.3
732.248	31546.83
732.589	31418.24
732.93	31392.48
733.271	31498.92
733.612	31276.1
733.953	31315.87
734.294	31185.03
734.635	31124.69
734.976	31147.51
735.317	31065.26
735.658	30992.49
735.999	31058.48
736.339	30952.72
736.68	31039.04
737.021	30905.49
737.361	30816
737.702	30940.06
738.042	30817.81
738.383	30696.68
738.723	30783
739.063	30634.53
739.404	30638.83
739.744	30738.26
740.084	30575.55
740.424	30526.06
740.764	30496.01
741.104	30618.71
741.444	30409.45
741.784	30317.71
742.124	30450.36
742.464	30360.64
742.804	30273.19
743.143	30222.79
743.483	30204.94
743.823	29982.57
744.162	30050.82
744.502	30037.49
744.841	29926.3
745.181	30171.04
745.52	29827.55
745.86	29944.16
746.199	29910.03
746.538	29875.23
746.877	29889.02
747.216	29898.51
747.556	29726.99
747.895	29726.08
748.234	29625.07
748.573	29592.3
748.911	29525.64
749.25	29545.3
749.589	29329.71
749.928	29424.4
750.267	29480.67
750.605	29329.26
750.944	29271.86
751.283	29138.3
751.621	29221.69
751.96	29083.39
752.298	29099.21
752.636	28935.82
752.975	28828.48
753.313	28777.86
753.651	28851.08
753.989	28772.44
754.327	28713.91
754.666	28622.38
755.004	28654.7
755.342	28586.23
755.679	28627.13
756.017	28470.75
756.355	28424.87
756.693	28194.37
757.031	28375.84
757.368	28186.91
757.706	28189.17
758.044	28031.89
758.381	28073.7
758.719	27957.09
759.056	28003.42
759.394	27972.23
759.731	27654.72
760.068	27697.66
760.405	27587.61
760.743	27398.69
