Data from hue_10_FLMS001491_27.txt Node
Date: Mon Feb 06 15:31:40 GMT 2017
User: dcchb
Spectrometer: FLMS00149
Trigger mode: 0
Integration Time (sec): 2.000000E-2
Scans to average: 10
Electric dark correction enabled: true
Nonlinearity correction enabled: false
Boxcar width: 0
XAxis mode: Wavelengths
Number of Pixels in Spectrum: 2048
>>>>>Begin Spectral Data<<<<<
341.393	-9.42
341.776	-9.42
342.16	-9.42
342.543	-76.99
342.927	-84.45
343.31	-61.17
343.693	-64.33
344.077	-69.98
344.46	-69.08
344.843	-66.82
345.226	-43.54
345.61	-41.06
345.993	-23.88
346.376	3.46
346.759	-0.61
347.142	26.74
347.525	67.87
347.908	62.22
348.291	67.41
348.674	92.72
349.057	120.07
349.44	128.88
349.823	139.73
350.206	149.22
350.588	198.03
350.971	215.88
351.354	230.35
351.737	250.01
352.119	231.48
352.502	246.84
352.884	283.68
353.267	297.69
353.65	299.05
354.032	297.46
354.414	308.76
354.797	319.61
355.179	308.09
355.562	310.12
355.944	313.96
356.326	328.65
356.709	348.99
357.091	354.86
357.473	343.11
357.855	331.81
358.238	354.41
358.62	339.72
359.002	336.78
359.384	348.31
359.766	336.56
360.148	345.37
360.53	337.91
360.912	347.41
361.294	342.43
361.676	316.22
362.057	338.82
362.439	315.32
362.821	333.85
363.203	323
363.584	311.7
363.966	320.06
364.348	337.01
364.729	312.15
365.111	309.67
365.493	318.03
365.874	315.09
366.256	336.78
366.637	334.07
367.019	324.81
367.4	321.42
367.781	305.83
368.163	324.13
368.544	332.72
368.925	315.09
369.306	320.06
369.688	321.64
370.069	318.71
370.45	318.71
370.831	315.54
371.212	315.99
371.593	314.64
371.974	300.63
372.355	301.76
372.736	321.87
373.117	311.93
373.498	337.69
373.879	321.87
374.26	321.19
374.641	316.45
375.021	318.03
375.402	316.67
375.783	344.02
376.163	304.92
376.544	308.99
376.925	327.29
377.305	308.09
377.686	325.03
378.066	324.81
378.447	339.95
378.827	322.77
379.208	354.19
379.588	328.2
379.968	345.82
380.349	324.58
380.729	322.1
381.109	318.71
381.489	322.77
381.87	340.17
382.25	348.99
382.63	332.04
383.01	331.36
383.39	318.93
383.77	311.93
384.15	352.6
384.53	319.61
384.91	343.11
385.29	351.7
385.67	340.4
386.049	349.21
386.429	351.02
386.809	358.25
387.189	343.56
387.568	330.91
387.948	360.29
388.328	346.28
388.707	348.76
389.087	355.09
389.466	368.42
389.846	381.98
390.225	348.54
390.605	357.58
390.984	352.38
391.363	362.32
391.743	362.77
392.122	341.08
392.501	381.53
392.881	363.68
393.26	382.43
393.639	372.04
394.018	378.82
394.397	368.2
394.776	376.33
395.155	348.76
395.534	356.9
395.913	365.94
396.292	365.48
396.671	374.75
397.05	360.97
397.429	378.14
397.808	386.95
398.186	371.81
398.565	371.81
398.944	363.9
399.323	379.95
399.701	383.56
400.08	386.73
400.458	401.42
400.837	407.97
401.215	394.18
401.594	425.6
401.972	393.73
402.351	418.36
402.729	399.38
403.107	403
403.486	390.79
403.864	398.25
404.242	402.32
404.62	404.13
404.999	417.46
405.377	420.85
405.755	393.28
406.133	435.77
406.511	415.43
406.889	393.73
407.267	421.75
407.645	434.86
408.023	405.03
408.401	415.2
408.779	408.42
409.156	446.16
409.534	413.85
409.912	424.24
410.29	431.47
410.667	436.9
411.045	443.9
411.422	438.7
411.8	431.25
412.178	444.13
412.555	445.93
412.933	448.19
413.31	460.4
413.687	457.01
414.065	463.34
414.442	479.38
414.819	424.01
415.197	466.95
415.574	508.08
415.951	476.89
416.328	508.98
416.705	456.33
417.082	504.69
417.46	496.33
417.837	483.22
418.214	473.28
418.591	466.73
418.967	485.03
419.344	516.44
419.721	465.14
420.098	495.65
420.475	493.84
420.852	492.26
421.228	502.43
421.605	523.45
421.982	511.02
422.358	511.47
422.735	536.1
423.111	536.55
423.488	518.93
423.864	515.99
424.241	533.84
424.617	556.44
424.994	534.97
425.37	542.2
425.746	560.96
426.123	567.51
426.499	548.98
426.875	540.4
427.251	555.99
427.627	544.01
428.003	562.54
428.379	563.9
428.756	581.3
429.132	588.08
429.507	577.23
429.883	589.21
430.259	581.98
430.635	579.49
431.011	596.21
431.387	632.6
431.763	610
432.138	591.92
432.514	587.63
432.89	627.4
433.265	632.82
433.641	612.71
434.016	631.92
434.392	612.03
434.767	650.9
435.143	671.92
435.518	671.01
435.894	662.2
436.269	655.42
436.644	661.52
437.02	661.97
437.395	685.48
437.77	690.9
438.145	702.2
438.52	704.46
438.895	720.96
439.271	691.35
439.646	696.55
440.021	695.87
440.395	714.4
440.77	720.28
441.145	713.05
441.52	713.05
441.895	726.61
442.27	732.71
442.645	719.6
443.019	759.6
443.394	760.5
443.769	745.59
444.143	733.16
444.518	751.46
444.892	757.56
445.267	766.83
445.641	764.12
446.016	771.58
446.39	758.92
446.764	775.64
447.139	793.04
447.513	783.78
447.887	786.26
448.262	769.99
448.636	773.84
449.01	793.04
449.384	826.26
449.758	805.93
450.132	788.75
450.506	785.36
450.88	805.7
451.254	830.78
451.628	819.71
452.002	854.51
452.376	869.88
452.75	859.26
453.123	854.51
453.497	869.43
453.871	846.15
454.244	898.13
454.618	886.15
454.992	867.62
455.365	862.19
455.739	888.18
456.112	911.46
456.486	916.2
456.859	935.19
457.232	930.67
457.606	933.61
457.979	937.9
458.352	952.59
458.725	991.01
459.099	987.39
459.472	996.65
459.845	1000.27
460.218	1012.93
460.591	1027.16
460.964	1029.87
461.337	1050.44
461.71	1047.27
462.083	1075.75
462.456	1056.99
462.829	1061.74
463.201	1075.97
463.574	1071
463.947	1080.49
464.32	1095.64
464.692	1108.52
465.065	1130.89
465.438	1152.36
465.81	1141.96
466.183	1166.14
466.555	1214.28
466.928	1168.85
467.3	1210.21
467.672	1229.64
468.045	1247.27
468.417	1253.15
468.789	1265.8
469.161	1278
469.534	1290.43
469.906	1311.45
470.278	1314.16
470.65	1336.31
471.022	1328.4
471.394	1377.89
471.766	1372.24
472.138	1408.17
472.51	1430.32
472.882	1454.5
473.253	1485
473.625	1484.55
473.997	1504.21
474.369	1532.23
474.74	1559.35
475.112	1577.66
475.484	1604.77
475.855	1632.12
476.227	1658.11
476.598	1722.96
476.97	1730.65
477.341	1730.19
477.713	1763.87
478.084	1793.47
478.455	1830.53
478.827	1866.01
479.198	1911.66
479.569	1945.78
479.94	1966.35
480.311	1989.85
480.682	2071.88
481.053	2078.66
481.424	2100.35
481.795	2157.75
482.166	2208.83
482.537	2199.11
482.908	2306.68
483.279	2352.78
483.65	2340.57
484.021	2409.95
484.391	2422.61
484.762	2503.28
485.133	2475.94
485.503	2561.59
485.874	2576.05
486.244	2581.25
486.615	2676.61
486.985	2726.33
487.356	2734.24
487.726	2795.03
488.097	2851.52
488.467	2895.81
488.837	2932.87
489.207	2980.56
489.578	3017.62
489.948	3057.62
490.318	3076.6
490.688	3143.72
491.058	3162.25
491.428	3234.56
491.798	3258.29
492.168	3357.5
492.538	3366.08
492.908	3398.85
493.278	3383.48
493.648	3430.71
494.017	3485.63
494.387	3542.12
494.757	3538.28
495.126	3601.11
495.496	3617.38
495.866	3639.75
496.235	3669.58
496.605	3765.17
496.974	3800.2
497.344	3773.76
497.713	3824.38
498.082	3874.77
498.452	3869.57
498.821	3934.88
499.19	3895.79
499.559	4008.33
499.928	4017.37
500.298	4045.61
500.667	4035.67
501.036	4077.7
501.405	4096.01
501.774	4124.26
502.143	4104.82
502.512	4151.37
502.88	4218.26
503.249	4160.19
503.618	4258.26
503.987	4299.84
504.356	4305.27
504.724	4313.18
505.093	4324.02
505.462	4356.79
505.83	4365.61
506.199	4390.01
506.567	4452.38
506.936	4442.21
507.304	4455.77
507.672	4503.91
508.041	4540.29
508.409	4541.65
508.777	4547.07
509.145	4599.5
509.514	4642.89
509.882	4608.31
510.25	4636.33
510.618	4657.35
510.986	4682.43
511.354	4700.74
511.722	4732.38
512.09	4780.74
512.458	4810.79
512.826	4839.04
513.193	4819.15
513.561	4800.85
513.929	4863.67
514.297	4873.61
514.664	4944.35
515.032	4870.23
515.4	4950.22
515.767	4947.29
516.135	4984.35
516.502	4925.14
516.869	5007.62
517.237	5019.6
517.604	5013.72
517.972	5068.64
518.339	5088.52
518.706	5022.31
519.073	5109.09
519.44	5063.21
519.808	5133.04
520.175	5147.28
520.542	5181.18
520.909	5259.14
521.276	5206.71
521.643	5233.38
522.009	5278.8
522.376	5297.33
522.743	5330.33
523.11	5375.97
523.477	5428.4
523.843	5407.61
524.21	5457.33
524.577	5475.41
524.943	5485.35
525.31	5514.95
525.676	5515.86
526.043	5570.55
526.409	5588.85
526.776	5669.98
527.142	5699.58
527.508	5679.92
527.874	5678.11
528.241	5755.63
528.607	5724.21
528.973	5787.49
529.339	5821.61
529.705	5889.86
530.071	5939.58
530.437	5976.18
530.803	5949.52
531.169	6015.73
531.535	5981.83
531.901	6047.37
532.267	6030.65
532.632	6102.06
532.998	6069.52
533.364	6127.59
533.73	6107.25
534.095	6145.22
534.461	6186.35
534.826	6243.52
535.192	6253.24
535.557	6251.43
535.923	6336.18
536.288	6309.51
536.653	6349.28
537.019	6331.66
537.384	6337.98
537.749	6456.62
538.114	6412.33
538.479	6455.04
538.845	6489.39
539.21	6530.29
539.575	6549.28
539.94	6517.19
540.305	6606.9
540.67	6551.76
541.034	6610.07
541.399	6659.56
541.764	6674.47
542.129	6698.88
542.494	6768.25
542.858	6758.99
543.223	6718.99
543.587	6775.49
543.952	6862.72
544.316	6844.41
544.681	6907.69
545.045	6897.52
545.41	6907.46
545.774	6951.98
546.138	6967.35
546.503	7019.55
546.867	6975.48
547.231	7018.19
547.595	7087.57
547.959	7128.24
548.324	7112.88
548.688	7120.56
549.052	7170.28
549.416	7282.82
549.779	7245.3
550.143	7258.41
550.507	7323.49
550.871	7321.01
551.235	7344.28
551.599	7372.98
551.962	7426.99
552.326	7430.16
552.689	7467.22
553.053	7443.04
553.417	7467.22
553.78	7478.74
554.143	7514.68
554.507	7462.02
554.87	7569.14
555.234	7623.15
555.597	7592.41
555.96	7651.85
556.323	7700.89
556.686	7702.01
557.05	7794.67
557.413	7765.29
557.776	7722.35
558.139	7868.34
558.502	7820.88
558.865	7866.3
559.228	7895.46
559.59	7888.9
559.953	7882.58
560.316	7995.79
560.679	7972.52
561.041	8079.18
561.404	8022.91
561.767	8132.96
562.129	8084.15
562.492	8139.74
562.854	8196.47
563.217	8123.7
563.579	8175.9
563.941	8272.4
564.304	8257.03
564.666	8262.23
565.028	8286.86
565.39	8302.9
565.753	8351.94
566.115	8434.65
566.477	8410.24
566.839	8452.05
567.201	8519.62
567.563	8546.06
567.925	8544.03
568.287	8559.39
568.648	8599.62
569.01	8649.33
569.372	8719.84
569.734	8701.76
570.095	8785.38
570.457	8890.91
570.819	8852.49
571.18	8816.79
571.542	8910.57
571.903	8955.32
572.265	8943.56
572.626	9052.04
572.987	9104.01
573.349	9128.19
573.71	9203.67
574.071	9251.8
574.432	9340.62
574.794	9324.35
575.155	9448.86
575.516	9475.3
575.877	9583.32
576.238	9581.29
576.599	9696.31
576.96	9755.29
577.32	9775.18
577.681	9884.56
578.042	9917.55
578.403	10072.8
578.763	10154.61
579.124	10270.76
579.485	10373.36
579.845	10508.95
580.206	10543.3
580.566	10627.14
580.927	10801.14
581.287	10987.58
581.648	11083.85
582.008	11222.83
582.368	11330.85
582.728	11494.01
583.089	11653.1
583.449	11788.24
583.809	12060.32
584.169	12172.86
584.529	12414.66
584.889	12517.48
585.249	12710.24
585.609	12959.05
585.969	13241.3
586.329	13458.93
586.688	13762.19
587.048	13886.03
587.408	14068.4
587.768	14360.37
588.127	14582.74
588.487	14773.24
588.846	15174.13
589.206	15300.01
589.565	15612.09
589.925	15963.94
590.284	16191.51
590.643	16530.03
591.003	16887.31
591.362	17173.4
591.721	17497.01
592.08	17694.07
592.44	18094.06
592.799	18430.55
593.158	18682.52
593.517	18973.36
593.876	19350.3
594.235	19776.05
594.593	20093.55
594.952	20391.17
595.311	20614.9
595.67	21074.09
596.029	21519.28
596.387	21788.2
596.746	22213.95
597.104	22513.38
597.463	22661.62
597.822	23228.61
598.18	23421.6
598.538	23685.32
598.897	24347
599.255	24269.94
599.613	24927.55
599.972	25020.43
600.33	25596.23
600.688	25779.96
601.046	26144.47
601.404	26744.45
601.762	26971.56
602.12	27345.11
602.478	27498.33
602.836	27983.06
603.194	28073.46
603.552	28568.58
603.91	28727.9
604.268	29096.71
604.625	29389.13
604.983	29773.53
605.341	29940.75
605.698	30347.3
606.056	30717.23
606.413	31019.37
606.771	31304.33
607.128	31516.08
607.485	31810.08
607.843	32076.52
608.2	32426.56
608.557	32904.52
608.914	32895.48
609.272	33431.73
609.629	33595.35
609.986	33925.73
610.343	34033.98
610.7	34507.19
611.057	34770
611.414	34976.33
611.771	35128.19
612.127	35463.09
612.484	35588.51
612.841	36001.16
613.198	36054.94
613.554	36391.88
613.911	36632.78
614.267	36714.36
614.624	36943.51
614.98	37255.36
615.337	37639.53
615.693	37812.64
616.05	37689.25
616.406	38230.7
616.762	38204.26
617.118	38385.05
617.475	38510.47
617.831	38878.37
618.187	38883.34
618.543	39120.17
618.899	39519.03
619.255	39498.24
619.611	39509.99
619.967	39855.07
620.323	40045.35
620.678	39979.36
621.034	40187.71
621.39	40336.41
621.746	40419.12
622.101	40829.73
622.457	40628.38
622.812	40939.79
623.168	41029.95
623.523	41182.72
623.879	41288.48
624.234	41199.44
624.589	41509.26
624.945	41592.88
625.3	41692.08
625.655	41841.91
626.01	41765.07
626.365	41915.35
626.72	41941.34
627.075	42073.77
627.43	42059.3
627.785	42109.02
628.14	42124.39
628.495	42212.52
628.85	42245.29
629.205	42256.59
629.559	42663.36
629.914	42584.04
630.269	42525.96
630.623	42524.15
630.978	42553.53
631.332	42599.85
631.687	42898.15
632.041	42653.41
632.396	42836.68
632.75	42673.98
633.104	42742
633.459	42671.94
633.813	42872.62
634.167	42930.92
634.521	42794.88
634.875	42935.89
635.229	42918.49
635.583	42737.03
635.937	42954.87
636.291	42867.64
636.645	42907.64
636.999	42884.59
637.352	43047.75
637.706	42711.49
638.06	42964.82
638.413	42831.94
638.767	42933.86
639.121	42891.82
639.474	42685.28
639.828	42829.68
640.181	42787.65
640.534	42813.86
640.888	42818.83
641.241	42630.59
641.594	42683.92
641.947	42930.92
642.301	42783.58
642.654	42771.38
643.007	42924.82
643.36	42819.74
643.713	42685.95
644.066	42937.92
644.419	42643.7
644.771	42379.3
645.124	41968.46
645.477	41970.49
645.83	41758.29
646.182	41738.41
646.535	41427.68
646.888	41540
647.24	41503.84
647.593	41751.52
647.945	41666.09
648.298	41499.77
648.65	41407.8
649.002	41217.74
649.355	41590.62
649.707	41268.59
650.059	41423.39
650.411	42098.62
650.763	42080.09
651.115	42496.13
651.467	42363.7
651.819	42452.74
652.171	42203.48
652.523	42244.16
652.875	42252.52
653.227	42048.46
653.578	42364.15
653.93	42249.36
654.282	41943.37
654.633	41996.25
654.985	42029.7
655.337	42187.66
655.688	42135.46
656.039	42239.86
656.391	41849.59
656.742	42041
657.094	41965.97
657.445	42191.05
657.796	42013.88
658.147	41974.11
658.498	41928.23
658.849	42098.62
659.2	41869.03
659.551	41841.91
659.902	42094.56
660.253	42096.36
660.604	42083.03
660.955	41910.38
661.306	42035.35
661.656	41963.71
662.007	41847.33
662.358	41911.28
662.708	41844.85
663.059	41695.47
663.409	41715.58
663.76	41870.61
664.11	42030.6
664.461	41936.14
664.811	42008.46
665.161	42025.41
665.511	41801.01
665.862	41954.22
666.212	42013.2
666.562	42022.69
666.912	41808.46
667.262	41821.8
667.612	41826.77
667.962	41875.58
668.312	41701.35
668.662	41955.8
669.011	41789.25
669.361	41678.07
669.711	41729.82
670.06	41629.94
670.41	41567.79
670.76	41542.48
671.109	41796.49
671.459	41675.36
671.808	41599.65
672.157	41631.52
672.507	41489.6
672.856	41482.6
673.205	41431.3
673.554	41536.61
673.904	41520.33
674.253	41675.58
674.602	41549.03
674.951	40976.85
675.3	40806.46
675.649	41398.08
675.998	41361.02
676.346	41395.37
676.695	41537.96
677.044	41193.34
677.393	41306.56
677.741	41305.43
678.09	41329.15
678.438	41122.38
678.787	41243.05
679.135	41435.82
679.484	41075.37
679.832	41291.64
680.181	41017.75
680.529	41104.98
680.877	41020.01
681.225	40984.3
681.573	41014.81
681.922	40787.02
682.27	40743.63
682.618	40778.43
682.966	40709.06
683.314	40635.39
683.661	40493.47
684.009	40414.83
684.357	40226.13
684.705	40114.72
685.053	40351.78
685.4	40210.76
685.748	40067.94
686.095	40069.75
686.443	39964.67
686.79	39850.32
687.138	39945.23
687.485	40067.04
687.832	39828.63
688.18	39793.15
688.527	39599.03
688.874	39679.93
689.221	39491.69
689.568	39586.15
689.915	39406.72
690.262	39398.36
690.609	39245.37
690.956	39179.83
691.303	38997.24
691.65	38908.43
691.997	38927.63
692.344	38746.62
692.69	38675.89
693.037	38619.62
693.383	38353.64
693.73	38512.5
694.077	38280.87
694.423	38402
694.769	38147.99
695.116	38058.05
695.462	38039.75
695.808	37872.3
696.155	38044.49
696.501	37668.23
696.847	37672.3
697.193	37492.19
697.539	37576.26
697.885	37273.44
698.231	37082.94
698.577	37258.75
698.923	37106.67
699.269	36895.6
699.614	36818.09
699.96	36656.51
700.306	36817.41
700.651	36582.84
700.997	36623.51
701.342	36412.9
701.688	36405.22
702.033	36240.93
702.379	36240.7
702.724	36233.24
703.069	36176.97
703.415	35756.42
703.76	35928.17
704.105	35799.36
704.45	35780.6
704.795	35531.34
705.14	35360.72
705.485	35480.95
705.83	35417.67
706.175	35270.78
706.52	35200.95
706.865	35080.96
707.209	34992.14
707.554	34909.89
707.899	35017.45
708.243	34829.66
708.588	34815.43
708.932	34580.4
709.277	34566.39
709.621	34629.89
709.966	34387.42
710.31	34351.48
710.654	34172.05
710.998	34247.08
711.342	34232.39
711.687	34101.55
712.031	33852.06
712.375	33865.85
712.719	33821.78
713.063	33873.98
713.407	33898.61
713.75	33780.88
714.094	33667.21
714.438	33488
714.782	33561.45
715.125	33305.86
715.469	33323.71
715.812	33154.68
716.156	33031.52
716.499	33130.95
716.843	33106.77
717.186	32888.47
717.53	33017.06
717.873	32937.74
718.216	32858.42
718.559	32747.91
718.902	32446.45
719.246	32690.74
719.589	32523.96
719.932	32470.18
720.275	32394.7
720.617	32415.26
720.96	32342.5
721.303	32474.92
721.646	32253.46
721.989	32137.76
722.331	32260.24
722.674	32131.88
723.016	32112.9
723.359	32084.65
723.701	32125.33
724.044	31928.95
724.386	31674.72
724.729	31817.31
725.071	31815.28
725.413	31787.71
725.755	31781.16
726.097	31677.66
726.439	31519.24
726.782	31549.07
727.124	31627.04
727.465	31310.66
727.807	31414.39
728.149	31243.77
728.491	31295.74
728.833	31310.66
729.175	31146.82
729.516	31154.51
729.858	31027.5
730.199	31094.85
730.541	30979.14
730.882	31027.28
731.224	31041.74
731.565	30749.09
731.906	30843.55
732.248	30797.23
732.589	30752.93
732.93	30606.27
733.271	30550.68
733.612	30617.8
733.953	30682.65
734.294	30515.2
734.635	30296.68
734.976	30520.62
735.317	30271.37
735.658	30297.58
735.999	30352.72
736.339	30361.08
736.68	30338.48
737.021	30073.63
737.361	30051.03
737.702	30303
738.042	30160.18
738.383	30116.11
738.723	30078.6
739.063	29969.9
739.404	30055.55
739.744	29851.49
740.084	29748.21
740.424	29854.2
740.764	29706.18
741.104	29755.67
741.444	29579.86
741.784	29598.61
742.124	29649.23
742.464	29551.16
742.804	29557.94
743.143	29460.09
743.483	29504.61
743.823	29338.28
744.162	29290.83
744.502	29369.02
744.841	29161.79
745.181	29345.06
745.52	29274.1
745.86	29254.89
746.199	29121.34
746.538	29220.09
746.877	29160.43
747.216	29144.84
747.556	29011.51
747.895	29026.43
748.234	28790.05
748.573	28938.74
748.911	28833.66
749.25	28817.84
749.589	28658.53
749.928	28757.96
750.267	28700.33
750.605	28618.3
750.944	28632.09
751.283	28575.59
751.621	28582.14
751.96	28322.04
752.298	28367.01
752.636	28416.95
752.975	28217.63
753.313	28126.34
753.651	28245.2
753.989	28075.94
754.327	28144.87
754.666	27913.01
755.004	27997.75
755.342	28048.37
755.679	28056.28
756.017	27718.21
756.355	27882.05
756.693	27629.85
757.031	27802.28
757.368	27485.68
757.706	27399.12
758.044	27511.21
758.381	27454.04
758.719	27433.02
759.056	27373.36
759.394	27238.68
759.731	27109.19
760.068	27200.94
760.405	27014.05
760.743	26881.85
761.08	27008.63
