Data from hue_22_FLMS001491_00086.txt Node
Date: Tue Feb 07 17:10:46 GMT 2017
User: dcchb
Spectrometer: FLMS00149
Trigger mode: 0
Integration Time (sec): 2.000000E-2
Scans to average: 10
Electric dark correction enabled: true
Nonlinearity correction enabled: false
Boxcar width: 0
XAxis mode: Wavelengths
Number of Pixels in Spectrum: 2048
>>>>>Begin Spectral Data<<<<<
341.393	-12.12
341.776	-12.12
342.16	-12.12
342.543	-62.74
342.927	-68.84
343.31	-72.91
343.693	-76.3
344.077	-63.64
344.46	-76.75
344.843	-46.24
345.226	-44.66
345.61	-31.55
345.993	-35.85
346.376	-2.63
346.759	8.22
347.142	50.7
347.525	48.45
347.908	59.07
348.291	88.44
348.674	92.51
349.057	103.13
349.44	117.14
349.823	158.27
350.206	170.02
350.588	205.5
350.971	211.15
351.354	235.11
351.737	248.21
352.119	254.09
352.502	251.6
352.884	292.73
353.267	280.08
353.65	320.53
354.032	314.2
354.414	311.49
354.797	330.47
355.179	316.01
355.562	315.33
355.944	336.8
356.326	334.31
356.709	333.41
357.091	342
357.473	343.35
357.855	340.19
358.238	330.7
358.62	350.36
359.002	344.26
359.384	345.39
359.766	354.88
360.148	351.04
360.53	349.45
360.912	336.57
361.294	354.2
361.676	357.36
362.057	325.73
362.439	345.16
362.821	321.21
363.203	325.05
363.584	336.8
363.966	346.97
364.348	317.82
364.729	304.03
365.111	319.17
365.493	328.44
365.874	324.14
366.256	296.57
366.637	332.28
367.019	332.51
367.4	323.24
367.781	337.48
368.163	325.95
368.544	339.51
368.925	338.15
369.306	311.71
369.688	320.98
370.069	325.27
370.45	310.13
370.831	347.65
371.212	335.9
371.593	327.99
371.974	309.46
372.355	325.05
372.736	329.57
373.117	324.82
373.498	341.54
373.879	322.11
374.26	309.46
374.641	327.76
375.021	323.47
375.402	313.52
375.783	328.66
376.163	339.74
376.544	340.64
376.925	335.9
377.305	330.7
377.686	325.73
378.066	327.76
378.447	345.61
378.827	326.18
379.208	319.17
379.588	315.33
379.968	352.84
380.349	332.96
380.729	336.8
381.109	337.93
381.489	341.77
381.87	326.63
382.25	355.56
382.63	351.71
383.01	351.49
383.39	360.3
383.77	363.47
384.15	339.96
384.53	342.22
384.91	393.29
385.29	349
385.67	361.66
386.049	354.88
386.429	361.66
386.809	363.47
387.189	344.93
387.568	339.06
387.948	361.66
388.328	357.14
388.707	386.74
389.087	358.27
389.466	370.24
389.846	377.25
390.225	367.76
390.605	380.19
390.984	375.22
391.363	363.92
391.743	375.89
392.122	378.83
392.501	390.81
392.881	386.97
393.26	392.39
393.639	389.23
394.018	393.29
394.397	397.81
394.776	383.35
395.155	372.5
395.534	394.2
395.913	402.79
396.292	408.21
396.671	420.86
397.05	400.3
397.429	394.88
397.808	414.99
398.186	405.95
398.565	394.2
398.944	391.49
399.323	424.25
399.701	402.11
400.08	417.93
400.458	410.02
400.837	426.06
401.215	433.29
401.594	413.63
401.972	433.29
402.351	441.2
402.729	431.71
403.107	433.07
403.486	425.84
403.864	428.55
404.242	439.85
404.62	448.89
404.999	437.59
405.377	441.88
405.755	433.29
406.133	443.46
406.511	437.36
406.889	451.82
407.267	442.56
407.645	467.64
408.023	464.48
408.401	465.38
408.779	491.6
409.156	460.19
409.534	463.8
409.912	481.88
410.29	474.65
410.667	478.94
411.045	477.36
411.422	487.98
411.8	496.34
412.178	475.1
412.555	488.66
412.933	504.48
413.31	505.83
413.687	506.06
414.065	527.3
414.442	503.12
414.819	504.93
415.197	518.94
415.574	524.36
415.951	518.49
416.328	532.5
416.705	529.11
417.082	544.7
417.46	539.51
417.837	541.77
418.214	534.08
418.591	535.21
418.967	561.65
419.344	565.04
419.721	548.54
420.098	528.21
420.475	571.82
420.852	570.69
421.228	560.52
421.605	583.12
421.982	572.5
422.358	571.6
422.735	578.6
423.111	570.69
423.488	589.67
423.864	574.08
424.241	595.78
424.617	603.01
424.994	596.91
425.37	606.62
425.746	594.65
426.123	600.29
426.499	624.02
426.875	604.59
427.251	612.05
427.627	606.4
428.003	647.53
428.379	622.44
428.756	654.08
429.132	652.72
429.507	640.75
429.883	668.09
430.259	677.58
430.635	662.89
431.011	680.29
431.387	693.85
431.763	687.07
432.138	687.98
432.514	691.82
432.89	710.8
433.265	727.52
433.641	704.7
434.016	714.42
434.392	741.53
434.767	719.84
435.143	763.91
435.518	763.45
435.894	760.74
436.269	760.74
436.644	773.85
437.02	752.83
437.395	793.96
437.77	790.35
438.145	784.7
438.52	793.28
438.895	803.68
439.271	830.8
439.646	835.77
440.021	816.11
440.395	808.2
440.77	807.07
441.145	830.57
441.52	838.71
441.895	847.75
442.27	853.85
442.645	844.81
443.019	822.89
443.394	824.24
443.769	862.66
444.143	864.92
444.518	866.95
444.892	891.36
445.267	896.11
445.641	897.91
446.016	899.27
446.39	902.89
446.764	893.85
447.139	915.54
447.513	913.51
447.887	905.82
448.262	903.34
448.636	923.45
449.01	953.96
449.384	944.69
449.758	962.09
450.132	965.03
450.506	956.22
450.88	984.24
451.254	999.38
451.628	990.12
452.002	990.57
452.376	1009.32
452.75	978.36
453.123	1005.93
453.497	1013.39
453.871	1039.83
454.244	1039.83
454.618	1040.06
454.992	1047.74
455.365	1053.16
455.739	1076.89
456.112	1108.08
456.486	1102.43
456.859	1127.29
457.232	1119.83
457.606	1125.25
457.979	1151.47
458.352	1184.01
458.725	1204.35
459.099	1210.9
459.472	1195.53
459.845	1221.3
460.218	1246.61
460.591	1249.77
460.964	1223.56
461.337	1275.53
461.71	1278.24
462.083	1289.99
462.456	1279.15
462.829	1283.21
463.201	1328.64
463.574	1346.72
463.947	1355.3
464.32	1388.75
464.692	1395.3
465.065	1400.95
465.438	1435.98
465.81	1463.32
466.183	1457.45
466.555	1477.56
466.928	1500.16
467.3	1489.09
467.672	1523.89
468.045	1527.95
468.417	1592.36
468.789	1567.5
469.161	1611.34
469.534	1606.37
469.906	1632.58
470.278	1666.48
470.65	1650.21
471.022	1699.93
471.394	1710.1
471.766	1776.54
472.138	1765.69
472.51	1818.34
472.882	1809.53
473.253	1855.4
473.625	1858.79
473.997	1924.78
474.369	1939.47
474.74	1949.86
475.112	1993.03
475.484	1991.9
475.855	2084.32
476.227	2096.07
476.598	2104.66
476.97	2150.31
477.341	2176.98
477.713	2250.42
478.084	2266.24
478.455	2338.1
478.827	2366.12
479.198	2412.68
479.569	2429.17
479.94	2523.18
480.311	2546.23
480.682	2586.91
481.053	2672.1
481.424	2687.7
481.795	2759.56
482.166	2733.57
482.537	2813.12
482.908	2887.47
483.279	2894.02
483.65	2986.67
484.021	3030.74
484.391	3075.71
484.762	3108.48
485.133	3146.22
485.503	3204.07
485.874	3289.72
486.244	3282.48
486.615	3379.66
486.985	3459.43
487.356	3532.2
487.726	3577.17
488.097	3649.03
488.467	3678.86
488.837	3651.06
489.207	3756.6
489.578	3843.6
489.948	3830.04
490.318	3975.57
490.688	3946.87
491.058	4042.92
491.428	4040.66
491.798	4126.98
492.168	4183.93
492.538	4219.18
492.908	4256.92
493.278	4340.54
493.648	4351.16
494.017	4424.83
494.387	4479.74
494.757	4517.25
495.126	4532.17
495.496	4604.94
495.866	4663.46
496.235	4703.01
496.605	4773.52
496.974	4750.92
497.344	4825.72
497.713	4888.32
498.082	4898.94
498.452	4938.94
498.821	4948.43
499.19	4984.36
499.559	5016.45
499.928	5056.45
500.298	5088.31
500.667	5165.6
501.036	5187.07
501.405	5173.51
501.774	5207.18
502.143	5259.38
502.512	5318.36
502.88	5359.27
503.249	5363.79
503.618	5339.61
503.987	5372.82
504.356	5442.2
504.724	5487.85
505.093	5477.23
505.462	5495.76
505.83	5548.87
506.199	5560.39
506.567	5692.82
506.936	5644.68
507.304	5735.53
507.672	5785.92
508.041	5744.11
508.409	5846.26
508.777	5889.65
509.145	5881.51
509.514	5919.25
509.882	5958.8
510.25	5918.57
510.618	6011.9
510.986	6036.76
511.354	6057.78
511.722	6109.75
512.09	6173.03
512.458	6171.9
512.826	6272.91
513.193	6187.04
513.561	6263.65
513.929	6269.75
514.297	6394.04
514.664	6349.3
515.032	6408.96
515.4	6392.46
515.767	6420.25
516.135	6467.71
516.502	6431.55
516.869	6541.61
517.237	6604.66
517.604	6533.92
517.972	6606.92
518.339	6643.07
518.706	6623.64
519.073	6679.91
519.44	6759.68
519.808	6779.34
520.175	6725.56
520.542	6829.51
520.909	6807.59
521.276	6856.85
521.643	6879
522.009	6917.42
522.376	7028.6
522.743	7047.36
523.11	7108.15
523.477	7095.27
523.843	7154.7
524.21	7277.18
524.577	7315.37
524.943	7284.19
525.31	7359.89
525.676	7403.51
526.043	7444.63
526.409	7443.96
526.776	7556.72
527.142	7601.47
527.508	7566.89
527.874	7689.15
528.241	7709.26
528.607	7700.9
528.973	7742.93
529.339	7798.52
529.705	7833.33
530.071	7902.7
530.437	7929.82
530.803	7986.09
531.169	8074.45
531.535	7980.67
531.901	8060.66
532.267	8165.29
532.632	8169.81
532.998	8189.02
533.364	8294.56
533.73	8270.15
534.095	8362.35
534.461	8337.04
534.826	8369.58
535.192	8436.93
535.557	8475.34
535.923	8502.46
536.288	8533.87
536.653	8624.26
537.019	8524.15
537.384	8560.54
537.749	8713.08
538.114	8672.63
538.479	8740.87
538.845	8793.07
539.21	8734.77
539.575	8801.44
539.94	8862.68
540.305	8869.46
540.67	8834.43
541.034	8918.27
541.399	8962.11
541.764	8963.92
542.129	9061.77
542.494	9051.6
542.858	9142.9
543.223	9106.74
543.587	9189.45
543.952	9184.02
544.316	9234.87
544.681	9259.28
545.045	9302.44
545.41	9373.85
545.774	9382.21
546.138	9472.15
546.503	9396.45
546.867	9439.84
547.231	9532.72
547.595	9605.26
547.959	9587.63
548.324	9677.12
548.688	9620.62
549.052	9671.69
549.416	9719.6
549.779	9761.86
550.143	9756.89
550.507	9820.84
550.871	9792.82
551.235	9837.79
551.599	9961.86
551.962	9904.46
552.326	9958.02
552.689	9996.43
553.053	10057.67
553.417	10007.73
553.78	10214.05
554.143	10154.17
554.507	10209.08
554.87	10146.03
555.234	10377.66
555.597	10297.67
555.96	10282.3
556.323	10310.1
556.686	10348.29
557.05	10395.74
557.413	10477.1
557.776	10418.57
558.139	10523.42
558.502	10531.79
558.865	10571.78
559.228	10535.85
559.59	10632.12
559.953	10664.66
560.316	10802.51
560.679	10795.96
561.041	10850.42
561.404	10905.11
561.767	10946.92
562.129	10922.06
562.492	10987.59
562.854	10982.62
563.217	11065.78
563.579	11045.67
563.941	11108.72
564.304	11212.22
564.666	11279.34
565.028	11285.66
565.39	11304.42
565.753	11358.2
566.115	11352.78
566.477	11454.25
566.839	11432.1
567.201	11573.79
567.563	11625.54
567.925	11614.47
568.287	11668.93
568.648	11640.23
569.01	11781.47
569.372	11813.56
569.734	11704.64
570.095	11938.98
570.457	11942.6
570.819	11982.59
571.18	12029.6
571.542	12070.5
571.903	12152.99
572.265	12147.56
572.626	12251.06
572.987	12263.94
573.349	12327.44
573.71	12383.71
574.071	12327.22
574.432	12529.7
574.794	12669.81
575.155	12636.59
575.516	12563.82
575.877	12793.65
576.238	12798.17
576.599	12879.52
576.96	12914.77
577.32	13052.4
577.681	13148.89
578.042	13256.46
578.403	13259.17
578.763	13358.83
579.124	13517.7
579.485	13616.45
579.845	13726.73
580.206	13810.8
580.566	13949.77
580.927	13961.53
581.287	14222.54
581.648	14257.11
582.008	14540.27
582.368	14610.55
582.728	14751.79
583.089	14868.62
583.449	15001.05
583.809	15219.12
584.169	15436.29
584.529	15598.54
584.889	15923.73
585.249	15912.66
585.609	16098.19
585.969	16358.52
586.329	16497.05
586.688	16806.65
587.048	16905.85
587.408	17153.31
587.768	17378.61
588.127	17595.78
588.487	17771.59
588.846	18143.56
589.206	18275.76
589.565	18541.97
589.925	18961.62
590.284	19139.24
590.643	19372
591.003	19765.21
591.362	20018.09
591.721	20255.37
592.08	20472.77
592.44	20837.05
592.799	21101
593.158	21486.07
593.517	21654.43
593.876	22186.17
594.235	22340.29
594.593	22643.33
594.952	22954.06
595.311	23220.27
595.67	23625
596.029	24076.06
596.387	24447.8
596.746	24611.64
597.104	24877.4
597.463	25252.08
597.822	25720.09
598.18	25923.24
598.538	26069.68
598.897	26692.72
599.255	26748.53
599.613	27288.63
599.972	27473.94
600.33	27888.17
600.688	27980.82
601.046	28256.97
601.404	28921.58
601.762	29142.37
602.12	29539.65
602.478	29676.59
602.836	30004.27
603.194	30293.07
603.552	30499.62
603.91	30756.11
604.268	31164.01
604.625	31479.03
604.983	31811.68
605.341	31954.72
605.698	32346.58
606.056	32615.27
606.413	32813.23
606.771	33164.41
607.128	33474.46
607.485	33670.61
607.843	33890.04
608.2	34325.28
608.557	34686.86
608.914	34751.04
609.272	35136.56
609.629	35510.11
609.986	35826.49
610.343	35875.98
610.7	36193.48
611.057	36417.21
611.414	36614.26
611.771	36817.87
612.127	36985.78
612.484	37176.51
612.841	37600.23
613.198	37637.29
613.554	37883.16
613.911	38190.27
614.267	38185.52
614.624	38506.42
614.98	38787.77
615.337	39026.4
615.693	39201.09
616.05	39249.9
616.406	39702.32
616.762	39637.01
617.118	39881.52
617.475	39984.8
617.831	40361.74
618.187	40403.54
618.543	40617.32
618.899	40845.11
619.255	40953.36
619.611	41029.74
619.967	41261.82
620.323	41444.87
620.678	41564.64
621.034	41588.82
621.39	41622.27
621.746	41733.9
622.101	42215.92
622.457	42027.91
622.812	42119.2
623.168	42485.97
623.523	42504.28
623.879	42731.84
624.234	42502.24
624.589	42598.06
624.945	42868.34
625.3	42850.94
625.655	42973.19
626.01	42967.54
626.365	43159.85
626.72	43142.23
627.075	43251.15
627.43	43235.78
627.785	43316.46
628.14	43442.33
628.495	43565.27
628.85	43624.02
629.205	43496.12
629.559	43788.09
629.914	43687.75
630.269	43705.38
630.623	43765.04
630.978	43676
631.332	44035.54
631.687	44149.66
632.041	43914.86
632.396	43943.56
632.75	43899.04
633.104	43996.44
633.459	43979.49
633.813	43880.74
634.167	43901.53
634.521	44077.12
634.875	44005.93
635.229	44007.52
635.583	43898.37
635.937	44019.27
636.291	44003
636.645	43922.77
636.999	43799.16
637.352	44115.53
637.706	43999.83
638.06	44051.36
638.413	44090.68
638.767	43892.72
639.121	44045.25
639.474	43876.45
639.828	44011.36
640.181	44044.35
640.534	44030.34
640.888	43853.62
641.241	43769.1
641.594	43890.23
641.947	44048.64
642.301	43843
642.654	43857.46
643.007	44034.86
643.36	43899.72
643.713	43782.21
644.066	44009.32
644.419	43885.03
644.771	43591.25
645.124	43255.44
645.477	43197.82
645.83	42923.7
646.182	42861.78
646.535	42673.76
646.888	42796.47
647.24	42710.37
647.593	42756.7
647.945	42891.16
648.298	42590.83
648.65	42596.48
649.002	42438.29
649.355	42720.77
649.707	42627.89
650.059	42793.31
650.411	43177.48
650.763	43216.35
651.115	43588.77
651.467	43511.03
651.819	43455.44
652.171	43474.42
652.523	43345.61
652.875	43235.56
653.227	43196.46
653.578	43541.09
653.93	43440.75
654.282	43229.46
654.633	43100.19
654.985	43244.15
655.337	43264.26
655.688	43292.28
656.039	43473.52
656.391	42954.21
656.742	43226.07
657.094	43160.76
657.445	43327.99
657.796	43346.06
658.147	43103.81
658.498	43105.39
658.849	43179.97
659.2	43173.19
659.551	43004.15
659.902	43193.07
660.253	43081.44
660.604	43318.04
660.955	42892.06
661.306	43168.44
661.656	43050.25
662.007	43093.19
662.358	43144.04
662.708	43142
663.059	43130.7
663.409	42803.03
663.76	43153.53
664.11	43123.47
664.461	43098.39
664.811	43175.9
665.161	43127.99
665.511	42815.91
665.862	43025.39
666.212	43093.41
666.562	43187.42
666.912	42976.36
667.262	43037.15
667.612	42966.64
667.962	43044.83
668.312	42937.49
668.662	43113.53
669.011	42894.1
669.361	42914.89
669.711	42747.89
670.06	42784.04
670.41	42817.49
670.76	42807.55
671.109	42866.08
671.459	42632.86
671.808	42826.98
672.157	42965.51
672.507	42618.85
672.856	42728.45
673.205	42721.22
673.554	42672.86
673.904	42717.83
674.253	42846.42
674.602	42642.81
674.951	42154.68
675.3	41940.9
675.649	42557.84
675.998	42550.15
676.346	42521
676.695	42639.19
677.044	42319.42
677.393	42519.19
677.741	42462.92
678.09	42469.25
678.438	42318.52
678.787	42525.75
679.135	42340.44
679.484	42250.27
679.832	42255.7
680.181	42177.05
680.529	42147.68
680.877	42095.48
681.225	42090.96
681.573	42211.18
681.922	41901.81
682.27	42031.3
682.618	41984.07
682.966	41947.68
683.314	41811.87
683.661	41665.88
684.009	41593.34
684.357	41551.53
684.705	41524.64
685.053	41444.42
685.4	41421.37
685.748	41343.86
686.095	41358.55
686.443	41131.66
686.79	41122.62
687.138	41207.14
687.485	41163.07
687.832	41030.64
688.18	41111.77
688.527	40894.6
688.874	40860.71
689.221	40738.67
689.568	40585.01
689.915	40474.95
690.262	40545.23
690.609	40392.92
690.956	40391.11
691.303	40304.56
691.65	40032.03
691.997	40049.65
692.344	39890.79
692.69	39808.08
693.037	39878.81
693.383	39538.93
693.73	39808.3
694.077	39569.67
694.423	39394.08
694.769	39401.99
695.116	39293.74
695.462	39315.89
695.808	39045.84
696.155	39208.55
696.501	38873.64
696.847	38959.74
697.193	38568.56
697.539	38811.04
697.885	38620.09
698.231	38357.49
698.577	38395.23
698.923	38304.39
699.269	38133.09
699.614	37985.3
699.96	37902.59
700.306	37874.12
700.651	37772.65
700.997	37774.23
701.342	37589.83
701.688	37477.07
702.033	37431.19
702.379	37457.18
702.724	37228.26
703.069	37387.12
703.415	37063.07
703.76	37013.12
704.105	37111.65
704.45	36830.98
704.795	36673.02
705.14	36639.8
705.485	36590.54
705.83	36507.15
706.175	36555.51
706.52	36402.07
706.865	36225.35
707.209	36243.2
707.554	36111.68
707.899	36149.64
708.243	35944.22
708.588	35905.58
708.932	35642.54
709.277	35659.26
709.621	35673.27
709.966	35426.27
710.31	35559.15
710.654	35255.43
710.998	35287.74
711.342	35120.07
711.687	35223.79
712.031	35069.22
712.375	34952.61
712.719	34996.23
713.063	34936.57
713.407	35089.33
713.75	34757.36
714.094	34854.31
714.438	34690.92
714.782	34650.93
715.125	34459.07
715.469	34552.17
715.812	34385.85
716.156	34174.55
716.499	34242.35
716.843	34116.02
717.186	34165.97
717.53	34229.02
717.873	34190.15
718.216	34089.81
718.559	34009.81
718.902	33746.77
719.246	33792.64
719.589	33719.65
719.932	33599.88
720.275	33469.71
720.617	33647.79
720.96	33492.76
721.303	33572.76
721.646	33418.87
721.989	33229.72
722.331	33390.17
722.674	33277.18
723.016	33290.96
723.359	33113.11
723.701	33198.08
724.044	33110.4
724.386	32990.86
724.729	33074.02
725.071	32868.6
725.413	32870.63
725.755	32834.7
726.097	32692.56
726.439	32560.13
726.782	32686.91
727.124	32707.02
727.465	32734.14
727.807	32486.69
728.149	32541.6
728.491	32286.69
728.833	32450.3
729.175	32282.4
729.516	32146.13
729.858	32168.28
730.199	32088.51
730.541	32197.43
730.882	32077.43
731.224	32039.92
731.565	31827.72
731.906	31839.93
732.248	31939.36
732.589	31682.87
732.93	31724.45
733.271	31601.74
733.612	31703.43
733.953	31614.62
734.294	31607.39
734.635	31531.46
734.976	31537.33
735.317	31450.11
735.658	31400.39
735.999	31484.45
736.339	31399.71
736.68	31427.28
737.021	31370.56
737.361	31202.43
737.702	31308.19
738.042	31173.73
738.383	31151.36
738.723	31167.4
739.063	30945.26
739.404	31171.47
739.744	30856.9
740.084	30823.46
740.424	30808.09
740.764	30619.84
741.104	30909.78
741.444	30784.36
741.784	30550.92
742.124	30703.68
742.464	30576.46
742.804	30610.35
743.143	30470.7
743.483	30472.5
743.823	30348.44
744.162	30343.47
744.502	30340.08
744.841	30269.35
745.181	30345.28
745.52	30169.46
745.86	30180.53
746.199	30164.49
746.538	30145.51
746.877	30181.21
747.216	30187.77
747.556	30036.58
747.895	30077.94
748.234	29988.67
748.573	29852.41
748.911	29800.66
749.25	29915
749.589	29810.83
749.928	29762.01
750.267	29741
750.605	29726.99
750.944	29620.1
751.283	29471.17
751.621	29535.81
751.96	29359.31
752.298	29362.93
752.636	29399.09
752.975	29274.57
753.313	29099.21
753.651	29140.56
753.989	29061.47
754.327	28971.75
754.666	28861.02
755.004	28978.31
755.342	28972.66
755.679	28884.97
756.017	28737.18
756.355	28804.53
756.693	28656.96
757.031	28576.96
757.368	28475.49
757.706	28461.71
758.044	28365.67
758.381	28400.24
758.719	28161.15
759.056	28366.34
