Data from hue_22_FLMS001491_00025.txt Node
Date: Tue Feb 07 17:09:52 GMT 2017
User: dcchb
Spectrometer: FLMS00149
Trigger mode: 0
Integration Time (sec): 2.000000E-2
Scans to average: 10
Electric dark correction enabled: true
Nonlinearity correction enabled: false
Boxcar width: 0
XAxis mode: Wavelengths
Number of Pixels in Spectrum: 2048
>>>>>Begin Spectral Data<<<<<
341.393	-12.63
341.776	-12.63
342.16	-12.63
342.543	-59.41
342.927	-61.67
343.31	-63.47
343.693	-79.74
344.077	-58.73
344.46	-59.63
344.843	-42.46
345.226	-60.99
345.61	-25.06
345.993	-7.2
346.376	5.45
346.759	0.03
347.142	15.85
347.525	39.12
347.908	54.94
348.291	73.7
348.674	84.77
349.057	123.41
349.44	127.48
349.823	151.66
350.206	182.85
350.588	216.52
350.971	206.58
351.354	225.79
351.737	244.54
352.119	253.81
352.502	255.84
352.884	283.86
353.267	299.68
353.65	306.69
354.032	307.36
354.414	324.31
354.797	335.16
355.179	333.58
355.562	357.76
355.944	335.84
356.326	336.74
356.709	342.84
357.091	352.34
357.473	345.33
357.855	326.57
358.238	327.48
358.62	348.49
359.002	332.45
359.384	334.48
359.766	358.21
360.148	365.44
360.53	356.18
360.912	343.52
361.294	358.21
361.676	349.85
362.057	335.39
362.439	314.82
362.821	323.18
363.203	331.09
363.584	313.47
363.966	327.93
364.348	321.83
364.729	354.6
365.111	346.46
365.493	340.81
365.874	328.83
366.256	328.83
366.637	336.97
367.019	305.33
367.4	307.14
367.781	330.87
368.163	308.72
368.544	290.87
368.925	321.15
369.306	334.48
369.688	299.46
370.069	329.74
370.45	311.66
370.831	312.11
371.212	302.62
371.593	328.16
371.974	319.79
372.355	340.81
372.736	321.83
373.117	330.19
373.498	316.18
373.879	335.16
374.26	314.37
374.641	329.74
375.021	330.42
375.402	331.09
375.783	319.79
376.163	319.57
376.544	327.7
376.925	346.01
377.305	329.96
377.686	355.05
378.066	327.03
378.447	340.13
378.827	331.32
379.208	358.66
379.588	337.42
379.968	340.81
380.349	327.03
380.729	340.81
381.109	334.71
381.489	350.98
381.87	329.96
382.25	335.39
382.63	339.68
383.01	332.9
383.39	364.31
383.77	344.2
384.15	347.36
384.53	336.06
384.91	357.08
385.29	360.92
385.67	338.32
386.049	374.71
386.429	358.66
386.809	352.11
387.189	358.44
387.568	375.39
387.948	363.18
388.328	354.14
388.707	365.89
389.087	372.45
389.466	378.32
389.846	355.05
390.225	384.88
390.605	367.93
390.984	373.58
391.363	362.05
391.743	412.9
392.122	390.3
392.501	394.37
392.881	375.61
393.26	370.19
393.639	393.92
394.018	365.89
394.397	387.14
394.776	361.83
395.155	395.5
395.534	373.13
395.913	388.94
396.292	370.19
396.671	415.38
397.05	383.52
397.429	383.3
397.808	400.47
398.186	400.7
398.565	397.76
398.944	420.58
399.323	377.19
399.701	411.32
400.08	390.07
400.458	414.71
400.837	393.69
401.215	408.15
401.594	396.4
401.972	413.8
402.351	410.86
402.729	399.11
403.107	397.53
403.486	416.29
403.864	426.91
404.242	414.25
404.62	424.2
404.999	431.66
405.377	426.46
405.755	439.11
406.133	408.83
406.511	429.17
406.889	426.91
407.267	437.53
407.645	441.37
408.023	445.44
408.401	442.5
408.779	451.77
409.156	449.06
409.534	452.22
409.912	461.03
410.29	469.62
410.667	446.34
411.045	458.1
411.422	469.39
411.8	454.03
412.178	483.63
412.555	474.37
412.933	447.93
413.31	472.78
413.687	483.41
414.065	476.63
414.442	508.04
414.819	493.35
415.197	482.5
415.574	501.26
415.951	498.77
416.328	520.01
416.705	495.61
417.082	512.78
417.46	523.63
417.837	512.11
418.214	517.98
418.591	523.86
418.967	532.22
419.344	523.86
419.721	528.83
420.098	533.12
420.475	531.54
420.852	514.14
421.228	549.17
421.605	520.47
421.982	531.31
422.358	555.04
422.735	549.39
423.111	562.05
423.488	539
423.864	566.57
424.241	569.73
424.617	571.09
424.994	576.74
425.37	571.99
425.746	590.52
426.123	575.83
426.499	587.58
426.875	579.9
427.251	607.02
427.627	579.67
428.003	597.3
428.379	598.2
428.756	601.37
429.132	589.84
429.507	605.66
429.883	622.84
430.259	639.79
430.635	628.49
431.011	624.87
431.387	637.07
431.763	657.19
432.138	636.17
432.514	665.55
432.89	655.6
433.265	691.99
433.641	665.1
434.016	656.96
434.392	681.82
434.767	683.4
435.143	672.1
435.518	711.2
435.894	704.19
436.269	693.34
436.644	715.04
437.02	711.2
437.395	733.57
437.77	705.09
438.145	742.61
438.52	724.98
438.895	729.05
439.271	758.43
439.646	761.82
440.021	743.51
440.395	749.61
440.77	759.1
441.145	759.78
441.52	758.43
441.895	789.39
442.27	782.61
442.645	776.05
443.019	774.7
443.394	814.02
443.769	804.75
444.143	778.99
444.518	816.5
444.892	786.9
445.267	793.68
445.641	807.46
446.016	810.18
446.39	844.3
446.764	842.72
447.139	811.98
447.513	822.83
447.887	844.75
448.262	852.66
448.636	829.84
449.01	834.58
449.384	874.81
449.758	858.76
450.132	854.47
450.506	871.87
450.88	878.88
451.254	875.94
451.628	877.29
452.002	879.1
452.376	894.02
452.75	891.76
453.123	902.15
453.497	907.58
453.871	928.59
454.244	929.27
454.618	938.99
454.992	952.55
455.365	954.81
455.739	978.53
456.112	983.51
456.486	984.64
456.859	1008.36
457.232	983.51
457.606	1006.33
457.979	1014.46
458.352	1042.49
458.725	1070.73
459.099	1065.76
459.472	1065.31
459.845	1063.73
460.218	1089.72
460.591	1120.68
460.964	1117.51
461.337	1143.73
461.71	1145.53
462.083	1153.44
462.456	1175.36
462.829	1156.16
463.201	1187.12
463.574	1201.35
463.947	1195.03
464.32	1230.28
464.692	1232.76
465.065	1258.98
465.438	1244.52
465.81	1279.77
466.183	1265.08
466.555	1292.2
466.928	1296.72
467.3	1305.76
467.672	1340.56
468.045	1386.66
468.417	1338.07
468.789	1383.49
469.161	1379.2
469.534	1408.35
469.906	1421.23
470.278	1450.39
470.65	1470.05
471.022	1521.8
471.394	1529.48
471.766	1524.06
472.138	1550.95
472.51	1607.22
472.882	1593.21
473.253	1614
473.625	1641.12
473.997	1649.02
474.369	1688.12
474.74	1757.72
475.112	1735.58
475.484	1766.99
475.855	1806.31
476.227	1851.05
476.598	1867.1
476.97	1870.94
477.341	1919.53
477.713	1966.53
478.084	2002.69
478.455	2028.9
478.827	2038.84
479.198	2100.76
479.569	2145.73
479.94	2188.45
480.311	2204.72
480.682	2253.3
481.053	2298.5
481.424	2355.22
481.795	2364.94
482.166	2447.42
482.537	2437.25
482.908	2503.24
483.279	2522.45
483.65	2542.33
484.021	2633.63
484.391	2660.75
484.762	2723.12
485.133	2719.28
485.503	2802.67
485.874	2850.35
486.244	2906.17
486.615	2938.48
486.985	2971.93
487.356	3037.91
487.726	3062.09
488.097	3154.97
488.467	3122.43
488.837	3236.33
489.207	3279.49
489.578	3331.24
489.948	3356.1
490.318	3431.8
490.688	3461.63
491.058	3504.79
491.428	3563.55
491.798	3609.42
492.168	3656.88
492.538	3691
492.908	3749.31
493.278	3787.05
493.648	3803.09
494.017	3822.75
494.387	3885.58
494.757	3935.74
495.126	3979.36
495.496	3970.09
495.866	4055.97
496.235	4066.59
496.605	4077.89
496.974	4157.66
497.344	4201.05
497.713	4222.97
498.082	4220.71
498.452	4273.59
498.821	4314.04
499.19	4379.35
499.559	4384.55
499.928	4414.6
500.298	4474.03
500.667	4554.71
501.036	4499.8
501.405	4554.26
501.774	4568.27
502.143	4575.28
502.512	4567.37
502.88	4606.91
503.249	4655.73
503.618	4674.03
503.987	4706.12
504.356	4736.4
504.724	4735.72
505.093	4789.28
505.462	4779.11
505.83	4819.56
506.199	4854.59
506.567	4932.33
506.936	4944.08
507.304	5017.98
507.672	5002.83
508.041	4982.95
508.409	5036.73
508.777	5079.67
509.145	5081.48
509.514	5114.92
509.882	5192.43
510.25	5147.69
510.618	5195.15
510.986	5209.83
511.354	5248.93
511.722	5279.66
512.09	5352.66
512.458	5297.52
512.826	5293.45
513.193	5400.34
513.561	5391.07
513.929	5417.74
514.297	5484.63
514.664	5454.57
515.032	5486.89
515.4	5551.07
515.767	5523.72
516.135	5572.99
516.502	5517.17
516.869	5629.48
517.237	5655.25
517.604	5622.71
517.972	5708.35
518.339	5745.87
518.706	5674
519.073	5710.16
519.44	5722.59
519.808	5802.14
520.175	5849.59
520.542	5897.27
520.909	5903.15
521.276	5888.69
521.643	5953.54
522.009	5957.16
522.376	6012.07
522.743	5978.63
523.11	6111.73
523.477	6122.13
523.843	6119.42
524.21	6177.94
524.577	6195.8
524.943	6290.26
525.31	6289.35
525.676	6309.01
526.043	6467.65
526.409	6414.77
526.776	6451.38
527.142	6460.65
527.508	6489.8
527.874	6543.59
528.241	6541.33
528.607	6582.45
528.973	6645.28
529.339	6643.92
529.705	6689.57
530.071	6736.12
530.437	6789.23
530.803	6820.19
531.169	6815.89
531.535	6769.57
531.901	6897.93
532.267	6943.12
532.632	6941.54
532.998	7011.6
533.364	7050.24
533.73	6978.38
534.095	7079.62
534.461	7105.83
534.826	7142.21
535.192	7159.16
535.557	7214.08
535.923	7233.96
536.288	7211.14
536.653	7245.71
537.019	7290.46
537.384	7348.31
537.749	7320.29
538.114	7388.08
538.479	7333.17
538.845	7363.22
539.21	7425.37
539.575	7444.35
539.94	7544.01
540.305	7527.51
540.67	7533.84
541.034	7585.37
541.399	7594.63
541.764	7616.1
542.129	7720.96
542.494	7682.76
542.858	7761.18
543.223	7828.3
543.587	7830.33
543.952	7785.36
544.316	7901.52
544.681	7900.16
545.045	7950.33
545.41	7984.9
545.774	7981.06
546.138	8094.96
546.503	8045.92
546.867	8011.34
547.231	8174.28
547.595	8150.55
547.959	8195.29
548.324	8225.57
548.688	8235.97
549.052	8255.18
549.416	8251.56
549.779	8324.1
550.143	8324.56
550.507	8380.6
550.871	8386.02
551.235	8368.17
551.599	8479.35
551.962	8431.9
552.326	8494.04
552.689	8473.93
553.053	8539.24
553.417	8542.63
553.78	8713.7
554.143	8637.77
554.507	8674.38
554.87	8725.45
555.234	8830.53
555.597	8720.25
555.96	8731.78
556.323	8799.8
556.686	8855.16
557.05	8906.46
557.413	8873.92
557.776	8878.66
558.139	9017.19
558.502	8997.31
558.865	9039.11
559.228	9103.52
559.59	9141.48
559.953	9057.87
560.316	9182.61
560.679	9177.41
561.041	9274.81
561.404	9258.09
561.767	9303.74
562.129	9310.29
562.492	9375.6
562.854	9362.72
563.217	9343.96
563.579	9455.15
563.941	9509.16
564.304	9451.31
564.666	9509.83
565.028	9630.96
565.39	9601.36
565.753	9734.69
566.115	9733.33
566.477	9702.6
566.839	9750.96
567.201	9755.93
567.563	9783.5
567.925	9915.25
568.287	9977.39
568.648	9966.77
569.01	10016.26
569.372	10083.6
569.734	10034.11
570.095	10159.31
570.457	10175.35
570.819	10176.94
571.18	10183.26
571.542	10238.63
571.903	10353.88
572.265	10348.68
572.626	10444.73
572.987	10425.97
573.349	10471.84
573.71	10588.68
574.071	10604.95
574.432	10640.88
574.794	10779.63
575.155	10783.25
575.516	10781.44
575.877	10921.32
576.238	10948.21
576.599	11013.52
576.96	11086.74
577.32	11191.37
577.681	11244.25
578.042	11367.41
578.403	11437.69
578.763	11547.07
579.124	11599.05
579.485	11763.11
579.845	11798.59
580.206	11933.05
580.566	12018.47
580.927	12108.64
581.287	12282.64
581.648	12353.15
582.008	12550.43
582.368	12615.06
582.728	12808.28
583.089	12887.82
583.449	13090.98
583.809	13287.36
584.169	13475.15
584.529	13513.8
584.889	13870.62
585.249	13992.2
585.609	14059.32
585.969	14365.07
586.329	14486.2
586.688	14687.33
587.048	14965.06
587.408	15193.53
587.768	15398.49
588.127	15654.98
588.487	15786.96
588.846	16137.68
589.206	16321.86
589.565	16561.4
589.925	16936.98
590.284	17099.24
590.643	17455.61
591.003	17717.53
591.362	18053.11
591.721	18140.79
592.08	18510.28
592.44	18944.16
592.799	19134.44
593.158	19365.17
593.517	19742.56
593.876	20016
594.235	20301.64
594.593	20618.24
594.952	20819.82
595.311	21155.86
595.67	21470.2
596.029	21932.56
596.387	22230.18
596.746	22526.44
597.104	22775.47
597.463	23102.7
597.822	23466.53
598.18	23766.86
598.538	24046.85
598.897	24561.87
599.255	24557.57
599.613	25351
599.972	25410.21
600.33	25742.18
600.688	26004.77
601.046	26385.32
601.404	26789.83
601.762	27054.68
602.12	27430.49
602.478	27691.96
602.836	27974.43
603.194	28225.5
603.552	28604.25
603.91	28602.44
604.268	29162.43
604.625	29353.61
604.983	29658.23
605.341	29787.72
605.698	30182.96
606.056	30608.49
606.413	30756.96
606.771	30989.04
607.128	31342.03
607.485	31555.36
607.843	31723.26
608.2	32138.17
608.557	32646.4
608.914	32689.79
609.272	32924.13
609.629	33323.22
609.986	33624.91
610.343	33680.27
610.7	34053.14
611.057	34227.6
611.414	34419.91
611.771	34541.04
612.127	34849.96
612.484	35199.33
612.841	35446.1
613.198	35440
613.554	35701.46
613.911	35952.08
614.267	36142.81
614.624	36250.37
614.98	36611.72
615.337	36886.29
615.693	36931.94
616.05	37122.67
616.406	37498.48
616.762	37556.55
617.118	37625.48
617.475	37836.32
617.831	38092.81
618.187	38175.97
618.543	38395.63
618.899	38726.24
619.255	38672.91
619.611	38817.09
619.967	39164.87
620.323	39270.86
620.678	39315.15
621.034	39427.69
621.39	39481.25
621.746	39557.41
622.101	40087.34
622.457	39716.05
622.812	40023.83
623.168	40248.69
623.523	40260.89
623.879	40532.75
624.234	40517.38
624.589	40546.53
624.945	40608.68
625.3	40703.59
625.655	40881.21
626.01	40965.05
626.365	41108.55
626.72	41048.44
627.075	41071.04
627.43	41225.16
627.785	41196.69
628.14	41418.37
628.495	41464.02
628.85	41391.93
629.205	41396.45
629.559	41745.15
629.914	41458.37
630.269	41733.62
630.623	41509.22
630.978	41710.8
631.332	41807.74
631.687	41940.85
632.041	41866.95
632.396	41869.89
632.75	41892.03
633.104	42002.31
633.459	41840.28
633.813	41899.49
634.167	41943.56
634.521	41920.51
634.875	42033.73
635.229	42062.43
635.583	42010.45
635.937	41947.85
636.291	42027.4
636.645	41949.43
636.999	42020.17
637.352	42102.65
637.706	41921.41
638.06	42149.65
638.413	41998.25
638.767	41862.43
639.121	41966.61
639.474	41810.68
639.828	41839.38
640.181	41877.35
640.534	42124.8
640.888	41895.88
641.241	41723.22
641.594	41857.46
641.947	41910.56
642.301	41806.84
642.654	41969.32
643.007	41929.1
643.36	41919.6
643.713	41913.28
644.066	41963.22
644.419	41678.71
644.771	41624.02
645.124	41147.87
645.477	40994.43
645.83	40919.18
646.182	40792.85
646.535	40845.96
646.888	40826.75
647.24	40664.04
647.593	40899.52
647.945	40801.67
648.298	40678.51
648.65	40493.65
649.002	40480.09
649.355	40565.29
649.707	40675.12
650.059	40741.33
650.411	41196.69
650.763	41230.36
651.115	41640.52
651.467	41468.09
651.819	41349.45
652.171	41400.3
652.523	41236.68
652.875	41394.87
653.227	41229.9
653.578	41484.59
653.93	41451.59
654.282	41255.89
654.633	41376.57
654.985	41219.96
655.337	41302.45
655.688	41299.73
656.039	41440.97
656.391	41245.27
656.742	41267.64
657.094	41274.88
657.445	41401.88
657.796	41331.6
658.147	41195.1
658.498	41204.82
658.849	41294.31
659.2	41279.85
659.551	41070.59
659.902	41251.82
660.253	41295.89
660.604	41338.6
660.955	40942.91
661.306	41137.93
661.656	41300.64
662.007	41231.94
662.358	41090.25
662.708	41188.55
663.059	41256.12
663.409	40909.91
663.76	41314.42
664.11	41109.91
664.461	41257.93
664.811	41227.42
665.161	41123.92
665.511	41054.77
665.862	41105.84
666.212	41182.45
666.562	41101.32
666.912	41004.6
667.262	41083.47
667.612	41099.29
667.962	41097.25
668.312	40954.21
668.662	41165.05
669.011	41074.65
669.361	41050.47
669.711	40979.29
670.06	40948.1
670.41	40901.33
670.76	40803.48
671.109	40971.38
671.459	40858.61
671.808	40894.77
672.157	41118.72
672.507	40685.06
672.856	40681.22
673.205	40879.86
673.554	40889.12
673.904	40738.84
674.253	41011.61
674.602	40921.21
674.951	40389.25
675.3	40149.48
675.649	40686.19
675.998	40772.97
676.346	40684.16
676.695	40745.85
677.044	40525.74
677.393	40534.78
677.741	40571.84
678.09	40593.54
678.438	40430.38
678.787	40518.74
679.135	40562.13
679.484	40349.02
679.832	40469.25
680.181	40180.44
680.529	40407.55
680.877	40260.66
681.225	40160.78
681.573	40441
681.922	40215.02
682.27	40030.84
682.618	40112.42
682.966	39965.53
683.314	40098.18
683.661	39753.33
684.009	39722.6
684.357	39676.05
684.705	39626.78
685.053	39670.85
685.4	39628.59
685.748	39314.02
686.095	39454.13
686.443	39279.9
686.79	39309.73
687.138	39299.11
687.485	39284.87
687.832	39258.21
688.18	39223.86
688.527	38950.87
688.874	38991.09
689.221	38863.87
689.568	38780.25
689.915	38679.24
690.262	38781.16
690.609	38628.84
690.956	38448.51
691.303	38521.5
691.65	38395.85
691.997	38168.29
692.344	38078.35
692.69	37987.28
693.037	38065.24
693.383	37784.12
693.73	38039.71
694.077	37735.99
694.423	37778.02
694.769	37534.63
695.116	37490.79
695.462	37415.77
695.808	37343.68
696.155	37422.1
696.501	37203.34
696.847	37141.2
697.193	36790.93
697.539	37055.1
697.885	36764.03
698.231	36733.75
698.577	36663.47
698.923	36683.81
699.269	36345.74
699.614	36203.14
699.96	36422.12
700.306	36346.87
700.651	36022.81
700.997	36111.85
701.342	35957.27
701.688	35776.71
702.033	35712.99
702.379	35724.29
702.724	35581.47
703.069	35748.24
703.415	35385.31
703.76	35330.4
704.105	35315.94
704.45	35276.61
704.795	35173.34
705.14	35004.98
705.485	34933.35
705.83	34922.05
706.175	34880.02
706.52	34769.74
706.865	34557.76
707.209	34553.24
707.554	34442.29
707.899	34496.3
708.243	34294.04
708.588	34264.44
708.932	34140.37
709.277	34115.74
709.621	34134.72
709.966	33920.04
710.31	33872.81
710.654	33612.93
710.998	33717.79
711.342	33744.23
711.687	33624
712.031	33482.09
712.375	33275.09
712.719	33541.97
713.063	33349.66
713.407	33353.5
713.75	33242.09
714.094	33245.48
714.438	33049.33
714.782	33110.8
715.125	33012.04
715.469	33054.75
715.812	32887.3
716.156	32656.8
716.499	32784.25
716.843	32742.67
717.186	32620.41
717.53	32786.51
717.873	32704.71
718.216	32617.93
718.559	32476.46
718.902	32235.56
719.246	32324.15
719.589	32222.01
719.932	32098.39
720.275	32170.48
720.617	31991.28
720.96	32083.7
721.303	31999.19
721.646	31996.93
721.989	31913.99
722.331	31871.73
722.674	31650.72
723.016	31808.23
723.359	31511.97
723.701	31779.31
724.044	31542.25
724.386	31330.5
724.729	31506.54
725.071	31264.97
725.413	31398.75
725.755	31407.56
726.097	31255.48
726.439	31055.26
726.782	31117.18
727.124	31218.87
727.465	30984.98
727.807	31069.72
728.149	30891.87
728.491	30869.73
728.833	30928.71
729.175	30857.52
729.516	30716.96
729.858	30752.44
730.199	30680.13
730.541	30697.3
730.882	30588.83
731.224	30767.58
731.565	30448.95
731.906	30454.82
732.248	30507.25
732.589	30283.53
732.93	30268.84
733.271	30281.49
733.612	30239.01
733.953	30375.5
734.294	30149.74
734.635	30125.56
734.976	30171.89
735.317	30005.34
735.658	29996.53
735.999	30023.87
736.339	29829.07
736.68	30044.66
737.021	29914.5
737.361	29747.27
737.702	30035.85
738.042	29845.57
738.383	29646.93
738.723	29743.43
739.063	29700.04
739.404	29599.7
739.744	29620.27
740.084	29635.18
740.424	29470.44
740.764	29460.04
741.104	29430.21
741.444	29359.93
741.784	29241.29
742.124	29489.65
742.464	29399.48
742.804	29218.24
743.143	29229.99
743.483	29184.35
743.823	28959.94
744.162	29106.16
744.502	29008.76
744.841	28987.06
745.181	29040.17
745.52	28925.82
745.86	28950.91
746.199	28864.58
746.538	28723.57
746.877	28896.44
747.216	28791.59
747.556	28719.73
747.895	28643.12
748.234	28660.97
748.573	28620.29
748.911	28577.36
749.25	28479.05
749.589	28314.76
749.928	28439.05
750.267	28500.75
750.605	28405.16
750.944	28223.24
751.283	28160.19
751.621	28325.84
751.96	28075.67
752.298	28053.3
752.636	28113.41
752.975	28003.36
753.313	27887.43
753.651	28039.97
753.989	27680.2
754.327	27736.25
754.666	27618.74
755.004	27691.5
755.342	27704.16
755.679	27720.66
756.017	27477.5
756.355	27434.79
756.693	27442.02
757.031	27399.76
757.368	27212.19
757.706	27117.73
758.044	27058.98
758.381	27223.72
758.719	27113.44
759.056	27109.37
759.394	26989.6
759.731	26780.79
760.068	26723.17
