Data from hue_280_FLMS001491_00100.txt Node
Date: Tue Feb 07 15:56:09 GMT 2017
User: dcchb
Spectrometer: FLMS00149
Trigger mode: 0
Integration Time (sec): 2.000000E-2
Scans to average: 10
Electric dark correction enabled: true
Nonlinearity correction enabled: false
Boxcar width: 0
XAxis mode: Wavelengths
Number of Pixels in Spectrum: 2048
>>>>>Begin Spectral Data<<<<<
341.393	-4.28
341.776	-4.28
342.16	-4.28
342.543	-56.48
342.927	-59.65
343.31	-76.82
343.693	-55.58
344.077	-64.39
344.46	-57.16
344.843	-43.6
345.226	-31.62
345.61	-30.72
345.993	-22.36
346.376	-14.45
346.759	-14.22
347.142	30.75
347.525	46.79
347.908	52.44
348.291	75.72
348.674	84.53
349.057	120.69
349.44	119.56
349.823	134.93
350.206	138.32
350.588	187.35
350.971	199.56
351.354	232.32
351.737	216.73
352.119	233.23
352.502	229.39
352.884	271.87
353.267	270.97
353.65	286.33
354.032	294.47
354.414	297.41
354.797	319.55
355.179	304.41
355.562	313.45
355.944	313.45
356.326	342.83
356.709	319.78
357.091	341.93
357.473	344.86
357.855	324.07
358.238	339.67
358.62	332.21
359.002	356.16
359.384	331.3
359.766	328.14
360.148	329.05
360.53	332.43
360.912	326.11
361.294	325.88
361.676	354.13
362.057	329.05
362.439	318.65
362.821	334.24
363.203	312.1
363.584	309.16
363.966	328.37
364.348	324.75
364.729	292.44
365.111	302.83
365.493	292.89
365.874	313.9
366.256	316.16
366.637	315.03
367.019	311.87
367.4	318.2
367.781	313.45
368.163	309.16
368.544	311.87
368.925	309.84
369.306	331.53
369.688	301.02
370.069	305.99
370.45	300.35
370.831	295.15
371.212	324.98
371.593	307.12
371.974	300.57
372.355	325.88
372.736	299.22
373.117	331.76
373.498	307.58
373.879	337.86
374.26	296.28
374.641	298.54
375.021	300.12
375.402	315.26
375.783	306.22
376.163	301.25
376.544	322.27
376.925	318.65
377.305	312.32
377.686	313.45
378.066	320.46
378.447	331.08
378.827	314.58
379.208	321.36
379.588	303.73
379.968	311.42
380.349	321.81
380.729	325.88
381.109	341.93
381.489	317.75
381.87	335.15
382.25	316.16
382.63	344.19
383.01	321.81
383.39	344.19
383.77	333.56
384.15	326.33
384.53	336.5
384.91	331.98
385.29	334.24
385.67	358.65
386.049	341.47
386.429	359.78
386.809	363.17
387.189	340.57
387.568	340.8
387.948	337.41
388.328	359.33
388.707	349.84
389.087	370.17
389.466	356.84
389.846	360.23
390.225	352.77
390.605	350.29
390.984	350.51
391.363	371.3
391.743	396.84
392.122	371.3
392.501	382.38
392.881	370.17
393.26	375.37
393.639	385.77
394.018	373.34
394.397	393.22
394.776	371.3
395.155	367.91
395.534	360.68
395.913	386.9
396.292	404.52
396.671	383.51
397.05	381.02
397.429	378.08
397.808	380.8
398.186	405.43
398.565	373.56
398.944	407.46
399.323	397.52
399.701	407.24
400.08	399.1
400.458	395.03
400.837	414.69
401.215	427.12
401.594	418.99
401.972	396.61
402.351	416.73
402.729	416.05
403.107	414.92
403.486	406.33
403.864	422.15
404.242	425.54
404.62	428.03
404.999	428.7
405.377	435.26
405.755	432.32
406.133	435.26
406.511	445.65
406.889	454.24
407.267	444.75
407.645	464.41
408.023	444.07
408.401	478.87
408.779	469.83
409.156	483.84
409.534	495.37
409.912	486.33
410.29	490.85
410.667	498.98
411.045	525.88
411.422	500.57
411.8	530.17
412.178	515.93
412.555	535.82
412.933	547.8
413.31	548.47
413.687	534.01
414.065	565.65
414.442	558.42
414.819	577.17
415.197	553.9
415.574	571.75
415.951	575.14
416.328	598.64
416.705	598.64
417.082	594.35
417.46	590.28
417.837	602.26
418.214	618.08
418.591	633.44
418.967	633.22
419.344	662.82
419.721	642.94
420.098	660.79
420.475	661.24
420.852	684.74
421.228	689.71
421.605	687
421.982	698.3
422.358	719.77
422.735	717.74
423.111	716.61
423.488	735.81
423.864	736.49
424.241	747.79
424.617	776.49
424.994	783.95
425.37	806.09
425.746	787.11
426.123	798.64
426.499	802.48
426.875	809.71
427.251	817.85
427.627	816.26
428.003	820.78
428.379	855.13
428.756	846.77
429.132	859.43
429.507	889.03
429.883	894.45
430.259	871.4
430.635	900.1
431.011	923.38
431.387	945.3
431.763	954.79
432.138	964.73
432.514	979.42
432.89	974.45
433.265	1004.28
433.641	1011.51
434.016	995.02
434.392	1017.16
434.767	1035.02
435.143	1049.93
435.518	1058.29
435.894	1082.25
436.269	1094.9
436.644	1131.96
437.02	1130.61
437.395	1117.5
437.77	1119.08
438.145	1185.75
438.52	1175.8
438.895	1205.63
439.271	1188.68
439.646	1237.27
440.021	1204.95
440.395	1248.57
440.77	1224.61
441.145	1241.79
441.52	1273.88
441.895	1291.28
442.27	1311.39
442.645	1273.43
443.019	1314.33
443.394	1295.12
443.769	1318.85
444.143	1316.36
444.518	1357.94
444.892	1353.2
445.267	1362.24
445.641	1338.28
446.016	1381.9
446.39	1369.02
446.764	1381.22
447.139	1390.49
447.513	1429.36
447.887	1396.14
448.262	1399.53
448.636	1396.36
449.01	1439.98
449.384	1446.08
449.758	1459.41
450.132	1451.05
450.506	1478.39
450.88	1491.05
451.254	1473.42
451.628	1498.28
452.002	1515.68
452.376	1495.79
452.75	1505.06
453.123	1517.26
453.497	1539.18
453.871	1558.62
454.244	1569.46
454.618	1568.33
454.992	1599.52
455.365	1586.87
455.739	1659.41
456.112	1632.51
456.486	1643.36
456.859	1670.48
457.232	1691.72
457.606	1663.7
457.979	1706.41
458.352	1732.62
458.725	1738.95
459.099	1757.71
459.472	1771.49
459.845	1799.74
460.218	1787.31
460.591	1818.05
460.964	1809.68
461.337	1868.67
461.71	1843.13
462.083	1889.91
462.456	1870.93
462.829	1878.16
463.201	1883.13
463.574	1926.52
463.947	1951.83
464.32	1985.95
464.692	1996.35
465.065	2017.81
465.438	2028.89
465.81	2001.32
466.183	2067.08
466.555	2091.48
466.928	2100.98
467.3	2104.59
467.672	2138.71
468.045	2157.47
468.417	2170.58
468.789	2186.17
469.161	2193.4
469.534	2220.52
469.906	2260.52
470.278	2271.82
470.65	2291.93
471.022	2345.04
471.394	2368.31
471.766	2352.04
472.138	2391.82
472.51	2453.06
472.882	2410.57
473.253	2458.25
473.625	2513.85
473.997	2544.13
474.369	2544.13
474.74	2563.34
475.112	2633.39
475.484	2651.24
475.855	2623.9
476.227	2649.44
476.598	2733.05
476.97	2743.44
477.341	2811.47
477.713	2836.32
478.084	2844.91
478.455	2898.69
478.827	2911.58
479.198	2988.86
479.569	2966.04
479.94	3033.61
480.311	3069.99
480.682	3148.63
481.053	3176.65
481.424	3233.38
481.795	3222.75
482.166	3234.51
482.537	3256.43
482.908	3397.21
483.279	3342.98
483.65	3385.69
484.021	3387.5
484.391	3483.54
484.762	3497.32
485.133	3547.27
485.503	3566.7
485.874	3647.15
486.244	3675.17
486.615	3677.66
486.985	3715.85
487.356	3829.29
487.726	3800.59
488.097	3862.06
488.467	3853.25
488.837	3947.93
489.207	3947.71
489.578	4033.58
489.948	3994.94
490.318	4112.9
490.688	4053.24
491.058	4111.54
491.428	4178.89
491.798	4164.88
492.168	4303.86
492.538	4287.81
492.908	4324.42
493.278	4325.55
493.648	4354.25
494.017	4412.33
494.387	4454.13
494.757	4439.9
495.126	4558.09
495.496	4505.21
495.866	4553.11
496.235	4566
496.605	4624.07
496.974	4592.44
497.344	4612.55
497.713	4606.45
498.082	4658.87
498.452	4719.21
498.821	4699.33
499.19	4713.56
499.559	4752.88
499.928	4732.55
500.298	4781.58
500.667	4850.06
501.036	4824.75
501.405	4853.67
501.774	4864.07
502.143	4878.76
502.512	4911.75
502.88	4948.81
503.249	4991.3
503.618	4973.89
503.987	4960.11
504.356	5043.27
504.724	5012.31
505.093	5024.06
505.462	5052.08
505.83	5032.2
506.199	5038.07
506.567	5113.1
506.936	5118.3
507.304	5119.43
507.672	5163.95
508.041	5160.33
508.409	5185.19
508.777	5210.27
509.145	5306.54
509.514	5249.37
509.882	5296.6
510.25	5302.25
510.618	5356.03
510.986	5266.54
511.354	5328.69
511.722	5351.51
512.09	5396.03
512.458	5392.87
512.826	5396.93
513.193	5418.4
513.561	5429.25
513.929	5436.26
514.297	5438.52
514.664	5518.06
515.032	5445.52
515.4	5512.64
515.767	5432.41
516.135	5522.13
516.502	5539.98
516.869	5584.73
517.237	5594.67
517.604	5553.31
517.972	5591.28
518.339	5566.65
518.706	5584.95
519.073	5616.36
519.44	5662.01
519.808	5663.14
520.175	5643.03
520.542	5746.76
520.909	5749.24
521.276	5704.95
521.643	5730.71
522.009	5759.86
522.376	5793.99
522.743	5799.86
523.11	5819.75
523.477	5898.16
523.843	5903.36
524.21	5918.73
524.577	5964.38
524.943	5943.81
525.31	5986.07
525.676	5984.72
526.043	6001.89
526.409	6069.46
526.776	6059.52
527.142	6009.12
527.508	6116.01
527.874	6147.65
528.241	6153.52
528.607	6181.77
528.973	6214.31
529.339	6212.28
529.705	6236.91
530.071	6229.23
530.437	6268.32
530.803	6310.81
531.169	6352.62
531.535	6310.58
531.901	6314.88
532.267	6338.83
532.632	6364.82
532.998	6349.45
533.364	6415.21
533.73	6416.12
534.095	6454.31
534.461	6425.83
534.826	6467.87
535.192	6473.97
535.557	6541.76
535.923	6513.29
536.288	6516.68
536.653	6560.97
537.019	6436.23
537.384	6555.77
537.749	6600.52
538.114	6580.63
538.479	6567.53
538.845	6667.18
539.21	6546.28
539.575	6619.73
539.94	6686.84
540.305	6682.1
540.67	6633.96
541.034	6659.5
541.399	6656.56
541.764	6705.6
542.129	6690.46
542.494	6739.95
542.858	6672.16
543.223	6784.24
543.587	6833.05
543.952	6746.28
544.316	6856.56
544.681	6798.25
545.045	6786.05
545.41	6815.88
545.774	6831.7
546.138	6843.9
546.503	6866.27
546.867	6826.73
547.231	6918.7
547.595	6838.03
547.959	6933.39
548.324	6880.51
548.688	6870.12
549.052	6912.15
549.416	6894.97
549.779	6921.64
550.143	6972.26
550.507	6955.54
550.871	6960.28
551.235	6920.74
551.599	7036.67
551.962	6969.77
552.326	7053.84
552.689	7040.73
553.053	7028.08
553.417	7032.6
553.78	7113.05
554.143	7032.15
554.507	7112.82
554.87	7119.83
555.234	7178.36
555.597	7131.8
555.96	7117.57
556.323	7152.14
556.686	7139.71
557.05	7187.62
557.413	7220.62
557.776	7217.9
558.139	7249.09
558.502	7269.43
558.865	7194.18
559.228	7318.69
559.59	7304.91
559.953	7370.67
560.316	7373.15
560.679	7386.49
561.041	7431.23
561.404	7432.14
561.767	7464.68
562.129	7403.21
562.492	7484.34
562.854	7463.77
563.217	7459.03
563.579	7450.21
563.941	7565.92
564.304	7580.38
564.666	7609.53
565.028	7659.02
565.39	7606.37
565.753	7706.03
566.115	7711.45
566.477	7739.47
566.839	7699.47
567.201	7791.45
567.563	7831.9
567.925	7874.84
568.287	7899.24
568.648	7870.77
569.01	7892.24
569.372	7972.01
569.734	7922.07
570.095	8002.06
570.457	8077.77
570.819	8044.55
571.18	8045.23
571.542	8057.43
571.903	8095.62
572.265	8202.96
572.626	8146.47
572.987	8171.1
573.349	8220.14
573.71	8211.55
574.071	8313.92
574.432	8265.33
574.794	8371.55
575.155	8378.55
575.516	8331.77
575.877	8399.79
576.238	8484.08
576.599	8497.87
576.96	8540.58
577.32	8526.34
577.681	8554.59
578.042	8682.72
578.403	8646.57
578.763	8671.88
579.124	8742.16
579.485	8778.99
579.845	8824.64
580.206	8783.96
580.566	8904.19
580.927	8877.97
581.287	9000.46
581.648	9023.51
582.008	9155.48
582.368	9111.64
582.728	9151.41
583.089	9270.73
583.449	9294.23
583.809	9346.89
584.169	9374.91
584.529	9381.69
584.889	9494.68
585.249	9487.45
585.609	9528.13
585.969	9705.3
586.329	9652.64
586.688	9832.75
587.048	9746.88
587.408	9830.72
587.768	9955.46
588.127	9985.06
588.487	10091.5
588.846	10120.43
589.206	10236.58
589.565	10171.5
589.925	10307.54
590.284	10373.98
590.643	10431.38
591.003	10498.27
591.362	10589.57
591.721	10607.87
592.08	10671.6
592.44	10769.67
592.799	10850.8
593.158	10942.1
593.517	10976.45
593.876	11066.84
594.235	11059.84
594.593	11137.8
594.952	11170.79
595.311	11302.32
595.67	11316.1
596.029	11383.67
596.387	11494.85
596.746	11514.74
597.104	11488.75
597.463	11588.41
597.822	11755.19
598.18	11736.2
598.538	11750.21
598.897	11795.86
599.255	11810.78
599.613	12088.51
599.972	12039.7
600.33	12067.72
600.688	12107.49
601.046	12206.92
601.404	12281.5
601.762	12303.87
602.12	12367.82
602.478	12396.07
602.836	12494.15
603.194	12408.5
603.552	12528.27
603.91	12518.1
604.268	12629.74
604.625	12644.43
604.983	12780.47
605.341	12647.82
605.698	12688.95
606.056	12773.69
606.413	12800.58
606.771	12849.85
607.128	12969.16
607.485	12921.93
607.843	12985.66
608.2	13086.9
608.557	13135.94
608.914	13006.68
609.272	13118.77
609.629	13217.52
609.986	13330.29
610.343	13213
610.7	13347.01
611.057	13300
611.414	13388.81
611.771	13455.48
612.127	13450.28
612.484	13495.25
612.841	13519.88
613.198	13628.13
613.554	13608.02
613.911	13592.88
614.267	13626.77
614.624	13626.32
614.98	13618.87
615.337	13781.57
615.693	13692.99
616.05	13712.87
616.406	13878.75
616.762	13774.79
617.118	13795.13
617.475	13783.83
617.831	13923.26
618.187	13942.92
618.543	13973.21
618.899	14008.23
619.255	13966.2
619.611	13989.7
619.967	13991.28
620.323	14022.47
620.678	14020.21
621.034	14033.32
621.39	14036.03
621.746	13984.05
622.101	14209.36
622.457	14063.15
622.812	14125.52
623.168	14163.94
623.523	14125.52
623.879	14196.25
624.234	14078.29
624.589	14212.52
624.945	14195.8
625.3	14231.05
625.655	14264.27
626.01	14235.12
626.365	14256.36
626.72	14273.54
627.075	14213.2
627.43	14241.22
627.785	14259.3
628.14	14310.82
628.495	14328.9
628.85	14217.04
629.205	14254.55
629.559	14236.02
629.914	14215.91
630.269	14214.33
630.623	14185.86
630.978	14195.57
631.332	14244.61
631.687	14191.96
632.041	14208.68
632.396	14268.79
632.75	14152.41
633.104	14157.38
633.459	14098.4
633.813	14179.53
634.167	14161.9
634.521	14125.52
634.875	14111.96
635.229	14144.05
635.583	14108.8
635.937	14100.43
636.291	14035.8
636.645	14015.24
636.999	14026.99
637.352	14036.03
637.706	13979.53
638.06	14006.88
638.413	14032.64
638.767	14007.33
639.121	14016.82
639.474	13869.25
639.828	13911.06
640.181	13915.35
640.534	13999.87
640.888	13886.43
641.241	13825.19
641.594	13914.68
641.947	13884.85
642.301	13848.24
642.654	13867.9
643.007	13942.92
643.36	13841.01
643.713	13876.94
644.066	13868.35
644.419	13821.12
644.771	13598.07
645.124	13517.62
645.477	13612.76
645.83	13603.95
646.182	13509.94
646.535	13476.5
646.888	13436.5
647.24	13371.19
647.593	13456.38
647.945	13379.78
648.298	13347.91
648.65	13407.35
649.002	13377.06
649.355	13412.77
649.707	13370.28
650.059	13566.66
650.411	13674
650.763	13611.63
651.115	13812.98
651.467	13822.02
651.819	13643.5
652.171	13779.99
652.523	13658.41
652.875	13785.41
653.227	13750.61
653.578	13814.79
653.93	13778.18
654.282	13674
654.633	13661.8
654.985	13717.62
655.337	13711.52
655.688	13749.94
656.039	13747.22
656.391	13651.86
656.742	13693.21
657.094	13697.96
657.445	13768.24
657.796	13766.21
658.147	13756.04
658.498	13757.84
658.849	13739.77
659.2	13717.39
659.551	13785.64
659.902	13730.27
660.253	13648.47
660.604	13779.99
660.955	13742.48
661.306	13747
661.656	13789.48
662.007	13797.84
662.358	13768.47
662.708	13760.56
663.059	13827.9
663.409	13756.49
663.76	13847.56
664.11	13838.29
664.461	13818.63
664.811	13841.91
665.161	13852.08
665.511	13895.92
665.862	13762.14
666.212	13830.61
666.562	13880.55
666.912	13851.63
667.262	13893.21
667.612	13897.05
667.962	13869.71
668.312	13889.59
668.662	13890.27
669.011	13894.34
669.361	13807.11
669.711	13900.89
670.06	13780.22
670.41	13834.23
670.76	13760.33
671.109	13822.7
671.459	13805.07
671.808	13796.71
672.157	13828.13
672.507	13724.17
672.856	13739.09
673.205	13784.51
673.554	13772.53
673.904	13727.34
674.253	13783.15
674.602	13715.81
674.951	13524.4
675.3	13452.09
675.649	13730.73
675.998	13601.92
676.346	13721.24
676.695	13660.9
677.044	13553.33
677.393	13608.92
677.741	13728.69
678.09	13655.7
678.438	13500.68
678.787	13550.39
679.135	13580
679.484	13480.56
679.832	13524.63
680.181	13462.26
680.529	13530.28
680.877	13414.12
681.225	13332.54
681.573	13426.55
681.922	13399.44
682.27	13343.62
682.618	13375.93
682.966	13330.96
683.314	13309.95
683.661	13307.46
684.009	13203.06
684.357	13287.57
684.705	13179.55
685.053	13165.09
685.4	13241.7
685.748	13056.17
686.095	13108.14
686.443	13046.22
686.79	13029.05
687.138	13053
687.485	12991.76
687.832	12977.07
688.18	12979.11
688.527	12864.08
688.874	12873.8
689.221	12879.45
689.568	12820.69
689.915	12820.69
690.262	12770.75
690.609	12695.05
690.956	12643.98
691.303	12577.54
691.65	12476.52
691.997	12505.22
692.344	12429.52
692.69	12480.59
693.037	12422.06
693.383	12302.97
693.73	12400.59
694.077	12338.45
694.423	12225.23
694.769	12260.03
695.116	12166.25
695.462	12213.93
695.808	12132.35
696.155	12112.46
696.501	12041.05
696.847	11970.55
697.193	12012.81
697.539	12049.19
697.885	11868.4
698.231	11884.45
698.577	11889.87
698.923	11840.38
699.269	11735.52
699.614	11711.8
699.96	11645.13
700.306	11586.6
700.651	11590.67
700.997	11540.95
701.342	11393.16
701.688	11425.25
702.033	11364.69
702.379	11373.73
702.724	11300.51
703.069	11388.19
703.415	11208.53
703.76	11237.68
704.105	11236.1
704.45	11127.41
704.795	11107.29
705.14	11105.26
705.485	11038.82
705.83	10960.18
706.175	11025.03
706.52	10980.06
706.865	10910.24
707.209	10889.22
707.554	10816
707.899	10876.79
708.243	10766.28
708.588	10744.36
708.932	10655.55
709.277	10679.51
709.621	10682.22
709.966	10644.25
710.31	10647.42
710.654	10500.08
710.998	10543.69
711.342	10524.48
711.687	10572.62
712.031	10435.67
712.375	10486.74
712.719	10479.51
713.063	10451.26
713.407	10452.39
713.75	10432.96
714.094	10381.21
714.438	10377.82
714.782	10376.01
715.125	10274.09
715.469	10345.96
715.812	10293.08
716.156	10235
716.499	10169.01
716.843	10259.63
717.186	10116.58
717.53	10227.54
717.873	10187.32
718.216	10117.26
718.559	10103.03
718.902	10079.75
719.246	10158.17
719.589	10019.64
719.932	9983.71
720.275	10046.76
720.617	10021.67
720.96	10020.99
721.303	9994.78
721.646	9992.52
721.989	9939.64
722.331	9969.47
722.674	9935.57
723.016	9941.22
723.359	9926.76
723.701	9971.05
724.044	9922.69
724.386	9825.29
724.729	9931.5
725.071	9858.06
725.413	9898.51
725.755	9848.57
726.097	9886.08
726.439	9861.9
726.782	9802.47
727.124	9838.63
727.465	9811.51
727.807	9767.67
728.149	9773.99
728.491	9847.66
728.833	9750.27
729.175	9825.07
729.516	9859.64
729.858	9803.15
730.199	9798.63
730.541	9773.99
730.882	9711.62
731.224	9741
731.565	9754.33
731.906	9812.41
732.248	9790.72
732.589	9733.09
732.93	9740.77
733.271	9691.74
733.612	9726.31
733.953	9811.28
734.294	9788.68
734.635	9756.14
734.976	9772.64
735.317	9689.25
735.658	9729.02
735.999	9688.35
736.339	9713.88
736.68	9753.43
737.021	9696.71
737.361	9731.74
737.702	9758.63
738.042	9720.21
738.383	9694.45
738.723	9731.96
739.063	9716.14
739.404	9738.52
739.744	9799.98
740.084	9773.32
740.424	9736.93
740.764	9781.45
741.104	9770.15
741.444	9837.04
741.784	9811.51
742.124	9863.26
742.464	9853.54
742.804	9820.32
743.143	9836.14
743.483	9934.44
743.823	9907.78
744.162	9937.83
744.502	9971.96
744.841	9935.35
745.181	10046.53
745.52	10079.75
745.86	10067.77
746.199	10121.78
746.538	10222.57
746.877	10177.6
747.216	10249.46
747.556	10358.84
747.895	10314.55
748.234	10360.42
748.573	10359.97
748.911	10473.19
749.25	10486.74
749.589	10600.41
749.928	10677.93
750.267	10798.6
750.605	10776.23
750.944	10881.08
751.283	10909.78
751.621	10960.63
751.96	10996.79
752.298	11104.35
752.636	11254.63
752.975	11282.2
753.313	11445.59
753.651	11527.17
753.989	11603.78
754.327	11664.34
754.666	11723.32
755.004	11894.62
755.342	12102.75
755.679	12181.16
756.017	12157.21
756.355	12377.54
756.693	12480.82
757.031	12690.3
757.368	12773.01
757.706	12885.55
758.044	12960.58
758.381	13153.34
758.719	13238.99
759.056	13427.01
759.394	13618.64
759.731	13531.18
760.068	13791.97
760.405	13859.31
760.743	14005.97
761.08	14202.58
