Data from hue_180_FLMS001491_00044.txt Node
Date: Tue Feb 07 16:47:02 GMT 2017
User: dcchb
Spectrometer: FLMS00149
Trigger mode: 0
Integration Time (sec): 2.000000E-2
Scans to average: 10
Electric dark correction enabled: true
Nonlinearity correction enabled: false
Boxcar width: 0
XAxis mode: Wavelengths
Number of Pixels in Spectrum: 2048
>>>>>Begin Spectral Data<<<<<
341.393	3.67
341.776	3.67
342.16	3.67
342.543	-79.26
342.927	-60.51
343.31	-67.96
343.693	-71.35
344.077	-59.15
344.46	-64.12
344.843	-55.54
345.226	-27.74
345.61	-20.96
345.993	-25.48
346.376	6.84
346.759	4.8
347.142	29.89
347.525	38.7
347.908	59.04
348.291	84.57
348.674	78.47
349.057	90
349.44	149.43
349.823	141.75
350.206	164.8
350.588	192.14
350.971	204.57
351.354	204.8
351.737	245.47
352.119	242.54
352.502	275.76
352.884	278.24
353.267	295.19
353.65	304.91
354.032	296.32
354.414	326.6
354.797	294.51
355.179	325.47
355.562	301.29
355.944	323.89
356.326	325.47
356.709	314.62
357.091	334.96
357.473	345.13
357.855	333.38
358.238	328.18
358.62	355.53
359.002	336.54
359.384	322.31
359.766	326.15
360.148	338.13
360.53	331.35
360.912	327.73
361.294	322.53
361.676	328.41
362.057	346.49
362.439	327.28
362.821	323.44
363.203	342.19
363.584	341.97
363.966	311.46
364.348	329.09
364.729	332.7
365.111	326.15
365.493	317.56
365.874	342.42
366.256	313.49
366.637	301.52
367.019	310.56
367.4	321.4
367.781	309.2
368.163	302.87
368.544	307.62
368.925	318.69
369.306	317.11
369.688	313.04
370.069	301.74
370.45	296.77
370.831	325.7
371.212	318.69
371.593	296.32
371.974	319.37
372.355	302.65
372.736	310.56
373.117	312.59
373.498	292.7
373.879	305.81
374.26	317.11
374.641	300.16
375.021	322.99
375.402	309.43
375.783	315.75
376.163	319.6
376.544	318.69
376.925	318.92
377.305	324.12
377.686	325.7
378.066	294.74
378.447	335.19
378.827	337.22
379.208	311.46
379.588	326.6
379.968	324.57
380.349	339.48
380.729	329.31
381.109	341.97
381.489	320.05
381.87	333.61
382.25	331.12
382.63	330.9
383.01	341.06
383.39	330.9
383.77	335.41
384.15	341.97
384.53	334.74
384.91	332.03
385.29	350.78
385.67	360.72
386.049	357.79
386.429	358.69
386.809	348.75
387.189	357.79
387.568	361.18
387.948	348.52
388.328	344.45
388.707	365.24
389.087	353.04
389.466	351.01
389.846	359.37
390.225	363.21
390.605	347.62
390.984	369.76
391.363	341.06
391.743	352.36
392.122	350.33
392.501	352.59
392.881	380.84
393.26	379.93
393.639	362.31
394.018	366.83
394.397	395.53
394.776	369.99
395.155	370.44
395.534	397.79
395.913	379.03
396.292	382.65
396.671	391.23
397.05	385.13
397.429	391.01
397.808	394.4
398.186	381.52
398.565	393.94
398.944	374.96
399.323	392.81
399.701	397.33
400.08	411.57
400.458	407.28
400.837	417.45
401.215	408.63
401.594	407.5
401.972	391.23
402.351	439.37
402.729	417.9
403.107	438.92
403.486	418.58
403.864	430.33
404.242	427.62
404.62	411.8
404.999	425.58
405.377	434.62
405.755	454.06
406.133	433.49
406.511	449.76
406.889	471.23
407.267	474.17
407.645	448.86
408.023	464.45
408.401	466.03
408.779	490.89
409.156	483.43
409.534	487.05
409.912	503.77
410.29	487.73
410.667	515.3
411.045	511.23
411.422	511.91
411.8	532.92
412.178	517.78
412.555	541.06
412.933	537.44
413.31	534.96
413.687	564.79
414.065	571.11
414.442	591.91
414.819	601.4
415.197	594.39
415.574	594.39
415.951	607.05
416.328	611.57
416.705	583.54
417.082	625.58
417.46	643.66
417.837	617.22
418.214	628.97
418.591	657.44
418.967	630.32
419.344	664.22
419.721	665.58
420.098	659.93
420.475	655.18
420.852	671.45
421.228	706.03
421.605	692.92
421.982	717.55
422.358	724.78
422.735	739.02
423.111	757.55
423.488	736.08
423.864	756.42
424.241	798.45
424.617	798.68
424.994	786.93
425.37	819.02
425.746	838
426.123	833.71
426.499	821.05
426.875	873.48
427.251	863.31
427.627	871.9
428.003	902.63
428.379	905.12
428.756	891.78
429.132	926.59
429.507	943.76
429.883	934.95
430.259	961.39
430.635	968.39
431.011	959.13
431.387	984.21
431.763	1027.37
432.138	962.07
432.514	1021.72
432.89	1031.22
433.265	1063.76
433.641	1075.06
434.016	1082.51
434.392	1113.93
434.767	1103.53
435.143	1133.36
435.518	1123.42
435.894	1178.56
436.269	1191.66
436.644	1193.02
437.02	1223.53
437.395	1240.25
437.77	1278.89
438.145	1280.7
438.52	1286.35
438.895	1294.26
439.271	1322.73
439.646	1344.43
440.021	1366.57
440.395	1371.55
440.77	1376.29
441.145	1390.98
441.52	1419.68
441.895	1415.61
442.27	1452.9
442.645	1454.48
443.019	1461.71
443.394	1480.02
443.769	1523.63
444.143	1476.18
444.518	1533.58
444.892	1528.15
445.267	1536.97
445.641	1594.82
446.016	1595.04
446.39	1608.83
446.764	1614.48
447.139	1601.82
447.513	1626.68
447.887	1633.69
448.262	1646.57
448.636	1658.32
449.01	1695.15
449.384	1707.13
449.758	1680.24
450.132	1735.6
450.506	1724.76
450.88	1742.38
451.254	1752.78
451.628	1809.73
452.002	1780.35
452.376	1788.94
452.75	1812.66
453.123	1848.6
453.497	1861.93
453.871	1896.73
454.244	1934.47
454.618	1976.5
454.992	1944.19
455.365	1950.29
455.739	2016.05
456.112	2045.43
456.486	2045.65
456.859	2075.93
457.232	2103.96
457.606	2133.79
457.979	2145.76
458.352	2210.39
458.725	2209.26
459.099	2248.36
459.472	2307.34
459.845	2326.32
460.218	2345.31
460.591	2348.02
460.964	2389.37
461.337	2414
461.71	2470.27
462.083	2494.91
462.456	2479.09
462.829	2496.49
463.201	2558.18
463.574	2530.61
463.947	2586.88
464.32	2661.68
464.692	2698.29
465.065	2715.24
465.438	2749.59
465.81	2798.63
466.183	2851.28
466.555	2870.26
466.928	2957.72
467.3	2905.29
467.672	2919.98
468.045	3029.58
468.417	3036.13
468.789	3062.57
469.161	3166.3
469.534	3197.26
469.906	3261.67
470.278	3309.57
470.65	3309.8
471.022	3404.71
471.394	3450.81
471.766	3500.53
472.138	3583.69
472.51	3655.55
472.882	3662.33
473.253	3684.93
473.625	3799.5
473.997	3848.09
474.369	3895.1
474.74	3964.25
475.112	4073.62
475.484	4103.23
475.855	4229.55
476.227	4234.07
476.598	4370.34
476.97	4423.67
477.341	4452.59
477.713	4586.83
478.084	4652.82
478.455	4762.87
478.827	4832.02
479.198	4946.14
479.569	4989.08
479.94	5138.9
480.311	5220.71
480.682	5341.38
481.053	5437.2
481.424	5559.68
481.795	5604.65
482.166	5683.52
482.537	5741.83
482.908	5937.75
483.279	6018.88
483.65	6104.08
484.021	6291.42
484.391	6283.28
484.762	6384.52
485.133	6417.74
485.503	6581.8
485.874	6715.81
486.244	6811.63
486.615	6925.75
486.985	7040.1
487.356	7151.96
487.726	7199.64
488.097	7426.3
488.467	7423.36
488.837	7584.72
489.207	7703.36
489.578	7798.72
489.948	7927.76
490.318	8049.11
490.688	8058.15
491.058	8242.1
491.428	8359.61
491.798	8379.27
492.168	8559.61
492.538	8635.76
492.908	8725.93
493.278	8914.85
493.648	8852.48
494.017	8984.23
494.387	9057.67
494.757	9210.21
495.126	9275.52
495.496	9266.25
495.866	9331.79
496.235	9419.7
496.605	9488.85
496.974	9583.08
497.344	9646.81
497.713	9720.7
498.082	9797.31
498.452	9845.67
498.821	9903.52
499.19	9905.56
499.559	9983.07
499.928	10084.99
500.298	10119.79
500.667	10239.34
501.036	10242.95
501.405	10278.66
501.774	10315.04
502.143	10340.8
502.512	10425.09
502.88	10461.02
503.249	10451.53
503.618	10552.32
503.987	10525.88
504.356	10620.79
504.724	10636.39
505.093	10667.8
505.462	10765.65
505.83	10816.04
506.199	10845.87
506.567	10935.81
506.936	10914.35
507.304	11002.03
507.672	11055.13
508.041	11083.38
508.409	11042.48
508.777	11146.88
509.145	11232.53
509.514	11210.38
509.882	11272.3
510.25	11270.49
510.618	11321.79
510.986	11276.14
511.354	11338.06
511.722	11397.04
512.09	11532.63
512.458	11432.3
512.826	11438.85
513.193	11542.35
513.561	11545.29
513.929	11635.23
514.297	11696.47
514.664	11613.99
515.032	11702.12
515.4	11782.12
515.767	11753.87
516.135	11711.39
516.502	11679.98
516.869	11812.63
517.237	11871.83
517.604	11792.97
517.972	11848.11
518.339	11879.07
518.706	11849.01
519.073	11841.33
519.44	11871.16
519.808	11894.21
520.175	11893.3
520.542	11982.79
520.909	12060.98
521.276	11905.96
521.643	12014.2
522.009	11977.37
522.376	12014.2
522.743	12052.17
523.11	12088.33
523.477	12117.93
523.843	12158.61
524.21	12180.3
524.577	12250.58
524.943	12206.29
525.31	12188.21
525.676	12353.18
526.043	12283.8
526.409	12237.02
526.776	12331.48
527.142	12302.56
527.508	12279.73
527.874	12303.46
528.241	12330.58
528.607	12344.14
528.973	12354.08
529.339	12229.79
529.705	12343.46
530.071	12293.97
530.437	12298.26
530.803	12341.43
531.169	12343.46
531.535	12263.46
531.901	12245.38
532.267	12179.85
532.632	12230.92
532.998	12204.26
533.364	12206.97
533.73	12145.73
534.095	12187.08
534.461	12153.41
534.826	12098.27
535.192	12075.45
535.557	12060.98
535.923	12056.24
536.288	11956.8
536.653	11964.26
537.019	11895.34
537.384	11890.37
537.749	11872.51
538.114	11731.73
538.479	11717.49
538.845	11702.57
539.21	11623.48
539.575	11658.06
539.94	11610.82
540.305	11579.87
540.67	11611.5
541.034	11505.74
541.399	11430.26
541.764	11457.61
542.129	11423.94
542.494	11311.17
542.858	11295.58
543.223	11319.08
543.587	11268.69
543.952	11183.49
544.316	11138.07
544.681	11078.18
545.045	11086.77
545.41	11108.46
545.774	11012.65
546.138	11012.2
546.503	10964.51
546.867	10863.5
547.231	10872.76
547.595	10858.75
547.959	10759.1
548.324	10662.6
548.688	10699.89
549.052	10636.84
549.416	10594.58
549.779	10530.18
550.143	10479.78
550.507	10532.89
550.871	10510.29
551.235	10330.63
551.599	10403.85
551.962	10367.24
552.326	10371.99
552.689	10341.25
553.053	10254.25
553.417	10141.48
553.78	10297.64
554.143	10139.45
554.507	10123.86
554.87	10089.73
555.234	10157.3
555.597	10002.51
555.96	10000.7
556.323	9994.82
556.686	9908.72
557.05	9937.65
557.413	9930.42
557.776	9958.89
558.139	9962.51
558.502	9833.7
558.865	9855.16
559.228	9842.06
559.59	9835.5
559.953	9831.44
560.316	9899.68
560.679	9866.24
561.041	9817.2
561.404	9821.27
561.767	9867.14
562.129	9786.92
562.492	9749.86
562.854	9739.91
563.217	9746.47
563.579	9716.64
563.941	9739.91
564.304	9725.68
564.666	9623.98
565.028	9709.86
565.39	9679.12
565.753	9720.48
566.115	9736.3
566.477	9695.17
566.839	9689.52
567.201	9739.69
567.563	9678.9
567.925	9809.29
568.287	9736.52
568.648	9681.61
569.01	9739.24
569.372	9793.92
569.734	9692.46
570.095	9720.48
570.457	9745.34
570.819	9709.86
571.18	9677.32
571.542	9714.38
571.903	9683.87
572.265	9739.46
572.626	9772
572.987	9708.05
573.349	9709.18
573.71	9787.6
574.071	9699.01
574.432	9761.83
574.794	9841.38
575.155	9753.25
575.516	9681.16
575.877	9738.11
576.238	9687.49
576.599	9806.8
576.96	9824.88
577.32	9762.51
577.681	9858.78
578.042	9780.36
578.403	9656.07
578.763	9753.7
579.124	9725.22
579.485	9712.57
579.845	9734.72
580.206	9722.51
580.566	9695.39
580.927	9681.84
581.287	9728.16
581.648	9692.23
582.008	9683.87
582.368	9734.26
582.728	9625.11
583.089	9657.66
583.449	9651.55
583.809	9627.15
584.169	9660.59
584.529	9620.59
584.889	9673.47
585.249	9580.82
585.609	9546.02
585.969	9659.24
586.329	9619.92
586.688	9613.59
587.048	9590.31
587.408	9567.71
587.768	9576.3
588.127	9504.44
588.487	9487.26
588.846	9593.48
589.206	9520.03
589.565	9535.62
589.925	9504.67
590.284	9513.7
590.643	9478.9
591.003	9486.81
591.362	9452.92
591.721	9444.1
592.08	9475.29
592.44	9455.4
592.799	9447.27
593.158	9465.34
593.517	9481.39
593.876	9508.73
594.235	9385.8
594.593	9430.99
594.952	9499.69
595.311	9421.05
595.67	9404.78
596.029	9390.09
596.387	9400.94
596.746	9435.29
597.104	9370.43
597.463	9344.44
597.822	9423.31
598.18	9402.75
598.538	9308.06
598.897	9340.15
599.255	9328.4
599.613	9315.52
599.972	9360.94
600.33	9356.42
600.688	9280.72
601.046	9284.78
601.404	9346.48
601.762	9344.44
602.12	9335.4
602.478	9324.78
602.836	9392.8
603.194	9292.02
603.552	9325.91
603.91	9259.25
604.268	9328.4
604.625	9256.99
604.983	9366.36
605.341	9252.24
605.698	9230.32
606.056	9268.74
606.413	9278.23
606.771	9324.56
607.128	9342.86
607.485	9255.18
607.843	9242.3
608.2	9269.42
608.557	9351.22
608.914	9356.87
609.272	9311
609.629	9339.47
609.986	9356.19
610.343	9315.07
610.7	9397.32
611.057	9400.49
611.414	9325.24
611.771	9332.01
612.127	9358.23
612.484	9349.64
612.841	9372.01
613.198	9346.48
613.554	9384.22
613.911	9414.05
614.267	9375.86
614.624	9425.57
614.98	9409.07
615.337	9423.99
615.693	9440.71
616.05	9407.94
616.406	9395.29
616.762	9431.9
617.118	9456.53
617.475	9489.98
617.831	9517.77
618.187	9471.9
618.543	9430.77
618.899	9517.09
619.255	9427.83
619.611	9525
619.967	9513.7
620.323	9568.17
620.678	9490.2
621.034	9510.31
621.39	9461.28
621.746	9471.9
622.101	9589.41
622.457	9477.1
622.812	9504.44
623.168	9518.22
623.523	9562.97
623.879	9584.66
624.234	9482.52
624.589	9492.91
624.945	9539.47
625.3	9482.07
625.655	9459.24
626.01	9514.38
626.365	9439.81
626.72	9520.03
627.075	9482.97
627.43	9474.38
627.785	9500.15
628.14	9487.94
628.495	9456.53
628.85	9434.16
629.205	9365.91
629.559	9472.58
629.914	9424.44
630.269	9447.04
630.623	9437.1
630.978	9412.92
631.332	9412.69
631.687	9468.06
632.041	9409.98
632.396	9455.18
632.75	9328.62
633.104	9386.93
633.459	9327.04
633.813	9281.39
634.167	9342.86
634.521	9299.02
634.875	9299.02
635.229	9344.67
635.583	9274.39
635.937	9306.93
636.291	9258.34
636.645	9207.95
636.999	9262.19
637.352	9260.6
637.706	9180.61
638.06	9268.29
638.413	9170.21
638.767	9174.73
639.121	9171.34
639.474	9177.89
639.828	9109.65
640.181	9178.57
640.534	9146.26
640.888	9160.95
641.241	9123.21
641.594	9154.84
641.947	9171.57
642.301	9097.67
642.654	9128.86
643.007	9108.07
643.36	9091.57
643.713	9071.23
644.066	9140.61
644.419	9023.55
644.771	8966.6
645.124	8886.6
645.477	8946.04
645.83	8816.77
646.182	8852.25
646.535	8755.53
646.888	8768.41
647.24	8672.37
647.593	8792.59
647.945	8752.37
648.298	8713.5
648.65	8715.99
649.002	8672.6
649.355	8705.36
649.707	8734.06
650.059	8857.45
650.411	8852.48
650.763	8897.68
651.115	8959.14
651.467	8939.71
651.819	8929.54
652.171	8981.74
652.523	8913.95
652.875	8902.87
653.227	8809.99
653.578	8942.42
653.93	8946.71
654.282	8915.3
654.633	8902.87
654.985	8932.7
655.337	8948.07
655.688	8974.06
656.039	9005.02
656.391	8900.39
656.742	8930.67
657.094	8877.56
657.445	9075.07
657.796	8966.6
658.147	8911.69
658.498	8948.52
658.849	9001.4
659.2	8942.65
659.551	8917.11
659.902	8990.1
660.253	8968.86
660.604	9016.77
660.955	8982.87
661.306	9055.19
661.656	8951.23
662.007	8995.53
662.358	8970.44
662.708	9027.62
663.059	8992.59
663.409	8929.31
663.76	9031.68
664.11	9041.4
664.461	9050.21
664.811	9050.21
665.161	9070.78
665.511	9037.78
665.862	9072.13
666.212	9037.11
666.562	9103.55
666.912	9065.81
667.262	9020.16
667.612	9049.31
667.962	9044.34
668.312	9038.24
668.662	9095.86
669.011	9057.45
669.361	9050.21
669.711	8996.88
670.06	9053.15
670.41	9032.59
670.76	8966.37
671.109	9007.73
671.459	8953.49
671.808	9037.56
672.157	9025.13
672.507	8899.26
672.856	8973.83
673.205	8939.26
673.554	8998.92
673.904	8917.56
674.253	9041.85
674.602	8962.98
674.951	8854.74
675.3	8812.48
675.649	8866.04
675.998	8937.67
676.346	8904.23
676.695	8925.47
677.044	8880.95
677.393	8882.08
677.741	8916.66
678.09	8833.27
678.438	8835.76
678.787	8949.2
679.135	8887.51
679.484	8755.31
679.832	8788.3
680.181	8831.91
680.529	8746.49
680.877	8771.35
681.225	8755.76
681.573	8763.89
681.922	8667.85
682.27	8629.21
682.618	8649.77
682.966	8621.98
683.314	8699.71
683.661	8604.35
684.009	8560.28
684.357	8541.53
684.705	8540.62
685.053	8576.55
685.4	8570
685.748	8468.31
686.095	8512.6
686.443	8472.6
686.79	8501.53
687.138	8464.47
687.485	8449.55
687.832	8435.99
688.18	8388.76
688.527	8370.23
688.874	8395.99
689.221	8342.66
689.568	8267.41
689.915	8226.73
690.262	8285.26
690.609	8236.9
690.956	8190.58
691.303	8131.14
691.65	8126.17
691.997	8111.03
692.344	8131.82
692.69	8088.88
693.037	8059.96
693.383	7979.96
693.73	7985.16
694.077	7993.29
694.423	7935.89
694.769	7914.65
695.116	7864.71
695.462	7878.72
695.808	7874.43
696.155	7874.43
696.501	7729.8
696.847	7766.63
697.193	7656.58
697.539	7746.07
697.885	7698.84
698.231	7573.87
698.577	7607.09
698.923	7560.08
699.269	7510.82
699.614	7505.85
699.96	7462.69
700.306	7440.99
700.651	7416.36
700.997	7385.63
701.342	7372.29
701.688	7340.65
702.033	7321.22
702.379	7319.19
702.724	7238.51
703.069	7290.03
703.415	7179.08
703.76	7203.26
704.105	7201
704.45	7160.77
704.795	7141.11
705.14	7111.73
705.485	7085.52
705.83	7017.73
706.175	7053.2
706.52	6999.19
706.865	6981.34
707.209	6948.57
707.554	6924.39
707.899	6944.28
708.243	6916.94
708.588	6903.6
708.932	6854.11
709.277	6824.96
709.621	6866.99
709.966	6789.71
710.31	6764.17
710.654	6745.19
710.998	6735.7
711.342	6706.77
711.687	6674.68
712.031	6622.03
712.375	6618.41
712.719	6683.5
713.063	6648.24
713.407	6632.65
713.75	6599.88
714.094	6568.47
714.438	6605.31
714.782	6629.71
715.125	6542.94
715.469	6555.82
715.812	6554.46
716.156	6545.87
716.499	6508.13
716.843	6538.87
717.186	6476.72
717.53	6552.43
717.873	6484.18
718.216	6462.49
718.559	6478.76
718.902	6408.93
719.246	6427.46
719.589	6408.7
719.932	6399.66
720.275	6479.21
720.617	6389.49
720.96	6358.08
721.303	6399.44
721.646	6386.1
721.989	6359.89
722.331	6377.74
722.674	6361.25
723.016	6322.83
723.359	6356.73
723.701	6302.49
724.044	6371.64
724.386	6306.56
724.729	6340.68
725.071	6299.1
725.413	6340.68
725.755	6339.1
726.097	6272.89
726.439	6260
726.782	6309.27
727.124	6365.99
727.465	6275.37
727.807	6254.13
728.149	6236.05
728.491	6304.98
728.833	6208.03
729.175	6255.03
729.516	6231.76
729.858	6265.2
730.199	6224.53
730.541	6278.31
730.882	6238.31
731.224	6274.24
731.565	6224.98
731.906	6290.51
732.248	6305.65
732.589	6222.94
732.93	6253.23
733.271	6229.27
733.612	6296.84
733.953	6219.78
734.294	6230.85
734.635	6263.85
734.976	6249.84
735.317	6235.37
735.658	6258.65
735.999	6286.67
736.339	6284.19
736.68	6299.1
737.021	6269.27
737.361	6252.32
737.702	6312.88
738.042	6259.78
738.383	6324.18
738.723	6315.37
739.063	6314.47
739.404	6306.11
739.744	6351.75
740.084	6340
740.424	6393.33
740.764	6413.9
741.104	6390.17
741.444	6362.38
741.784	6362.15
742.124	6403.96
742.464	6451.64
742.804	6472.65
743.143	6508.59
743.483	6532.99
743.823	6533.67
744.162	6514.01
744.502	6567.79
744.841	6538.87
745.181	6647.34
745.52	6620.45
745.86	6683.27
746.199	6720.56
746.538	6750.16
746.877	6771.86
747.216	6871.97
747.556	6857.5
747.895	6938.18
748.234	7012.08
748.573	7010.95
748.911	7068.12
749.25	7158.06
749.589	7160.32
749.928	7253.88
750.267	7346.53
750.605	7353.76
750.944	7409.58
751.283	7537.03
751.621	7590.82
751.96	7685.73
752.298	7725.28
752.636	7924.82
752.975	7935.89
753.313	7998.72
753.651	8183.8
753.989	8289.56
754.327	8380.85
754.666	8462.66
755.004	8665.37
755.342	8746.04
755.679	8849.09
756.017	9002.53
756.355	9143.54
756.693	9212.02
757.031	9392.58
757.368	9495.85
757.706	9602.06
758.044	9763.87
758.381	9952.11
758.719	10066.91
759.056	10211.09
759.394	10385.77
759.731	10565.88
760.068	10634.35
760.405	10831.64
760.743	10940.79
761.08	11195.69
761.417	11252.87
761.754	11447.21
762.091	11642.24
762.428	11815.11
762.765	11979.4
763.102	12156.57
763.438	12284.03
763.775	12476.34
764.112	12684.02
764.449	12859.83
764.785	13011.01
765.122	13114.74
765.458	13227.96
765.795	13448.97
766.131	13605.35
766.467	13749.53
