Data from hue_32_FLMS001491_00073.txt Node
Date: Tue Feb 07 17:23:53 GMT 2017
User: dcchb
Spectrometer: FLMS00149
Trigger mode: 0
Integration Time (sec): 2.000000E-2
Scans to average: 10
Electric dark correction enabled: true
Nonlinearity correction enabled: false
Boxcar width: 0
XAxis mode: Wavelengths
Number of Pixels in Spectrum: 2048
>>>>>Begin Spectral Data<<<<<
341.393	-4.42
341.776	-4.42
342.16	-4.42
342.543	-53.91
342.927	-63.18
343.31	-76.28
343.693	-55.72
344.077	-63.18
344.46	-62.72
344.843	-58.2
345.226	-40.35
345.61	-37.87
345.993	-47.36
346.376	-13.69
346.759	15.01
347.142	38.06
347.525	51.17
347.908	68.35
348.291	83.03
348.674	85.07
349.057	114.67
349.44	137.27
349.823	149.47
350.206	162.81
350.588	204.16
350.971	204.39
351.354	248.91
351.737	256.59
352.119	259.75
352.502	286.87
352.884	278.28
353.267	309.7
353.65	291.16
354.032	292.75
354.414	300.43
354.797	332.07
355.179	336.59
355.562	349.24
355.944	337.72
356.326	321.67
356.709	335.91
357.091	341.56
357.473	344.5
357.855	342.01
358.238	339.98
358.62	308.34
359.002	360.99
359.384	340.43
359.766	357.6
360.148	340.65
360.53	344.04
360.912	328.9
361.294	347.89
361.676	341.78
362.057	346.76
362.439	332.52
362.821	347.66
363.203	341.33
363.584	314.89
363.966	334.78
364.348	320.99
364.729	331.16
365.111	330.03
365.493	320.09
365.874	333.65
366.256	309.24
366.637	309.7
367.019	339.3
367.4	319.86
367.781	322.58
368.163	322.12
368.544	316.25
368.925	315.34
369.306	324.61
369.688	303.14
370.069	327.1
370.45	317.38
370.831	313.08
371.212	329.81
371.593	333.88
371.974	299.07
372.355	317.83
372.736	320.32
373.117	337.94
373.498	319.64
373.879	312.63
374.26	318.73
374.641	336.14
375.021	320.77
375.402	339.52
375.783	311.05
376.163	341.78
376.544	321.67
376.925	348.34
377.305	346.53
377.686	318.28
378.066	323.03
378.447	331.16
378.827	332.52
379.208	324.84
379.588	333.88
379.968	348.56
380.349	343.37
380.729	340.43
381.109	352.41
381.489	327.1
381.87	353.76
382.25	335.68
382.63	335.46
383.01	359.86
383.39	350.15
383.77	353.31
384.15	327.77
384.53	337.27
384.91	336.36
385.29	352.63
385.67	356.25
386.049	347.66
386.429	351.05
386.809	348.34
387.189	359.86
387.568	363.71
387.948	370.48
388.328	363.48
388.707	375.91
389.087	374.33
389.466	377.04
389.846	365.51
390.225	351.28
390.605	351.5
390.984	360.77
391.363	365.74
391.743	384.04
392.122	373.42
392.501	360.09
392.881	390.6
393.26	380.2
393.639	394.44
394.018	360.54
394.397	385.85
394.776	367.55
395.155	373.87
395.534	390.82
395.913	387.66
396.292	377.72
396.671	395.79
397.05	380.43
397.429	396.02
397.808	370.48
398.186	369.58
398.565	393.08
398.944	386.08
399.323	415
399.701	403.03
400.08	385.4
400.458	393.53
400.837	408.22
401.215	391.95
401.594	391.28
401.972	401.22
402.351	401.9
402.729	395.57
403.107	429.47
403.486	406.42
403.864	392.63
404.242	420.88
404.62	413.65
404.999	418.39
405.377	406.19
405.755	429.92
406.133	439.18
406.511	430.6
406.889	414.1
407.267	443.48
407.645	430.37
408.023	447.32
408.401	438.05
408.779	448.9
409.156	448.45
409.534	446.64
409.912	451.84
410.29	452.97
410.667	449.58
411.045	462.01
411.422	449.35
411.8	450.93
412.178	456.13
412.555	478.96
412.933	452.74
413.31	460.88
413.687	495.45
414.065	484.38
414.442	487.54
414.819	478.05
415.197	489.35
415.574	471.95
415.951	488.22
416.328	485.96
416.705	512.85
417.082	501.55
417.46	515.79
417.837	527.77
418.214	505.85
418.591	523.7
418.967	511.27
419.344	508.56
419.721	520.54
420.098	514.66
420.475	506.98
420.852	539.75
421.228	544.04
421.605	554.66
421.982	536.58
422.358	553.08
422.735	542.68
423.111	534.77
423.488	569.35
423.864	546.07
424.241	555.11
424.617	565.96
424.994	540.65
425.37	525.73
425.746	564.83
426.123	564.83
426.499	590.82
426.875	587.2
427.251	569.58
427.627	567.09
428.003	592.85
428.379	594.43
428.756	601.21
429.132	606.18
429.507	613.64
429.883	613.87
430.259	604.15
430.635	613.19
431.011	619.29
431.387	630.82
431.763	632.17
432.138	630.59
432.514	648.9
432.89	650.03
433.265	637.6
433.641	672.85
434.016	656.35
434.392	667.65
434.767	666.97
435.143	692.51
435.518	689.35
435.894	696.58
436.269	691.61
436.644	709.91
437.02	707.88
437.395	696.58
437.77	703.81
438.145	721.21
438.52	707.88
438.895	757.82
439.271	723.92
439.646	740.64
440.021	750.14
440.395	756.92
440.77	743.36
441.145	747.2
441.52	767.54
441.895	751.04
442.27	769.12
442.645	773.41
443.019	762.34
443.394	786.74
443.769	760.98
444.143	802.34
444.518	770.47
444.892	808.67
445.267	810.7
445.641	809.34
446.016	810.47
446.39	815.44
446.764	808.44
447.139	843.01
447.513	831.04
447.887	831.26
448.262	840.98
448.636	840.98
449.01	827.42
449.384	843.92
449.758	839.85
450.132	865.84
450.506	881.88
450.88	870.36
451.254	872.62
451.628	883.92
452.002	885.5
452.376	897.25
452.75	922.33
453.123	923.92
453.497	901.77
453.871	914.2
454.244	940.87
454.618	956.01
454.992	958.94
455.365	963.01
455.739	964.14
456.112	985.38
456.486	986.29
456.859	992.39
457.232	997.59
457.606	1014.31
457.979	1012.95
458.352	1042.11
458.725	1044.37
459.099	1065.38
459.472	1073.74
459.845	1088.43
460.218	1079.39
460.591	1096.12
460.964	1093.18
461.337	1105.83
461.71	1152.38
462.083	1158.71
462.456	1146.28
462.829	1177.24
463.201	1173.63
463.574	1184.93
463.947	1219.73
464.32	1229.9
464.692	1226.28
465.065	1246.17
465.438	1279.39
465.81	1281.65
466.183	1298.14
466.555	1334.3
466.928	1317.58
467.3	1332.27
467.672	1374.75
468.045	1376.33
468.417	1400.97
468.789	1401.64
469.161	1452.26
469.534	1454.52
469.906	1456.33
470.278	1485.03
470.65	1514.64
471.022	1543.34
471.394	1578.59
471.766	1578.36
472.138	1596.22
472.51	1610.45
472.882	1667.4
473.253	1688.64
473.625	1702.65
473.997	1762.31
474.369	1745.36
474.74	1783.1
475.112	1826.04
475.484	1877.56
475.855	1919.6
476.227	1946.94
476.598	2008.41
476.97	2045.69
477.341	2067.62
477.713	2106.26
478.084	2148.52
478.455	2250.44
478.827	2247.5
479.198	2335.86
479.569	2332.92
479.94	2410.66
480.311	2432.35
480.682	2518.45
481.053	2556.64
481.424	2636.87
481.795	2674.6
482.166	2783.08
482.537	2790.53
482.908	2900.59
483.279	2934.94
483.65	3004.77
484.021	3095.84
484.391	3163.86
484.762	3223.06
485.133	3269.39
485.503	3378.77
485.874	3409.27
486.244	3493.34
486.615	3573.34
486.985	3635.26
487.356	3705.31
487.726	3766.33
488.097	3950.5
488.467	3945.31
488.837	4038.86
489.207	4107.79
489.578	4196.6
489.948	4277.95
490.318	4350.94
490.688	4416.48
491.058	4478.85
491.428	4611.28
491.798	4701.67
492.168	4848.11
492.538	4837.49
492.908	4889.24
493.278	5041.1
493.648	5071.15
494.017	5165.84
494.387	5225.72
494.757	5343.24
495.126	5406.28
495.496	5452.38
495.866	5514.76
496.235	5610.8
496.605	5648.54
496.974	5725.37
497.344	5806.73
497.713	5865.48
498.082	5952.71
498.452	6045.82
498.821	6089.43
499.19	6165.36
499.559	6211.69
499.928	6293.04
500.298	6380.72
500.667	6457.33
501.036	6410.1
501.405	6538.91
501.774	6530.32
502.143	6632.92
502.512	6686.48
502.88	6730.09
503.249	6735.06
503.618	6871.78
503.987	6892.57
504.356	6908.39
504.724	6999.01
505.093	6998.11
505.462	7130.76
505.83	7158.55
506.199	7187.03
506.567	7366.01
506.936	7267.7
507.304	7363.07
507.672	7392.22
508.041	7528.04
508.409	7522.16
508.777	7629.73
509.145	7723.96
509.514	7753.34
509.882	7789.72
510.25	7756.96
510.618	7912.21
510.986	7940
511.354	7935.94
511.722	8054.8
512.09	8150.39
512.458	8084.86
512.826	8188.81
513.193	8219.09
513.561	8196.72
513.929	8308.35
514.297	8362.59
514.664	8422.93
515.032	8480.78
515.4	8524.17
515.767	8496.82
516.135	8596.71
516.502	8482.81
516.869	8683.71
517.237	8766.42
517.604	8693.2
517.972	8777.95
518.339	8848.91
518.706	8797.16
519.073	8869.92
519.44	8913.08
519.808	9059.75
520.175	9008.22
520.542	9147.43
520.909	9153.76
521.276	9152.63
521.643	9281.66
522.009	9287.99
522.376	9283.02
522.743	9386.52
523.11	9502.67
523.477	9568.21
523.843	9617.93
524.21	9720.52
524.577	9732.72
524.943	9742.22
525.31	9794.64
525.676	9864.25
526.043	9944.24
526.409	10037.35
526.776	10126.61
527.142	10140.4
527.508	10196.67
527.874	10228.3
528.241	10280.28
528.607	10353.27
528.973	10421.75
529.339	10369.09
529.705	10494.06
530.071	10635.53
530.437	10600.5
530.803	10639.59
531.169	10708.29
531.535	10671.23
531.901	10729.53
532.267	10825.8
532.632	10827.61
532.998	10882.75
533.364	11033.71
533.73	10998.91
534.095	11063.54
534.461	11120.48
534.826	11126.59
535.192	11233.02
535.557	11351.21
535.923	11292.23
536.288	11398.67
536.653	11443.41
537.019	11367.71
537.384	11455.16
537.749	11575.39
538.114	11601.38
538.479	11555.73
538.845	11643.41
539.21	11693.12
539.575	11776.96
539.94	11816.51
540.305	11931.76
540.67	11892.44
541.034	11934.47
541.399	11983.29
541.764	12031.65
542.129	12090.85
542.494	12110.74
542.858	12209.5
543.223	12215.6
543.587	12278.19
543.952	12329.27
544.316	12345.54
544.681	12304.18
545.045	12429.38
545.41	12488.13
545.774	12509.37
546.138	12569.03
546.503	12625.3
546.867	12635.7
547.231	12791.4
547.595	12791.63
547.959	12875.92
548.324	12934.22
548.688	12859.87
549.052	12899.42
549.416	12939.65
549.779	13019.19
550.143	13040.43
550.507	13159.3
550.871	13218.73
551.235	13101
551.599	13283.37
551.962	13355.91
552.326	13413.08
552.689	13413.53
553.053	13383.7
553.417	13375.11
553.78	13482.46
554.143	13524.49
554.507	13574.43
554.87	13601.1
555.234	13779.4
555.597	13612.62
555.96	13800.87
556.323	13865.72
556.686	13773.07
557.05	13912.73
557.413	13946.62
557.776	13986.62
558.139	14136.9
558.502	14114.76
558.865	14140.74
559.228	14299.61
559.59	14295.32
559.953	14252.38
560.316	14439.04
560.679	14458.7
561.041	14520.4
561.404	14573.95
561.767	14616.21
562.129	14590.45
562.492	14719.49
562.854	14760.39
563.217	14750.22
563.579	14873.83
563.941	14892.14
564.304	14875.41
564.666	14993.38
565.028	14981.4
565.39	15042.64
565.753	15141.85
566.115	15152.02
566.477	15293.03
566.839	15361.73
567.201	15373.03
567.563	15362.41
567.925	15564.21
568.287	15574.83
568.648	15546.36
569.01	15618.45
569.372	15788.61
569.734	15691.89
570.095	15866.12
570.457	15870.64
570.819	15923.07
571.18	15960.36
571.542	16040.36
571.903	16147.47
572.265	16182.05
572.626	16295.26
572.987	16270.86
573.349	16433.34
573.71	16495.48
574.071	16542.49
574.432	16727.57
574.794	16919.88
575.155	16885.3
575.516	16888.69
575.877	16987.9
576.238	17150.83
576.599	17335.01
576.96	17383.37
577.32	17443.48
577.681	17577.72
578.042	17752.17
578.403	17828.78
578.763	17915.11
579.124	18078.27
579.485	18168.21
579.845	18433.96
580.206	18502.66
580.566	18646.16
580.927	18798.47
581.287	19035.76
581.648	19139.26
582.008	19383.32
582.368	19487.27
582.728	19732.24
583.089	19791.67
583.449	20072.34
583.809	20183.52
584.169	20372.44
584.529	20557.3
584.889	20925.88
585.249	20963.62
585.609	21255.81
585.969	21564.96
586.329	21736.48
586.688	22049.69
587.048	22247.2
587.408	22434.54
587.768	22674.53
588.127	22871.59
588.487	23027.74
588.846	23490.55
589.206	23633.38
589.565	23794.05
589.925	24171.89
590.284	24297.54
590.643	24590.41
591.003	24951.31
591.362	25161.02
591.721	25402.37
592.08	25737.5
592.44	25961.68
592.799	26227.66
593.158	26569.57
593.517	26889.79
593.876	27073.51
594.235	27411.13
594.593	27604.8
594.952	27918.91
595.311	28077.1
595.67	28448.16
596.029	28780.81
596.387	28939
596.746	29367.46
597.104	29475.48
597.463	29670.28
597.822	30074.34
598.18	30226.65
598.538	30431.16
598.897	30879.74
599.255	30839.51
599.613	31559.5
599.972	31404.92
600.33	31919.71
600.688	31952.48
601.046	32301.85
601.404	32697.09
601.762	32669.07
602.12	33057.99
602.478	33384.76
602.836	33493
603.194	33568.93
603.552	33814.58
603.91	34004.85
604.268	34339.76
604.625	34486.65
604.983	34779.52
605.341	34726.19
605.698	35189
606.056	35447.08
606.413	35457.25
606.771	35731.36
607.128	35893.17
607.485	36015.42
607.843	36084.35
608.2	36487.5
608.557	36654.5
608.914	36783.31
609.272	37146.01
609.629	37121.83
609.986	37472.33
610.343	37458.55
610.7	37809.95
611.057	37859.44
611.414	38004.75
611.771	38230.05
612.127	38387.79
612.484	38491.52
612.841	38909.13
613.198	38892.41
613.554	38995.46
613.911	39300.99
614.267	39257.37
614.624	39397.26
614.98	39574.88
615.337	39880.41
615.693	39973.06
616.05	39937.81
616.406	40328.3
616.762	40250.79
617.118	40348.19
617.475	40354.07
617.831	40454.18
618.187	40706.83
618.543	40844.67
618.899	41090.09
619.255	41205.8
619.611	41068.4
619.967	41402.17
620.323	41514.26
620.678	41350.42
621.034	41523.98
621.39	41427.94
621.746	41495.28
622.101	41995.83
622.457	41805.78
622.812	41850.52
623.168	42185.2
623.523	42128.03
623.879	42332.77
624.234	42083.29
624.589	42233.11
624.945	42262.26
625.3	42545.19
625.655	42450.28
626.01	42596.49
626.365	42581.58
626.72	42601.69
627.075	42685.3
627.43	42605.76
627.785	42521.01
628.14	42850.95
628.495	42762.14
628.85	42764.17
629.205	42664.97
629.559	42956.26
629.914	42804.62
630.269	42832.19
630.623	42832.19
630.978	42641.92
631.332	42937.5
631.687	43013.88
632.041	42883.49
632.396	43055.69
632.75	42909.93
633.104	42895.02
633.459	42761.91
633.813	42885.75
634.167	43032.19
634.521	42881.46
634.875	43037.16
635.229	42934.11
635.583	42802.59
635.937	42755.58
636.291	42791.06
636.645	42751.29
636.999	42801.23
637.352	42972.53
637.706	42784.96
638.06	42857.96
638.413	42828.35
638.767	42678.98
639.121	42885.52
639.474	42538.42
639.828	42611.86
640.181	42732.08
640.534	42709.26
640.888	42546.32
641.241	42565.53
641.594	42574.8
641.947	42680.56
642.301	42580.67
642.654	42426.33
643.007	42622.03
643.36	42675.59
643.713	42519.88
644.066	42592.88
644.419	42330.29
644.771	42164.19
645.124	41909.96
645.477	41717.87
645.83	41590.42
646.182	41323.98
646.535	41374.83
646.888	41356.53
647.24	41256.87
647.593	41316.53
647.945	41259.58
648.298	41183.42
648.65	40992.24
649.002	40935.07
649.355	41259.58
649.707	41203.76
650.059	41341.38
650.411	41898.66
650.763	41869.73
651.115	42131.19
651.467	42113.12
651.819	42053.68
652.171	42036.28
652.523	41948.15
652.875	41907.02
653.227	41705.89
653.578	41960.58
653.93	41953.35
654.282	41743.86
654.633	41607.59
654.985	41773.46
655.337	41806.68
655.688	41792.9
656.039	41876.51
656.391	41599.01
656.742	41696.86
657.094	41771.66
657.445	41754.26
657.796	41714.48
658.147	41687.82
658.498	41513.13
658.849	41641.94
659.2	41650.98
659.551	41540.93
659.902	41767.81
660.253	41628.16
660.604	41661.83
660.955	41485.34
661.306	41570.53
661.656	41582.28
662.007	41619.12
662.358	41410.76
662.708	41499.35
663.059	41427.03
663.409	41272.46
663.76	41453.25
664.11	41556.97
664.461	41637.87
664.811	41588.38
665.161	41646.46
665.511	41474.49
665.862	41420.48
666.212	41596.29
666.562	41543.41
666.912	41414.15
667.262	41409.63
667.612	41219.81
667.962	41443.08
668.312	41220.26
668.662	41533.7
669.011	41505.9
669.361	41317.2
669.711	41370.99
670.06	41286.7
670.41	41265
670.76	41129.64
671.109	41378.22
671.459	41173.48
671.808	41271.33
672.157	41345.9
672.507	41074.5
672.856	40930.77
673.205	41189.07
673.554	41249.18
673.904	41103.42
674.253	41268.17
674.602	41126.93
674.951	40475.19
675.3	40422.76
675.649	41093.93
675.998	40914.5
676.346	41011.9
676.695	41179.81
677.044	40843.77
677.393	41078.57
677.741	41095.29
678.09	40788.63
678.438	40851.23
678.787	40823.88
679.135	40894.39
679.484	40582.99
679.832	40663.89
680.181	40597.22
680.529	40679.26
680.877	40543.44
681.225	40521.07
681.573	40802.42
681.922	40401.52
682.27	40295.99
682.618	40349.55
682.966	40190.23
683.314	40292.6
683.661	40130.34
684.009	39945.72
684.357	39938.26
684.705	39951.59
685.053	39864.81
685.4	39938.26
685.748	39820.75
686.095	39693.74
686.443	39642.9
686.79	39470.47
687.138	39717.92
687.485	39535.1
687.832	39399.29
688.18	39447.42
688.527	39285.85
688.874	39267.31
689.221	39081.11
689.568	39030.71
689.915	39037.04
690.262	38995.01
690.609	38915.69
690.956	38583.94
691.303	38643.38
691.65	38582.36
691.997	38449.48
692.344	38240.45
692.69	38242.03
693.037	38259.21
693.383	37936.73
693.73	38197.96
694.077	37932.21
694.423	37934.69
694.769	37723.4
695.116	37675.49
695.462	37748.71
695.808	37548.94
696.155	37700.8
696.501	37364.77
696.847	37284.99
697.193	37233.02
697.539	37251.55
697.885	37033.7
698.231	36879.58
698.577	36803.2
698.923	36741.96
699.269	36634.16
699.614	36364.79
699.96	36387.39
700.306	36475.3
700.651	36294.06
700.997	36156.66
701.342	36121.18
701.688	36051.13
702.033	35880.74
702.379	35965.93
702.724	35822.66
703.069	35832.83
703.415	35485.04
703.76	35492.27
704.105	35476.68
704.45	35408.21
704.795	35169.57
705.14	35073.07
705.485	35153.75
705.83	34950.37
706.175	34998.73
706.52	34864.27
706.865	34731.16
707.209	34635.8
707.554	34571.39
707.899	34731.39
708.243	34523.48
708.588	34399.19
708.932	34214.34
709.277	34184.51
709.621	34239.2
709.966	34033.55
710.31	34158.75
710.654	33692.09
710.998	33904.52
711.342	33829.94
711.687	33608.93
712.031	33612.55
712.375	33522.16
712.719	33542.04
713.063	33420.92
713.407	33591.76
713.75	33414.36
714.094	33338.43
714.438	33123.07
714.782	33195.84
715.125	33039.91
715.469	33106.12
715.812	32995.84
716.156	32801.72
716.499	32774.15
716.843	32733.93
717.186	32612.8
717.53	32786.81
717.873	32827.03
718.216	32605.34
718.559	32429.08
718.902	32310.21
719.246	32386.82
719.589	32291.45
719.932	32191.57
720.275	32267.95
720.617	32213.72
720.96	32096.66
721.303	32053.95
721.646	32064.34
721.989	31885.59
722.331	31884.46
722.674	31825.25
723.016	31888.53
723.359	31765.14
723.701	31809.66
724.044	31471.81
724.386	31548.2
724.729	31548.42
725.071	31522.66
725.413	31505.94
725.755	31482.21
726.097	31218.26
726.439	31150.47
726.782	31221.42
727.124	31324.92
727.465	31257.58
727.807	31096.46
728.149	30928.78
728.491	30873.64
728.833	31094.87
729.175	30951.15
729.516	30852.39
729.858	30787.76
730.199	30736.69
730.541	30585.51
730.882	30656.69
731.224	30764.94
731.565	30637.71
731.906	30456.02
732.248	30621.44
732.589	30319.75
732.93	30304.39
733.271	30285.4
733.612	30392.52
733.953	30288.12
734.294	30290.15
734.635	30130.61
734.976	30371.05
735.317	30054.45
735.658	30101.45
735.999	30069.36
736.339	29951.4
736.68	30138.52
737.021	30071.4
737.361	29840.67
737.702	30024.17
738.042	29853.78
738.383	29854
738.723	29776.04
739.063	29689.26
739.404	29656.95
739.744	29663.05
740.084	29546.89
740.424	29562.26
740.764	29469.61
741.104	29604.52
741.444	29339.67
741.784	29310.51
742.124	29299.67
742.464	29257.63
742.804	29202.95
743.143	29202.04
743.483	29115.72
743.823	29039.11
744.162	29024.19
744.502	29068.26
744.841	28977.19
745.181	29037.3
745.52	28952.11
745.86	28962.5
746.199	28906.68
746.538	29025.1
746.877	28905.78
747.216	28815.84
747.556	28663.07
747.895	28870.75
748.234	28625.11
748.573	28549.86
748.911	28568.84
749.25	28458.33
749.589	28378.11
749.928	28470.31
750.267	28485
750.605	28406.81
750.944	28196.65
751.283	28203.65
751.621	28323.87
751.96	28186.7
752.298	28091.34
752.636	28080.49
752.975	28042.53
753.313	27926.6
753.651	27988.29
753.989	27871.91
754.327	27815.86
754.666	27649.77
755.004	27657.9
755.342	27683.44
755.679	27723.89
756.017	27521.18
756.355	27562.99
756.693	27496.1
757.031	27496.1
757.368	27416.55
757.706	27361.41
