Data from hue_350_FLMS001491_90.txt Node
Date: Mon Feb 06 15:38:39 GMT 2017
User: dcchb
Spectrometer: FLMS00149
Trigger mode: 0
Integration Time (sec): 2.000000E-2
Scans to average: 10
Electric dark correction enabled: true
Nonlinearity correction enabled: false
Boxcar width: 0
XAxis mode: Wavelengths
Number of Pixels in Spectrum: 2048
>>>>>Begin Spectral Data<<<<<
341.393	-3.19
341.776	-3.19
342.16	-3.19
342.543	-58.11
342.927	-67.15
343.31	-77.31
343.693	-61.04
344.077	-75.73
344.46	-48.16
344.843	-54.94
345.226	-52.46
345.61	-31.44
345.993	-12.01
346.376	-5.45
346.759	2.46
347.142	36.81
347.525	41.55
347.908	52.17
348.291	89.01
348.674	91.95
349.057	104.6
349.44	137.82
349.823	145.05
350.206	176.01
350.588	173.75
350.971	225.05
351.354	227.08
351.737	250.59
352.119	263.47
352.502	266.41
352.884	278.83
353.267	272.05
353.65	282
354.032	301.66
354.414	303.47
354.797	307.08
355.179	317.93
355.562	324.71
355.944	321.55
356.326	333.3
356.709	321.32
357.091	323.58
357.473	320.64
357.855	345.95
358.238	349.34
358.62	331.49
359.002	331.26
359.384	315.22
359.766	339.17
360.148	354.09
360.53	334.2
360.912	347.76
361.294	329.45
361.676	340.53
362.057	337.14
362.439	311.38
362.821	311.83
363.203	301.88
363.584	324.26
363.966	324.26
364.348	300.3
364.729	316.57
365.111	296.91
365.493	323.58
365.874	299.4
366.256	305.95
366.637	312.96
367.019	327.87
367.4	304.14
367.781	303.69
368.163	323.35
368.544	305.05
368.925	305.27
369.306	314.77
369.688	293.75
370.069	308.44
370.45	296.91
370.831	296.24
371.212	308.66
371.593	308.44
371.974	337.14
372.355	323.58
372.736	314.99
373.117	317.03
373.498	319.51
373.879	299.17
374.26	306.18
374.641	317.48
375.021	328.1
375.402	317.03
375.783	320.64
376.163	329.45
376.544	346.86
376.925	329.68
377.305	317.7
377.686	296.69
378.066	317.93
378.447	324.71
378.827	327.19
379.208	334.88
379.588	325.39
379.968	321.77
380.349	310.02
380.729	328.32
381.109	329.91
381.489	348.89
381.87	323.35
382.25	326.97
382.63	338.72
383.01	329
383.39	338.27
383.77	340.08
384.15	339.17
384.53	332.39
384.91	314.31
385.29	344.14
385.67	329.23
386.049	329.68
386.429	331.94
386.809	345.27
387.189	354.31
387.568	338.49
387.948	358.38
388.328	353.63
388.707	355.44
389.087	358.83
389.466	359.51
389.846	358.15
390.225	356.35
390.605	346.18
390.984	357.02
391.363	353.41
391.743	372.62
392.122	378.49
392.501	362.9
392.881	361.32
393.26	364.03
393.639	365.84
394.018	356.35
394.397	365.84
394.776	363.58
395.155	364.71
395.534	360.19
395.913	362.9
396.292	369.45
396.671	374.2
397.05	367.87
397.429	387.98
397.808	390.7
398.186	373.07
398.565	382.79
398.944	380.98
399.323	376.46
399.701	392.73
400.08	373.3
400.458	414.88
400.837	403.35
401.215	395.67
401.594	398.83
401.972	376.01
402.351	398.83
402.729	401.54
403.107	396.12
403.486	395.89
403.864	394.09
404.242	398.61
404.62	405.38
404.999	406.06
405.377	420.53
405.755	417.81
406.133	420.75
406.511	419.4
406.889	440.19
407.267	420.75
407.645	404.93
408.023	427.31
408.401	425.95
408.779	441.77
409.156	436.12
409.534	434.31
409.912	463.24
410.29	448.77
410.667	450.36
411.045	441.77
411.422	424.37
411.8	463.24
412.178	457.36
412.555	456.91
412.933	477.02
413.31	466.85
413.687	484.03
414.065	484.03
414.442	469.56
414.819	483.12
415.197	465.5
415.574	469.34
415.951	478.83
416.328	507.53
416.705	493.97
417.082	489.9
417.46	490.35
417.837	490.81
418.214	476.34
418.591	523.12
418.967	499.39
419.344	485.38
419.721	499.62
420.098	530.58
420.475	524.25
420.852	533.07
421.228	524.7
421.605	516.34
421.982	543.01
422.358	516.57
422.735	536.68
423.111	536.68
423.488	547.98
423.864	546.4
424.241	530.58
424.617	556.57
424.994	545.49
425.37	560.86
425.746	560.63
426.123	568.32
426.499	577.36
426.875	587.07
427.251	600.86
427.627	609.45
428.003	602.67
428.379	572.39
428.756	606.74
429.132	590.01
429.507	598.15
429.883	594.76
430.259	604.02
430.635	628.43
431.011	632.05
431.387	655.1
431.763	629.56
432.138	654.42
432.514	628.66
432.89	643.34
433.265	665.49
433.641	676.79
434.016	651.03
434.392	663.01
434.767	686.96
435.143	673.85
435.518	690.8
435.894	687.19
436.269	704.59
436.644	705.26
437.02	719.27
437.395	721.99
437.77	710.69
438.145	724.92
438.52	717.47
438.895	746.84
439.271	737.58
439.646	755.43
440.021	758.37
440.395	761.53
440.77	755.21
441.145	798.14
441.52	779.61
441.895	771.48
442.27	764.92
442.645	766.96
443.019	777.35
443.394	800.4
443.769	802.66
444.143	805.83
444.518	798.82
444.892	820.52
445.267	798.37
445.641	823.45
446.016	806.05
446.39	823.9
446.764	823.23
447.139	829.55
447.513	831.81
447.887	824.13
448.262	823
448.636	842.21
449.01	851.93
449.384	842.21
449.758	858.03
450.132	848.54
450.506	865.49
450.88	850.8
451.254	856.22
451.628	862.32
452.002	883.79
452.376	865.71
452.75	894.86
453.123	900.74
453.497	919.72
453.871	914.3
454.244	915.43
454.618	944.58
454.992	947.74
455.365	931.25
455.739	943.22
456.112	964.69
456.486	971.7
456.859	987.29
457.232	1014.18
457.606	1020.96
457.979	1007.63
458.352	1006.95
458.725	1025.93
459.099	1014.41
459.472	1034.75
459.845	1070.9
460.218	1063.22
460.591	1062.77
460.964	1073.16
461.337	1094.18
461.71	1092.82
462.083	1115.65
462.456	1081.98
462.829	1117
463.201	1127.4
463.574	1137.34
463.947	1130.56
464.32	1157.46
464.692	1177.79
465.065	1193.16
465.438	1198.13
465.81	1230
466.183	1214.63
466.555	1228.19
466.928	1246.27
467.3	1269.77
467.672	1245.14
468.045	1283.55
468.417	1308.64
468.789	1308.19
469.161	1313.61
469.534	1329.65
469.906	1355.42
470.278	1391.35
470.65	1398.58
471.022	1416.88
471.394	1422.08
471.766	1437.22
472.138	1471.8
472.51	1450.33
472.882	1498.69
473.253	1532.59
473.625	1525.13
473.997	1589.53
474.369	1588.18
474.74	1580.5
475.112	1599.25
475.484	1642.64
475.855	1683.09
476.227	1698.91
476.598	1709.98
476.97	1723.32
477.341	1786.14
477.713	1805.57
478.084	1830.88
478.455	1849.19
478.827	1869.3
479.198	1956.76
479.569	1955.4
479.94	1957.89
480.311	1998.56
480.682	2051.9
481.053	2074.72
481.424	2118.79
481.795	2152.23
482.166	2175.06
482.537	2217.09
482.908	2247.6
483.279	2275.62
483.65	2306.35
484.021	2345.9
484.391	2337.99
484.762	2399.68
485.133	2461.6
485.503	2439
485.874	2516.97
486.244	2562.39
486.615	2588.83
486.985	2604.88
487.356	2654.37
487.726	2700.24
488.097	2741.82
488.467	2729.84
488.837	2801.25
489.207	2846
489.578	2875.15
489.948	2922.15
490.318	2952.89
490.688	2951.31
491.058	3029.72
491.428	3024.07
491.798	3085.99
492.168	3141.58
492.538	3152.21
492.908	3184.07
493.278	3212.77
493.648	3206.22
494.017	3256.84
494.387	3286.89
494.757	3310.62
495.126	3379.77
495.496	3402.82
495.866	3418.64
496.235	3451.86
496.605	3470.39
496.974	3451.18
497.344	3519.43
497.713	3597.17
498.082	3556.04
498.452	3629.71
498.821	3628.35
499.19	3683.72
499.559	3676.71
499.928	3710.83
500.298	3730.04
500.667	3745.86
501.036	3756.94
501.405	3794.22
501.774	3803.71
502.143	3840.1
502.512	3865.86
502.88	3843.26
503.249	3833.77
503.618	3902.69
503.987	3912.86
504.356	3927.1
504.724	3984.5
505.093	3932.3
505.462	3962.81
505.83	3984.5
506.199	4019.53
506.567	4072.86
506.936	4106.3
507.304	4088.9
507.672	4132.52
508.041	4142.24
508.409	4172.52
508.777	4246.87
509.145	4239.18
509.514	4209.35
509.882	4236.47
510.25	4271.72
510.618	4259.29
510.986	4262.46
511.354	4295.23
511.722	4324.38
512.09	4384.72
512.458	4337.03
512.826	4400.53
513.193	4390.59
513.561	4422.23
513.929	4449.35
514.297	4447.09
514.664	4474.88
515.032	4477.14
515.4	4527.76
515.767	4535.22
516.135	4501.1
516.502	4499.97
516.869	4573.18
517.237	4550.36
517.604	4564.82
517.972	4603.47
518.339	4625.61
518.706	4661.54
519.073	4629.45
519.44	4678.94
519.808	4681.66
520.175	4696.35
520.542	4765.5
520.909	4801.2
521.276	4762.56
521.643	4822.44
522.009	4830.81
522.376	4813.63
522.743	4864.48
523.11	4844.14
523.477	4919.62
523.843	4961.65
524.21	4966.85
524.577	5016.79
524.943	5051.82
525.31	5018.37
525.676	5070.12
526.043	5084.81
526.409	5094.53
526.776	5129.1
527.142	5134.3
527.508	5153.51
527.874	5237.8
528.241	5212.26
528.607	5288.42
528.973	5344.01
529.339	5285.26
529.705	5367.29
530.071	5400.96
530.437	5404.8
530.803	5423.33
531.169	5480.51
531.535	5464.23
531.901	5494.29
532.267	5527.51
532.632	5570.67
532.998	5509.43
533.364	5627.62
533.73	5624
534.095	5633.95
534.461	5642.76
534.826	5714.17
535.192	5712.36
535.557	5704.68
535.923	5746.71
536.288	5752.59
536.653	5775.19
537.019	5763.21
537.384	5828.07
537.749	5845.69
538.114	5884.79
538.479	5862.87
538.845	5968.4
539.21	5922.3
539.575	5953.71
539.94	6002.75
540.305	6028.51
540.67	6000.72
541.034	6059.47
541.399	6020.15
541.764	6080.49
542.129	6126.36
542.494	6166.59
542.858	6186.02
543.223	6111.9
543.587	6230.09
543.952	6209.3
544.316	6282.52
544.681	6272.12
545.045	6335.62
545.41	6381.05
545.774	6367.04
546.138	6353.48
546.503	6382.85
546.867	6445.45
547.231	6460.59
547.595	6508.5
547.959	6489.07
548.324	6476.41
548.688	6545.11
549.052	6627.14
549.416	6614.04
549.779	6595.96
550.143	6582.62
550.507	6687.03
550.871	6733.35
551.235	6609.29
551.599	6741.04
551.962	6727.93
552.326	6753.69
552.689	6759.34
553.053	6747.82
553.417	6819.91
553.78	6876.4
554.143	6874.82
554.507	6939.68
554.87	6901.49
555.234	6967.7
555.597	6914.82
555.96	6973.8
556.323	7046.34
556.686	7008.38
557.05	7037.53
557.413	7038.43
557.776	7096.28
558.139	7148.71
558.502	7105.77
558.865	7177.86
559.228	7190.52
559.59	7202.95
559.953	7274.13
560.316	7372.43
560.679	7316.84
561.041	7301.7
561.404	7309.16
561.767	7364.98
562.129	7379.44
562.492	7440.45
562.854	7440.23
563.217	7425.31
563.579	7508.7
563.941	7562.03
564.304	7555.25
564.666	7566.1
565.028	7570.17
565.39	7595.7
565.753	7567.23
566.115	7651.52
566.477	7710.73
566.839	7705.98
567.201	7838.86
567.563	7768.58
567.925	7841.8
568.287	7891.74
568.648	7915.47
569.01	7892.42
569.372	7969.71
569.734	7980.33
570.095	7983.26
570.457	8047.22
570.819	8063.49
571.18	8107.78
571.542	8136.03
571.903	8141.68
572.265	8189.59
572.626	8241.79
572.987	8324.05
573.349	8306.65
573.71	8405.63
574.071	8435.23
574.432	8505.51
574.794	8550.03
575.155	8547.54
575.516	8613.76
575.877	8656.92
576.238	8743.47
576.599	8799.51
576.96	8866.86
577.32	8876.12
577.681	8953.41
578.042	9046.29
578.403	9145.49
578.763	9243.8
579.124	9290.57
579.485	9368.76
579.845	9544.81
580.206	9559.27
580.566	9710.68
580.927	9742.09
581.287	9901.41
581.648	9959.03
582.008	10209.65
582.368	10253.94
582.728	10383.88
583.089	10518.57
583.449	10693.02
583.809	10842.17
584.169	10977.31
584.529	11136.63
584.889	11386.79
585.249	11526
585.609	11501.14
585.969	11812.77
586.329	11937.96
586.688	12144.29
587.048	12340.89
587.408	12647.1
587.768	12834.66
588.127	12979.07
588.487	13151.26
588.846	13511.48
589.206	13642.32
589.565	13823.79
589.925	14183.55
590.284	14350.1
590.643	14683.65
591.003	14862.86
591.362	15207.26
591.721	15371.54
592.08	15713.23
592.44	15950.74
592.799	16258.75
593.158	16376.72
593.517	16774.67
593.876	17060.77
594.235	17359.97
594.593	17635.89
594.952	17915.88
595.311	18236.55
595.67	18514.74
596.029	18952.47
596.387	19097.32
596.746	19489.18
597.104	19664.09
597.463	20040.35
597.822	20385.65
598.18	20484.18
598.538	20781.35
598.897	21177.04
599.255	21339.07
599.613	21916.91
599.972	22101.54
600.33	22315.54
600.688	22555.08
601.046	22899.93
601.404	23221.28
601.762	23353.48
602.12	23799.57
602.478	24003.86
602.836	24284.76
603.194	24446.33
603.552	24745.08
603.91	24856.27
604.268	25436.14
604.625	25450.38
604.983	25865.51
605.341	25982.11
605.698	26466.62
606.056	26675.88
606.413	26877.91
606.771	27188.64
607.128	27414.39
607.485	27481.28
607.843	27686.93
608.2	28152
608.557	28338.44
608.914	28523.52
609.272	28815.71
609.629	29098.42
609.986	29304.96
610.343	29451.85
610.7	29866.76
611.057	29992.63
611.414	30193.3
611.771	30236.46
612.127	30666.96
612.484	30841.65
612.841	31072.38
613.198	31159.15
613.554	31351.01
613.911	31635.98
614.267	31770.21
614.624	31907.38
614.98	32061.73
615.337	32428.27
615.693	32458.78
616.05	32628.04
616.406	32881.37
616.762	32930.86
617.118	33049.95
617.475	33210.85
617.831	33389.15
618.187	33649.26
618.543	33718.63
618.899	34069.58
619.255	34062.8
619.611	34129.02
619.967	34492.85
620.323	34484.04
620.678	34507.99
621.034	34525.39
621.39	34691.26
621.746	34800.19
622.101	35241.31
622.457	35127.86
622.812	35212.83
623.168	35400.4
623.523	35494.41
623.879	35786.38
624.234	35394.3
624.589	35796.09
624.945	35843.55
625.3	35943.66
625.655	35943.66
626.01	36058.46
626.365	36218.68
626.72	36261.17
627.075	36230.66
627.43	36275.85
627.785	36271.11
628.14	36457.09
628.495	36574.38
628.85	36595.39
629.205	36539.12
629.559	36704.54
629.914	36624.32
630.269	36678.56
630.623	36735.5
630.978	36763.52
631.332	36895.5
631.687	36978.66
632.041	36879.91
632.396	36947.25
632.75	36850.53
633.104	37016.4
633.459	36836.07
633.813	36939.57
634.167	36975.72
634.521	37102.72
634.875	37017.08
635.229	37100.01
635.583	36918.55
635.937	36992.67
636.291	37053.01
636.645	36910.64
636.999	37057.53
637.352	37177.98
637.706	36876.97
638.06	37194.02
638.413	37052.1
638.767	36883.75
639.121	37064.08
639.474	36810.53
639.828	37021.37
640.181	36920.58
640.534	37029.51
640.888	37031.54
641.241	36815.05
641.594	36884.65
641.947	36995.84
642.301	36923.52
642.654	36809.85
643.007	37001.26
643.36	36940.02
643.713	36894.14
644.066	37022.05
644.419	36789.51
644.771	36568.95
645.124	36329.86
645.477	36216.87
645.83	35957.22
646.182	35817.79
646.535	35806.71
646.888	35817.34
647.24	35764.46
647.593	35888.75
647.945	35881.06
648.298	35792.48
648.65	35623.89
649.002	35556.1
649.355	35757.68
649.707	35597
650.059	35800.39
650.411	36317.66
650.763	36265.91
651.115	36746.12
651.467	36594.72
651.819	36507.26
652.171	36547.49
652.523	36397.66
652.875	36474.04
653.227	36457.54
653.578	36606.92
653.93	36403.76
654.282	36196.08
654.633	36303.2
654.985	36396.08
655.337	36374.61
655.688	36365.34
656.039	36467.04
656.391	36119.02
656.742	36322.86
657.094	36347.26
657.445	36479.46
657.796	36258.91
658.147	36201.28
658.498	36281.28
658.849	36161.28
659.2	36340.94
659.551	36137.1
659.902	36224.56
660.253	36274.05
660.604	36207.83
660.955	36065.24
661.306	36226.14
661.656	36200.15
662.007	36131
662.358	36244.22
662.708	36060.27
663.059	36124.9
663.409	35997.67
663.76	36274.5
664.11	36179.36
664.461	36333.71
664.811	36138.46
665.161	36084.45
665.511	36168.51
665.862	36138
666.212	36223.65
666.562	36185.91
666.912	36087.84
667.262	36109.53
667.612	36166.93
667.962	36046.26
668.312	36024.34
668.662	36260.26
669.011	36140.72
669.361	36119.02
669.711	36007.61
670.06	35992.02
670.41	35976.43
670.76	35838.58
671.109	36045.13
671.459	35903.43
671.808	36046.93
672.157	36043.32
672.507	35820.27
672.856	35948.18
673.205	35893.72
673.554	35940.04
673.904	35854.17
674.253	35951.12
674.602	35926.94
674.951	35345.48
675.3	35268.87
675.649	35731.69
675.998	35754.06
676.346	35787.05
676.695	35895.75
677.044	35528.98
677.393	35723.1
677.741	35714.06
678.09	35646.49
678.438	35494.41
678.787	35623.89
679.135	35533.5
679.484	35409.89
679.832	35395.43
680.181	35309.55
680.529	35434.07
680.877	35449.21
681.225	35301.42
681.573	35432.03
681.922	35301.87
682.27	35084.92
682.618	35106.39
682.966	35030.01
683.314	35242.66
683.661	34979.62
684.009	34820.75
684.357	34781.2
684.705	34725.61
685.053	34837.93
685.4	34600.42
685.748	34616.24
686.095	34558.84
686.443	34476.81
686.79	34502.34
687.138	34396.13
687.485	34421.21
687.832	34296.47
688.18	34363.81
688.527	34195
688.874	34223.48
689.221	34156.36
689.568	34036.82
689.915	33891.74
690.262	33900.55
690.609	33867.56
690.956	33705.07
691.303	33614
691.65	33531.07
691.997	33538.3
692.344	33351.19
692.69	33332.2
693.037	33425.31
693.383	33210.62
693.73	33374.01
694.077	33037.75
694.423	33127.91
694.769	32877.98
695.116	32797.98
695.462	32919.78
695.808	32812.67
696.155	32813.12
696.501	32504.88
696.847	32485.67
697.193	32273.7
697.539	32420.14
697.885	32236.64
698.231	32122.97
698.577	32097.88
698.923	31987.61
699.269	31917.32
699.614	31687.5
699.96	31756.88
700.306	31650.44
700.651	31511.23
700.997	31461.52
701.342	31406.15
701.688	31369.99
702.033	31274.86
702.379	31168.87
702.724	31078.02
703.069	31255.65
703.415	30856.56
703.76	30833.51
704.105	30894.75
704.45	30780.63
704.795	30583.12
705.14	30546.06
705.485	30593.74
705.83	30403.69
706.175	30443.69
706.52	30256.58
706.865	30347.87
707.209	30214.54
707.554	30078.28
707.899	30135.22
708.243	29955.12
708.588	29992.86
708.932	29757.38
709.277	29775.91
709.621	29696.59
709.966	29663.6
710.31	29813.2
710.654	29358.75
710.998	29456.15
711.342	29488.69
711.687	29384.51
712.031	29234.23
712.375	29167.34
712.719	29179.32
713.063	29140.9
713.407	29086.89
713.75	28978.64
714.094	28983.39
714.438	28928.02
714.782	28905.2
715.125	28758.99
715.469	28838.54
715.812	28647.58
716.156	28570.75
716.499	28463.18
716.843	28665.43
717.186	28456.17
717.53	28519.45
717.873	28418.66
718.216	28366.68
718.559	28333.46
718.902	28056.86
719.246	28254.82
719.589	28044.21
719.932	27992.68
720.275	28008.05
720.617	27833.82
720.96	27892.8
721.303	27848.96
721.646	27819.35
721.989	27625.46
722.331	27846.92
722.674	27659.36
723.016	27798.79
723.359	27589.53
723.701	27666.59
724.044	27505.24
724.386	27448.29
724.729	27476.76
725.071	27419.82
725.413	27401.51
725.755	27393.83
726.097	27315.86
726.439	27232.25
726.782	27153.61
727.124	27195.41
727.465	27090.56
727.807	27057.57
728.149	27055.08
728.491	26958.58
728.833	27045.81
729.175	26884.91
729.516	26708.42
729.858	26830.9
730.199	26752.04
730.541	26681.3
730.882	26758.59
731.224	26654.86
731.565	26598.59
731.906	26602.66
732.248	26584.36
732.589	26409.45
732.93	26409.22
733.271	26396.57
733.612	26352.5
733.953	26454.87
734.294	26376.23
734.635	26318.38
734.976	26317.02
735.317	26232.05
735.658	26131.26
735.999	26136.91
736.339	26065.5
736.68	26146.63
737.021	26062.11
737.361	25948.22
737.702	25892.4
738.042	25970.59
738.383	25842.68
738.723	25964.26
739.063	25744.15
739.404	25716.13
739.744	25753.64
740.084	25652.63
740.424	25701.22
740.764	25586.64
741.104	25696.25
741.444	25502.8
741.784	25465.74
742.124	25476.82
742.464	25462.13
742.804	25439.08
743.143	25420.55
743.483	25323.6
743.823	25242.25
744.162	25237.05
744.502	25245.41
744.841	25130.61
745.181	25249.03
745.52	25115.7
745.86	25144.62
746.199	25082.02
746.538	25083.83
746.877	25094.68
747.216	25066.21
747.556	24934.91
747.895	24955.02
748.234	24900.11
748.573	24803.84
748.911	24800.9
749.25	24711.64
749.589	24722.03
749.928	24801.35
750.267	24779.66
750.605	24621.7
750.944	24604.07
751.283	24480.68
751.621	24592.09
751.96	24397.75
752.298	24502.15
752.636	24365.88
752.975	24312.33
753.313	24210.18
753.651	24228.04
753.989	24192.78
754.327	24145.33
754.666	24016.74
755.004	24097.87
755.342	24017.65
755.679	24033.69
756.017	23821.94
756.355	23877.54
756.693	23707.15
757.031	23777.2
757.368	23703.98
757.706	23674.38
758.044	23568.84
758.381	23578.56
758.719	23499.01
759.056	23525.23
759.394	23407.27
759.731	23334.05
760.068	23172.7
760.405	23097.44
760.743	23176.54
761.08	23168.4
