Data from hue_140_FLMS001491_00034.txt Node
Date: Tue Feb 07 16:55:50 GMT 2017
User: dcchb
Spectrometer: FLMS00149
Trigger mode: 0
Integration Time (sec): 2.000000E-2
Scans to average: 10
Electric dark correction enabled: true
Nonlinearity correction enabled: false
Boxcar width: 0
XAxis mode: Wavelengths
Number of Pixels in Spectrum: 2048
>>>>>Begin Spectral Data<<<<<
341.393	-29.65
341.776	-29.65
342.16	-29.65
342.543	-73.03
342.927	-47.27
343.31	-67.16
343.693	-60.15
344.077	-59.48
344.46	-75.29
344.843	-59.48
345.226	-38.23
345.61	-36.65
345.993	-15.41
346.376	11.26
346.759	9.45
347.142	18.04
347.525	30.47
347.908	60.07
348.291	64.36
348.674	89.67
349.057	128.54
349.44	129.22
349.823	150.24
350.206	171.03
350.588	198.14
350.971	223.23
351.354	261.42
351.737	265.71
352.119	270.46
352.502	255.32
352.884	270.23
353.267	281.31
353.65	302.32
354.032	292.61
354.414	333.73
354.797	305.71
355.179	314.53
355.562	326.28
355.944	340.97
356.326	332.6
356.709	355.88
357.091	338.03
357.473	345.94
357.855	361.76
358.238	360.63
358.62	353.85
359.002	348.65
359.384	349.1
359.766	323.11
360.148	344.13
360.53	364.02
360.912	357.69
361.294	326.73
361.676	333.06
362.057	324.02
362.439	344.13
362.821	340.74
363.203	341.87
363.584	332.83
363.966	331.93
364.348	319.5
364.729	314.07
365.111	334.64
365.493	326.05
365.874	318.37
366.256	333.06
366.637	321.76
367.019	304.81
367.4	325.82
367.781	325.15
368.163	338.03
368.544	310.46
368.925	324.47
369.306	308.42
369.688	304.36
370.069	331.02
370.45	336.45
370.831	333.73
371.212	325.37
371.593	312.04
371.974	315.88
372.355	321.98
372.736	328.76
373.117	332.83
373.498	311.81
373.879	327.86
374.26	334.64
374.641	328.31
375.021	326.95
375.402	329.89
375.783	306.84
376.163	307.52
376.544	319.27
376.925	324.47
377.305	335.09
377.686	335.99
378.066	315.66
378.447	324.69
378.827	334.41
379.208	335.32
379.588	345.03
379.968	330.8
380.349	331.02
380.729	337.8
381.109	347.97
381.489	334.64
381.87	350.91
382.25	335.77
382.63	334.41
383.01	346.39
383.39	371.93
383.77	368.99
384.15	352.26
384.53	357.91
384.91	356.78
385.29	353.39
385.67	357.91
386.049	347.52
386.429	354.98
386.809	350.23
387.189	370.8
387.568	354.52
387.948	342.1
388.328	374.19
388.707	377.57
389.087	355.2
389.466	373.28
389.846	370.57
390.225	366.05
390.605	364.69
390.984	368.54
391.363	394.07
391.743	385.48
392.122	384.35
392.501	367.86
392.881	379.16
393.26	382.77
393.639	395.65
394.018	399.5
394.397	383
394.776	391.13
395.155	395.88
395.534	392.49
395.913	405.37
396.292	396.33
396.671	400.63
397.05	374.64
397.429	391.81
397.808	390.46
398.186	404.69
398.565	380.96
398.944	427.52
399.323	415.54
399.701	412.6
400.08	411.25
400.458	399.5
400.837	418.93
401.215	427.97
401.594	407.4
401.972	415.09
402.351	398.14
402.729	418.25
403.107	437.91
403.486	419.83
403.864	421.19
404.242	441.75
404.62	433.84
404.999	412.6
405.377	441.53
405.755	431.13
406.133	439.95
406.511	445.37
406.889	453.28
407.267	439.72
407.645	443.79
408.023	464.58
408.401	451.02
408.779	477.46
409.156	460.96
409.534	469.55
409.912	471.13
410.29	474.3
410.667	496.22
411.045	485.37
411.422	478.36
411.8	489.89
412.178	481.07
412.555	494.18
412.933	523.33
413.31	487.18
413.687	505.48
414.065	499.38
414.442	517.23
414.819	523.56
415.197	507.06
415.574	533.05
415.951	542.54
416.328	542.77
416.705	529.21
417.082	515.42
417.46	522.88
417.837	537.34
418.214	555.42
418.591	550.23
418.967	535.99
419.344	551.13
419.721	551.81
420.098	554.07
420.475	545.71
420.852	557.23
421.228	584.35
421.605	554.29
421.982	560.39
422.358	554.07
422.735	583.22
423.111	588.87
423.488	603.78
423.864	587.96
424.241	616.44
424.617	596.55
424.994	618.02
425.37	612.82
425.746	613.27
426.123	600.62
426.499	620.73
426.875	622.54
427.251	644.46
427.627	634.74
428.003	646.04
428.379	658.92
428.756	659.38
429.132	650.34
429.507	677
429.883	668.87
430.259	662.99
430.635	684.23
431.011	675.19
431.387	674.29
431.763	677.91
432.138	693.05
432.514	716.32
432.89	723.55
433.265	711.13
433.641	715.87
434.016	737.57
434.392	742.76
434.767	747.73
435.143	772.14
435.518	751.58
435.894	780.05
436.269	743.89
436.644	763.33
437.02	782.99
437.395	790.67
437.77	815.76
438.145	803.1
438.52	789.09
438.895	802.65
439.271	822.53
439.646	826.6
440.021	851.01
440.395	841.29
440.77	846.04
441.145	822.08
441.52	843.78
441.895	871.35
442.27	860.05
442.645	856.88
443.019	862.08
443.394	878.35
443.769	892.82
444.143	893.27
444.518	915.41
444.892	888.52
445.267	898.69
445.641	886.49
446.016	921.06
446.39	928.07
446.764	952.47
447.139	935.98
447.513	928.29
447.887	946.37
448.262	957.22
448.636	915.87
449.01	950.44
449.384	961.29
449.758	979.14
450.132	983.43
450.506	992.93
450.88	994.73
451.254	1001.74
451.628	1015.3
452.002	999.03
452.376	1025.02
452.75	1042.64
453.123	1066.82
453.497	1051.68
453.871	1081.96
454.244	1076.99
454.618	1115.41
454.992	1082.87
455.365	1082.87
455.739	1127.39
456.112	1148.18
456.486	1130.78
456.859	1122.41
457.232	1190.89
457.606	1182.3
457.979	1183.66
458.352	1229.3
458.725	1205.8
459.099	1240.38
459.472	1260.26
459.845	1268.4
460.218	1283.77
460.591	1292.8
460.964	1311.79
461.337	1331.45
461.71	1349.53
462.083	1358.11
462.456	1370.09
462.829	1380.71
463.201	1423.2
463.574	1439.92
463.947	1437.89
464.32	1463.65
464.692	1495.96
465.065	1495.96
465.438	1530.09
465.81	1536.19
466.183	1548.17
466.555	1602.63
466.928	1611.67
467.3	1598.33
467.672	1643.08
468.045	1690.53
468.417	1664.09
468.789	1717.88
469.161	1740.48
469.534	1770.98
469.906	1817.54
470.278	1845.11
470.65	1873.13
471.022	1926.23
471.394	1933.01
471.766	1961.26
472.138	2010.07
472.51	2068.38
472.882	2075.38
473.253	2109.51
473.625	2151.77
473.997	2238.54
474.369	2235.61
474.74	2329.16
475.112	2367.35
475.484	2404.87
475.855	2445.77
476.227	2490.51
476.598	2550.17
476.97	2647.35
477.341	2744.97
477.713	2795.59
478.084	2834.46
478.455	2933.44
478.827	2979.31
479.198	3095.24
479.569	3116.94
479.94	3269.48
480.311	3307.22
480.682	3436.03
481.053	3512.86
481.424	3594.44
481.795	3699.07
482.166	3773.42
482.537	3859.74
482.908	4017.71
483.279	4050.47
483.65	4196.68
484.021	4353.29
484.391	4436.23
484.762	4530.69
485.133	4649.78
485.503	4731.58
485.874	4950.79
486.244	5026.72
486.615	5168.64
486.985	5238.92
487.356	5406.82
487.726	5546.48
488.097	5747.6
488.467	5792.35
488.837	5930.65
489.207	6127.48
489.578	6231.43
489.948	6393.46
490.318	6553.68
490.688	6609.05
491.058	6803.39
491.428	7010.39
491.798	7044.07
492.168	7263.72
492.538	7392.98
492.908	7546.43
493.278	7714.56
493.648	7825.97
494.017	8027.54
494.387	8145.28
494.757	8287.65
495.126	8377.36
495.496	8550.69
495.866	8642.44
496.235	8816.67
496.605	8963.34
496.974	9094.86
497.344	9223.44
497.713	9295.31
498.082	9445.58
498.452	9543.66
498.821	9702.53
499.19	9744.33
499.559	9926.7
499.928	10093.93
500.298	10166.24
500.667	10298.67
501.036	10339.8
501.405	10435.16
501.774	10597.65
502.143	10657.98
502.512	10744.08
502.88	10916.51
503.249	10925.77
503.618	11078.99
503.987	11132.77
504.356	11278.76
504.724	11340.22
505.093	11339.77
505.462	11485.31
505.83	11632.42
506.199	11654.79
506.567	11864.73
506.936	11847.33
507.304	11985.18
507.672	12030.6
508.041	12167.77
508.409	12150.37
508.777	12409.12
509.145	12395.11
509.514	12410.03
509.882	12567.99
510.25	12510.36
510.618	12574.32
510.986	12637.14
511.354	12702.67
511.722	12861.09
512.09	12870.35
512.458	12941.54
512.826	13096.11
513.193	13068.09
513.561	13116
513.929	13199.84
514.297	13239.84
514.664	13446.61
515.032	13410.9
515.4	13461.3
515.767	13484.8
516.135	13483.44
516.502	13445.71
516.869	13606.15
517.237	13661.07
517.604	13578.13
517.972	13800.95
518.339	13793.04
518.706	13711.01
519.073	13793.95
519.44	13828.07
519.808	13881.4
520.175	13937.22
520.542	14076.2
520.909	14146.48
521.276	14016.09
521.643	14078.68
522.009	14076.65
522.376	14226.02
522.743	14153.94
523.11	14298.79
523.477	14429.41
523.843	14416.98
524.21	14468.96
524.577	14490.65
524.943	14559.8
525.31	14599.35
525.676	14731.77
526.043	14678.89
526.409	14685.22
526.776	14744.88
527.142	14669.63
527.508	14797.08
527.874	14897.19
528.241	14850.64
528.607	14723.64
528.973	14840.92
529.339	14795.73
529.705	14903.29
530.071	14868.95
530.437	14940.81
530.803	14900.13
531.169	14934.93
531.535	14861.94
531.901	14885.89
532.267	14867.59
532.632	14881.15
532.998	14868.72
533.364	14961.15
533.73	14885.22
534.095	14858.1
534.461	14902.62
534.826	14913.92
535.192	14921.37
535.557	14913.24
535.923	14840.25
536.288	14786.69
536.653	14873.01
537.019	14633.02
537.384	14690.42
537.749	14744.65
538.114	14606.58
538.479	14724.99
538.845	14649.52
539.21	14537.43
539.575	14575.62
539.94	14562.06
540.305	14538.78
540.67	14493.81
541.034	14438.45
541.399	14498.11
541.764	14395.96
542.129	14354.61
542.494	14323.87
542.858	14357.77
543.223	14326.36
543.587	14338.79
543.952	14212.01
544.316	14156.42
544.681	14183.09
545.045	14150.77
545.41	14178.57
545.774	14116.2
546.138	14075.75
546.503	14046.37
546.867	14010.21
547.231	13990.1
547.595	13918.01
547.959	14000.72
548.324	13914.62
548.688	13934.51
549.052	13878.24
549.416	13839.59
549.779	13761.18
550.143	13711.01
550.507	13784.23
550.871	13620.16
551.235	13649.99
551.599	13685.47
551.962	13731.35
552.326	13640.28
552.689	13621.07
553.053	13559.15
553.417	13549.88
553.78	13563.44
554.143	13495.65
554.507	13435.31
554.87	13442.99
555.234	13607.96
555.597	13427.85
555.96	13398.93
556.323	13362.77
556.686	13442.54
557.05	13398.48
557.413	13429.66
557.776	13418.14
558.139	13416.55
558.502	13419.04
558.865	13320.74
559.228	13411.58
559.59	13436.67
559.953	13370.91
560.316	13469.66
560.679	13393.28
561.041	13424.24
561.404	13458.13
561.767	13512.6
562.129	13437.57
562.492	13488.19
562.854	13396.44
563.217	13398.7
563.579	13432.15
563.941	13505.37
564.304	13497.68
564.666	13515.76
565.028	13546.72
565.39	13530.9
565.753	13583.33
566.115	13581.97
566.477	13596.66
566.839	13616.1
567.201	13652.48
567.563	13658.36
567.925	13707.17
568.287	13654.06
568.648	13628.98
569.01	13677.79
569.372	13754.4
569.734	13638.47
570.095	13742.65
570.457	13749.43
570.819	13739.26
571.18	13747.39
571.542	13835.98
571.903	13809.76
572.265	13793.49
572.626	13869.88
572.987	13824
573.349	13825.81
573.71	13850.21
574.071	13817.9
574.432	13865.13
574.794	13978.57
575.155	13953.49
575.516	13899.93
575.877	13944.68
576.238	14004.79
576.599	13968.86
576.96	13998.23
577.32	13922.76
577.681	14067.84
578.042	13990.78
578.403	13963.88
578.763	13944.9
579.124	14039.14
579.485	14084.79
579.845	14065.58
580.206	14017.67
580.566	13985.13
580.927	13977.67
581.287	14128.63
581.648	13943.32
582.008	14091.56
582.368	13973.38
582.728	13995.52
583.089	14059.7
583.449	13959.82
583.809	14040.72
584.169	14004.34
584.529	13891.34
584.889	14066.71
585.249	13977.22
585.609	13888.86
585.969	13969.08
586.329	13968.4
586.688	14025.35
587.048	13926.82
587.408	13904.45
587.768	13860.84
588.127	13925.24
588.487	13867.84
588.846	13860.61
589.206	13805.02
589.565	13822.19
589.925	13887.05
590.284	13876.43
590.643	13946.48
591.003	13911.68
591.362	13932.7
591.721	13902.42
592.08	13871.01
592.44	13873.72
592.799	13767.05
593.158	13763.66
593.517	13835.3
593.876	13780.39
594.235	13758.47
594.593	13776.32
594.952	13786.49
595.311	13715.08
595.67	13771.35
596.029	13874.17
596.387	13771.8
596.746	13826.26
597.104	13736.55
597.463	13865.81
597.822	13825.36
598.18	13686.38
598.538	13684.12
598.897	13706.94
599.255	13660.84
599.613	13838.46
599.972	13736.09
600.33	13782.87
600.688	13719.14
601.046	13762.53
601.404	13834.17
601.762	13705.59
602.12	13840.27
602.478	13827.16
602.836	13806.37
603.194	13682.31
603.552	13813.38
603.91	13684.57
604.268	13786.94
604.625	13733.61
604.983	13758.47
605.341	13688.19
605.698	13719.37
606.056	13853.15
606.413	13750.1
606.771	13818.35
607.128	13816.32
607.485	13742.2
607.843	13882.3
608.2	13913.72
608.557	13832.36
608.914	13737.22
609.272	13925.24
609.629	13884.79
609.986	13928.63
610.343	13810.89
610.7	13976.99
611.057	13915.3
611.414	13968.18
611.771	13878.24
612.127	13927.5
612.484	13971.34
612.841	13985.8
613.198	13902.19
613.554	13974.51
613.911	13979.93
614.267	14021.28
614.624	13954.39
614.98	13947.84
615.337	14099.25
615.693	14000.27
616.05	14011.11
616.406	14146.25
616.762	14039.81
617.118	14104.67
617.475	14021.74
617.831	14076.2
618.187	14071
618.543	14054.28
618.899	14070.32
619.255	14180.38
619.611	14168.4
619.967	14165.91
620.323	14207.04
620.678	14166.36
621.034	14167.27
621.39	14053.37
621.746	14075.97
622.101	14303.08
622.457	14169.75
622.812	14201.62
623.168	14167.49
623.523	14178.79
623.879	14252.24
624.234	14065.12
624.589	14210.88
624.945	14221.5
625.3	14228.06
625.655	14119.59
626.01	14179.7
626.365	14267.61
626.72	14184.9
627.075	14155.52
627.43	14192.8
627.785	14154.39
628.14	14173.14
628.495	14237.1
628.85	14135.18
629.205	14148.74
629.559	14185.8
629.914	14143.99
630.269	14104.67
630.623	14147.83
630.978	14060.6
631.332	14108.51
631.687	14208.85
632.041	14047.72
632.396	14067.84
632.75	14009.08
633.104	14095.18
633.459	13953.04
633.813	13919.37
634.167	13935.64
634.521	13915.3
634.875	13936.99
635.229	13960.49
635.583	13823.55
635.937	13888.41
636.291	13849.99
636.645	13783.32
636.999	13848.63
637.352	13826.71
637.706	13750.33
638.06	13830.33
638.413	13818.35
638.767	13772.48
639.121	13738.13
639.474	13684.57
639.828	13769.77
640.181	13671.01
640.534	13621.29
640.888	13677.79
641.241	13562.99
641.594	13631.01
641.947	13680.95
642.301	13612.03
642.654	13640.73
643.007	13657.9
643.36	13685.93
643.713	13594.4
644.066	13635.08
644.419	13587.4
644.771	13420.62
645.124	13381.53
645.477	13300.4
645.83	13266.28
646.182	13170.46
646.535	13114.64
646.888	13177.92
647.24	13010.69
647.593	13180.63
647.945	13117.13
648.298	13128.65
648.65	13073.29
649.002	13067.64
649.355	13074.64
649.707	13041.87
650.059	13102.66
650.411	13323.22
650.763	13276.44
651.115	13413.16
651.467	13372.94
651.819	13291.13
652.171	13304.92
652.523	13308.76
652.875	13292.72
653.227	13304.92
653.578	13339.04
653.93	13381.75
654.282	13342.88
654.633	13304.24
654.985	13366.16
655.337	13330.68
655.688	13336.78
656.039	13398.93
656.391	13327.74
656.742	13290.68
657.094	13372.94
657.445	13308.31
657.796	13336.33
658.147	13307.18
658.498	13346.05
658.849	13337.01
659.2	13332.04
659.551	13434.86
659.902	13495.87
660.253	13341.98
660.604	13406.38
660.955	13342.43
661.306	13333.39
661.656	13322.55
662.007	13334.3
662.358	13401.19
662.708	13411.81
663.059	13413.39
663.409	13271.47
663.76	13386.5
664.11	13339.04
664.461	13435.08
664.811	13442.09
665.161	13432.37
665.511	13370
665.862	13369.78
666.212	13367.06
666.562	13407.74
666.912	13363.67
667.262	13359.38
667.612	13370.23
667.962	13427.85
668.312	13381.75
668.662	13458.36
669.011	13353.28
669.361	13406.38
669.711	13345.14
670.06	13361.41
670.41	13308.76
670.76	13366.84
671.109	13427.85
671.459	13392.15
671.808	13330
672.157	13357.35
672.507	13288.2
672.856	13296.56
673.205	13278.25
673.554	13345.14
673.904	13254.07
674.253	13342.66
674.602	13231.02
674.951	13070.8
675.3	13019.73
675.649	13249.78
675.998	13263.56
676.346	13208.65
676.695	13285.03
677.044	13201.64
677.393	13195.77
677.741	13182.89
678.09	13136.79
678.438	13088.43
678.787	13099.73
679.135	13090.91
679.484	13038.94
679.832	13026.96
680.181	13008.43
680.529	12992.61
680.877	12979.5
681.225	12910.8
681.573	13084.81
681.922	12886.17
682.27	12922.33
682.618	12873.97
682.966	12891.6
683.314	12856.34
683.661	12776.34
684.009	12784.71
684.357	12738.15
684.705	12700.64
685.053	12726.18
685.4	12726.85
685.748	12672.39
686.095	12596.01
686.443	12615.67
686.79	12544.94
687.138	12572.96
687.485	12616.12
687.832	12544.03
688.18	12552.17
688.527	12457.03
688.874	12451.16
689.221	12382.46
689.568	12391.27
689.915	12384.49
690.262	12323.48
690.609	12271.27
690.956	12221.11
691.303	12236.02
691.65	12083.03
691.997	12129.58
692.344	12084.84
692.69	12036.03
693.037	12006.87
693.383	11888.68
693.73	11939.98
694.077	11823.83
694.423	11838.29
694.769	11753.77
695.116	11775.92
695.462	11676.94
695.808	11640.78
696.155	11722.14
696.501	11612.99
696.847	11596.71
697.193	11473.33
697.539	11530.73
697.885	11457.51
698.231	11457.96
698.577	11349.49
698.923	11279.89
699.269	11348.13
699.614	11304.75
699.96	11248.25
700.306	11205.54
700.651	11120.34
700.997	11114.24
701.342	11151.53
701.688	11055.49
702.033	11067.46
702.379	11025.2
702.724	10926.68
703.069	10982.27
703.415	10871.08
703.76	10826.79
704.105	10846.9
704.45	10838.32
704.795	10763.29
705.14	10725.55
705.485	10672.22
705.83	10611.2
706.175	10695.27
706.52	10635.16
706.865	10603.52
707.209	10534.82
707.554	10519.46
707.899	10472.68
708.243	10455.28
708.588	10428.38
708.932	10382.74
709.277	10321.72
709.621	10347.93
709.966	10316.3
710.31	10244.21
710.654	10145.45
710.998	10246.47
711.342	10168.28
711.687	10132.8
712.031	10047.83
712.375	10104.78
712.719	10078.11
713.063	10119.69
713.407	10116.08
713.75	10054.38
714.094	10008.73
714.438	9970.77
714.782	9957.66
715.125	9981.16
715.469	10002.63
715.812	9995.18
716.156	9933.48
716.499	9911.11
716.843	9872.01
717.186	9842.41
717.53	9914.27
717.873	9825.46
718.216	9806.25
718.559	9707.95
718.902	9667.5
719.246	9762.86
719.589	9718.35
719.932	9716.54
720.275	9644.45
720.617	9714.05
720.96	9703.66
721.303	9663.21
721.646	9646.48
721.989	9661.85
722.331	9587.5
722.674	9655.75
723.016	9613.49
723.359	9576.2
723.701	9591.34
724.044	9559.71
724.386	9618.46
724.729	9567.39
725.071	9536.88
725.413	9591.57
725.755	9568.97
726.097	9485.13
726.439	9451.23
726.782	9460.05
727.124	9575.3
727.465	9454.85
727.807	9519.71
728.149	9485.13
728.491	9420.95
728.833	9498.24
729.175	9527.62
729.516	9415.98
729.858	9434.96
730.199	9404.23
730.541	9440.61
730.882	9480.39
731.224	9462.99
731.565	9371.01
731.906	9439.03
732.248	9447.84
732.589	9340.5
732.93	9379.82
733.271	9399.26
733.612	9409.2
733.953	9385.25
734.294	9333.05
734.635	9333.72
734.976	9422.08
735.317	9361.97
735.658	9379.37
735.999	9401.29
736.339	9417.34
736.68	9437.45
737.021	9465.47
737.361	9397.22
737.702	9392.25
738.042	9434.06
738.383	9399.26
738.723	9498.01
739.063	9465.92
739.404	9389.77
739.744	9419.6
740.084	9381.63
740.424	9464.12
740.764	9471.12
741.104	9560.84
741.444	9502.53
741.784	9496.43
742.124	9517.9
742.464	9505.92
742.804	9522.42
743.143	9549.54
743.483	9534.62
743.823	9604.9
744.162	9579.14
744.502	9607.39
744.841	9630.66
745.181	9653.04
745.52	9611.68
745.86	9758.57
746.199	9769.64
746.538	9767.16
746.877	9835.18
747.216	9872.92
747.556	9951.11
747.895	10005.8
748.234	10039.02
748.573	10036.08
748.911	10079.24
749.25	10104.1
749.589	10182.74
749.928	10309.52
750.267	10369.63
750.605	10429.97
750.944	10507.93
751.283	10635.38
751.621	10648.49
751.96	10726.46
752.298	10804.65
752.636	10921.03
752.975	10905.66
753.313	11110.17
753.651	11239.89
753.989	11257.97
754.327	11510.84
754.666	11600.78
755.004	11690.05
755.342	11804.62
755.679	11973.65
756.017	12072.41
756.355	12260.2
756.693	12419.97
757.031	12449.12
757.368	12638.04
757.706	12817.93
