Data from hue_260_FLMS001491_00085.txt Node
Date: Tue Feb 07 15:59:42 GMT 2017
User: dcchb
Spectrometer: FLMS00149
Trigger mode: 0
Integration Time (sec): 2.000000E-2
Scans to average: 10
Electric dark correction enabled: true
Nonlinearity correction enabled: false
Boxcar width: 0
XAxis mode: Wavelengths
Number of Pixels in Spectrum: 2048
>>>>>Begin Spectral Data<<<<<
341.393	-25.73
341.776	-25.73
342.16	-25.73
342.543	-44.49
342.927	-57.15
343.31	-68.22
343.693	-47.2
344.077	-54.21
344.46	-63.7
344.843	-60.99
345.226	-47.2
345.61	-43.13
345.993	-31.61
346.376	-2.46
346.759	6.36
347.142	37.09
347.525	40.93
347.908	65.56
348.291	68.05
348.674	90.65
349.057	110.08
349.44	117.99
349.823	132.23
350.206	167.93
350.588	181.04
350.971	202.28
351.354	219.68
351.737	240.7
352.119	253.13
352.502	263.3
352.884	239.57
353.267	282.28
353.65	273.69
354.032	284.54
354.414	296.07
354.797	301.94
355.179	307.14
355.562	316.86
355.944	319.57
356.326	323.64
356.709	330.19
357.091	317.76
357.473	320.7
357.855	346.46
358.238	312.79
358.62	319.57
359.002	328.83
359.384	343.07
359.766	339.68
360.148	325.44
360.53	350.53
360.912	316.18
361.294	327.93
361.676	323.86
362.057	323.64
362.439	339.23
362.821	322.96
363.203	319.79
363.584	315.05
363.966	324.54
364.348	328.61
364.729	336.52
365.111	303.07
365.493	297.87
365.874	312.56
366.256	304.2
366.637	278.89
367.019	301.72
367.4	302.85
367.781	318.21
368.163	311.21
368.544	301.72
368.925	291.77
369.306	316.4
369.688	311.66
370.069	303.75
370.45	295.39
370.831	311.43
371.212	298.33
371.593	300.36
371.974	299.46
372.355	313.47
372.736	290.42
373.117	315.27
373.498	307.14
373.879	320.47
374.26	293.81
374.641	301.26
375.021	315.05
375.402	318.66
375.783	310.53
376.163	297.42
376.544	310.53
376.925	312.56
377.305	305.33
377.686	316.63
378.066	302.85
378.447	316.18
378.827	312.11
379.208	314.82
379.588	326.35
379.968	316.4
380.349	325.67
380.729	334.71
381.109	328.61
381.489	336.29
381.87	330.42
382.25	358.21
382.63	325.22
383.01	315.05
383.39	324.99
383.77	348.95
384.15	329.74
384.53	326.35
384.91	342.62
385.29	350.53
385.67	344.2
386.049	355.95
386.429	349.62
386.809	352.56
387.189	334.48
387.568	343.3
387.948	350.08
388.328	361.37
388.707	356.63
389.087	351.88
389.466	362.5
389.846	362.73
390.225	383.52
390.605	366.35
390.984	358.66
391.363	362.96
391.743	371.77
392.122	367.25
392.501	370.41
392.881	376.52
393.26	398.21
393.639	380.58
394.018	365.89
394.397	365.44
394.776	370.19
395.155	381.26
395.534	371.77
395.913	364.31
396.292	388.94
396.671	400.24
397.05	391.2
397.429	389.17
397.808	399.79
398.186	400.7
398.565	390.53
398.944	384.42
399.323	377.87
399.701	404.76
400.08	419
400.458	404.09
400.837	399.79
401.215	421.94
401.594	410.19
401.972	408.38
402.351	412.45
402.729	428.72
403.107	427.14
403.486	433.01
403.864	419
404.242	446.12
404.62	431.66
404.999	433.01
405.377	444.99
405.755	429.62
406.133	450.64
406.511	445.21
406.889	465.55
407.267	449.73
407.645	462.16
408.023	465.78
408.401	491.99
408.779	461.03
409.156	494.03
409.534	491.09
409.912	494.7
410.29	505.33
410.667	527.92
411.045	502.61
411.422	544.87
411.8	522.73
412.178	517.75
412.555	569.5
412.933	544.19
413.31	555.95
413.687	555.27
414.065	585.55
414.442	588.04
414.819	597.3
415.197	593.68
415.574	588.04
415.951	595.04
416.328	606.34
416.705	619.45
417.082	644.31
417.46	638.88
417.837	663.97
418.214	657.86
418.591	657.64
418.967	667.36
419.344	682.27
419.721	679.11
420.098	671.87
420.475	682.27
420.852	701.7
421.228	687.69
421.605	714.36
421.982	719.78
422.358	730.18
422.735	762.49
423.111	761.14
423.488	782.83
423.864	768.82
424.241	798.65
424.617	767.92
424.994	826.9
425.37	827.13
425.746	804.53
426.123	828.26
426.499	842.94
426.875	862.6
427.251	884.75
427.627	874.13
428.003	886.11
428.379	906.22
428.756	912.09
429.132	938.31
429.507	952.32
429.883	939.66
430.259	971.75
430.635	971.3
431.011	996.39
431.387	1002.71
431.763	1009.04
432.138	1031.87
432.514	1028.25
432.89	1032.32
433.265	1026.67
433.641	1076.61
434.016	1077.06
434.392	1098.76
434.767	1143.95
435.143	1162.71
435.518	1175.59
435.894	1203.16
436.269	1184.18
436.644	1229.6
437.02	1220.79
437.395	1244.06
437.77	1268.7
438.145	1259.2
438.52	1307.11
438.895	1311.63
439.271	1325.42
439.646	1375.59
440.021	1366.09
440.395	1390.5
440.77	1382.36
441.145	1409.03
441.52	1405.42
441.895	1406.54
442.27	1428.69
442.645	1456.94
443.019	1479.31
443.394	1467.79
443.769	1474.79
444.143	1464.85
444.518	1514.79
444.892	1516.15
445.267	1533.55
445.641	1559.08
446.016	1550.5
446.39	1574.22
446.764	1580.78
447.139	1591.85
447.513	1606.99
447.887	1597.5
448.262	1627.33
448.636	1609.93
449.01	1625.3
449.384	1660.55
449.758	1671.85
450.132	1679.76
450.506	1692.41
450.88	1718.85
451.254	1755.01
451.628	1728.57
452.002	1751.17
452.376	1759.98
452.75	1793.88
453.123	1796.37
453.497	1792.07
453.871	1853.09
454.244	1895.12
454.618	1859.87
454.992	1891.5
455.365	1899.87
455.739	1963.59
456.112	1952.07
456.486	1952.29
456.859	1994.78
457.232	1989.35
457.606	2021.44
457.979	2054.66
458.352	2066.19
458.725	2100.99
459.099	2076.36
459.472	2132.18
459.845	2140.54
460.218	2164.27
460.591	2191.61
460.964	2208.56
461.337	2206.98
461.71	2275.67
462.083	2312.28
462.456	2318.84
462.829	2333.98
463.201	2352.51
463.574	2392.96
463.947	2350.47
464.32	2451.49
464.692	2457.82
465.065	2483.58
465.438	2506.85
465.81	2527.42
466.183	2554.31
466.555	2623.69
466.928	2626.85
467.3	2622.33
467.672	2656.68
468.045	2751.82
468.417	2762.22
468.789	2724.25
469.161	2784.36
469.534	2808.32
469.906	2886.28
470.278	2884.7
470.65	2914.98
471.022	2964.92
471.394	2982.55
471.766	3018.25
472.138	3056.9
472.51	3127.63
472.882	3183.45
473.253	3169.44
473.625	3193.39
473.997	3269.55
474.369	3339.38
474.74	3368.75
475.112	3381.18
475.484	3423.89
475.855	3476.1
476.227	3475.42
476.598	3578.01
476.97	3635.86
477.341	3683.55
477.713	3712.92
478.084	3738.46
478.455	3808.29
478.827	3843.99
479.198	3966.48
479.569	3954.5
479.94	4055.74
480.311	4046.25
480.682	4169.86
481.053	4194.95
481.424	4303.19
481.795	4330.54
482.166	4319.69
482.537	4412.12
482.908	4545.9
483.279	4540.02
483.65	4596.07
484.021	4678.1
484.391	4705.67
484.762	4748.38
485.133	4782.05
485.503	4845.78
485.874	4915.83
486.244	4932.78
486.615	5029.05
486.985	5038.54
487.356	5155.82
487.726	5206.45
488.097	5292.32
488.467	5272.43
488.837	5392.65
489.207	5427.23
489.578	5469.94
489.948	5546.32
490.318	5621.58
490.688	5622.93
491.058	5705.41
491.428	5739.76
491.798	5805.07
492.168	5921
492.538	5903.83
492.908	5951.06
493.278	5960.1
493.648	6055.01
494.017	6090.49
494.387	6140.66
494.757	6201.22
495.126	6231.5
495.496	6242.35
495.866	6269.47
496.235	6291.61
496.605	6341.56
496.974	6377.26
497.344	6432.18
497.713	6479.86
498.082	6551.72
498.452	6578.39
498.821	6573.19
499.19	6601.44
499.559	6618.39
499.928	6676.91
500.298	6718.95
500.667	6688.21
501.036	6697.25
501.405	6720.53
501.774	6795.56
502.143	6798.72
502.512	6899.06
502.88	6876.01
503.249	6873.52
503.618	6966.62
503.987	6988.77
504.356	6973.4
504.724	7015.21
505.093	7032.84
505.462	7057.02
505.83	7114.87
506.199	7155.55
506.567	7163.91
506.936	7138.6
507.304	7216.56
507.672	7225.37
508.041	7255.66
508.409	7269.44
508.777	7329.78
509.145	7342.66
509.514	7304.92
509.882	7386.27
510.25	7326.16
510.618	7408.2
510.986	7449.32
511.354	7452.71
511.722	7492.03
512.09	7579.26
512.458	7533.84
512.826	7534.07
513.193	7589.66
513.561	7551.92
513.929	7627.17
514.297	7655.19
514.664	7666.04
515.032	7682.76
515.4	7747.62
515.767	7702.88
516.135	7792.82
516.502	7763.89
516.869	7807.28
517.237	7853.61
517.604	7749.2
517.972	7832.14
518.339	7827.85
518.706	7866.71
519.073	7854.51
519.44	7894.96
519.808	8010.44
520.175	7948.97
520.542	8008.18
520.909	7960.95
521.276	7961.4
521.643	8057.22
522.009	8068.52
522.376	8046.37
522.743	8078.23
523.11	8069.42
523.477	8196.65
523.843	8240.49
524.21	8234.16
524.577	8198.23
524.943	8199.59
525.31	8288.4
525.676	8310.54
526.043	8328.85
526.409	8360.03
526.776	8407.94
527.142	8339.47
527.508	8436.64
527.874	8398
528.241	8525.91
528.607	8460.6
528.973	8463.76
529.339	8404.55
529.705	8502.18
530.071	8525
530.437	8562.97
530.803	8625.11
531.169	8616.75
531.535	8503.08
531.901	8569.75
532.267	8489.97
532.632	8555.06
532.998	8574.94
533.364	8592.8
533.73	8581.27
534.095	8636.64
534.461	8631.89
534.826	8626.92
535.192	8662.17
535.557	8666.24
535.923	8624.43
536.288	8647.71
536.653	8646.58
537.019	8664.89
537.384	8574.94
537.749	8595.96
538.114	8684.77
538.479	8589.41
538.845	8625.34
539.21	8600.03
539.575	8635.51
539.94	8645.45
540.305	8592.12
540.67	8608.62
541.034	8693.81
541.399	8661.27
541.764	8665.11
542.129	8651.78
542.494	8590.31
542.858	8632.12
543.223	8587.15
543.587	8653.81
543.952	8592.57
544.316	8640.71
544.681	8565.45
545.045	8662.63
545.41	8630.31
545.774	8609.97
546.138	8619.01
546.503	8575.62
546.867	8581.05
547.231	8596.64
547.595	8605
547.959	8565.45
548.324	8551.89
548.688	8542.4
549.052	8586.02
549.416	8506.92
549.779	8567.03
550.143	8638.9
550.507	8597.77
550.871	8584.21
551.235	8530.43
551.599	8558.22
551.962	8607.49
552.326	8574.94
552.689	8572.68
553.053	8579.24
553.417	8488.39
553.78	8613.36
554.143	8549.18
554.507	8571.55
554.87	8548.5
555.234	8668.5
555.597	8572.01
555.96	8563.19
556.323	8635.28
556.686	8567.71
557.05	8598.45
557.413	8687.48
557.776	8661.27
558.139	8698.56
558.502	8649.74
558.865	8634.38
559.228	8673.25
559.59	8713.25
559.953	8737.65
560.316	8722.28
560.679	8708.5
561.041	8797.76
561.404	8851.09
561.767	8812.45
562.129	8770.65
562.492	8850.42
562.854	8856.97
563.217	8844.54
563.579	8871.66
563.941	8906.69
564.304	8878.66
564.666	8973.58
565.028	8925.44
565.39	8978.1
565.753	9027.14
566.115	9014.71
566.477	9073.91
566.839	9041.37
567.201	9083.18
567.563	9047.25
567.925	9098.32
568.287	9184.65
568.648	9194.14
569.01	9205.21
569.372	9229.62
569.734	9222.38
570.095	9264.87
570.457	9251.08
570.819	9257.41
571.18	9256.51
571.542	9413.57
571.903	9335.83
572.265	9388.03
572.626	9449.5
572.987	9388.03
573.349	9400.91
573.71	9483.39
574.071	9430.06
574.432	9457.41
574.794	9620.34
575.155	9523.17
575.516	9551.42
575.877	9602.04
576.238	9635.26
576.599	9640.45
576.96	9678.19
577.32	9647.46
577.681	9712.54
578.042	9734.01
578.403	9778.53
578.763	9752.31
579.124	9725.65
579.485	9777.62
579.845	9895.59
580.206	9809.49
580.566	9854.91
580.927	9859.43
581.287	9924.51
581.648	9858.75
582.008	9991.63
582.368	9925.64
582.728	10004.74
583.089	9957.73
583.449	9945.53
583.809	10025.3
584.169	10046.32
584.529	9980.78
584.889	10060.1
585.249	9975.81
585.609	10034.79
585.969	10101.23
586.329	10053.1
586.688	10137.61
587.048	10060.1
587.408	10164.28
587.768	10148.91
588.127	10140.55
588.487	10109.14
588.846	10217.16
589.206	10107.56
589.565	10114.79
589.925	10161.34
590.284	10190.27
590.643	10221.68
591.003	10214.9
591.362	10287.22
591.721	10304.16
592.08	10269.14
592.44	10311.17
592.799	10366.31
593.158	10329.7
593.517	10325.86
593.876	10289.48
594.235	10316.59
594.593	10250.83
594.952	10367.21
595.311	10290.83
595.67	10369.93
596.029	10382.58
596.387	10383.94
596.746	10427.78
597.104	10424.61
597.463	10418.51
597.822	10453.76
598.18	10359.08
598.538	10464.16
598.897	10557.72
599.255	10396.82
599.613	10611.5
599.972	10447.21
600.33	10465.74
600.688	10476.36
601.046	10556.59
601.404	10563.14
601.762	10552.52
602.12	10600.43
602.478	10599.07
602.836	10538.51
603.194	10537.6
603.552	10606.08
603.91	10526.31
604.268	10597.26
604.625	10570.15
604.983	10538.51
605.341	10561.33
605.698	10648.56
606.056	10612.18
606.413	10592.74
606.771	10613.99
607.128	10594.33
607.485	10565.17
607.843	10565.85
608.2	10665.28
608.557	10702.12
608.914	10594.55
609.272	10668.45
609.629	10712.74
609.986	10705.28
610.343	10704.15
610.7	10768.56
611.057	10707.54
611.414	10715
611.771	10779.41
612.127	10812.85
612.484	10815.34
612.841	10824.6
613.198	10719.52
613.554	10766.98
613.911	10792.06
614.267	10853.3
614.624	10808.11
614.98	10827.54
615.337	10826.41
615.693	10800.42
616.05	10810.14
616.406	10949.8
616.762	10909.8
617.118	10829.12
617.475	10849.69
617.831	10905.96
618.187	10921.32
618.543	10920.19
618.899	10971.49
619.255	10956.12
619.611	10905.5
619.967	11004.03
620.323	11012.62
620.678	10942.57
621.034	10939.18
621.39	10943.02
621.746	10922.68
622.101	11075.44
622.457	11000.87
622.812	10952.28
623.168	10955.45
623.523	11051.49
623.879	10980.3
624.234	11020.3
624.589	11002.22
624.945	11021.66
625.3	10981.66
625.655	11021.89
626.01	11064.14
626.365	10969.23
626.72	11011.26
627.075	11031.6
627.43	10935.11
627.785	10947.99
628.14	10990.47
628.495	10935.33
628.85	10924.71
629.205	10909.12
629.559	11048.33
629.914	10904.83
630.269	10907.76
630.623	10860.99
630.978	10832.96
631.332	10886.52
631.687	10867.99
632.041	10886.75
632.396	10871.15
632.75	10812.17
633.104	10845.62
633.459	10786.86
633.813	10820.53
634.167	10729.46
634.521	10794.09
634.875	10757.26
635.229	10766.52
635.583	10676.81
635.937	10727.43
636.291	10687.43
636.645	10653.08
636.999	10638.84
637.352	10694.89
637.706	10560.2
638.06	10642.46
638.413	10626.87
638.767	10623.48
639.121	10615.79
639.474	10498.96
639.828	10500.54
640.181	10542.58
640.534	10543.71
640.888	10538.51
641.241	10501.67
641.594	10540.54
641.947	10552.52
642.301	10523.59
642.654	10508.23
643.007	10495.57
643.36	10545.06
643.713	10453.99
644.066	10511.39
644.419	10453.76
644.771	10313.88
645.124	10283.83
645.477	10333.09
645.83	10179.2
646.182	10218.29
646.535	10195.01
646.888	10138.07
647.24	10087.9
647.593	10117.73
647.945	10027.79
648.298	10102.36
648.65	10007.9
649.002	9975.13
649.355	10115.02
649.707	10096.03
650.059	10091.29
650.411	10217.39
650.763	10239.31
651.115	10343.94
651.467	10336.48
651.819	10359.08
652.171	10215.8
652.523	10268.23
652.875	10245.86
653.227	10178.29
653.578	10286.31
653.93	10244.28
654.282	10244.05
654.633	10245.63
654.985	10278.85
655.337	10289.48
655.688	10238.4
656.039	10300.77
656.391	10177.84
656.742	10238.63
657.094	10275.01
657.445	10296.25
657.796	10274.11
658.147	10246.31
658.498	10182.81
658.849	10313.43
659.2	10273.43
659.551	10222.13
659.902	10243.6
660.253	10292.19
660.604	10305.52
660.955	10226.65
661.306	10283.15
661.656	10272.07
662.007	10323.6
662.358	10278.63
662.708	10219.19
663.059	10266.65
663.409	10208.12
663.76	10292.41
664.11	10288.12
664.461	10232.3
664.811	10211.74
665.161	10256.93
665.511	10244.05
665.862	10238.18
666.212	10304.84
666.562	10293.54
666.912	10258.74
667.262	10154.34
667.612	10271.17
667.962	10256.71
668.312	10202.92
668.662	10246.31
669.011	10211.29
669.361	10175.13
669.711	10254.9
670.06	10181
670.41	10101.91
670.76	10084.28
671.109	10164.73
671.459	10148.46
671.808	10192.53
672.157	10228.69
672.507	10051.06
672.856	10048.13
673.205	10129.03
673.554	10159.54
673.904	10070.27
674.253	10106.2
674.602	10067.33
674.951	9966.32
675.3	9908.24
675.649	10085.86
675.998	10057.84
676.346	10087.45
676.695	10088.12
677.044	10018.52
677.393	10055.81
677.741	10039.54
678.09	9975.36
678.438	9957.96
678.787	9993.89
679.135	9898.07
679.484	9899.65
679.832	9952.08
680.181	9866.66
680.529	9924.06
680.877	9891.52
681.225	9828.47
681.573	9908.47
681.922	9891.97
682.27	9777.4
682.618	9852.88
682.966	9790.51
683.314	9926.55
683.661	9849.03
684.009	9755.03
684.357	9715.03
684.705	9737.17
685.053	9728.59
685.4	9684.52
685.748	9644.29
686.095	9649.72
686.443	9622.83
686.79	9650.4
687.138	9633.22
687.485	9603.62
687.832	9497.86
688.18	9539.66
688.527	9466.45
688.874	9439.55
689.221	9410.63
689.568	9435.71
689.915	9405.43
690.262	9332.21
690.609	9329.27
690.956	9290.18
691.303	9235.27
691.65	9171.99
691.997	9176.28
692.344	9157.98
692.69	9140.8
693.037	9233.46
693.383	9044.99
693.73	9070.3
694.077	9020.13
694.423	9046.8
694.769	9016.51
695.116	8974.93
695.462	9001.15
695.808	8860.81
696.155	8888.61
696.501	8819.23
696.847	8862.39
697.193	8813.81
697.539	8808.61
697.885	8757.54
698.231	8656.3
698.577	8708.95
698.923	8659.91
699.269	8641.16
699.614	8524.1
699.96	8598.22
700.306	8521.84
700.651	8535.62
700.997	8438.22
701.342	8391.67
701.688	8412.46
702.033	8416.53
702.379	8417.43
702.724	8396.19
703.069	8336.98
703.415	8258.57
703.76	8321.17
704.105	8281.17
704.45	8265.35
704.795	8229.19
705.14	8210.21
705.485	8197.78
705.83	8103.54
706.175	8095.86
706.52	8103.77
706.865	8079.59
707.209	7995.3
707.554	8024.9
707.899	7988.07
708.243	7993.26
708.588	7904.45
708.932	7913.49
709.277	7920.95
709.621	7914.85
709.966	7836.66
710.31	7866.04
710.654	7838.47
710.998	7768.19
711.342	7830.33
711.687	7756.89
712.031	7695.65
712.375	7715.76
712.719	7672.59
713.063	7694.06
713.407	7680.28
713.75	7661.3
714.094	7672.59
714.438	7537.91
714.782	7634.4
715.125	7591.02
715.469	7623.56
715.812	7581.98
716.156	7504.69
716.499	7590.79
716.843	7538.36
717.186	7545.14
717.53	7546.95
717.873	7497.01
718.216	7539.27
718.559	7456.78
718.902	7441.64
719.246	7492.49
719.589	7435.09
719.932	7409.78
720.275	7345.15
720.617	7411.58
720.96	7370.91
721.303	7420.85
721.646	7384.01
721.989	7302.44
722.331	7351.02
722.674	7298.14
723.016	7383.56
723.359	7324.58
723.701	7292.04
724.044	7298.14
724.386	7226.73
724.729	7278.71
725.071	7283.45
725.413	7247.52
725.755	7257.24
726.097	7235.32
726.439	7169.33
726.782	7163
727.124	7219.73
727.465	7232.15
727.807	7213.4
728.149	7199.39
728.491	7180.86
728.833	7182.44
729.175	7170.01
729.516	7192.38
729.858	7229.44
730.199	7203.91
730.541	7139.95
730.882	7144.02
731.224	7205.04
731.565	7123
731.906	7123.23
732.248	7143.57
732.589	7110.12
732.93	7094.53
733.271	7122.78
733.612	7215.43
733.953	7179.95
734.294	7142.21
734.635	7103.8
734.976	7172.27
735.317	7087.53
735.658	7088.2
735.999	7129.11
736.339	7125.94
736.68	7154.19
737.021	7083.91
737.361	7081.88
737.702	7178.6
738.042	7136.11
738.383	7108.99
738.723	7108.77
739.063	7148.54
739.404	7178.6
739.744	7149.67
740.084	7150.35
740.424	7196.45
740.764	7190.8
741.104	7212.04
741.444	7153.29
741.784	7194.42
742.124	7164.59
742.464	7197.58
742.804	7218.82
743.143	7139.5
743.483	7239.39
743.823	7230.57
744.162	7210.23
744.502	7233.28
744.841	7224.92
745.181	7288.42
745.52	7344.24
745.86	7368.42
746.199	7403.45
746.538	7422.43
746.877	7434.86
747.216	7474.41
747.556	7502.66
747.895	7567.96
748.234	7518.47
748.573	7620.84
748.911	7665.14
749.25	7711.46
749.589	7635.08
749.928	7761.63
750.267	7838.47
750.605	7850.44
750.944	7877.56
751.283	7953.27
751.621	8019.03
751.96	8011.34
752.298	8147.84
752.636	8183.77
752.975	8265.8
753.313	8343.54
753.651	8421.28
753.989	8506.92
754.327	8541.72
754.666	8616.75
755.004	8712.34
755.342	8852
755.679	8941.04
756.017	9083.41
756.355	9109.39
756.693	9187.58
757.031	9390.74
757.368	9458.08
757.706	9547.8
758.044	9639.32
758.381	9758.19
758.719	9851.97
759.056	10024.62
759.394	10144.85
759.731	10181.23
760.068	10328.57
760.405	10450.83
760.743	10521.79
761.08	10705.96
761.417	10724.94
761.754	10892.17
762.091	11039.96
762.428	11127.65
762.765	11244.7
763.102	11406.06
763.438	11543.68
763.775	11563.79
764.112	11786.16
