Data from hue_350_FLMS001491_24.txt Node
Date: Mon Feb 06 15:37:48 GMT 2017
User: dcchb
Spectrometer: FLMS00149
Trigger mode: 0
Integration Time (sec): 2.000000E-2
Scans to average: 10
Electric dark correction enabled: true
Nonlinearity correction enabled: false
Boxcar width: 0
XAxis mode: Wavelengths
Number of Pixels in Spectrum: 2048
>>>>>Begin Spectral Data<<<<<
341.393	-12.17
341.776	-12.17
342.16	-12.17
342.543	-64.6
342.927	-92.4
343.31	-67.09
343.693	-70.93
344.077	-60.54
344.46	-46.75
344.843	-40.87
345.226	-48.11
345.61	-39.52
345.993	-25.73
346.376	1.84
346.759	17.2
347.142	63.76
347.525	23.53
347.908	31.21
348.291	72.12
348.674	99.69
349.057	90.2
349.44	131.55
349.823	141.95
350.206	161.38
350.588	199.12
350.971	201.6
351.354	228.72
351.737	235.73
352.119	261.26
352.502	269.17
352.884	286.57
353.267	283.18
353.65	275.05
354.032	297.87
354.414	314.37
354.797	302.17
355.179	342.39
355.562	319.12
355.944	326.35
356.326	338.1
356.709	328.38
357.091	311.21
357.473	346.01
357.855	322.05
358.238	322.05
358.62	332
359.002	320.7
359.384	333.13
359.766	341.26
360.148	331.77
360.53	329.96
360.912	320.7
361.294	322.51
361.676	354.6
362.057	310.08
362.439	340.81
362.821	333.13
363.203	332.67
363.584	334.26
363.966	315.27
364.348	316.63
364.729	314.82
365.111	322.51
365.493	332.45
365.874	303.07
366.256	291.55
366.637	295.61
367.019	304.65
367.4	319.57
367.781	335.61
368.163	319.34
368.544	301.72
368.925	296.97
369.306	337.42
369.688	322.96
370.069	325.22
370.45	317.53
370.831	292.68
371.212	322.05
371.593	320.92
371.974	325.22
372.355	297.65
372.736	326.57
373.117	327.25
373.498	316.4
373.879	312.79
374.26	306.46
374.641	299.46
375.021	313.92
375.402	347.36
375.783	341.71
376.163	325.22
376.544	336.97
376.925	346.91
377.305	301.72
377.686	330.42
378.066	341.71
378.447	332.9
378.827	333.13
379.208	342.62
379.588	316.86
379.968	335.61
380.349	342.62
380.729	343.07
381.109	343.75
381.489	346.91
381.87	330.19
382.25	333.35
382.63	341.71
383.01	331.54
383.39	331.54
383.77	351.43
384.15	352.34
384.53	348.04
384.91	340.36
385.29	336.06
385.67	327.7
386.049	359.57
386.429	327.93
386.809	345.78
387.189	360.7
387.568	357.08
387.948	364.09
388.328	356.86
388.707	351.21
389.087	359.34
389.466	354.37
389.846	326.57
390.225	360.02
390.605	347.59
390.984	358.66
391.363	372.9
391.743	362.96
392.122	368.15
392.501	364.31
392.881	378.55
393.26	379.91
393.639	384.65
394.018	369.28
394.397	358.66
394.776	362.96
395.155	360.7
395.534	371.77
395.913	384.42
396.292	377.65
396.671	384.88
397.05	366.12
397.429	362.73
397.808	379.45
398.186	354.6
398.565	400.24
398.944	386.46
399.323	373.35
399.701	406.57
400.08	390.53
400.458	379.23
400.837	381.94
401.215	375.84
401.594	384.2
401.972	401.83
402.351	380.36
402.729	390.53
403.107	413.12
403.486	387.36
403.864	411.32
404.242	421.03
404.62	432.79
404.999	410.86
405.377	403.86
405.755	414.93
406.133	408.61
406.511	429.62
406.889	423.52
407.267	440.02
407.645	428.72
408.023	439.34
408.401	428.49
408.779	416.74
409.156	447.25
409.534	432.79
409.912	430.3
410.29	443.41
410.667	457.42
411.045	443.41
411.422	439.79
411.8	430.53
412.178	455.16
412.555	467.13
412.933	446.34
413.31	459.68
413.687	464.65
414.065	475.27
414.442	470.07
414.819	465.1
415.197	466.46
415.574	491.99
415.951	480.47
416.328	482.73
416.705	523.18
417.082	483.41
417.46	506.46
417.837	477.53
418.214	516.17
418.591	505.1
418.967	527.25
419.344	515.27
419.721	533.35
420.098	515.95
420.475	525.21
420.852	525.89
421.228	536.96
421.605	531.09
421.982	553.01
422.358	535.61
422.735	526.57
423.111	536.06
423.488	553.46
423.864	549.39
424.241	552.78
424.617	574.02
424.994	579
425.37	573.35
425.746	567.92
426.123	584.42
426.499	582.84
426.875	585.78
427.251	597.07
427.627	580.35
428.003	617.64
428.379	625.55
428.756	605.66
429.132	636.17
429.507	611.76
429.883	638.66
430.259	628.71
430.635	616.06
431.011	622.84
431.387	643.85
431.763	628.94
432.138	676.39
432.514	650.41
432.89	671.42
433.265	683.63
433.641	694.47
434.016	693.57
434.392	682.04
434.767	694.7
435.143	686.34
435.518	706
435.894	689.05
436.269	705.77
436.644	698.77
437.02	718.65
437.395	736.28
437.77	731.08
438.145	716.85
438.52	745.55
438.895	750.52
439.271	752.1
439.646	796.17
440.021	766.34
440.395	744.19
440.77	764.98
441.145	771.08
441.52	791.87
441.895	783.96
442.27	783.28
442.645	802.49
443.019	797.52
443.394	797.3
443.769	814.02
444.143	791.19
444.518	800.01
444.892	806.79
445.267	819.67
445.641	816.5
446.016	806.11
446.39	834.36
446.764	819.22
447.139	833.45
447.513	862.38
447.887	864.19
448.262	828.48
448.636	878.88
449.01	851.08
449.384	860.8
449.758	872.1
450.132	867.8
450.506	888.59
450.88	895.6
451.254	861.93
451.628	873.68
452.002	883.39
452.376	896.28
452.75	903.06
453.123	885.43
453.497	911.19
453.871	921.81
454.244	928.59
454.618	922.72
454.992	956.39
455.365	952.09
455.739	964.52
456.112	977.4
456.486	988.48
456.859	967.91
457.232	998.42
457.606	1011.3
457.979	993.45
458.352	1049.49
458.725	1046.1
459.099	1050.4
459.472	1040.9
459.845	1068.47
460.218	1051.75
460.591	1065.31
460.964	1073.45
461.337	1119.77
461.71	1112.77
462.083	1131.52
462.456	1122.48
462.829	1150.05
463.201	1136.95
463.574	1133.56
463.947	1159.55
464.32	1178.08
464.692	1207.91
465.065	1206.1
465.438	1225.98
465.81	1196.15
466.183	1260.79
466.555	1260.11
466.928	1261.01
467.3	1297.17
467.672	1273.22
468.045	1307.79
468.417	1294.91
468.789	1328.81
469.161	1355.92
469.534	1340.33
469.906	1405.19
470.278	1379.2
470.65	1400.67
471.022	1419.88
471.394	1468.01
471.766	1483.61
472.138	1477.96
472.51	1498.29
472.882	1542.81
473.253	1552.08
473.625	1545.75
473.997	1562.93
474.369	1592.3
474.74	1598.86
475.112	1651.28
475.484	1673.43
475.855	1722.47
476.227	1709.59
476.598	1766.76
476.97	1777.61
477.341	1809.02
477.713	1829.81
478.084	1847.66
478.455	1875.91
478.827	1923.82
479.198	1978.51
479.569	1981.67
479.94	2033.2
480.311	2047.21
480.682	2067.77
481.053	2135.57
481.424	2156.81
481.795	2155.9
482.166	2227.54
482.537	2261.66
482.908	2286.75
483.279	2341.44
483.65	2364.49
484.021	2397.48
484.391	2449.68
484.762	2438.61
485.133	2473.18
485.503	2512.5
485.874	2543.92
486.244	2578.94
486.615	2629.11
486.985	2667.98
487.356	2742.33
487.726	2790.01
488.097	2780.97
488.467	2792.72
488.837	2903.68
489.207	2888.77
489.578	2928.09
489.948	2991.59
490.318	3028.42
490.688	3057.57
491.058	3111.13
491.428	3138.48
491.798	3133.28
492.168	3202.2
492.538	3206.5
492.908	3284.46
493.278	3343.44
493.648	3340.05
494.017	3396.1
494.387	3397.45
494.757	3461.63
495.126	3469.54
495.496	3481.29
495.866	3486.04
496.235	3527.17
496.605	3634.06
496.974	3611.01
497.344	3674.73
497.713	3652.59
498.082	3659.37
498.452	3742.75
498.821	3756.09
499.19	3716.31
499.559	3769.19
499.928	3804
500.298	3813.94
500.667	3874.95
501.036	3824.33
501.405	3898
501.774	3899.81
502.143	3948.85
502.512	3935.97
502.88	3958.79
503.249	4031.79
503.618	3988.4
503.987	3996.31
504.356	4093.25
504.724	4092.58
505.093	4069.75
505.462	4106.36
505.83	4138.22
506.199	4160.82
506.567	4260.03
506.936	4244.44
507.304	4231.78
507.672	4271.33
508.041	4263.87
508.409	4306.81
508.777	4328.05
509.145	4315.85
509.514	4339.8
509.882	4355.62
510.25	4391.55
510.618	4422.51
510.986	4428.16
511.354	4451.66
511.722	4445.56
512.09	4508.38
512.458	4495.28
512.826	4524.43
513.193	4542.06
513.561	4539.12
513.929	4585.67
514.297	4643.75
514.664	4609.17
515.032	4614.6
515.4	4632.22
515.767	4653.01
516.135	4684.65
516.502	4647.14
516.869	4735.95
517.237	4748.38
517.604	4740.24
517.972	4787.25
518.339	4808.72
518.706	4845.55
519.073	4843.97
519.44	4855.49
519.808	4878.54
520.175	4893.23
520.542	4906.34
520.909	4956.51
521.276	4946.11
521.643	4966.68
522.009	5019.78
522.376	5027.24
522.743	5083.74
523.11	5112.21
523.477	5107.01
523.843	5129.84
524.21	5136.16
524.577	5230.17
524.943	5178.42
525.31	5217.97
525.676	5261.81
526.043	5240.34
526.409	5328.48
526.776	5340
527.142	5319.44
527.508	5333.45
527.874	5405.54
528.241	5431.3
528.607	5427.91
528.973	5475.82
529.339	5481.47
529.705	5509.26
530.071	5593.1
530.437	5645.76
530.803	5626.1
531.169	5652.53
531.535	5630.84
531.901	5662.25
532.267	5678.52
532.632	5775.02
532.998	5738.86
533.364	5739.54
533.73	5850.27
534.095	5833.1
534.461	5854.11
534.826	5912.64
535.192	5907.22
535.557	5970.04
535.923	5970.04
536.288	6001.9
536.653	5988.57
537.019	5977.95
537.384	6038.29
537.749	6121.45
538.114	6121.68
538.479	6129.36
538.845	6124.84
539.21	6147.44
539.575	6132.75
539.94	6202.8
540.305	6256.36
540.67	6271.5
541.034	6274.44
541.399	6315.79
541.764	6294.33
542.129	6374.78
542.494	6387.88
542.858	6394.44
543.223	6379.07
543.587	6451.61
543.952	6462.23
544.316	6537.94
544.681	6540.87
545.045	6554.66
545.41	6542.91
545.774	6630.36
546.138	6634.43
546.503	6624.26
546.867	6678.04
547.231	6666.52
547.595	6720.08
547.959	6742.68
548.324	6805.73
548.688	6808.44
549.052	6849.34
549.416	6844.82
549.779	6882.79
550.143	6862.67
550.507	6974.53
550.871	6934.76
551.235	6890.02
551.599	6963.01
551.962	7014.08
552.326	7024.25
552.689	7035.1
553.053	7047.3
553.417	7060.63
553.78	7220.63
554.143	7150.35
554.507	7178.14
554.87	7189.22
555.234	7191.7
555.597	7201.65
555.96	7241.42
556.323	7297.92
556.686	7236.67
557.05	7332.26
557.413	7326.62
557.776	7266.96
558.139	7356.9
558.502	7358.93
558.865	7414.97
559.228	7491.13
559.59	7520.06
559.953	7460.85
560.316	7497.68
560.679	7565.25
561.041	7624.46
561.404	7615.42
561.767	7628.08
562.129	7595.31
562.492	7685.25
562.854	7677.34
563.217	7746.94
563.579	7744.91
563.941	7724.34
564.304	7832.14
564.666	7828.75
565.028	7874.17
565.39	7910.55
565.753	7928.41
566.115	7944
566.477	8017.22
566.839	8051.12
567.201	8016.54
567.563	8029.42
567.925	8186.71
568.287	8117.1
568.648	8191.45
569.01	8233.03
569.372	8240.94
569.734	8173.82
570.095	8330.43
570.457	8358
570.819	8381.73
571.18	8405.46
571.542	8451.78
571.903	8489.75
572.265	8489.52
572.626	8581.27
572.987	8570.88
573.349	8637.77
573.71	8680.25
574.071	8745.34
574.432	8796.18
574.794	8866.91
575.155	8861.49
575.516	8953.01
575.877	8989.62
576.238	9052.22
576.599	9151.2
576.96	9133.57
577.32	9189.39
577.681	9280.24
578.042	9418.31
578.403	9442.94
578.763	9486.33
579.124	9602.04
579.485	9700.34
579.845	9808.58
580.206	9955.02
580.566	9992.31
580.927	10139.65
581.287	10245.63
581.648	10395.24
582.008	10518.17
582.368	10625.51
582.728	10778.95
583.089	10874.77
583.449	11018.5
583.809	11215.78
584.169	11274.76
584.529	11490.12
584.889	11696.22
585.249	11804.24
585.609	11959.26
585.969	12167.84
586.329	12295.75
586.688	12493.26
587.048	12781.39
587.408	12927.37
587.768	13273.35
588.127	13331.66
588.487	13543.63
588.846	13895.93
589.206	13930.51
589.565	14288.24
589.925	14488.01
590.284	14738.4
590.643	15031.05
591.003	15261.1
591.362	15546.51
591.721	15766.62
592.08	15987.4
592.44	16310.79
592.799	16541.06
593.158	16828.29
593.517	17074.38
593.876	17439.34
594.235	17650.86
594.593	17880.46
594.952	18264.63
595.311	18487
595.67	18739.87
596.029	19158.62
596.387	19451.95
596.746	19733.07
597.104	19919.5
597.463	20265.48
597.822	20443.33
598.18	20645.59
598.538	21008.97
598.897	21406.25
599.255	21523.53
599.613	22085.55
599.972	22135.49
600.33	22511.07
600.688	22697.96
601.046	23111.06
601.404	23433.31
601.762	23556.7
602.12	23990.81
602.478	24151.03
602.836	24432.38
603.194	24622.66
603.552	24887.28
603.91	25110.78
604.268	25440.26
604.625	25661.05
604.983	25831.44
605.341	25953.24
605.698	26421.71
606.056	26630.97
606.413	26877.51
606.771	27168.35
607.128	27346.88
607.485	27612.86
607.843	27724.72
608.2	28109.12
608.557	28488.77
608.914	28535.1
609.272	28828.87
609.629	29097.12
609.986	29356.77
610.343	29386.37
610.7	29760.38
611.057	29922.86
611.414	30160.59
611.771	30324.2
612.127	30599
612.484	30669.5
612.841	31005.54
613.198	31030.62
613.554	31201.02
613.911	31424.74
614.267	31691.4
614.624	31840.55
614.98	31994.22
615.337	32246.41
615.693	32431.72
616.05	32396.69
616.406	32701.99
616.762	32733.18
617.118	32877.58
617.475	33186.95
617.831	33255.65
618.187	33443.44
618.543	33642.76
618.899	33792.36
619.255	33806.15
619.611	34088.85
619.967	34131.56
620.323	34398.67
620.678	34336.07
621.034	34424.43
621.39	34589.85
621.746	34664.65
622.101	35030.97
622.457	34891.77
622.812	34972.22
623.168	35169.27
623.523	35289.95
623.879	35470.51
624.234	35300.34
624.589	35585.99
624.945	35621.24
625.3	35662.82
625.655	35761.8
626.01	35702.14
626.365	36011.06
626.72	36000.21
627.075	36038.18
627.43	35899.2
627.785	35951.4
628.14	36216.48
628.495	36363.37
628.85	36218.28
629.205	36300.99
629.559	36305.97
629.914	36400.43
630.269	36533.76
630.623	36232.97
630.978	36310.03
631.332	36558.16
631.687	36637.03
632.041	36507.09
632.396	36673.41
632.75	36515.9
633.104	36730.36
633.459	36575.79
633.813	36612.85
634.167	36641.1
634.521	36651.95
634.875	36770.36
635.229	36710.25
635.583	36529.69
635.937	36678.61
636.291	36680.19
636.645	36759.06
636.999	36682
637.352	36738.5
637.706	36646.3
638.06	36988.89
638.413	36868.89
638.767	36617.37
639.121	36800.42
639.474	36620.08
639.828	36613.3
640.181	36678.84
640.534	36797.7
640.888	36607.88
641.241	36513.42
641.594	36650.14
641.947	36567.88
642.301	36641.1
642.654	36783.02
643.007	36682
643.36	36566.07
643.713	36512.51
644.066	36603.59
644.419	36571.5
644.771	36340.54
645.124	36017.16
645.477	35875.47
645.83	35717.06
646.182	35592.09
646.535	35496.95
646.888	35580.11
647.24	35417.63
647.593	35665.98
647.945	35387.57
648.298	35320.68
648.65	35356.84
649.002	35260.57
649.355	35390.06
649.707	35351.64
650.059	35466.89
650.411	35924.51
650.763	35958.63
651.115	36359.75
651.467	36191.84
651.819	36159.76
652.171	36185.29
652.523	36116.82
652.875	36148
653.227	35869.82
653.578	36240.66
653.93	36204.5
654.282	36007.44
654.633	35909.14
654.985	35960.66
655.337	36013.09
655.688	36074.11
656.039	36231.62
656.391	35861.68
656.742	35986.88
657.094	36012.41
657.445	36060.77
657.796	35868.24
658.147	35873.66
658.498	35809.71
658.849	35983.04
659.2	35905.75
659.551	35781.23
659.902	35936.71
660.253	35839.99
660.604	35924.96
660.955	35728.35
661.306	35924.51
661.656	35801.12
662.007	35842.93
662.358	35780.56
662.708	35822.14
663.059	35772.42
663.409	35632.99
663.76	35867.33
664.11	35707.56
664.461	35765.42
664.811	35671.41
665.161	35781.91
665.511	35598.41
665.862	35744.17
666.212	35788.69
666.562	35982.36
666.912	35728.35
667.262	35798.41
667.612	35729.94
667.962	35748.47
668.312	35676.83
668.662	35772.2
669.011	35725.19
669.361	35797.05
669.711	35669.37
670.06	35626.89
670.41	35582.14
670.76	35529.04
671.109	35713.21
671.459	35755.02
671.808	35582.6
672.157	35614.46
672.507	35370.62
672.856	35536.49
673.205	35545.08
673.554	35494.24
673.904	35488.81
674.253	35696.04
674.602	35477.97
674.951	35029.84
675.3	34890.64
675.649	35452.88
675.998	35332.88
676.346	35233.23
676.695	35532.43
677.044	35188.71
677.393	35313.22
677.741	35352.55
678.09	35103.96
678.438	35213.79
678.787	35348.7
679.135	35283.39
679.484	35025.77
679.832	35228.71
680.181	35029.39
680.529	35134.02
680.877	34988.71
681.225	35053.34
681.573	35180.35
681.922	34886.34
682.27	34903.52
682.618	34848.15
682.966	34727.7
683.314	34817.87
683.661	34580.59
684.009	34451.1
684.357	34388.28
684.705	34414.94
685.053	34406.81
685.4	34438.9
685.748	34150.77
686.095	34278.45
686.443	34127.27
686.79	34125.68
687.138	34230.09
687.485	34115.97
687.832	34061.96
688.18	33962.3
688.527	33858.57
688.874	33818.8
689.221	33717.79
689.568	33728.18
689.915	33630.56
690.262	33534.06
690.609	33572.93
690.956	33418.13
691.303	33284.12
691.65	33177.91
691.997	33207.97
692.344	32999.16
692.69	32947.86
693.037	32991.25
693.383	32707.64
693.73	32860.63
694.077	32665.16
694.423	32769.11
694.769	32537.93
695.116	32536.12
695.462	32453.86
695.808	32378.16
696.155	32459.06
696.501	32259.07
696.847	32116.7
697.193	32027.43
697.539	32096.59
697.885	31878.74
698.231	31794.67
698.577	31606.88
698.923	31841
699.269	31623.6
699.614	31409.82
699.96	31408.24
700.306	31596.03
700.651	31111.75
700.997	31131.41
701.342	31246.21
701.688	31014.13
702.033	30950.63
702.379	30823.17
702.724	30840.12
703.069	30916.05
703.415	30482.16
703.76	30576.17
704.105	30558.77
704.45	30406.69
704.795	30262.74
705.14	30290.08
705.485	30153.13
705.83	30061.61
706.175	30090.31
706.52	30127.37
706.865	29894.61
707.209	29898.45
707.554	29838.57
707.899	29944.1
708.243	29684.45
708.588	29713.37
708.932	29504.79
709.277	29395.87
709.621	29426.6
709.966	29264.34
710.31	29453.27
710.654	29116.32
710.998	29137.57
711.342	29224.12
711.687	29093.27
712.031	29047.4
712.375	28879.04
712.719	28857.8
713.063	28826.39
713.407	28825.94
713.75	28780.29
714.094	28749.1
714.438	28694.19
714.782	28649.44
715.125	28468.88
715.469	28484.48
715.812	28345.72
716.156	28169.23
716.499	28183.24
716.843	28302.33
717.186	28126.52
717.53	28234.77
717.873	28187.76
718.216	27964.72
718.559	28081.78
718.902	27860.54
719.246	27890.37
719.589	27740.99
719.932	27713.42
720.275	27761.11
720.617	27636.82
720.96	27678.62
721.303	27527.21
721.646	27549.59
721.989	27449.02
722.331	27542.58
722.674	27370.61
723.016	27376.03
723.359	27293.32
723.701	27303.27
724.044	27188.69
724.386	27003.61
724.729	27126.77
725.071	27155.47
725.413	27101.91
725.755	27114.34
726.097	26881.81
726.439	26841.36
726.782	26796.84
727.124	26967.45
727.465	26715.48
727.807	26774.01
728.149	26739.89
728.491	26689.95
728.833	26676.61
729.175	26534.92
729.516	26504.64
729.858	26538.09
730.199	26448.6
730.541	26456.96
730.882	26414.02
731.224	26445.89
731.565	26207.93
731.906	26267.81
732.248	26305.1
732.589	26221.94
732.93	26108.04
733.271	26045.67
733.612	26250.86
733.953	26110.75
734.294	25959.35
734.635	25985.11
734.976	25939.46
735.317	25863.53
735.658	25862.63
735.999	25788.05
736.339	25869.4
736.68	25798.9
737.021	25835.28
737.361	25638.45
737.702	25716.41
738.042	25740.59
738.383	25536.31
738.723	25652.69
739.063	25490.88
739.404	25572.92
739.744	25525.91
740.084	25363.88
740.424	25371.79
740.764	25248.18
741.104	25296.09
741.444	25210.21
741.784	25245.47
742.124	25357.55
742.464	25195.3
742.804	25144.68
743.143	25095.87
743.483	25208.4
743.823	25072.82
744.162	25112.59
744.502	25007.05
744.841	24952.59
745.181	24914.85
745.52	24851.13
745.86	24849.09
746.199	24758.25
746.538	24767.96
746.877	24785.37
747.216	24769.77
747.556	24664.69
747.895	24600.96
748.234	24595.77
748.573	24510.57
748.911	24579.04
749.25	24585.14
749.589	24474.86
749.928	24454.07
750.267	24420.63
750.605	24393.96
750.944	24311.25
751.283	24280.07
751.621	24260.63
751.96	24165.04
752.298	24153.97
752.636	24074.65
752.975	24068.1
753.313	23871.94
753.651	23979.74
753.989	23833.98
754.327	24017.93
754.666	23718.95
755.004	23723.02
755.342	23865.62
755.679	23775.22
756.017	23619.75
756.355	23623.59
756.693	23567.54
757.031	23554.21
757.368	23453.65
757.706	23465.17
758.044	23292.98
758.381	23394.67
758.719	23267.67
759.056	23192.64
759.394	23103.83
759.731	23060.21
760.068	23007.11
760.405	22909.48
760.743	22806.21
761.08	22846.89
