Data from hue_250_FLMS001491_00008.txt Node
Date: Tue Feb 07 16:00:28 GMT 2017
User: dcchb
Spectrometer: FLMS00149
Trigger mode: 0
Integration Time (sec): 2.000000E-2
Scans to average: 10
Electric dark correction enabled: true
Nonlinearity correction enabled: false
Boxcar width: 0
XAxis mode: Wavelengths
Number of Pixels in Spectrum: 2048
>>>>>Begin Spectral Data<<<<<
341.393	-4.65
341.776	-4.65
342.16	-4.65
342.543	-63.4
342.927	-53.91
343.31	-66.11
343.693	-89.16
344.077	-60.24
344.46	-69.28
344.843	-36.74
345.226	-17.08
345.61	-36.06
345.993	-26.34
346.376	5.75
346.759	18.63
347.142	28.12
347.525	13.88
347.908	75.58
348.291	50.49
348.674	100.21
349.057	108.34
349.44	114.9
349.823	129.81
350.206	136.14
350.588	197.83
350.971	203.26
351.354	205.07
351.737	225.86
352.119	240.32
352.502	239.41
352.884	246.65
353.267	264.72
353.65	293.42
354.032	304.27
354.414	278.74
354.797	297.94
355.179	289.13
355.562	301.56
355.944	327.1
356.326	321.22
356.709	316.02
357.091	320.77
357.473	328.23
357.855	321.45
358.238	323.71
358.62	327.32
359.002	342.24
359.384	320.09
359.766	314.67
360.148	323.48
360.53	313.99
360.912	351.5
361.294	329.81
361.676	330.26
362.057	328.68
362.439	312.41
362.821	304.95
363.203	316.7
363.584	289.81
363.966	320.54
364.348	309.24
364.729	297.72
365.111	313.99
365.493	314.89
365.874	316.47
366.256	298.17
366.637	320.99
367.019	305.4
367.4	331.16
367.781	295.01
368.163	310.37
368.544	313.76
368.925	292.07
369.306	310.6
369.688	308.11
370.069	308.11
370.45	298.4
370.831	297.49
371.212	307.66
371.593	315.57
371.974	295.91
372.355	329.13
372.736	302.46
373.117	301.56
373.498	296.59
373.879	297.49
374.26	281.67
374.641	293.65
375.021	305.18
375.402	319.64
375.783	320.77
376.163	296.14
376.544	301.79
376.925	322.35
377.305	331.84
377.686	308.34
378.066	310.15
378.447	336.81
378.827	307.21
379.208	314.67
379.588	323.03
379.968	301.33
380.349	328.23
380.729	324.61
381.109	317.15
381.489	312.86
381.87	345.17
382.25	327.1
382.63	328
383.01	328.23
383.39	328
383.77	339.75
384.15	344.27
384.53	334.33
384.91	327.32
385.29	329.13
385.67	346.98
386.049	343.59
386.429	356.93
386.809	345.17
387.189	335.91
387.568	353.31
387.948	355.34
388.328	356.02
388.707	352.86
389.087	349.02
389.466	360.54
389.846	332.52
390.225	349.92
390.605	332.97
390.984	353.54
391.363	360.77
391.743	369.58
392.122	382.24
392.501	375.68
392.881	369.13
393.26	347.21
393.639	372.52
394.018	374.1
394.397	377.72
394.776	385.63
395.155	367.77
395.534	368.22
395.913	385.85
396.292	393.31
396.671	370.71
397.05	387.66
397.429	390.37
397.808	388.56
398.186	389.92
398.565	384.5
398.944	377.26
399.323	413.2
399.701	406.64
400.08	412.52
400.458	400.99
400.837	411.61
401.215	417.49
401.594	395.12
401.972	413.87
402.351	409.35
402.729	424.04
403.107	410.71
403.486	408.9
403.864	423.36
404.242	407.32
404.62	424.49
404.999	428.11
405.377	422.01
405.755	438.96
406.133	457.94
406.511	421.56
406.889	438.73
407.267	471.27
407.645	462.46
408.023	483.48
408.401	459.97
408.779	463.59
409.156	469.47
409.534	487.54
409.912	471.27
410.29	479.41
410.667	483.48
411.045	511.05
411.422	496.13
411.8	528.67
412.178	523.02
412.555	552.85
412.933	523.93
413.31	546.98
413.687	538.84
414.065	547.2
414.442	533.19
414.819	567.54
415.197	553.76
415.574	560.54
415.951	579.52
416.328	595.11
416.705	584.72
417.082	603.47
417.46	605.51
417.837	626.3
418.214	613.64
418.591	605.51
418.967	625.85
419.344	638.05
419.721	640.76
420.098	630.82
420.475	644.15
420.852	645.96
421.228	663.13
421.605	670.14
421.982	647.99
422.358	696.13
422.735	697.93
423.111	686.63
423.488	729.12
423.864	729.12
424.241	746.29
424.617	729.57
424.994	755.79
425.37	770.02
425.746	752.4
426.123	771.38
426.499	777.03
426.875	779.06
427.251	816.12
427.627	833.3
428.003	843.24
428.379	817.03
428.756	823.13
429.132	835.78
429.507	836.24
429.883	842.56
430.259	893.18
430.635	886.63
431.011	891.37
431.387	928.44
431.763	933.18
432.138	922.79
432.514	949
432.89	948.1
433.265	978.38
433.641	980.86
434.016	992.16
434.392	1012.05
434.767	1054.08
435.143	1044.82
435.518	1035.78
435.894	1069.45
436.269	1084.59
436.644	1136.11
437.02	1111.48
437.395	1120.97
437.77	1148.09
438.145	1178.6
438.52	1176.34
438.895	1153.97
439.271	1231.03
439.646	1217.92
440.021	1236
440.395	1245.26
440.77	1224.93
441.145	1259.5
441.52	1314.19
441.895	1261.53
442.27	1305.83
442.645	1311.7
443.019	1341.31
443.394	1333.4
443.769	1344.24
444.143	1368.88
444.518	1332.27
444.892	1364.36
445.267	1381.53
445.641	1394.86
446.016	1414.75
446.39	1425.6
446.764	1424.69
447.139	1401.87
447.513	1461.53
447.887	1455.65
448.262	1435.54
448.636	1467.63
449.01	1464.92
449.384	1515.31
449.758	1465.37
450.132	1513.51
450.506	1522.32
450.88	1512.38
451.254	1530.45
451.628	1578.59
452.002	1578.59
452.376	1568.65
452.75	1622.66
453.123	1581.53
453.497	1628.3
453.871	1649.77
454.244	1654.29
454.618	1679.6
454.992	1688.87
455.365	1691.81
455.739	1756.89
456.112	1743.78
456.486	1721.18
456.859	1756.89
457.232	1798.92
457.606	1825.59
457.979	1819.03
458.352	1882.08
458.725	1875.3
459.099	1869.2
459.472	1936.32
459.845	1928.18
460.218	1950.78
460.591	1940.39
460.964	1958.47
461.337	2009.09
461.71	2001.63
462.083	2043.66
462.456	2045.47
462.829	2060.16
463.201	2080.5
463.574	2142.19
463.947	2106.48
464.32	2188.97
464.692	2219.02
465.065	2221.74
465.438	2209.98
465.81	2275.07
466.183	2282.98
466.555	2328.85
466.928	2307.16
467.3	2332.47
467.672	2361.39
468.045	2425.12
468.417	2408.17
468.789	2436.87
469.161	2476.64
469.534	2510.09
469.906	2554.61
470.278	2544.21
470.65	2563.65
471.022	2634.61
471.394	2640.93
471.766	2698.11
472.138	2720.03
472.51	2781.27
472.882	2795.73
473.253	2822.85
473.625	2844.32
473.997	2946.24
474.369	2910.76
474.74	2949.85
475.112	2983.3
475.484	3028.27
475.855	3052.9
476.227	3088.61
476.598	3198.66
476.97	3212.44
477.341	3231.88
477.713	3284.98
478.084	3321.14
478.455	3411.53
478.827	3419.67
479.198	3501.25
479.569	3491.76
479.94	3576.5
480.311	3580.34
480.682	3656.95
481.053	3742.6
481.424	3766.78
481.795	3832.77
482.166	3888.13
482.537	3875.7
482.908	3986.43
483.279	4018.75
483.65	4079.77
484.021	4144.4
484.391	4117.73
484.762	4189.14
485.133	4210.38
485.503	4279.08
485.874	4366.76
486.244	4372.87
486.615	4433.88
486.985	4508.68
487.356	4573.99
487.726	4577.15
488.097	4658.73
488.467	4738.28
488.837	4767.88
489.207	4831.16
489.578	4927.88
489.948	4913.19
490.318	4922.68
490.688	4962.91
491.058	5009.91
491.428	5073.64
491.798	5101.89
492.168	5245.16
492.538	5211.04
492.908	5296
493.278	5300.07
493.648	5312.28
494.017	5374.65
494.387	5371.71
494.757	5446.74
495.126	5487.19
495.496	5484.02
495.866	5526.51
496.235	5623.68
496.605	5639.27
496.974	5655.77
497.344	5730.57
497.713	5691.7
498.082	5759.04
498.452	5822.77
498.821	5792.49
499.19	5836.1
499.559	5883.11
499.928	5897.8
500.298	5934.41
500.667	5999.26
501.036	5940.28
501.405	5999.94
501.774	6020.51
502.143	6029.09
502.512	6052.37
502.88	6099.83
503.249	6054.85
503.618	6150.9
503.987	6098.47
504.356	6196.77
504.724	6194.29
505.093	6210.78
505.462	6224.57
505.83	6205.81
506.199	6313.15
506.567	6327.84
506.936	6315.64
507.304	6321.29
507.672	6362.42
508.041	6451.68
508.409	6416.2
508.777	6459.82
509.145	6477.89
509.514	6455.3
509.882	6559.7
510.25	6507.5
510.618	6544.33
510.986	6535.07
511.354	6559.25
511.722	6618.46
512.09	6628.85
512.458	6618.46
512.826	6705.23
513.193	6725.35
513.561	6714.05
513.929	6767.38
514.297	6746.14
514.664	6750.2
515.032	6769.41
515.4	6811.45
515.767	6809.41
516.135	6758.11
516.502	6790.2
516.869	6921.95
517.237	6891.9
517.604	6826.13
517.972	6924.44
518.339	6942.74
518.706	6901.84
519.073	6888.96
519.44	6977.54
519.808	6963.31
520.175	6998.78
520.542	7027.03
520.909	7024.32
521.276	7053.02
521.643	7025
522.009	7128.5
522.376	7085.34
522.743	7087.6
523.11	7124.43
523.477	7150.19
523.843	7130.98
524.21	7251.66
524.577	7224.54
524.943	7242.17
525.31	7272.45
525.676	7349.51
526.043	7297.99
526.409	7317.42
526.776	7321.49
527.142	7362.62
527.508	7412.56
527.874	7394.03
528.241	7426.57
528.607	7453.01
528.973	7458.21
529.339	7417.53
529.705	7436.29
530.071	7504.08
530.437	7443.97
530.803	7512.67
531.169	7545.44
531.535	7507.25
531.901	7455.95
532.267	7474.7
532.632	7503.18
532.998	7539.56
533.364	7559.45
533.73	7562.84
534.095	7516.74
534.461	7562.39
534.826	7548.15
535.192	7571.2
535.557	7559.22
535.923	7591.76
536.288	7564.65
536.653	7500.47
537.019	7503.4
537.384	7539.11
537.749	7565.78
538.114	7452.56
538.479	7501.82
538.845	7549.5
539.21	7461.6
539.575	7505.21
539.94	7504.53
540.305	7574.59
540.67	7534.59
541.034	7530.52
541.399	7556.06
541.764	7470.86
542.129	7492.33
542.494	7495.95
542.858	7509.96
543.223	7504.99
543.587	7546.79
543.952	7435.84
544.316	7477.87
544.681	7457.3
545.045	7432.67
545.41	7484.65
545.774	7458.43
546.138	7447.13
546.503	7492.78
546.867	7442.39
547.231	7406.68
547.595	7426.8
547.959	7459.79
548.324	7496.17
548.688	7447.81
549.052	7395.16
549.416	7418.43
549.779	7435.61
550.143	7388.83
550.507	7355.16
550.871	7399.23
551.235	7418.43
551.599	7425.89
551.962	7393.12
552.326	7401.26
552.689	7351.09
553.053	7344.31
553.417	7376.85
553.78	7472.44
554.143	7337.53
554.507	7394.48
554.87	7425.44
555.234	7407.36
555.597	7397.64
555.96	7381.15
556.323	7396.29
556.686	7401.49
557.05	7408.49
557.413	7404.88
557.776	7427.47
558.139	7419.34
558.502	7440.58
558.865	7385.22
559.228	7483.74
559.59	7466.57
559.953	7467.02
560.316	7518.32
560.679	7498.66
561.041	7609.16
561.404	7571.2
561.767	7629.28
562.129	7534.14
562.492	7638.09
562.854	7603.29
563.217	7630.63
563.579	7555.38
563.941	7610.97
564.304	7698.43
564.666	7690.29
565.028	7679.9
565.39	7717.18
565.753	7691.2
566.115	7728.94
566.477	7735.26
566.839	7726.9
567.201	7744.53
567.563	7819.55
567.925	7848.71
568.287	7864.75
568.648	7831.98
569.01	7855.71
569.372	7889.38
569.734	7881.7
570.095	7892.09
570.457	7953.56
570.819	7956.05
571.18	7905.43
571.542	8024.97
571.903	7979.78
572.265	8027.23
572.626	8062.26
572.987	8050.96
573.349	8078.08
573.71	8086.89
574.071	8154.46
574.432	8156.95
574.794	8164.63
575.155	8188.36
575.516	8150.39
575.877	8204.63
576.238	8231.52
576.599	8254.35
576.96	8279.66
577.32	8262.03
577.681	8297.51
578.042	8371.4
578.403	8321.46
578.763	8337.96
579.124	8351.97
579.485	8370.73
579.845	8433.32
580.206	8399.88
580.566	8431.52
580.927	8418.41
581.287	8490.72
581.648	8422.93
582.008	8502.7
582.368	8521.91
582.728	8541.57
583.089	8551.06
583.449	8508.35
583.809	8528.24
584.169	8661.57
584.529	8550.16
584.889	8682.13
585.249	8645.75
585.609	8608.69
585.969	8640.55
586.329	8635.8
586.688	8690.94
587.048	8674.9
587.408	8593.09
587.768	8654.56
588.127	8664.05
588.487	8709.47
588.846	8718.74
589.206	8713.32
589.565	8711.96
589.925	8727.1
590.284	8772.07
590.643	8793.09
591.003	8796.93
591.362	8795.57
591.721	8834.67
592.08	8823.82
592.44	8828.34
592.799	8849.13
593.158	8815.91
593.517	8839.19
593.876	8854.33
594.235	8899.98
594.593	8824.05
594.952	8918.96
595.311	8866.76
595.67	8871.28
596.029	8958.28
596.387	8913.76
596.746	8961.45
597.104	8891.39
597.463	8903.37
597.822	8936.36
598.18	8948.34
598.538	8847.78
598.897	8991.05
599.255	8922.58
599.613	9039.64
599.972	8967.09
600.33	8985.17
600.688	8993.53
601.046	8968.45
601.404	9062.69
601.762	9034.89
602.12	9061.78
602.478	9018.62
602.836	9071.27
603.194	9028.56
603.552	9062.01
603.91	8940.65
604.268	9078.5
604.625	8950.82
604.983	8994.89
605.341	9026.53
605.698	9032.63
606.056	9145.4
606.413	9099.29
606.771	9094.32
607.128	9100.2
607.485	9029.92
607.843	9078.96
608.2	9149.69
608.557	9147.65
608.914	9132.74
609.272	9119.41
609.629	9181.33
609.986	9221.1
610.343	9150.14
610.7	9194.43
611.057	9218.84
611.414	9166.64
611.771	9150.82
612.127	9195.79
612.484	9254.77
612.841	9336.12
613.198	9264.26
613.554	9224.94
613.911	9284.6
614.267	9289.57
614.624	9242.34
614.98	9283.7
615.337	9317.37
615.693	9281.44
616.05	9282.11
616.406	9374.77
616.762	9296.8
617.118	9275.11
617.475	9246.86
617.831	9366.18
618.187	9346.97
618.543	9344.26
618.899	9426.97
619.255	9394.2
619.611	9466.97
619.967	9434.65
620.323	9416.12
620.678	9396.24
621.034	9375.67
621.39	9357.37
621.746	9450.02
622.101	9477.14
622.457	9372.06
622.812	9425.16
623.168	9480.98
623.523	9420.87
623.879	9457.93
624.234	9376.35
624.589	9389.46
624.945	9384.26
625.3	9358.27
625.655	9413.18
626.01	9504.71
626.365	9466.06
626.72	9363.47
627.075	9335.9
627.43	9384.26
627.785	9379.06
628.14	9361.21
628.495	9336.8
628.85	9357.59
629.205	9333.86
629.559	9377.71
629.914	9258.61
630.269	9380.19
630.623	9280.08
630.978	9244.6
631.332	9315.33
631.687	9340.42
632.041	9320.98
632.396	9388.78
632.75	9239.4
633.104	9214.09
633.459	9220.2
633.813	9188.56
634.167	9247.77
634.521	9208.22
634.875	9210.7
635.229	9196.02
635.583	9159.18
635.937	9157.6
636.291	9170.25
636.645	9119.41
636.999	9155.11
637.352	9114.44
637.706	9135.45
638.06	9081.89
638.413	9052.29
638.767	9087.09
639.121	9097.71
639.474	8989.24
639.828	8986.3
640.181	9039.86
640.534	8978.39
640.888	9051.61
641.241	8935.68
641.594	8990.6
641.947	9029.92
642.301	8966.64
642.654	9040.99
643.007	8998.73
643.36	9010.03
643.713	8925.97
644.066	9008.45
644.419	8942.91
644.771	8870.37
645.124	8777.27
645.477	8742.47
645.83	8692.07
646.182	8694.56
646.535	8673.09
646.888	8660.89
647.24	8584.28
647.593	8660.44
647.945	8615.69
648.298	8611.17
648.65	8588.8
649.002	8628.12
649.355	8577.27
649.707	8603.94
650.059	8649.81
650.411	8725.29
650.763	8755.35
651.115	8836.7
651.467	8802.13
651.819	8763.26
652.171	8788.57
652.523	8797.83
652.875	8743.37
653.227	8808
653.578	8785.86
653.93	8794.67
654.282	8698.18
654.633	8721
654.985	8738.17
655.337	8735.01
655.688	8790.6
656.039	8761.9
656.391	8680.55
656.742	8717.16
657.094	8730.04
657.445	8793.09
657.796	8752.64
658.147	8805.74
658.498	8743.6
658.849	8772.75
659.2	8784.27
659.551	8673.32
659.902	8786.31
660.253	8778.63
660.604	8748.57
660.955	8706.54
661.306	8770.49
661.656	8704.95
662.007	8722.81
662.358	8681
662.708	8748.12
663.059	8747.44
663.409	8700.21
663.76	8775.01
664.11	8763.26
664.461	8779.53
664.811	8800.32
665.161	8737.27
665.511	8750.6
665.862	8818.4
666.212	8761.45
666.562	8860.88
666.912	8741.56
667.262	8719.42
667.612	8736.37
667.962	8788.57
668.312	8812.07
668.662	8818.85
669.011	8767.1
669.361	8751.96
669.711	8739.08
670.06	8751.73
670.41	8716.25
670.76	8715.35
671.109	8741.11
671.459	8712.19
671.808	8689.36
672.157	8752.86
672.507	8613.88
672.856	8707.21
673.205	8711.96
673.554	8679.42
673.904	8657.95
674.253	8736.82
674.602	8645.07
674.951	8567.33
675.3	8495.24
675.649	8587.67
675.998	8651.85
676.346	8629.93
676.695	8645.75
677.044	8611.17
677.393	8597.84
677.741	8589.93
678.09	8589.48
678.438	8542.25
678.787	8622.25
679.135	8515.36
679.484	8469.48
679.832	8557.84
680.181	8439.2
680.529	8482.59
680.877	8507.9
681.225	8501.34
681.573	8571.4
681.922	8475.13
682.27	8435.36
682.618	8424.74
682.966	8452.31
683.314	8419.09
683.661	8358.07
684.009	8371.63
684.357	8297.28
684.705	8307
685.053	8341.8
685.4	8290.5
685.748	8204.4
686.095	8243.72
686.443	8213.22
686.79	8142.48
687.138	8203.95
687.485	8151.75
687.832	8124.63
688.18	8127.12
688.527	8100.22
688.874	8125.53
689.221	8018.87
689.568	8042.83
689.915	8012.32
690.262	8047.8
690.609	7945.65
690.956	7909.72
691.303	7949.27
691.65	7956.05
691.997	7921.25
692.344	7848.25
692.69	7878.99
693.037	7804.87
693.383	7751.99
693.73	7779.1
694.077	7726.68
694.423	7736.62
694.769	7685.09
695.116	7677.41
695.462	7659.56
695.808	7671.54
696.155	7612.78
696.501	7596.96
696.847	7613.01
697.193	7583.85
697.539	7589.96
697.885	7539.11
698.231	7535.95
698.577	7439.68
698.923	7450.07
699.269	7357.87
699.614	7339.57
699.96	7350.41
700.306	7361.71
700.651	7321.94
700.997	7296.4
701.342	7258.89
701.688	7210.98
702.033	7197.88
702.379	7199.23
702.724	7163.53
703.069	7223.86
703.415	7126.92
703.76	7088.5
704.105	7091.89
704.45	7060.25
704.795	6975.96
705.14	6970.31
705.485	6987.49
705.83	6933.02
706.175	6980.25
706.52	6895.96
706.865	6926.24
707.209	6884.89
707.554	6883.99
707.899	6855.06
708.243	6877.88
708.588	6836.08
708.932	6791.33
709.277	6748.4
709.621	6802.86
709.966	6690.77
710.31	6788.39
710.654	6713.59
710.998	6675.4
711.342	6690.77
711.687	6648.74
712.031	6593.82
712.375	6662.3
712.719	6627.95
713.063	6664.1
713.407	6638.79
713.75	6581.39
714.094	6584.78
714.438	6550.66
714.782	6592.69
715.125	6554.95
715.469	6524.22
715.812	6517.44
716.156	6458.46
716.499	6508.18
716.843	6474.96
717.186	6457.33
717.53	6502.53
717.873	6481.74
718.216	6407.61
718.559	6373.94
718.902	6432.7
719.246	6424.79
719.589	6406.71
719.932	6313.38
720.275	6407.39
720.617	6317.67
720.96	6352.25
721.303	6405.13
721.646	6346.15
721.989	6322.87
722.331	6293.49
722.674	6288.07
723.016	6324.45
723.359	6250.78
723.701	6300.95
724.044	6260.27
724.386	6268.18
724.729	6324.9
725.071	6263.44
725.413	6286.71
725.755	6289.43
726.097	6236.77
726.439	6209.2
726.782	6251.91
727.124	6295.98
727.465	6208.07
727.807	6199.26
728.149	6263.66
728.491	6191.8
728.833	6215.75
729.175	6185.47
729.516	6216.21
729.858	6232.48
730.199	6199.71
730.541	6187.51
730.882	6157.23
731.224	6249.88
731.565	6192.7
731.906	6145.47
732.248	6143.44
732.589	6121.29
732.93	6133.5
733.271	6140.05
733.612	6128.98
733.953	6150.45
734.294	6159.26
734.635	6157.45
734.976	6135.53
735.317	6149.99
735.658	6173.5
735.999	6161.52
736.339	6162.2
736.68	6150.22
737.021	6158.81
737.361	6079.26
737.702	6225.47
738.042	6171.24
738.383	6136.89
738.723	6151.58
739.063	6147.28
739.404	6170.11
739.744	6169.88
740.084	6163.33
740.424	6221.86
740.764	6187.51
741.104	6175.53
741.444	6193.83
741.784	6174.4
742.124	6230.22
742.464	6165.13
742.804	6226.38
743.143	6241.29
743.483	6216.43
743.823	6222.53
744.162	6211.01
744.502	6219.37
744.841	6286.94
745.181	6304.11
745.52	6278.8
745.86	6327.16
746.199	6373.26
746.538	6378.91
746.877	6387.28
747.216	6433.38
747.556	6487.61
747.895	6442.42
748.234	6505.92
748.573	6542.98
748.911	6583.65
749.25	6594.5
749.589	6575.97
749.928	6638.12
750.267	6803.31
750.605	6760.15
750.944	6867.71
751.283	6813.48
751.621	6898.67
751.96	6963.53
752.298	7006.47
752.636	7134.15
752.975	7164.66
753.313	7212.79
753.651	7261.15
753.989	7281.72
754.327	7401.26
754.666	7409.85
755.004	7480.13
755.342	7649.84
755.679	7740.01
756.017	7747.24
756.355	7853
756.693	7889.38
757.031	8040.79
757.368	8164.4
757.706	8256.83
758.044	8328.47
758.381	8445.75
758.719	8489.82
759.056	8661.11
759.394	8741.34
759.731	8859.3
760.068	8885.51
760.405	9028.79
760.743	9096.81
761.08	9209.57
761.417	9237.14
761.754	9408.44
762.091	9518.27
762.428	9606.4
762.765	9667.87
763.102	9814.98
763.438	9892.95
763.775	9988.99
764.112	10089.33
764.449	10211.36
764.785	10314.18
765.122	10298.36
765.458	10395.76
765.795	10558.01
766.131	10643.89
766.467	10729.08
766.804	10725.01
767.14	10841.4
767.476	10934.05
767.812	11014.27
768.148	11118
768.485	11172.01
768.821	11196.41
769.157	11326.35
769.492	11350.08
769.828	11480.25
