Data from hue_34_FLMS001491_00065.txt Node
Date: Tue Feb 07 17:25:58 GMT 2017
User: dcchb
Spectrometer: FLMS00149
Trigger mode: 0
Integration Time (sec): 2.000000E-2
Scans to average: 10
Electric dark correction enabled: true
Nonlinearity correction enabled: false
Boxcar width: 0
XAxis mode: Wavelengths
Number of Pixels in Spectrum: 2048
>>>>>Begin Spectral Data<<<<<
341.393	-31.86
341.776	-31.86
342.16	-31.86
342.543	-63.05
342.927	-55.59
343.31	-80.68
343.693	-58.76
344.077	-64.41
344.46	-46.1
344.843	-52.65
345.226	-25.76
345.61	-24.41
345.993	-15.59
346.376	-15.14
346.759	5.42
347.142	32.99
347.525	34.8
347.908	53.11
348.291	64.41
348.674	91.52
349.057	101.24
349.44	120
349.823	149.37
350.206	172.42
350.588	203.38
350.971	217.85
351.354	225.98
351.737	245.42
352.119	247
352.502	257.85
352.884	289.48
353.267	290.84
353.65	317.51
354.032	293.33
354.414	327.22
354.797	325.19
355.179	331.29
355.562	315.25
355.944	316.15
356.326	356.83
356.709	342.36
357.091	359.54
357.473	343.27
357.855	354.79
358.238	347.56
358.62	370.39
359.002	326.09
359.384	341.46
359.766	337.39
360.148	359.31
360.53	336.49
360.912	331.97
361.294	359.09
361.676	338.97
362.057	338.97
362.439	350.05
362.821	326.55
363.203	327.22
363.584	339.88
363.966	320.67
364.348	333.55
364.729	349.14
365.111	325.87
365.493	345.75
365.874	315.02
366.256	335.13
366.637	343.27
367.019	326.77
367.4	331.06
367.781	322.93
368.163	317.28
368.544	327
368.925	315.92
369.306	321.35
369.688	318.41
370.069	311.63
370.45	312.99
370.831	301.91
371.212	323.38
371.593	310.5
371.974	348.69
372.355	325.42
372.736	318.18
373.117	328.35
373.498	325.19
373.879	310.95
374.26	321.57
374.641	321.57
375.021	325.19
375.402	323.61
375.783	338.52
376.163	336.26
376.544	343.04
376.925	332.19
377.305	338.3
377.686	348.01
378.066	336.26
378.447	350.05
378.827	344.62
379.208	334.68
379.588	359.31
379.968	329.71
380.349	344.62
380.729	353.66
381.109	343.49
381.489	342.59
381.87	341.91
382.25	352.99
382.63	354.79
383.01	337.17
383.39	352.76
383.77	350.5
384.15	365.41
384.53	370.39
384.91	365.64
385.29	362.48
385.67	338.3
386.049	356.6
386.429	360.67
386.809	363.38
387.189	360.44
387.568	361.35
387.948	378.07
388.328	368.35
388.707	357.5
389.087	355.92
389.466	375.36
389.846	356.83
390.225	352.53
390.605	350.27
390.984	360.67
391.363	355.92
391.743	389.37
392.122	378.07
392.501	355.47
392.881	411.29
393.26	383.94
393.639	395.7
394.018	399.09
394.397	385.07
394.776	355.7
395.155	400.22
395.534	409.71
395.913	381.23
396.292	416.94
396.671	399.76
397.05	388.46
397.429	390.5
397.808	386.66
398.186	405.64
398.565	367.22
398.944	402.02
399.323	414.68
399.701	404.74
400.08	431.85
400.458	422.36
400.837	409.93
401.215	423.27
401.594	382.81
401.972	410.84
402.351	422.59
402.729	408.35
403.107	408.35
403.486	411.51
403.864	419.65
404.242	432.76
404.62	438.41
404.999	420.78
405.377	414
405.755	415.58
406.133	443.38
406.511	451.06
406.889	432.76
407.267	442.93
407.645	444.73
408.023	435.69
408.401	445.64
408.779	448.35
409.156	447.67
409.534	463.26
409.912	433.66
410.29	451.51
410.667	472.53
411.045	453.1
411.422	467.56
411.8	477.95
412.178	475.47
412.555	474.11
412.933	461.23
413.31	474.79
413.687	505.07
414.065	475.69
414.442	491.29
414.819	489.03
415.197	490.83
415.574	498.97
415.951	515.24
416.328	497.39
416.705	494.45
417.082	506.65
417.46	515.92
417.837	526.54
418.214	500.1
418.591	520.44
418.967	506.43
419.344	519.31
419.721	540.32
420.098	512.98
420.475	519.53
420.852	514.11
421.228	538.74
421.605	556.14
421.982	557.5
422.358	550.49
422.735	558.86
423.111	558.4
423.488	555.24
423.864	552.75
424.241	569.93
424.617	571.06
424.994	569.02
425.37	559.53
425.746	583.04
426.123	588.91
426.499	584.62
426.875	590.27
427.251	602.7
427.627	597.27
428.003	609.25
428.379	619.87
428.756	630.27
429.132	639.98
429.507	611.96
429.883	589.82
430.259	629.59
430.635	621.45
431.011	625.07
431.387	615.58
431.763	658.29
432.138	670.94
432.514	666.42
432.89	669.81
433.265	673.88
433.641	662.58
434.016	664.16
434.392	669.36
434.767	714.33
435.143	705.52
435.518	697.61
435.894	710.04
436.269	721.79
436.644	710.94
437.02	710.04
437.395	729.02
437.77	717.04
438.145	725.18
438.52	738.06
438.895	742.58
439.271	761.11
439.646	761.56
440.021	776.25
440.395	737.83
440.77	769.47
441.145	772.18
441.52	779.41
441.895	791.17
442.27	795.23
442.645	798.62
443.019	802.92
443.394	812.41
443.769	799.75
444.143	831.39
444.518	815.8
444.892	817.38
445.267	813.99
445.641	831.62
446.016	824.61
446.39	846.31
446.764	835.68
447.139	846.76
447.513	837.27
447.887	850.6
448.262	839.07
448.636	856.25
449.01	863.48
449.384	886.76
449.758	888.56
450.132	901.67
450.506	877.27
450.88	860.77
451.254	877.72
451.628	904.38
452.002	907.32
452.376	917.94
452.75	918.17
453.123	940.09
453.497	957.49
453.871	951.84
454.244	963.14
454.618	970.6
454.992	976.25
455.365	968.11
455.739	1008.34
456.112	1020.09
456.486	1002.01
456.859	1014.21
457.232	1034.32
457.606	1026.19
457.979	1053.31
458.352	1070.48
458.725	1073.87
459.099	1075.9
459.472	1094.66
459.845	1098.28
460.218	1124.04
460.591	1115
460.964	1134.21
461.337	1159.07
461.71	1182.12
462.083	1207.43
462.456	1169.23
462.829	1180.99
463.201	1207.65
463.574	1239.29
463.947	1238.61
464.32	1269.57
464.692	1259.18
465.065	1273.19
465.438	1268.89
465.81	1296.92
466.183	1333.07
466.555	1374.43
466.928	1360.19
467.3	1360.42
467.672	1356.57
468.045	1386.18
468.417	1432.05
468.789	1416.46
469.161	1460.53
469.534	1496.23
469.906	1538.26
470.278	1552.95
470.65	1562.67
471.022	1543.69
471.394	1597.92
471.766	1636.57
472.138	1667.07
472.51	1665.04
472.882	1710.69
473.253	1752.04
473.625	1754.3
473.997	1811.25
474.369	1829.33
474.74	1845.15
475.112	1894.19
475.484	1904.81
475.855	1973.51
476.227	2025.94
476.598	2057.12
476.97	2104.58
477.341	2143.45
477.713	2211.02
478.084	2198.59
478.455	2321.52
478.827	2326.72
479.198	2401.29
479.569	2432.7
479.94	2525.81
480.311	2566.26
480.682	2654.17
481.053	2690.1
481.424	2735.75
481.795	2787.95
482.166	2881.96
482.537	2876.76
482.908	3043.08
483.279	3088.05
483.65	3156.53
484.021	3207.6
484.391	3301.83
484.762	3358.56
485.133	3347.71
485.503	3467.93
485.874	3588.83
486.244	3605.78
486.615	3711.09
486.985	3791.09
487.356	3897.52
487.726	3961.03
488.097	4104.07
488.467	4128.25
488.837	4240.79
489.207	4325.99
489.578	4428.81
489.948	4483.95
490.318	4601.69
490.688	4671.06
491.058	4746.32
491.428	4836.93
491.798	4910.15
492.168	5047.55
492.538	5101.33
492.908	5251.84
493.278	5304.27
493.648	5370.93
494.017	5450.48
494.387	5512.17
494.757	5628.33
495.126	5737.48
495.496	5724.37
495.866	5808.66
496.235	5919.62
496.605	6053.85
496.974	6106.96
497.344	6218.59
497.713	6252.94
498.082	6308.99
498.452	6369.1
498.821	6479.83
499.19	6509.89
499.559	6649.99
499.928	6643.44
500.298	6719.6
500.667	6815.19
501.036	6828.75
501.405	6986.93
501.774	6951.91
502.143	7111.45
502.512	7109.42
502.88	7284.1
503.249	7260.37
503.618	7294.5
503.987	7353.03
504.356	7419.01
504.724	7497.66
505.093	7487.71
505.462	7568.84
505.83	7695.39
506.199	7746.69
506.567	7828.04
506.936	7885.44
507.304	7901.94
507.672	8002.28
508.041	8028.72
508.409	8104.19
508.777	8095.83
509.145	8216.28
509.514	8255.83
509.882	8329.95
510.25	8359.78
510.618	8436.84
510.986	8455.82
511.354	8494.92
511.722	8638.64
512.09	8662.6
512.458	8730.62
512.826	8716.83
513.193	8802.48
513.561	8883.61
513.929	8915.7
514.297	8892.87
514.664	9021.01
515.032	9061.68
515.4	9138.97
515.767	9249.25
516.135	9268
516.502	9194.56
516.869	9371.96
517.237	9437.04
517.604	9371.73
517.972	9377.83
518.339	9532.63
518.706	9553.42
519.073	9575.57
519.44	9638.62
519.808	9677.71
520.175	9742.79
520.542	9849.01
520.909	9941.89
521.276	9858.5
521.643	9969.68
522.009	9992.51
522.376	10138.94
522.743	10166.06
523.11	10235.66
523.477	10365.6
523.843	10396.11
524.21	10540.06
524.577	10575.09
524.943	10618.25
525.31	10607.18
525.676	10679.04
526.043	10776.21
526.409	10805.82
526.776	10968.3
527.142	11026.83
527.508	10940.96
527.874	11094.85
528.241	11154.96
528.607	11179.59
528.973	11306.14
529.339	11314.5
529.705	11406.71
530.071	11520.6
530.437	11502.75
530.803	11540.26
531.169	11684.21
531.535	11677.21
531.901	11707.71
532.267	11813.25
532.632	11823.19
532.998	11885.56
533.364	11901.38
533.73	12034.03
534.095	12050.53
534.461	12105.67
534.826	12195.84
535.192	12342.5
535.557	12288.49
535.923	12292.11
536.288	12388.15
536.653	12400.58
537.019	12417.53
537.384	12466.56
537.749	12602.83
538.114	12610.97
538.479	12631.31
538.845	12740.23
539.21	12741.81
539.575	12785.65
539.94	12797.63
540.305	12948.59
540.67	12945.2
541.034	12968.92
541.399	13041.01
541.764	13115.36
542.129	13158.52
542.494	13172.08
542.858	13260.67
543.223	13219.54
543.587	13376.15
543.952	13356.48
544.316	13385.86
544.681	13388.57
545.045	13538.85
545.41	13595.35
545.774	13621.56
546.138	13667.44
546.503	13735.46
546.867	13725.29
547.231	13756.25
547.595	13813.2
547.959	13944.94
548.324	13922.12
548.688	13995.56
549.052	14026.75
549.416	14118.72
549.779	14046.41
550.143	14136.8
550.507	14259.06
550.871	14244.37
551.235	14234.65
551.599	14404.82
551.962	14424.03
552.326	14458.38
552.689	14540.41
553.053	14544.48
553.417	14450.02
553.78	14734.75
554.143	14678.71
554.507	14760.74
554.87	14714.87
555.234	14979.72
555.597	14791.02
555.96	14950.57
556.323	14971.36
556.686	14897.01
557.05	15117.79
557.413	15166.15
557.776	15233.72
558.139	15319.15
558.502	15274.4
558.865	15254.29
559.228	15417.22
559.59	15521.63
559.953	15518.91
560.316	15685.01
560.679	15691.34
561.041	15691.56
561.404	15799.13
561.767	15920.49
562.129	15859.92
562.492	15979.01
562.854	16006.81
563.217	15994.61
563.579	16028.51
563.941	16125
564.304	16192.79
564.666	16304.88
565.028	16334.94
565.39	16354.82
565.753	16463.3
566.115	16464.43
566.477	16595.95
566.839	16623.07
567.201	16735.38
567.563	16691.09
567.925	16856.28
568.287	16865.32
568.648	16951.64
569.01	16951.42
569.372	17093.56
569.734	17025.09
570.095	17245.42
570.457	17226.67
570.819	17340.56
571.18	17372.2
571.542	17475.47
571.903	17537.84
572.265	17704.17
572.626	17691.96
572.987	17793.66
573.349	17806.31
573.71	17948.23
574.071	18035.91
574.432	18069.81
574.794	18305.28
575.155	18227.09
575.516	18331.95
575.877	18439.74
576.238	18588.66
576.599	18737.36
576.96	18799.73
577.32	18906.62
577.681	19062.78
578.042	19173.96
578.403	19229.55
578.763	19379.83
579.124	19462.31
579.485	19672.03
579.845	19882.64
580.206	19879.48
580.566	19956.54
580.927	20208.28
581.287	20382.29
581.648	20535.51
582.008	20709.96
582.368	20873.58
582.728	20964.42
583.089	21156.96
583.449	21297.07
583.809	21540.45
584.169	21742.71
584.529	21846.21
584.889	22145.18
585.249	22200.77
585.609	22488.9
585.969	22765.96
586.329	22940.19
586.688	23048.21
587.048	23353.96
587.408	23554.63
587.768	23675.99
588.127	24028.75
588.487	24079.14
588.846	24527.04
589.206	24542.41
589.565	24831.89
589.925	25156.85
590.284	25247.7
590.643	25631.42
591.003	25894.01
591.362	26172.87
591.721	26388.68
592.08	26565.63
592.44	26908.67
592.799	27061.89
593.158	27314.31
593.517	27600.18
593.876	27758.59
594.235	27935.54
594.593	28372.36
594.952	28634.73
595.311	28682.86
595.67	29002.63
596.029	29422.05
596.387	29547.92
596.746	29837.41
597.104	29961.47
597.463	30128.7
597.822	30587.44
598.18	30687.78
598.538	30946.53
598.897	31283.7
599.255	31275.11
599.613	31843.91
599.972	31834.64
600.33	32233.28
600.688	32341.07
601.046	32533.16
601.404	32834.84
601.762	32954.39
602.12	33248.62
602.478	33551.89
602.836	33595.73
603.194	33554.6
603.552	33872.33
603.91	34020.8
604.268	34311.41
604.625	34473.67
604.983	34750.5
605.341	34776.03
605.698	35139.19
606.056	35404.72
606.413	35458.28
606.771	35625.05
607.128	35950.02
607.485	35898.04
607.843	36104.81
608.2	36447.4
608.557	36588.87
608.914	36680.84
609.272	36969.42
609.629	37148.85
609.986	37435.4
610.343	37322.18
610.7	37711.55
611.057	37732.79
611.414	37958.32
611.771	37913.35
612.127	38328.26
612.484	38387.47
612.841	38512.66
613.198	38537.74
613.554	38726.44
613.911	39087.56
614.267	39044.62
614.624	39239.19
614.98	39217.73
615.337	39623.36
615.693	39595.12
616.05	39615
616.406	39761.44
616.762	39768.67
617.118	39878.27
617.475	39960.53
617.831	40108.1
618.187	40233.29
618.543	40505.15
618.899	40627.63
619.255	40595.77
619.611	40706.05
619.967	40931.58
620.323	41040.95
620.678	41031.69
621.034	40901.3
621.39	41002.31
621.746	41147.84
622.101	41629.41
622.457	41317.56
622.812	41425.8
623.168	41474.84
623.523	41748.73
623.879	41795.51
624.234	41468.51
624.589	41838.9
624.945	41836.41
625.3	41895.62
625.655	41908.5
626.01	42091.32
626.365	41988.95
626.72	42119.34
627.075	42109.18
627.43	42124.32
627.785	42009.52
628.14	42200.92
628.495	42344.42
628.85	42273.24
629.205	42109.4
629.559	42299.9
629.914	42179.23
630.269	42197.53
630.623	42166.57
630.978	42082.06
631.332	42280.47
631.687	42340.13
632.041	42258.32
632.396	42464.19
632.75	42202.96
633.104	42337.42
633.459	42308.04
633.813	42140.81
634.167	42240.47
634.521	42305.1
634.875	42343.07
635.229	42114.37
635.583	42066.69
635.937	42242.51
636.291	42132.23
636.645	42229.62
636.999	42218.78
637.352	42308.27
637.706	42060.36
638.06	42285.44
638.413	42145.78
638.767	42093.36
639.121	42188.5
639.474	41866.02
639.828	42012.91
640.181	42024.88
640.534	42119.34
640.888	42002.06
641.241	41813.36
641.594	41996.41
641.947	41984.21
642.301	41823.76
642.654	42004.09
643.007	41971.78
643.36	41876.64
643.713	41815.17
644.066	42066.92
644.419	41720.71
644.771	41522.3
645.124	41205.47
645.477	40984.46
645.83	40783.33
646.182	40759.38
646.535	40555.77
646.888	40622.43
647.24	40516.9
647.593	40758.25
647.945	40507.86
648.298	40569.1
648.65	40351.03
649.002	40281.43
649.355	40537.24
649.707	40529.78
650.059	40677.8
650.411	41066.94
650.763	41134.51
651.115	41422.19
651.467	41385.58
651.819	41337.44
652.171	41299.71
652.523	41141.97
652.875	41215.19
653.227	41085.47
653.578	41393.26
653.93	41282.53
654.282	40997.57
654.633	40987.85
654.985	41069.88
655.337	41062.42
655.688	41269.65
656.039	41222.64
656.391	40924.12
656.742	41127.05
657.094	41022.42
657.445	41189.65
657.796	41121.18
658.147	41013.61
658.498	40917.34
658.849	41046.6
659.2	41051.58
659.551	40869.89
659.902	41058.81
660.253	40845.03
660.604	41044.57
660.955	40737.01
661.306	41033.05
661.656	40864.01
662.007	40806.38
662.358	40736.1
662.708	40979.94
663.059	40828.98
663.409	40637.35
663.76	40881.18
664.11	40842.77
664.461	40948.75
664.811	40851.36
665.161	40744.47
665.511	40565.71
665.862	40739.49
666.212	40885.03
666.562	40787.18
666.912	40790.79
667.262	40661.08
667.612	40686.84
667.962	40853.16
668.312	40628.31
668.662	40780.4
669.011	40733.39
669.361	40673.51
669.711	40585.37
670.06	40605.94
670.41	40424.93
670.76	40549.44
671.109	40711.92
671.459	40668.08
671.808	40436.22
672.157	40525.04
672.507	40337.92
672.856	40325.95
673.205	40527.52
673.554	40546.96
673.904	40225.38
674.253	40577.92
674.602	40402.33
674.951	39913.3
675.3	39616.59
675.649	40289.56
675.998	40212.95
676.346	40316.68
676.695	40423.34
677.044	40136.8
677.393	40121.2
677.741	40206.4
678.09	40192.84
678.438	40214.76
678.787	40178.15
679.135	40214.54
679.484	39954.43
679.832	40048.44
680.181	39757.82
680.529	39931.61
680.877	39794.89
681.225	39795.79
681.573	39914.2
681.922	39789.46
682.27	39560.54
682.618	39712.18
682.966	39639.64
683.314	39671.95
683.661	39556.02
684.009	39247.33
684.357	39288.91
684.705	39273.32
685.053	39387.66
685.4	39195.35
685.748	38975.25
686.095	39071.06
686.443	38879.2
686.79	38863.61
687.138	38968.47
687.485	39020.89
687.832	38709.26
688.18	38735.48
688.527	38557.63
688.874	38591.53
689.221	38466.56
689.568	38408.48
689.915	38260.91
690.262	38275.15
690.609	38207.58
690.956	38098.66
691.303	38202.61
691.65	37831.32
691.997	37790.87
692.344	37633.59
692.69	37705
693.037	37754.49
693.383	37328.96
693.73	37466.81
694.077	37377.77
694.423	37257.33
694.769	37168.74
695.116	37009.42
695.462	37033.38
695.808	36976.88
696.155	36973.04
696.501	36758.13
696.847	36614.63
697.193	36416.22
697.539	36573.28
697.885	36397.46
698.231	36247.86
698.577	36274.75
698.923	36163.34
699.269	36025.95
699.614	35979.17
699.96	35893.29
700.306	35939.17
700.651	35714.09
700.997	35614.88
701.342	35446.3
701.688	35420.31
702.033	35199.75
702.379	35299.64
702.724	35187.78
703.069	35259.86
703.415	34886.09
703.76	34859.42
704.105	34832.53
704.45	34764.51
704.795	34641.35
705.14	34525.19
705.485	34551.63
705.83	34311.64
706.175	34497.4
706.52	34294.69
706.865	34205.2
707.209	34129.27
707.554	34002.95
707.899	34051.53
708.243	33851.99
708.588	33889.73
708.932	33574.48
709.277	33685.89
709.621	33820.35
709.966	33541.04
710.31	33616.97
710.654	33115.51
710.998	33217.66
711.342	33310.99
711.687	33258.56
712.031	33086.59
712.375	33022.63
712.719	32961.39
713.063	33070.32
713.407	33021.73
713.75	32722.53
714.094	32860.83
714.438	32724.79
714.782	32798.01
715.125	32507.85
715.469	32602.53
715.812	32441.86
716.156	32279.15
716.499	32324.35
716.843	32316.21
717.186	32044.13
717.53	32251.81
717.873	32225.37
718.216	32058.14
718.559	31890.91
718.902	31788.99
719.246	31736.34
719.589	31859.05
719.932	31629.9
720.275	31744.93
720.617	31647.53
720.96	31492.05
721.303	31462.9
721.646	31514.88
721.989	31275.11
722.331	31459.96
722.674	31448.66
723.016	31476.01
723.359	31331.15
723.701	31393.98
724.044	31157.37
724.386	31046.42
724.729	31043.25
725.071	30950.82
725.413	30970.03
725.755	30913.99
726.097	30801.22
726.439	30597.39
726.782	30746.76
727.124	30737.95
727.465	30725.07
727.807	30737.72
728.149	30593.55
728.491	30495.92
728.833	30491.85
729.175	30426.54
729.516	30315.14
729.858	30229.94
730.199	30467.67
730.541	30275.59
730.882	30214.35
731.224	30277.62
731.565	30139.32
731.906	30025.88
732.248	30084.63
732.589	29911.98
732.93	29803.06
733.271	29816.17
733.612	29920.12
733.953	30000.79
734.294	29780.91
734.635	29690.97
734.976	29700.24
735.317	29486.68
735.658	29610.75
735.999	29585.21
736.339	29529.62
736.68	29545.21
737.021	29365.56
737.361	29396.06
737.702	29455.5
738.042	29401.03
738.383	29356.29
738.723	29298.44
739.063	29204.43
739.404	29238.1
739.744	29144.54
740.084	28991.33
740.424	29034.26
740.764	28977.77
741.104	29160.82
741.444	28901.16
741.784	28747.72
742.124	28834.04
742.464	28914.04
742.804	28853.03
743.143	28614.61
743.483	28775.97
743.823	28640.6
744.162	28698
744.502	28660.94
744.841	28572.13
745.181	28680.6
745.52	28455.97
745.86	28465.69
746.199	28343.89
746.538	28353.6
746.877	28461.4
747.216	28413.49
747.556	28262.53
747.895	28222.99
748.234	28038.58
748.573	28155.19
748.911	28026.61
749.25	28071.13
749.589	27886.72
749.928	28007.63
750.267	28010.56
750.605	27867.52
750.944	27875.2
751.283	27725.82
751.621	27670.01
751.96	27683.57
752.298	27616.22
752.636	27559.28
752.975	27474.31
753.313	27458.94
753.651	27433.4
753.989	27373.97
754.327	27370.35
754.666	27199.28
755.004	27241.09
755.342	27174.65
755.679	27163.35
756.017	27035
756.355	27028.67
756.693	26883.36
757.031	26984.6
757.368	26852.18
