Data from hue_320_FLMS001491_56.txt Node
Date: Mon Feb 06 15:47:24 GMT 2017
User: dcchb
Spectrometer: FLMS00149
Trigger mode: 0
Integration Time (sec): 2.000000E-2
Scans to average: 10
Electric dark correction enabled: true
Nonlinearity correction enabled: false
Boxcar width: 0
XAxis mode: Wavelengths
Number of Pixels in Spectrum: 2048
>>>>>Begin Spectral Data<<<<<
341.393	-23.15
341.776	-23.15
342.16	-23.15
342.543	-48.69
342.927	-74.22
343.31	-70.38
343.693	-71.96
344.077	-56.59
344.46	-64.96
344.843	-59.76
345.226	-35.58
345.61	-31.28
345.993	-27.67
346.376	17.08
346.759	-6.65
347.142	25.89
347.525	53.01
347.908	59.11
348.291	76.74
348.674	77.87
349.057	115.15
349.44	137.07
349.823	123.74
350.206	151.31
350.588	196.28
350.971	214.58
351.354	237.63
351.737	238.76
352.119	247.58
352.502	265.43
352.884	269.5
353.267	300.68
353.65	284.64
354.032	317.18
354.414	312.44
354.797	308.14
355.179	303.62
355.562	313.11
355.944	303.62
356.326	342.49
356.709	327.12
357.091	335.49
357.473	349.5
357.855	309.95
358.238	347.01
358.62	340.01
359.002	339.1
359.384	347.24
359.766	350.4
360.148	336.84
360.53	328.25
360.912	340.68
361.294	341.81
361.676	323.06
362.057	341.59
362.439	346.11
362.821	346.33
363.203	341.36
363.584	327.8
363.966	302.72
364.348	323.73
364.729	331.87
365.111	332.32
365.493	319.44
365.874	327.12
366.256	328.25
366.637	318.99
367.019	317.41
367.4	318.08
367.781	316.28
368.163	310.63
368.544	326.9
368.925	309.27
369.306	305.43
369.688	316.95
370.069	311.76
370.45	297.52
370.831	292.77
371.212	306.33
371.593	313.57
371.974	324.86
372.355	300.91
372.736	294.36
373.117	327.35
373.498	312.66
373.879	314.02
374.26	297.29
374.641	296.62
375.021	326.45
375.402	332.55
375.783	313.11
376.163	318.31
376.544	344.07
376.925	330.74
377.305	305.43
377.686	332.55
378.066	325.99
378.447	345.2
378.827	317.18
379.208	344.75
379.588	336.39
379.968	329.38
380.349	330.51
380.729	332.77
381.109	332.55
381.489	336.16
381.87	338.65
382.25	347.46
382.63	332.1
383.01	345.2
383.39	353.79
383.77	326.9
384.15	337.97
384.53	365.77
384.91	357.86
385.29	347.24
385.67	340.23
386.049	330.29
386.429	351.08
386.809	366.67
387.189	355.37
387.568	366.45
387.948	340.68
388.328	366.67
388.707	366.9
389.087	346.78
389.466	363.96
389.846	347.46
390.225	373.9
390.605	348.59
390.984	364.41
391.363	365.54
391.743	383.85
392.122	370.06
392.501	364.86
392.881	341.59
393.26	389.95
393.639	358.31
394.018	384.52
394.397	365.32
394.776	353.34
395.155	381.81
395.534	373.68
395.913	364.86
396.292	403.96
396.671	392.43
397.05	387.01
397.429	411.64
397.808	375.71
398.186	387.01
398.565	375.71
398.944	385.65
399.323	388.14
399.701	391.76
400.08	399.21
400.458	393.56
400.837	402.15
401.215	417.52
401.594	404.18
401.972	417.52
402.351	416.84
402.729	415.71
403.107	391.08
403.486	406.44
403.864	423.84
404.242	427.46
404.62	415.03
404.999	426.56
405.377	445.31
405.755	424.07
406.133	421.36
406.511	446.67
406.889	433.79
407.267	454.8
407.645	448.25
408.023	444.64
408.401	453
408.779	466.1
409.156	453.45
409.534	468.14
409.912	466.33
410.29	474.69
410.667	489.38
411.045	488.02
411.422	488.02
411.8	484.18
412.178	507.23
412.555	496.16
412.933	503.62
413.31	519.89
413.687	507.46
414.065	499.1
414.442	520.57
414.819	539.77
415.197	542.26
415.574	578.19
415.951	575.25
416.328	568.7
416.705	582.26
417.082	573.45
417.46	563.05
417.837	579.32
418.214	591.52
418.591	593.56
418.967	620.68
419.344	612.99
419.721	620.45
420.098	616.38
420.475	620.45
420.852	636.95
421.228	652.77
421.605	637.4
421.982	645.99
422.358	680.79
422.735	661.13
423.111	653.44
423.488	701.8
423.864	673.78
424.241	678.3
424.617	688.7
424.994	734.12
425.37	728.7
425.746	707.23
426.123	723.95
426.499	728.7
426.875	729.83
427.251	734.35
427.627	761.46
428.003	770.5
428.379	786.32
428.756	776.38
429.132	789.03
429.507	782.25
429.883	810.28
430.259	814.57
430.635	820.9
431.011	821.57
431.387	840.11
431.763	856.38
432.138	867.9
432.514	864.74
432.89	906.77
433.265	907.45
433.641	896.15
434.016	903.61
434.392	892.53
434.767	900.89
435.143	950.61
435.518	936.6
435.894	920.55
436.269	948.35
436.644	943.38
437.02	985.41
437.395	970.95
437.77	995.36
438.145	979.99
438.52	997.39
438.895	1020.89
439.271	1030.61
439.646	1054.34
440.021	1045.75
440.395	1042.13
440.77	1024.96
441.145	1045.75
441.52	1083.71
441.895	1069.25
442.27	1067.67
442.645	1061.34
443.019	1079.19
443.394	1081.68
443.769	1110.38
444.143	1085.52
444.518	1088.91
444.892	1097.05
445.267	1087.33
445.641	1164.84
446.016	1103.83
446.39	1149.93
446.764	1121.68
447.139	1132.98
447.513	1128.23
447.887	1114.67
448.262	1135.01
448.636	1137.95
449.01	1153.54
449.384	1165.29
449.758	1171.17
450.132	1156.25
450.506	1179.08
450.88	1170.04
451.254	1173.88
451.628	1200.1
452.002	1214.33
452.376	1215.91
452.75	1195.58
453.123	1213.43
453.497	1242.13
453.871	1259.76
454.244	1257.5
454.618	1254.56
454.992	1273.54
455.365	1256.82
455.739	1310.38
456.112	1291.62
456.486	1278.96
456.859	1335.91
457.232	1345.18
457.606	1316.7
457.979	1360.32
458.352	1344.72
458.725	1363.03
459.099	1384.72
459.472	1421.11
459.845	1390.15
460.218	1444.61
460.591	1412.07
460.964	1431.5
461.337	1471.73
461.71	1464.95
462.083	1479.41
462.456	1492.74
462.829	1491.84
463.201	1491.39
463.574	1464.27
463.947	1515.34
464.32	1553.08
464.692	1564.83
465.065	1556.92
465.438	1568.67
465.81	1584.49
466.183	1602.34
466.555	1613.64
466.928	1639.63
467.3	1607.77
467.672	1655.68
468.045	1695.45
468.417	1686.18
468.789	1662.46
469.161	1682.57
469.534	1731.61
469.906	1764.6
470.278	1744.71
470.65	1766.18
471.022	1792.85
471.394	1784.26
471.766	1828.78
472.138	1852.28
472.51	1845.28
472.882	1891.38
473.253	1902.45
473.625	1901.32
473.997	1961.88
474.369	1949.23
474.74	1959.62
475.112	1992.39
475.484	2033.52
475.855	2007.76
476.227	2087.53
476.598	2125.04
476.97	2101.31
477.341	2190.13
477.713	2175.21
478.084	2161.88
478.455	2218.6
478.827	2224.48
479.198	2309.9
479.569	2263.8
479.94	2344.7
480.311	2349.22
480.682	2391.02
481.053	2447.75
481.424	2439.84
481.795	2446.62
482.166	2517.12
482.537	2550.79
482.908	2546.95
483.279	2551.7
483.65	2622.66
484.021	2662.88
484.391	2688.19
484.762	2718.93
485.133	2749.43
485.503	2711.92
485.874	2801.86
486.244	2751.24
486.615	2859.26
486.985	2861.07
487.356	2910.11
487.726	2926.15
488.097	2987.17
488.467	2977.68
488.837	3060.16
489.207	3073.04
489.578	3098.58
489.948	3111.01
490.318	3122.08
490.688	3167.28
491.058	3212.25
491.428	3274.39
491.798	3258.35
492.168	3307.84
492.538	3332.02
492.908	3322.07
493.278	3361.17
493.648	3370.66
494.017	3438.45
494.387	3409.3
494.757	3435.97
495.126	3503.76
495.496	3503.09
495.866	3517.77
496.235	3534.05
496.605	3598.9
496.974	3561.39
497.344	3595.06
497.713	3620.6
498.082	3645.91
498.452	3648.17
498.821	3706.24
499.19	3690.88
499.559	3743.76
499.928	3759.8
500.298	3785.11
500.667	3799.58
501.036	3776.3
501.405	3808.84
501.774	3813.13
502.143	3828.5
502.512	3852
502.88	3891.78
503.249	3888.61
503.618	3887.71
503.987	3882.96
504.356	3917.31
504.724	3948.5
505.093	3957.76
505.462	3937.65
505.83	3962.51
506.199	4021.26
506.567	4002.06
506.936	4063.07
507.304	4076.63
507.672	4088.38
508.041	4055.84
508.409	4085.67
508.777	4120.47
509.145	4155.27
509.514	4121.37
509.882	4117.08
510.25	4179.23
510.618	4152.11
510.986	4148.72
511.354	4221.49
511.722	4241.37
512.09	4301.26
512.458	4210.86
512.826	4301.71
513.193	4281.37
513.561	4294.25
513.929	4322.27
514.297	4355.04
514.664	4372.67
515.032	4336.96
515.4	4373.12
515.767	4398.2
516.135	4388.26
516.502	4335.38
516.869	4434.81
517.237	4481.37
517.604	4412.21
517.972	4473.46
518.339	4473.23
518.706	4427.58
519.073	4494.47
519.44	4516.39
519.808	4539.89
520.175	4507.81
520.542	4572.44
520.909	4583.74
521.276	4539.22
521.643	4594.13
522.009	4653.79
522.376	4624.19
522.743	4686.33
523.11	4711.19
523.477	4737.63
523.843	4759.55
524.21	4781.24
524.577	4797.52
524.943	4806.33
525.31	4802.26
525.676	4877.74
526.043	4891.07
526.409	4865.08
526.776	4915.7
527.142	4926.78
527.508	5014.01
527.874	5001.8
528.241	5013.1
528.607	5018.3
528.973	5106.43
529.339	5084.97
529.705	5095.13
530.071	5124.96
530.437	5180.56
530.803	5139.88
531.169	5203.15
531.535	5209.48
531.901	5219.88
532.267	5206.77
532.632	5315.92
532.998	5337.61
533.364	5322.25
533.73	5310.5
534.095	5367.9
534.461	5428.68
534.826	5419.19
535.192	5477.05
535.557	5486.76
535.923	5487.67
536.288	5498.29
536.653	5541.45
537.019	5508.91
537.384	5554.78
537.749	5544.39
538.114	5631.62
538.479	5649.02
538.845	5612.18
539.21	5639.3
539.575	5671.39
539.94	5680.88
540.305	5744.61
540.67	5750.26
541.034	5772.86
541.399	5793.2
541.764	5847.21
542.129	5821.89
542.494	5827.54
542.858	5894.44
543.223	5912.06
543.587	5902.12
543.952	5962.23
544.316	5994.55
544.681	5962
545.045	5996.35
545.41	6073.19
545.774	6079.74
546.138	6098.72
546.503	6143.02
546.867	6070.93
547.231	6192.96
547.595	6171.94
547.959	6219.17
548.324	6229.57
548.688	6299.4
549.052	6275.44
549.416	6321.09
549.779	6261.88
550.143	6347.76
550.507	6391.82
550.871	6403.35
551.235	6379.39
551.599	6428.88
551.962	6413.07
552.326	6486.51
552.689	6498.26
553.053	6471.14
553.417	6521.09
553.78	6543.46
554.143	6535.32
554.507	6606.28
554.87	6573.29
555.234	6650.57
555.597	6619.16
555.96	6637.69
556.323	6645.83
556.686	6672.95
557.05	6750.46
557.413	6758.14
557.776	6736.67
558.139	6781.87
558.502	6776.22
558.865	6818.03
559.228	6897.57
559.59	6817.12
559.953	6845.82
560.316	6918.82
560.679	6976.44
561.041	6992.26
561.404	6980.06
561.767	7017.34
562.129	7010.11
562.492	7081.3
562.854	7036.33
563.217	7080.62
563.579	7088.08
563.941	7116.55
564.304	7156.78
564.666	7178.24
565.028	7232.71
565.39	7213.72
565.753	7237.45
566.115	7285.59
566.477	7317.9
566.839	7281.74
567.201	7330.1
567.563	7359.71
567.925	7504.79
568.287	7417.79
568.648	7401.29
569.01	7500.04
569.372	7567.16
569.734	7543.21
570.095	7600.15
570.457	7636.54
570.819	7593.6
571.18	7649.64
571.542	7715.63
571.903	7686.93
572.265	7809.41
572.626	7833.82
572.987	7866.59
573.349	7881.95
573.71	7999.92
574.071	8036.53
574.432	7968.05
574.794	8136.41
575.155	8129.4
575.516	8168.73
575.877	8249.18
576.238	8286.01
576.599	8343.86
576.96	8410.08
577.32	8460.24
577.681	8606
578.042	8645.1
578.403	8730.52
578.763	8805.55
579.124	8894.13
579.485	9046.22
579.845	9123.28
580.206	9168.47
580.566	9359.66
580.927	9439.2
581.287	9612.3
581.648	9663.38
582.008	9809.13
582.368	9919.64
582.728	10105.62
583.089	10117.6
583.449	10382.23
583.809	10521.66
584.169	10726.85
584.529	10859.28
584.889	11152.83
585.249	11244.8
585.609	11356.21
585.969	11625.13
586.329	11819.48
586.688	12029.42
587.048	12278.22
587.408	12474.6
587.768	12706.23
588.127	12851.77
588.487	13138.99
588.846	13422.6
589.206	13586.66
589.565	13894.45
589.925	14131.51
590.284	14370.37
590.643	14642.23
591.003	14939.17
591.362	15298.03
591.721	15470.68
592.08	15681.97
592.44	16003.55
592.799	16337.1
593.158	16562.86
593.517	16954.94
593.876	17149.05
594.235	17407.8
594.593	17712.43
594.952	18025.87
595.311	18299.08
595.67	18600.99
596.029	19059.06
596.387	19254.31
596.746	19595.54
597.104	19784.92
597.463	20115.53
597.822	20499.25
598.18	20745.8
598.538	20959.35
598.897	21404.76
599.255	21431.2
599.613	21970.62
599.972	22274.12
600.33	22503.49
600.688	22725.86
601.046	23080.65
601.404	23476.12
601.762	23600.18
602.12	24086.95
602.478	24207.4
602.836	24478.13
603.194	24707.27
603.552	25109.98
603.91	25229.75
604.268	25605.56
604.625	25757.87
604.983	26154.47
605.341	26204.41
605.698	26608.92
606.056	26974.79
606.413	27065.63
606.771	27455.45
607.128	27564.37
607.485	27869.45
607.843	27973.4
608.2	28403.22
608.557	28647.06
608.914	28707.85
609.272	29165.01
609.629	29294.95
609.986	29569.75
610.343	29684.32
610.7	30006.34
611.057	30258.09
611.414	30383.51
611.771	30553
612.127	30916.15
612.484	31101
612.841	31298.74
613.198	31412.18
613.554	31513.42
613.911	31918.84
614.267	32121.09
614.624	32213.52
614.98	32312.72
615.337	32713.62
615.693	32833.61
616.05	32872.03
616.406	33206.71
616.762	33171.68
617.118	33398.34
617.475	33513.14
617.831	33630.43
618.187	33828.39
618.543	33970.31
618.899	34298.43
619.255	34445.78
619.611	34462.72
619.967	34720.57
620.323	34789.49
620.678	34824.07
621.034	34886.67
621.39	35034.46
621.746	35110.16
622.101	35509.48
622.457	35437.39
622.812	35518.97
623.168	35630.83
623.523	35747.89
623.879	35978.62
624.234	35802.58
624.589	36075.11
624.945	36154.43
625.3	36302.45
625.655	36227.42
626.01	36311.71
626.365	36479.39
626.72	36589.9
627.075	36497.25
627.43	36606.85
627.785	36565.04
628.14	36837.35
628.495	36978.36
628.85	36791.25
629.205	36843.45
629.559	37017.91
629.914	36968.65
630.269	37137
630.623	37008.19
630.978	36961.19
631.332	37315.76
631.687	37255.19
632.041	37158.92
632.396	37312.14
632.75	37158.02
633.104	37311.69
633.459	37176.1
633.813	37217.23
634.167	37298.81
634.521	37257.45
634.875	37320.05
635.229	37257.45
635.583	37234.85
635.937	37320.95
636.291	37317.11
636.645	37367.96
636.999	37263.55
637.352	37518.01
637.706	37308.3
638.06	37384.68
638.413	37231.46
638.767	37315.08
639.121	37433.49
639.474	37232.37
639.828	37250.45
640.181	37288.64
640.534	37325.25
640.888	37339.71
641.241	37281.41
641.594	37162.09
641.947	37325.93
642.301	37217.68
642.654	37197.57
643.007	37380.16
643.36	37312.59
643.713	37215.87
644.066	37462.64
644.419	37221.97
644.771	36831.25
645.124	36514.65
645.477	36513.97
645.83	36487.76
646.182	36130.25
646.535	36145.62
646.888	36186.29
647.24	36150.14
647.593	36249.12
647.945	36159.85
648.298	36089.8
648.65	35992.18
649.002	36046.18
649.355	36015
649.707	36024.72
650.059	36158.27
650.411	36630.8
650.763	36686.17
651.115	36985.82
651.467	36972.04
651.819	36887.97
652.171	36874.86
652.523	36695.21
652.875	36792.61
653.227	36588.77
653.578	36716.9
653.93	36840.97
654.282	36708.77
654.633	36603.91
654.985	36724.59
655.337	36698.82
655.688	36598.26
656.039	36772.27
656.391	36468.55
656.742	36530.92
657.094	36702.21
657.445	36789.67
657.796	36615.66
658.147	36550.8
658.498	36586.06
658.849	36646.85
659.2	36596.23
659.551	36531.37
659.902	36756.9
660.253	36567.08
660.604	36569.11
660.955	36499.96
661.306	36655.89
661.656	36554.65
662.007	36514.65
662.358	36553.29
662.708	36631.25
663.059	36509.9
663.409	36386.29
663.76	36544.48
664.11	36577.47
664.461	36713.74
664.811	36590.8
665.161	36511.03
665.511	36499.28
665.862	36425.38
666.212	36547.19
666.562	36521.2
666.912	36418.83
667.262	36346.74
667.612	36355.1
667.962	36546.74
668.312	36358.27
668.662	36478.49
669.011	36346.52
669.361	36415.44
669.711	36548.54
670.06	36295.22
670.41	36139.06
670.76	36167.54
671.109	36362.33
671.459	36337.25
671.808	36189.23
672.157	36386.29
672.507	36039.18
672.856	36242.34
673.205	36193.75
673.554	36297.03
673.904	36118.5
674.253	36353.3
674.602	36209.12
674.951	35782.01
675.3	35640.55
675.649	36156.92
675.998	36134.54
676.346	36219.74
676.695	36245.5
677.044	36040.54
677.393	36092.74
677.741	36096.58
678.09	35983.14
678.438	35922.8
678.787	36015.68
679.135	36008.9
679.484	35672.86
679.832	35769.13
680.181	35608
680.529	35785.63
680.877	35591.96
681.225	35727.78
681.573	35849.58
681.922	35590.6
682.27	35524.84
682.618	35468.8
682.966	35404.39
683.314	35439.87
683.661	35298.63
684.009	35203.04
684.357	35108.36
684.705	35063.16
685.053	35193.33
685.4	35090.96
685.748	34900
686.095	34802.83
686.443	34884.63
686.79	34754.47
687.138	34988.13
687.485	34865.88
687.832	34720.57
688.18	34768.7
688.527	34496.85
688.874	34526.68
689.221	34387.25
689.568	34389.28
689.915	34265.89
690.262	34296.4
690.609	34201.26
690.956	34150.64
691.303	34056.41
691.65	33947.03
691.997	33821.84
692.344	33766.92
692.69	33736.87
693.037	33801.05
693.383	33445.12
693.73	33516.53
694.077	33517.66
694.423	33522.41
694.769	33214.17
695.116	33270.44
695.462	33159.48
695.808	33046.26
696.155	33046.72
696.501	32832.71
696.847	32979.6
697.193	32688.99
697.539	32747.74
697.885	32502.78
698.231	32333.29
698.577	32448.09
698.923	32496
699.269	32253.52
699.614	32117.02
699.96	31990.02
700.306	32048.55
700.651	31790.93
700.997	31801.32
701.342	31865.73
701.688	31793.19
702.033	31695.56
702.379	31619.18
702.724	31454.67
703.069	31606.08
703.415	31199.98
703.76	31285.18
704.105	31252.64
704.45	31240.66
704.795	31108.69
705.14	30926.77
705.485	30892.87
705.83	30826.44
706.175	30878.41
706.52	30704.4
706.865	30835.7
707.209	30640
707.554	30503.96
707.899	30512.09
708.243	30531.98
708.588	30420.34
708.932	30115.27
709.277	30167.92
709.621	30134.48
709.966	29964.76
710.31	30165.21
710.654	29783.3
710.998	29938.1
711.342	29815.84
711.687	29770.64
712.031	29569.52
712.375	29496.07
712.719	29540.14
713.063	29507.83
713.407	29435.06
713.75	29466.92
714.094	29409.52
714.438	29218.57
714.782	29273.26
715.125	29016.09
715.469	28972.47
715.812	28930.89
716.156	28812.02
716.499	28880.27
716.843	28880.5
717.186	28617.45
717.53	28652.48
717.873	28855.41
718.216	28699.49
718.559	28695.42
718.902	28441.41
719.246	28609.09
719.589	28462.88
719.932	28300.17
720.275	28365.48
720.617	28288.42
720.96	28142.66
721.303	28233.06
721.646	28203.91
721.989	28009.79
722.331	28071.03
722.674	28033.97
723.016	28032.61
723.359	27958.94
723.701	27970.24
724.044	27804.59
724.386	27804.82
724.729	27800.75
725.071	27789.68
725.413	27638.5
725.755	27751.49
726.097	27606.18
726.439	27454.77
726.782	27453.42
727.124	27610.93
727.465	27415.68
727.807	27424.49
728.149	27383.81
728.491	27322.57
728.833	27457.03
729.175	27160.99
729.516	27090.04
729.858	27017.5
730.199	27225.17
730.541	27121
730.882	26899.76
731.224	27094.1
731.565	26759.42
731.906	26771.85
732.248	26867.22
732.589	26811.17
732.93	26717.62
733.271	26759.2
733.612	26762.81
733.953	26812.76
734.294	26558.75
734.635	26363.05
734.976	26496.83
735.317	26329.83
735.658	26331.41
735.999	26523.72
736.339	26381.35
736.68	26497.96
737.021	26304.75
737.361	26170.06
737.702	26334.35
738.042	26227.46
738.383	26143.39
738.723	26267.46
739.063	26084.41
739.404	26165.77
739.744	26098.42
740.084	25930.07
740.424	25948.82
740.764	25948.37
741.104	26022.04
741.444	25768.26
741.784	25807.13
742.124	25773.23
742.464	25795.61
742.804	25695.95
743.143	25668.6
743.483	25719.45
743.823	25415.96
744.162	25609.17
744.502	25548.16
744.841	25472.23
745.181	25512.22
745.52	25368.5
745.86	25385.22
746.199	25404.2
746.538	25278.33
746.877	25313.13
747.216	25274.49
747.556	25244.44
747.895	25211.22
748.234	25169.18
748.573	25061.84
748.911	25101.61
749.25	24987.72
749.589	24897.78
749.928	24991.33
750.267	24964.89
750.605	24977.78
750.944	24782.53
751.283	24706.14
751.621	24789.31
751.96	24675.64
752.298	24626.15
752.636	24691.23
752.975	24495.53
753.313	24399.71
753.651	24444.23
753.989	24397
754.327	24302.99
754.666	24325.36
755.004	24241.3
755.342	24260.96
755.679	24058.25
756.017	24032.04
756.355	24040.4
756.693	23889.89
757.031	23927.18
757.368	23751.37
757.706	23742.55
758.044	23681.76
758.381	23767.19
758.719	23670.69
759.056	23671.82
759.394	23549.56
759.731	23399.29
760.068	23356.35
