Data from hue_50_FLMS001491_72.txt Node
Date: Mon Feb 06 15:10:57 GMT 2017
User: dcchb
Spectrometer: FLMS00149
Trigger mode: 0
Integration Time (sec): 2.000000E-2
Scans to average: 10
Electric dark correction enabled: true
Nonlinearity correction enabled: false
Boxcar width: 0
XAxis mode: Wavelengths
Number of Pixels in Spectrum: 2048
>>>>>Begin Spectral Data<<<<<
341.393	-23.5
341.776	-23.5
342.16	-23.5
342.543	-64.63
342.927	-76.16
343.31	-66.66
343.693	-45.87
344.077	-59.89
344.46	-54.69
344.843	-66.66
345.226	-47.91
345.61	-30.51
345.993	-15.14
346.376	-3.16
346.759	-3.39
347.142	21.47
347.525	18.76
347.908	68.25
348.291	85.65
348.674	83.61
349.057	116.16
349.44	128.13
349.823	124.29
350.206	160.9
350.588	214.23
350.971	222.37
351.354	228.47
351.737	237.73
352.119	256.49
352.502	268.47
352.884	276.83
353.267	307.79
353.65	290.39
354.032	308.92
354.414	319.54
354.797	328.13
355.179	329.03
355.562	311.86
355.944	329.26
356.326	321.57
356.709	323.16
357.091	336.49
357.473	354.34
357.855	334.45
358.238	344.85
358.62	353.89
359.002	369.93
359.384	348.92
359.766	355.92
360.148	327.22
360.53	352.31
360.912	337.39
361.294	339.2
361.676	322.48
362.057	328.35
362.439	298.75
362.821	318.64
363.203	330.61
363.584	333.32
363.966	322.25
364.348	339.2
364.729	311.63
365.111	330.39
365.493	306.43
365.874	323.38
366.256	313.66
366.637	307.56
367.019	319.09
367.4	323.38
367.781	300.56
368.163	324.74
368.544	321.12
368.925	333.78
369.306	315.92
369.688	320.22
370.069	338.52
370.45	325.42
370.831	312.53
371.212	303.49
371.593	324.06
371.974	315.7
372.355	331.29
372.736	301.91
373.117	312.76
373.498	319.09
373.879	341.91
374.26	310.95
374.641	325.87
375.021	322.93
375.402	322.48
375.783	302.59
376.163	322.48
376.544	321.12
376.925	325.87
377.305	334.23
377.686	335.58
378.066	311.4
378.447	319.31
378.827	322.7
379.208	316.38
379.588	332.87
379.968	305.53
380.349	320.44
380.729	336.49
381.109	326.77
381.489	341.46
381.87	332.19
382.25	332.87
382.63	339.88
383.01	352.53
383.39	346.21
383.77	344.17
384.15	342.82
384.53	356.15
384.91	340.33
385.29	342.82
385.67	319.09
386.049	341.69
386.429	343.95
386.809	359.31
387.189	345.98
387.568	338.07
387.948	364.74
388.328	338.07
388.707	334
389.087	368.35
389.466	352.08
389.846	343.72
390.225	352.31
390.605	369.93
390.984	358.63
391.363	373.78
391.743	356.83
392.122	362.25
392.501	368.13
392.881	367.9
393.26	387.56
393.639	390.05
394.018	360.67
394.397	354.34
394.776	364.96
395.155	383.72
395.534	370.84
395.913	375.58
396.292	373.78
396.671	377.17
397.05	369.71
397.429	359.76
397.808	356.6
398.186	359.09
398.565	382.14
398.944	359.54
399.323	381.91
399.701	370.39
400.08	388.24
400.458	401.35
400.837	389.37
401.215	386.66
401.594	376.49
401.972	397.96
402.351	395.02
402.729	401.57
403.107	391.63
403.486	389.14
403.864	417.84
404.242	406.09
404.62	399.09
404.999	429.82
405.377	409.03
405.755	409.93
406.133	412.87
406.511	417.39
406.889	399.76
407.267	431.4
407.645	404.74
408.023	433.89
408.401	415.58
408.779	409.03
409.156	419.42
409.534	430.5
409.912	419.42
410.29	423.49
410.667	428.69
411.045	459.42
411.422	446.54
411.8	443.83
412.178	451.97
412.555	467.78
412.933	458.29
413.31	433.21
413.687	417.39
414.065	460.55
414.442	469.37
414.819	468.91
415.197	459.87
415.574	483.6
415.951	470.5
416.328	466.2
416.705	467.33
417.082	466.2
417.46	477.73
417.837	486.31
418.214	498.07
418.591	488.12
418.967	476.82
419.344	479.76
419.721	502.59
420.098	491.06
420.475	515.47
420.852	512.08
421.228	497.61
421.605	491.96
421.982	499.2
422.358	504.39
422.735	509.37
423.111	517.95
423.488	498.74
423.864	535.35
424.241	533.09
424.617	529.25
424.994	516.6
425.37	519.53
425.746	521.34
426.123	536.03
426.499	520.89
426.875	564.5
427.251	556.37
427.627	545.75
428.003	538.29
428.379	554.34
428.756	552.75
429.132	570.38
429.507	556.14
429.883	583.94
430.259	594.11
430.635	592.07
431.011	604.5
431.387	586.88
431.763	597.72
432.138	594.11
432.514	602.24
432.89	580.1
433.265	611.28
433.641	627.33
434.016	614.9
434.392	650.38
434.767	607.89
435.143	626.65
435.518	634.11
435.894	633.66
436.269	650.38
436.644	660.1
437.02	663.26
437.395	652.19
437.77	690.6
438.145	690.15
438.52	677.72
438.895	662.36
439.271	696.25
439.646	699.19
440.021	706.65
440.395	696.03
440.77	712.75
441.145	703.71
441.52	701
441.895	694.9
442.27	720.88
442.645	718.85
443.019	721.34
443.394	748.91
443.769	736.25
444.143	723.14
444.518	740.55
444.892	729.7
445.267	772.64
445.641	748.91
446.016	745.52
446.39	738.29
446.764	745.97
447.139	756.82
447.513	771.28
447.887	778.06
448.262	787.32
448.636	763.14
449.01	775.12
449.384	794.33
449.758	792.75
450.132	794.33
450.506	809.92
450.88	793.88
451.254	808.34
451.628	811.28
452.002	830.94
452.376	826.19
452.75	839.07
453.123	850.37
453.497	854.89
453.871	857.15
454.244	875.46
454.618	884.04
454.992	881.11
455.365	864.61
455.739	886.76
456.112	876.36
456.486	912.74
456.859	930.6
457.232	925.4
457.606	932.63
457.979	934.89
458.352	963.36
458.725	963.82
459.099	971.05
459.472	963.59
459.845	1003.36
460.218	1000.65
460.591	1016.24
460.964	1035.68
461.337	1057.6
461.71	1057.83
462.083	1037.71
462.456	1071.84
462.829	1066.86
463.201	1080.65
463.574	1119.97
463.947	1119.07
464.32	1136.92
464.692	1158.61
465.065	1194.09
465.438	1190.7
465.81	1186.41
466.183	1213.3
466.555	1246.07
466.928	1238.39
467.3	1256.01
467.672	1260.31
468.045	1267.54
468.417	1323.13
468.789	1343.47
469.161	1345.28
469.534	1356.35
469.906	1408.32
470.278	1410.36
470.65	1434.31
471.022	1460.75
471.394	1521.32
471.766	1518.83
472.138	1534.65
472.51	1578.04
472.882	1615.1
473.253	1660.07
473.625	1670.46
473.997	1711.37
474.369	1724.02
474.74	1768.77
475.112	1825.94
475.484	1852.83
475.855	1906.16
476.227	1972.15
476.598	2004.69
476.97	2025.26
477.341	2095.76
477.713	2182.32
478.084	2196.33
478.455	2278.81
478.827	2306.15
479.198	2422.54
479.569	2429.99
479.94	2536.43
480.311	2577.33
480.682	2631.12
481.053	2764.67
481.424	2798.34
481.795	2889.19
482.166	2973.03
482.537	3079.02
482.908	3161.72
483.279	3259.8
483.65	3336.86
484.021	3405.11
484.391	3528.27
484.762	3604.42
485.133	3681.49
485.503	3796.28
485.874	3895.94
486.244	3966.22
486.615	4088.03
486.985	4231.75
487.356	4388.36
487.726	4456.15
488.097	4608.47
488.467	4670.84
488.837	4851.4
489.207	4967.55
489.578	5133.88
489.948	5183.59
490.318	5312.85
490.688	5452.51
491.058	5565.96
491.428	5703.13
491.798	5816.12
492.168	6044.36
492.538	6106.51
492.908	6222.66
493.278	6376.1
493.648	6539.04
494.017	6689.54
494.387	6784
494.757	6867.84
495.126	7057.89
495.496	7114.84
495.866	7252.01
496.235	7406.58
496.605	7568.16
496.974	7700.36
497.344	7837.76
497.713	8040.69
498.082	8122.72
498.452	8251.53
498.821	8364.53
499.19	8430.51
499.559	8585.31
499.928	8709.6
500.298	8840.67
500.667	8995.24
501.036	9015.58
501.405	9184.84
501.774	9254.45
502.143	9490.82
502.512	9468.45
502.88	9651.05
503.249	9714.55
503.618	9848.78
503.987	10033.18
504.356	10048.78
504.724	10224.36
505.093	10346.85
505.462	10469.33
505.83	10546.84
506.199	10643.11
506.567	10848.75
506.936	10861.86
507.304	11109.31
507.672	11114.96
508.041	11294.39
508.409	11316.09
508.777	11454.61
509.145	11586.14
509.514	11669.52
509.882	11768.5
510.25	11857.54
510.618	11937.54
510.986	12116.07
511.354	12268.15
511.722	12287.36
512.09	12482.16
512.458	12547.24
512.826	12603.51
513.193	12729.16
513.561	12754.69
513.929	12982.03
514.297	13081.01
514.664	13208.92
515.032	13333.43
515.4	13380.67
515.767	13502.92
516.135	13624.5
516.502	13528.91
516.869	13846.64
517.237	13900.43
517.604	13863.59
517.972	14118.72
518.339	14151.27
518.706	14242.34
519.073	14274.88
519.44	14379.51
519.808	14615.66
520.175	14649.11
520.542	14812.04
520.909	14940.85
521.276	14922.77
521.643	15068.53
522.009	15109.89
522.376	15344.46
522.743	15440.5
523.11	15601.62
523.477	15736.99
523.843	15846.59
524.21	15980.6
524.577	16109.86
524.943	16151.67
525.31	16270.08
525.676	16440.47
526.043	16602.05
526.409	16657.64
526.776	16906.67
527.142	16840.91
527.508	17051.3
527.874	17119.1
528.241	17254.69
528.607	17260.56
528.973	17399.09
529.339	17407.68
529.705	17591.63
530.071	17744.62
530.437	17876.14
530.803	18035.23
531.169	18034.33
531.535	18036.36
531.901	18124.95
532.267	18293.98
532.632	18330.82
532.998	18470.93
533.364	18528.55
533.73	18663.24
534.095	18852.61
534.461	18803.8
534.826	18960.18
535.192	19039.73
535.557	19162.43
535.923	19051.25
536.288	19232.71
536.653	19388.87
537.019	19284.24
537.384	19435.65
537.749	19531.01
538.114	19521.07
538.479	19574.85
538.845	19741.63
539.21	19658.24
539.575	19779.59
539.94	19816.65
540.305	19956.76
540.67	20022.75
541.034	20168.74
541.399	20191.56
541.764	20307.49
542.129	20269.07
542.494	20417.99
542.858	20444.21
543.223	20564.43
543.587	20688.04
543.952	20605.79
544.316	20771.43
544.681	20805.78
545.045	20924.42
545.41	20945.44
545.774	21078.99
546.138	20999.22
546.503	21189.5
546.867	21187.24
547.231	21399.89
547.595	21417.74
547.959	21429.49
548.324	21466.78
548.688	21554.24
549.052	21647.79
549.416	21708.58
549.779	21783.38
550.143	21918.52
550.507	22012.98
550.871	22040.78
551.235	22043.49
551.599	22138.85
551.962	22241.45
552.326	22407.09
552.689	22499.07
553.053	22375.91
553.417	22456.81
553.78	22844.37
554.143	22652.74
554.507	22787.65
554.87	22866.97
555.234	22967.76
555.597	22910.13
555.96	23102.22
556.323	23142.89
556.686	23290.24
557.05	23450.68
557.413	23438.03
557.776	23423.56
558.139	23652.71
558.502	23813.39
558.865	23759.15
559.228	23981.97
559.59	24094.51
559.953	24114.17
560.316	24335.41
560.679	24289.53
561.041	24520.26
561.404	24409.75
561.767	24658.33
562.129	24646.36
562.492	24963.41
562.854	24893.81
563.217	24882.51
563.579	24966.12
563.941	25138.1
564.304	25311.65
564.666	25565.88
565.028	25540.12
565.39	25509.84
565.753	25607.91
566.115	25788.7
566.477	25930.39
566.839	25877.51
567.201	26245.86
567.563	26172.42
567.925	26475.91
568.287	26333.32
568.648	26501.68
569.01	26545.52
569.372	26843.81
569.734	26642.01
570.095	26858.5
570.457	27109.34
570.819	27026.63
571.18	27230.7
571.542	27333.97
571.903	27293.52
572.265	27428.21
572.626	27572.61
572.987	27615.77
573.349	27729.21
573.71	27876.33
574.071	27888.08
574.432	28174.4
574.794	28088.08
575.155	28233.61
575.516	28253.95
575.877	28380.27
576.238	28400.38
576.599	28473.15
576.96	28557.89
577.32	28639.02
577.681	28863.2
578.042	29011.89
578.403	29028.62
578.763	29129.18
579.124	29115.39
579.485	29306.8
579.845	29435.38
580.206	29409.85
580.566	29345.67
580.927	29545.44
581.287	29802.15
581.648	29737.07
582.008	29978.19
582.368	30053.45
582.728	30184.74
583.089	30134.57
583.449	30285.31
583.809	30369.14
584.169	30567.33
584.529	30588.57
584.889	30800.55
585.249	30690.27
585.609	30709.7
585.969	30956.7
586.329	31046.87
586.688	31206.64
587.048	31283.7
587.408	31167.77
587.768	31380.19
588.127	31403.69
588.487	31501.54
588.846	31796.45
589.206	31781.31
589.565	31804.36
589.925	32010.68
590.284	31989.22
590.643	32174.75
591.003	32255.42
591.362	32457
591.721	32457.45
592.08	32441.41
592.44	32710.55
592.799	32859.93
593.158	32763.43
593.517	32838.91
593.876	32976.99
594.235	33080.26
594.593	33240.93
594.952	33278
595.311	33343.53
595.67	33460.36
596.029	33746.68
596.387	33765.21
596.746	33984.19
597.104	33839.79
597.463	33755.95
597.822	33903.74
598.18	34062.83
598.538	33988.94
598.897	34261.02
599.255	34155.03
599.613	34707.56
599.972	34544.85
600.33	34610.62
600.688	34511.86
601.046	34825.07
601.404	35094.67
601.762	35031.85
602.12	35188.68
602.478	35211.5
602.836	35234.78
603.194	35135.12
603.552	35268.45
603.91	35119.98
604.268	35525.39
604.625	35452.18
604.983	35528.56
605.341	35486.3
605.698	35774.43
606.056	35754.77
606.413	35804.03
606.771	35964.48
607.128	35988.21
607.485	36009.9
607.843	36119.28
608.2	36231.36
608.557	36413.96
608.914	36310.91
609.272	36513.84
609.629	36730.11
609.986	36862.53
610.343	36581.41
610.7	36869.09
611.057	36859.82
611.414	37034.05
611.771	37183.2
612.127	37197.89
612.484	37129.65
612.841	37417.77
613.198	37269.3
613.554	37340.04
613.911	37527.83
614.267	37668.16
614.624	37517.43
614.98	37766.92
615.337	37831.1
615.693	37936.4
616.05	37768.5
616.406	38141.37
616.762	37914.48
617.118	38193.35
617.475	38126.68
617.831	38188.6
618.187	38338.2
618.543	38182.72
618.899	38554.92
619.255	38430.4
619.611	38486.67
619.967	38582.04
620.323	38706.55
620.678	38623.62
621.034	38521.02
621.39	38650.06
621.746	38542.94
622.101	39048.69
622.457	38717.85
622.812	38863.61
623.168	38915.81
623.523	38988.81
623.879	39177.5
624.234	38839.88
624.589	39004.4
624.945	38997.84
625.3	39143.6
625.655	39091.18
626.01	39156.26
626.365	39170.5
626.72	39151.29
627.075	39250.04
627.43	39172.53
627.785	39258.63
628.14	39294.33
628.495	39259.08
628.85	39220.66
629.205	39116.26
629.559	39350.15
629.914	39175.69
630.269	39120.78
630.623	39103.38
630.978	39101.34
631.332	39205.07
631.687	39278.29
632.041	39165.07
632.396	39229.93
632.75	39203.26
633.104	39301.57
633.459	39046.2
633.813	39048.69
634.167	39164.39
634.521	39052.53
634.875	39146.77
635.229	39114.23
635.583	38942.48
635.937	38977.51
636.291	38991.74
636.645	38898.41
636.999	38885.31
637.352	39071.74
637.706	38792.43
638.06	38937.28
638.413	38944.06
638.767	38836.27
639.121	38841.69
639.474	38695.93
639.828	38547.24
640.181	38767.79
640.534	38609.15
640.888	38661.13
641.241	38467.46
641.594	38563.51
641.947	38670.85
642.301	38529.61
642.654	38642.15
643.007	38497.97
643.36	38498.65
643.713	38522.6
644.066	38659.77
644.419	38364.41
644.771	38091.65
645.124	37792.9
645.477	37664.32
645.83	37640.59
646.182	37326.25
646.535	37246.48
646.888	37488.96
647.24	37162.86
647.593	37368.28
647.945	37183.43
648.298	37079.25
648.65	37155.18
649.002	36898.69
649.355	37218.46
649.707	37145.01
650.059	37341.17
650.411	37698.44
650.763	37673.36
651.115	38057.08
651.467	37975.27
651.819	37931.21
652.171	37872
652.523	37784.54
652.875	37702.06
653.227	37720.14
653.578	37994.48
653.93	37727.14
654.282	37634.49
654.633	37608.73
654.985	37844.2
655.337	37754.26
655.688	37732.34
656.039	37764.88
656.391	37519.24
656.742	37552.91
657.094	37559.69
657.445	37670.65
657.796	37538
658.147	37498.22
658.498	37363.09
658.849	37567.83
659.2	37428.85
659.551	37357.89
659.902	37545.91
660.253	37481.95
660.604	37425.91
660.955	37262.3
661.306	37434.27
661.656	37186.59
662.007	37473.14
662.358	37516.98
662.708	37284.44
663.059	37382.52
663.409	37037.9
663.76	37381.39
664.11	37356.31
664.461	37399.69
664.811	37310.66
665.161	37360.37
665.511	37117.67
665.862	37202.19
666.212	37260.26
666.562	37328.74
666.912	37209.64
667.262	37187.95
667.612	37246.25
667.962	37252.58
668.312	37152.24
668.662	37388.17
669.011	37285.12
669.361	37196.54
669.711	37081.28
670.06	37120.83
670.41	37044.22
670.76	37024.79
671.109	37048.52
671.459	37122.87
671.808	37127.61
672.157	37135.07
672.507	36919.48
672.856	36996.54
673.205	36973.94
673.554	36967.16
673.904	36899.14
674.253	37026.82
674.602	36909.99
674.951	36451.47
675.3	36157.92
675.649	36790.45
675.998	36684.69
676.346	36739.37
676.695	37009.2
677.044	36715.87
677.393	36724.46
677.741	36663.67
678.09	36642.2
678.438	36633.61
678.787	36684.69
679.135	36547.74
679.484	36424.13
679.832	36547.97
680.181	36446.95
680.529	36390.46
680.877	36399.27
681.225	36401.08
681.573	36528.53
681.922	36349.33
682.27	36128.09
682.618	36284.02
682.966	36116.34
683.314	36242.44
683.661	35991.82
684.009	35944.59
684.357	35991.82
684.705	35835.44
685.053	35805.16
685.4	35780.98
685.748	35656.46
686.095	35690.81
686.443	35489.01
686.79	35473.42
687.138	35446.98
687.485	35415.34
687.832	35511.38
688.18	35378.73
688.527	35162.92
688.874	35163.6
689.221	35043.82
689.568	35104.84
689.915	35008.35
690.262	34830.27
690.609	34915.92
690.956	34762.02
691.303	34691.29
691.65	34483.61
691.997	34613.55
692.344	34351.64
692.69	34317.52
693.037	34428.25
693.383	34092.66
693.73	34315.48
694.077	33980.12
694.423	34009.05
694.769	33870.52
695.116	33832.33
695.462	33748.27
695.808	33603.18
696.155	33644.99
696.501	33499.46
696.847	33493.36
697.193	33273.02
697.539	33372
697.885	33298.79
698.231	32979.92
698.577	33072.12
698.923	32976.99
699.269	32682.76
699.614	32600.5
699.96	32623.1
700.306	32668.75
700.651	32455.19
700.997	32358.02
701.342	32348.75
701.688	32290
702.033	32219.27
702.379	32104.24
702.724	31995.54
703.069	32117.57
703.415	31764.81
703.76	31753.06
704.105	31818.15
704.45	31685.49
704.795	31578.83
705.14	31544.03
705.485	31435.78
705.83	31368.89
706.175	31400.98
706.52	31196.02
706.865	31130.25
707.209	31137.94
707.554	30955.57
707.899	31050.93
708.243	30902.46
708.588	30825.63
708.932	30606.2
709.277	30620.44
709.621	30779.3
709.966	30551.97
710.31	30467.22
710.654	30254.57
710.998	30415.92
711.342	30260.22
711.687	30254.8
712.031	30153.56
712.375	29957.86
712.719	30092.99
713.063	29910.85
713.407	30044.63
713.75	29957.86
714.094	29828.14
714.438	29806.67
714.782	29709.05
715.125	29682.38
715.469	29806
715.812	29475.84
716.156	29286.69
716.499	29357.87
716.843	29521.94
717.186	29189.06
717.53	29507.02
717.873	29179.8
718.216	29220.02
718.559	29126.01
718.902	28968.73
719.246	28949.07
719.589	28821.16
719.932	28792.92
720.275	28800.6
720.617	28742.75
720.96	28682.18
721.303	28637.89
721.646	28780.71
721.989	28540.94
722.331	28594.28
722.674	28614.61
723.016	28515.63
723.359	28458.91
723.701	28389.99
724.044	28427.5
724.386	28140.73
724.729	28244.23
725.071	28088.75
725.413	28204.91
725.755	28055.08
726.097	27969.89
726.439	27805.82
726.782	27886.05
727.124	27990
727.465	27811.7
727.807	27740.06
728.149	27750.46
728.491	27754.75
728.833	27790
729.175	27626.84
729.516	27646.05
729.858	27496.45
730.199	27581.87
730.541	27388.66
730.882	27354.08
731.224	27456
731.565	27317.7
731.906	27343.91
732.248	27395.21
732.589	27184.14
732.93	27107.08
733.271	27155.67
733.612	27158.61
733.953	27108.89
734.294	27042
734.635	26978.5
734.976	27067.76
735.317	26928.56
735.658	26883.81
735.999	26722.91
736.339	26835.23
736.68	26792.74
737.021	26665.74
737.361	26527.89
737.702	26864.15
738.042	26720.43
738.383	26681.33
738.723	26549.13
739.063	26492.41
739.404	26512.07
739.744	26470.49
740.084	26356.14
740.424	26306.65
740.764	26274.11
741.104	26376.03
741.444	26299.42
741.784	26119.31
742.124	26143.72
742.464	26148.92
742.804	26142.14
743.143	26094.46
743.483	26129.03
743.823	25891.97
744.162	25862.14
744.502	25905.99
744.841	25814.46
745.181	25935.59
745.52	25767.46
745.86	25811.98
746.199	25735.82
746.538	25727.91
746.877	25705.31
747.216	25700.12
747.556	25595.03
747.895	25640.68
748.234	25425.09
748.573	25486.34
748.911	25323.63
749.25	25358.2
749.589	25264.87
749.928	25295.61
750.267	25252.9
750.605	25199.79
750.944	25099
751.283	25063.97
751.621	25130.64
751.96	24928.38
752.298	24944.2
752.636	24947.82
752.975	24759.8
753.313	24680.71
753.651	24995.5
753.989	24626.02
754.327	24665.11
754.666	24659.69
755.004	24599.13
755.342	24542.63
755.679	24445.23
756.017	24420.83
756.355	24381.05
756.693	24292.24
757.031	24352.35
