Data from hue_24_FLMS001491_00097.txt Node
Date: Tue Feb 07 17:13:01 GMT 2017
User: dcchb
Spectrometer: FLMS00149
Trigger mode: 0
Integration Time (sec): 2.000000E-2
Scans to average: 10
Electric dark correction enabled: true
Nonlinearity correction enabled: false
Boxcar width: 0
XAxis mode: Wavelengths
Number of Pixels in Spectrum: 2048
>>>>>Begin Spectral Data<<<<<
341.393	-12.73
341.776	-12.73
342.16	-12.73
342.543	-48.43
342.927	-48.66
343.31	-62.22
343.693	-80.52
344.077	-64.48
344.46	-70.35
344.843	-38.49
345.226	-36.23
345.61	-36.68
345.993	-27.64
346.376	-2.78
346.759	4
347.142	35.41
347.525	65.92
347.908	50.1
348.291	72.92
348.674	88.97
349.057	102.07
349.44	115.18
349.823	151.56
350.206	177.55
350.588	219.81
350.971	220.94
351.354	243.09
351.737	219.13
352.119	250.77
352.502	277.44
352.884	301.39
353.267	276.98
353.65	288.96
354.032	297.55
354.414	319.47
354.797	308.62
355.179	336.19
355.562	337.32
355.944	334.38
356.326	345.23
356.709	350.65
357.091	361.5
357.473	351.11
357.855	343.65
358.238	355.4
358.62	340.26
359.002	341.39
359.384	352.24
359.766	348.85
360.148	340.49
360.53	340.26
360.912	361.95
361.294	334.38
361.676	357.89
362.057	342.75
362.439	345.91
362.821	331.22
363.203	335.06
363.584	334.16
363.966	322.86
364.348	340.71
364.729	356.53
365.111	317.89
365.493	344.33
365.874	327.6
366.256	298
366.637	330.09
367.019	330.77
367.4	341.62
367.781	341.16
368.163	320.37
368.544	312.69
368.925	322.86
369.306	320.82
369.688	327.83
370.069	314.5
370.45	325.12
370.831	322.86
371.212	319.02
371.593	328.51
371.974	328.06
372.355	326.47
372.736	355.4
373.117	335.51
373.498	312.24
373.879	347.49
374.26	331.22
374.641	344.33
375.021	306.59
375.402	356.08
375.783	335.97
376.163	358.56
376.544	370.54
376.925	341.62
377.305	346.81
377.686	347.94
378.066	351.33
378.447	342.75
378.827	337.32
379.208	346.59
379.588	359.24
379.968	350.88
380.349	368.06
380.729	341.39
381.109	374.83
381.489	374.83
381.87	363.54
382.25	337.77
382.63	382.52
383.01	367.83
383.39	375.74
383.77	369.64
384.15	378.9
384.53	367.83
384.91	386.81
385.29	380.26
385.67	363.76
386.049	397.66
386.429	392.91
386.809	397.66
387.189	380.26
387.568	371.22
387.948	382.52
388.328	396.76
388.707	398.34
389.087	389.3
389.466	397.66
389.846	397.21
390.225	401.73
390.605	411.67
390.984	413.03
391.363	392.46
391.743	413.93
392.122	406.02
392.501	397.89
392.881	412.35
393.26	417.55
393.639	407.15
394.018	405.79
394.397	408.05
394.776	408.96
395.155	399.92
395.534	416.87
395.913	418.9
396.292	418.22
396.671	432.23
397.05	430.65
397.429	417.09
397.808	433.82
398.186	423.2
398.565	417.32
398.944	423.42
399.323	453.7
399.701	431.78
400.08	443.31
400.458	440.82
400.837	446.47
401.215	453.93
401.594	433.14
401.972	469.75
402.351	453.02
402.729	436.53
403.107	453.7
403.486	451.89
403.864	465.68
404.242	466.36
404.62	483.31
404.999	481.27
405.377	478.56
405.755	464.32
406.133	473.82
406.511	511.33
406.889	476.08
407.267	469.07
407.645	486.92
408.023	484.44
408.401	517.43
408.779	500.03
409.156	505.9
409.534	496.87
409.912	491.22
410.29	521.72
410.667	531.44
411.045	537.54
411.422	539.35
411.8	540.71
412.178	548.39
412.555	547.26
412.933	545.23
413.31	565.11
413.687	543.64
414.065	575.73
414.442	558.33
414.819	561.95
415.197	563.08
415.574	565.56
415.951	577.54
416.328	598.56
416.705	574.38
417.082	582.96
417.46	588.61
417.837	625.68
418.214	593.59
418.591	585.22
418.967	590.42
419.344	613.02
419.721	606.47
420.098	615.73
420.475	624.55
420.852	619.8
421.228	639.01
421.605	625.45
421.982	681.04
422.358	646.01
422.735	666.13
423.111	663.19
423.488	672
423.864	680.14
424.241	679.91
424.617	688.5
424.994	666.8
425.37	689.18
425.746	669.29
426.123	668.16
426.499	682.17
426.875	688.95
427.251	719.46
427.627	713.58
428.003	728.95
428.379	738.44
428.756	735.05
429.132	740.02
429.507	763.07
429.883	739.34
430.259	761.27
430.635	773.47
431.011	775.95
431.387	769.4
431.763	785.22
432.138	800.81
432.514	803.07
432.89	798.78
433.265	828.16
433.641	827.25
434.016	797.42
434.392	828.38
434.767	855.27
435.143	858.89
435.518	870.19
435.894	871.09
436.269	889.62
436.644	878.55
437.02	884.65
437.395	901.37
437.77	895.95
438.145	898.66
438.52	904.76
438.895	919.23
439.271	936.4
439.646	934.59
440.021	951.32
440.395	968.94
440.77	937.53
441.145	967.14
441.52	978.21
441.895	966.91
442.27	1006.46
442.645	993.58
443.019	994.71
443.394	991.54
443.769	991.32
444.143	970.75
444.518	1009.17
444.892	1030.18
445.267	1031.31
445.641	1020.02
446.016	1045.1
446.39	1045.78
446.764	1054.59
447.139	1059.56
447.513	1074.48
447.887	1064.76
448.262	1091.88
448.636	1077.42
449.01	1073.12
449.384	1086
449.758	1109.28
450.132	1131.65
450.506	1111.31
450.88	1128.94
451.254	1133.68
451.628	1134.36
452.002	1166
452.376	1155.61
452.75	1203.06
453.123	1196.28
453.497	1173.23
453.871	1220.24
454.244	1227.92
454.618	1241.03
454.992	1278.77
455.365	1254.13
455.739	1271.53
456.112	1271.99
456.486	1291.42
456.859	1321.7
457.232	1318.54
457.606	1350.4
457.979	1368.25
458.352	1365.54
458.725	1383.85
459.099	1399.89
459.472	1428.37
459.845	1391.08
460.218	1462.49
460.591	1425.65
460.964	1442.15
461.337	1482.83
461.71	1501.36
462.083	1534.35
462.456	1532.09
462.829	1532.09
463.201	1554.01
463.574	1591.3
463.947	1573.45
464.32	1599.89
464.692	1629.94
465.065	1646.44
465.438	1656.83
465.81	1684.63
466.183	1688.02
466.555	1736.83
466.928	1734.12
467.3	1778.41
467.672	1804.63
468.045	1820.45
468.417	1843.27
468.789	1869.26
469.161	1875.13
469.534	1924.85
469.906	1929.6
470.278	1997.17
470.65	1982.25
471.022	2007.11
471.394	2037.16
471.766	2100.21
472.138	2083.72
472.51	2126.2
472.882	2157.84
473.253	2196.26
473.625	2227.22
473.997	2311.73
474.369	2316.7
474.74	2380.88
475.112	2394.22
475.484	2435.57
475.855	2451.84
476.227	2488
476.598	2522.12
476.97	2579.3
477.341	2609.58
477.713	2628.79
478.084	2701.1
478.455	2786.75
478.827	2820.19
479.198	2916.24
479.569	2922.11
479.94	2975.67
480.311	3022.9
480.682	3097.25
481.053	3169.34
481.424	3200.3
481.795	3226.29
482.166	3270.58
482.537	3339.28
482.908	3433.51
483.279	3472.15
483.65	3566.84
484.021	3642.32
484.391	3711.24
484.762	3705.37
485.133	3771.58
485.503	3848.42
485.874	3881.41
486.244	3922.31
486.615	4012.48
486.985	4094.06
487.356	4194.62
487.726	4191.68
488.097	4294.96
488.467	4334.73
488.837	4432.13
489.207	4452.02
489.578	4533.37
489.948	4635.97
490.318	4694.5
490.688	4714.61
491.058	4789.18
491.428	4900.59
491.798	4902.63
492.168	5003.19
492.538	5029.85
492.908	5046.8
493.278	5138.78
493.648	5177.87
494.017	5248.83
494.387	5316.17
494.757	5315.5
495.126	5448.15
495.496	5421.48
495.866	5511.42
496.235	5579.22
496.605	5613.79
496.974	5659.44
497.344	5787.12
497.713	5851.75
498.082	5829.38
498.452	5883.84
498.821	5902.15
499.19	5939.21
499.559	6017.4
499.928	6052.2
500.298	6064.63
500.667	6126.32
501.036	6193.66
501.405	6254.68
501.774	6230.95
502.143	6350.95
502.512	6349.37
502.88	6425.3
503.249	6430.04
503.618	6456.71
503.987	6434.79
504.356	6497.84
504.724	6531.06
505.093	6609.25
505.462	6629.81
505.83	6702.8
506.199	6761.79
506.567	6821.44
506.936	6768.34
507.304	6905.06
507.672	6891.73
508.041	6933.98
508.409	7002.91
508.777	7061.44
509.145	7044.26
509.514	7060.31
509.882	7065.28
510.25	7128.78
510.618	7183.7
510.986	7272.51
511.354	7247.2
511.722	7268.21
512.09	7372.84
512.458	7361.09
512.826	7439.51
513.193	7505.27
513.561	7549.11
513.929	7590.24
514.297	7646.96
514.664	7624.14
515.032	7699.16
515.4	7781.42
515.767	7757.24
516.135	7776.67
516.502	7755.88
516.869	7870.68
517.237	7909.33
517.604	7842.44
517.972	7952.49
518.339	7999.27
518.706	8017.8
519.073	8084.46
519.44	8145.25
519.808	8166.49
520.175	8149.77
520.542	8312.48
520.909	8266.83
521.276	8271.8
521.643	8446.26
522.009	8474.06
522.376	8513.38
522.743	8571
523.11	8557.9
523.477	8707.72
523.843	8676.09
524.21	8746.59
524.577	8786.37
524.943	8868.85
525.31	8884.89
525.676	9015.51
526.043	9026.13
526.409	9086.24
526.776	9164.43
527.142	9222.29
527.508	9244.88
527.874	9272
528.241	9331.44
528.607	9345.22
528.973	9445.56
529.339	9403.52
529.705	9587.02
530.071	9624.31
530.437	9613.46
530.803	9705.44
531.169	9763.97
531.535	9656.62
531.901	9774.36
532.267	9852.55
532.632	9850.07
532.998	9836.28
533.364	9979.33
533.73	9964.87
534.095	10109.49
534.461	10117.4
534.826	10216.84
535.192	10218.42
535.557	10311.97
535.923	10302.03
536.288	10368.7
536.653	10426.77
537.019	10351.75
537.384	10510.16
537.749	10492.76
538.114	10556.26
538.479	10592.42
538.845	10586.77
539.21	10708.8
539.575	10643.04
539.94	10706.77
540.305	10833.54
540.67	10824.96
541.034	10865.18
541.399	10907.89
541.764	10983.6
542.129	10945.4
542.494	11054.78
542.858	11112.63
543.223	11090.26
543.587	11176.36
543.952	11171.39
544.316	11298.84
544.681	11231.72
545.045	11320.76
545.41	11399.86
545.774	11361.44
546.138	11452.96
546.503	11528.21
546.867	11512.4
547.231	11635.1
547.595	11659.74
547.959	11665.39
548.324	11698.6
548.688	11728.66
549.052	11763.46
549.416	11824.93
549.779	11822.44
550.143	11876
550.507	11959.84
550.871	11997.13
551.235	11989.9
551.599	12122.1
551.962	12198.03
552.326	12174.3
552.689	12254.75
553.053	12133.17
553.417	12241.19
553.78	12397.34
554.143	12317.57
554.507	12426.72
554.87	12527.96
555.234	12608.41
555.597	12531.13
555.96	12605.02
556.323	12635.3
556.686	12666.94
557.05	12740.84
557.413	12784
557.776	12821.97
558.139	12888.18
558.502	12909.65
558.865	12952.58
559.228	12997.55
559.59	13072.13
559.953	13125.23
560.316	13255.17
560.679	13177.21
561.041	13323.19
561.404	13350.54
561.767	13452.01
562.129	13373.14
562.492	13560.48
562.854	13506.01
563.217	13434.38
563.579	13567.03
563.941	13680.7
564.304	13725.9
564.666	13763.41
565.028	13778.78
565.39	13835.05
565.753	13922.28
566.115	13887.47
566.477	14052.44
566.839	14033.46
567.201	14136.51
567.563	14158.43
567.925	14238.65
568.287	14248.59
568.648	14264.64
569.01	14348.03
569.372	14435.71
569.734	14384.64
570.095	14617.17
570.457	14613.56
570.819	14602.26
571.18	14727.9
571.542	14743.72
571.903	14835.02
572.265	14952.3
572.626	14955.69
572.987	14994.79
573.349	15105.75
573.71	15163.6
574.071	15271.62
574.432	15314.33
574.794	15413.31
575.155	15463.03
575.516	15514.78
575.877	15519.52
576.238	15781.66
576.599	15717.03
576.96	15900.98
577.32	15920.87
577.681	15994.76
578.042	16139.39
578.403	16225.27
578.763	16305.72
579.124	16414.41
579.485	16558.59
579.845	16783.67
580.206	16754.97
580.566	16934.17
580.927	17132.81
581.287	17285.58
581.648	17398.79
582.008	17603.31
582.368	17758.78
582.728	17963.52
583.089	18061.6
583.449	18250.97
583.809	18386.79
584.169	18651.19
584.529	18758.98
584.889	19178.63
585.249	19185.87
585.609	19406.2
585.969	19691.84
586.329	19757.38
586.688	20150.81
587.048	20372.05
587.408	20618.37
587.768	20750.8
588.127	21017.91
588.487	21284.79
588.846	21713.93
589.206	21860.15
589.565	22162.06
589.925	22595.95
590.284	22676.85
590.643	23100.11
591.003	23425.75
591.362	23738.97
591.721	23992.74
592.08	24383.7
592.44	24692.61
592.799	25127.86
593.158	25418.02
593.517	25625.02
593.876	26074.5
594.235	26330.31
594.593	26677.87
594.952	27121.93
595.311	27226.78
595.67	27801.91
596.029	28264.04
596.387	28631.27
596.746	28858.38
597.104	29079.62
597.463	29309.89
597.822	29889.99
598.18	30154.62
598.538	30420.6
598.897	31065.78
599.255	31180.58
599.613	31965.19
599.972	32129.93
600.33	32487.21
600.688	32662.8
601.046	33081.32
601.404	33588.2
601.762	33680.63
602.12	34284.9
602.478	34594.05
602.836	34900.48
603.194	35095.28
603.552	35464.31
603.91	35547.47
604.268	36135.25
604.625	36325.08
604.983	36844.38
605.341	36945.17
605.698	37423.8
606.056	37860.4
606.413	37925.49
606.771	38412.7
607.128	38718.91
607.485	38783.32
607.843	39043.65
608.2	39607.93
608.557	39918.65
608.914	39933.34
609.272	40342.37
609.629	40732.87
609.986	41088.57
610.343	41170.15
610.7	41600.64
611.057	41801.77
611.414	41869.79
611.771	42120.18
612.127	42666.83
612.484	42728.52
612.841	43061.17
613.198	43136.87
613.554	43186.59
613.911	43648.5
614.267	43930.07
614.624	43897.08
614.98	44224.08
615.337	44500.45
615.693	44719.66
616.05	44818.64
616.406	45175.69
616.762	45311.51
617.118	45351.96
617.475	45484.61
617.831	45826.52
618.187	46064.48
618.543	46151.03
618.899	46446.17
619.255	46488.2
619.611	46661.98
619.967	46804.12
620.323	47022.42
620.678	46924.35
621.034	46955.98
621.39	47184
621.746	47325.92
622.101	47753.25
622.457	47502.41
622.812	47773.36
623.168	47832.8
623.523	47901.49
623.879	48174.26
624.234	48038.89
624.589	48211.32
624.945	48323.63
625.3	48347.36
625.655	48522.72
626.01	48466.23
626.365	48677.29
626.72	48628.26
627.075	48683.62
627.43	48773.56
627.785	48797.74
628.14	48953.22
628.495	49089.49
628.85	49025.08
629.205	48867.12
629.559	49261.68
629.914	49057.62
630.269	49123.84
630.623	49105.08
630.978	49069.83
631.332	49271.4
631.687	49275.47
632.041	49277.73
632.396	49383.26
632.75	49275.7
633.104	49371.51
633.459	49244.28
633.813	49225.08
634.167	49279.54
634.521	49440.66
634.875	49520.44
635.229	49472.53
635.583	49254.68
635.937	49354.34
636.291	49397.05
636.645	49369.03
636.999	49259.88
637.352	49423.26
637.706	49322.93
638.06	49451.28
638.413	49316.37
638.767	49265.53
639.121	49368.8
639.474	49207.68
639.828	49147.11
640.181	49193.44
640.534	49408.57
640.888	49138.3
641.241	49085.42
641.594	49178.75
641.947	49226.88
642.301	49280.22
642.654	49219.65
643.007	49235.24
643.36	49199.31
643.713	49079.54
644.066	49312.53
644.419	49094.23
644.771	48882.26
645.124	48634.58
645.477	48541.93
645.83	48348.71
646.182	48139.45
646.535	48027.14
646.888	48203.63
647.24	48038.21
647.593	48191.66
647.945	48172.22
648.298	48035.95
648.65	47856.52
649.002	47846.81
649.355	48066.69
649.707	48036.63
650.059	48227.36
650.411	48611.31
650.763	48635.26
651.115	48976.27
651.467	48901.69
651.819	48806.78
652.171	48894.24
652.523	48755.03
652.875	48749.38
653.227	48586.22
653.578	48829.15
653.93	48811.98
654.282	48522.95
654.633	48577.64
654.985	48593.45
655.337	48711.87
655.688	48703.96
656.039	48767.91
656.391	48539.44
656.742	48594.81
657.094	48553.23
657.445	48872.54
657.796	48596.17
658.147	48548.71
658.498	48553
658.849	48630.97
659.2	48501.03
659.551	48358.21
659.902	48525.89
660.253	48515.49
660.604	48621.02
660.955	48384.87
661.306	48497.64
661.656	48427.36
662.007	48487.69
662.358	48435.94
662.708	48457.64
663.059	48552.33
663.409	48174.26
663.76	48570.86
664.11	48412.89
664.461	48495.15
664.811	48460.58
665.161	48386.91
665.511	48321.82
665.862	48298.77
666.212	48475.49
666.562	48409.5
666.912	48397.98
667.262	48365.21
667.612	48350.97
667.962	48399.11
668.312	48289.96
668.662	48380.58
669.011	48275.04
669.361	48291.31
669.711	48300.35
670.06	48285.89
670.41	48187.14
670.76	48175.84
671.109	48229.62
671.459	48231.66
671.808	48290.86
672.157	48328.15
672.507	48053.81
672.856	48103.75
673.205	48137.65
673.554	48319.56
673.904	48079.12
674.253	48200.7
674.602	47973.13
674.951	47626.25
675.3	47448.85
675.649	48047.25
675.998	47941.49
676.346	47999.8
676.695	48073.92
677.044	47879.35
677.393	47850.2
677.741	48025.33
678.09	47830.76
678.438	47870.08
678.787	47719.13
679.135	47886.35
679.484	47648.62
679.832	47849.97
680.181	47518.45
680.529	47663.31
680.877	47474.16
681.225	47347.84
681.573	47636.87
681.922	47447.5
682.27	47372.92
682.618	47261.06
682.966	47260.38
683.314	47336.09
683.661	47153.72
684.009	47034.62
684.357	46923.44
684.705	46972.93
685.053	46906.72
685.4	46949.43
685.748	46632.6
686.095	46799.15
686.443	46534.53
686.79	46513.06
687.138	46694.75
687.485	46609.1
687.832	46345.83
688.18	46514.64
688.527	46298.6
688.874	46243.91
689.221	46216.79
689.568	45990.58
689.915	46057.7
690.262	45971.38
690.609	45957.14
690.956	45678.5
691.303	45641.89
691.65	45515.34
691.997	45466.76
692.344	45137.73
692.69	45101.57
693.037	45068.8
693.383	44814.57
693.73	45031.06
694.077	44813.67
694.423	44777.28
694.769	44725.53
695.116	44496.39
695.462	44563.73
695.808	44287.8
696.155	44348.59
696.501	44102.95
696.847	44198.09
697.193	43759
697.539	44039.45
697.885	43785.9
698.231	43643.98
698.577	43637.2
698.923	43693.24
699.269	43398.34
699.614	43220.71
699.96	43234.72
700.306	43152.47
700.651	43141.17
700.997	43002.19
701.342	42820.5
701.688	42795.41
702.033	42578.92
702.379	42563.33
702.724	42481.52
703.069	42517.91
703.415	42137.8
703.76	42101.87
704.105	42172.15
704.45	42033.4
704.795	41769.9
705.14	41731.49
705.485	41851.03
705.83	41579.63
706.175	41586.18
706.52	41481.78
706.865	41427.77
707.209	41297.15
707.554	41117.27
707.899	41206.98
708.243	40889.25
708.588	40949.14
708.932	40582.14
709.277	40592.76
709.621	40600.67
709.966	40511.41
710.31	40497.62
710.654	40208.14
710.998	40353.44
711.342	40152.09
711.687	40297.63
712.031	39986.22
712.375	39926.79
712.719	39946.9
713.063	39794.82
713.407	39950.97
713.75	39658.32
714.094	39752.56
714.438	39619.23
714.782	39490.19
715.125	39294.04
715.469	39496.97
715.812	39235.28
716.156	39009.98
716.499	39090.2
716.843	39086.81
717.186	38949.87
717.53	39160.71
717.873	39123.65
718.216	38772.92
718.559	38629.2
718.902	38377
719.246	38602.3
719.589	38457
719.932	38331.35
720.275	38309.43
720.617	38301.97
720.96	38135.65
721.303	38228.75
721.646	38195.31
721.989	37980.4
722.331	38075.76
722.674	37958.03
723.016	38041.19
723.359	37946.05
723.701	37988.31
724.044	37667.64
724.386	37498.38
724.729	37758.03
725.071	37583.12
725.413	37497.47
725.755	37429.23
726.097	37310.13
726.439	37164.6
726.782	37138.16
727.124	37292.06
727.465	36985.62
727.807	37091.38
728.149	37135.22
728.491	36874.44
728.833	36976.36
729.175	36854.1
729.516	36804.16
729.858	36700.21
730.199	36689.13
730.541	36703.82
730.882	36544.96
731.224	36737.04
731.565	36390.16
731.906	36352.65
732.248	36370.72
732.589	36247.11
732.93	36168.92
733.271	36252.31
733.612	36193.33
733.953	36173.22
734.294	35986.33
734.635	35938.42
734.976	35915.82
735.317	35851.87
735.658	35813.23
735.999	35792.89
736.339	35813
736.68	35879.21
737.021	35737.07
737.361	35493.23
737.702	35732.32
738.042	35509.5
738.383	35422.05
738.723	35615.26
739.063	35435.38
739.404	35535.04
739.744	35326.68
740.084	35143.19
740.424	35290.07
740.764	35257.76
741.104	35314.26
741.444	34986.81
741.784	34859.35
742.124	35105.9
742.464	35096.18
742.804	34977.77
743.143	34787.72
743.483	34870.42
743.823	34606.93
744.162	34642.18
744.502	34683.54
744.841	34583.2
745.181	34641.73
745.52	34565.57
745.86	34551.11
746.199	34452.81
746.538	34392.25
746.877	34419.82
747.216	34364.45
747.556	34245.13
747.895	34266.6
748.234	34171.46
748.573	34138.92
748.911	34029.32
749.25	34068.86
749.589	33854.41
749.928	33847.63
750.267	33981.86
750.605	33717.01
750.944	33792.26
751.283	33583.45
751.621	33629.33
751.96	33504.36
752.298	33550.01
752.636	33566.05
752.975	33385.72
753.313	33232.95
753.651	33402.44
753.989	33140.98
754.327	33100.3
754.666	32953.41
755.004	32979.63
755.342	33085.61
755.679	32876.35
756.017	32746.64
756.355	32894.43
756.693	32670.26
757.031	32697.6
757.368	32507.55
757.706	32535.35
758.044	32390.49
