Data from hue_80_FLMS001491_53.txt Node
Date: Mon Feb 06 15:23:13 GMT 2017
User: dcchb
Spectrometer: FLMS00149
Trigger mode: 0
Integration Time (sec): 2.000000E-2
Scans to average: 10
Electric dark correction enabled: true
Nonlinearity correction enabled: false
Boxcar width: 0
XAxis mode: Wavelengths
Number of Pixels in Spectrum: 2048
>>>>>Begin Spectral Data<<<<<
341.393	6.38
341.776	6.38
342.16	6.38
342.543	-47.4
342.927	-54.18
343.31	-78.13
343.693	-55.08
344.077	-69.77
344.46	-54.63
344.843	-61.41
345.226	-45.82
345.61	-41.3
345.993	-18.7
346.376	6.38
346.759	5.93
347.142	26.72
347.525	23.78
347.908	64.46
348.291	82.99
348.674	100.39
349.057	114.18
349.44	137.45
349.823	143.1
350.206	155.08
350.588	198.24
350.971	220.16
351.354	247.51
351.737	236.89
352.119	264
352.502	281.86
352.884	280.28
353.267	293.38
353.65	283.89
354.032	289.09
354.414	294.96
354.797	321.63
355.179	320.27
355.562	341.52
355.944	343.32
356.326	343.78
356.709	340.61
357.091	336.54
357.473	381.06
357.855	340.61
358.238	343.32
358.62	348.3
359.002	353.27
359.384	351.01
359.766	342.87
360.148	369.99
360.53	367.05
360.912	326.38
361.294	351.23
361.676	343.1
362.057	342.42
362.439	343.32
362.821	316.66
363.203	337.45
363.584	331.35
363.966	341.29
364.348	329.99
364.729	311.01
365.111	321.4
365.493	334.51
365.874	331.12
366.256	332.7
366.637	329.54
367.019	317.11
367.4	324.12
367.781	345.36
368.163	326.83
368.544	290.22
368.925	288.64
369.306	297.22
369.688	311.23
370.069	320.5
370.45	317.11
370.831	315.3
371.212	319.82
371.593	320.05
371.974	335.64
372.355	307.62
372.736	305.81
373.117	309.65
373.498	339.48
373.879	324.12
374.26	314.4
374.641	306.49
375.021	334.51
375.402	311.46
375.783	326.83
376.163	310.56
376.544	362.76
376.925	320.05
377.305	333.38
377.686	316.21
378.066	319.82
378.447	357.79
378.827	322.76
379.208	343.1
379.588	343.32
379.968	326.15
380.349	334.06
380.729	349.88
381.109	342.42
381.489	341.97
381.87	341.52
382.25	328.86
382.63	322.99
383.01	330.44
383.39	335.87
383.77	360.05
384.15	345.36
384.53	355.3
384.91	356.43
385.29	346.71
385.67	365.02
386.049	344.91
386.429	353.27
386.809	347.62
387.189	361.4
387.568	355.53
387.948	357.56
388.328	356.88
388.707	347.17
389.087	349.2
389.466	334.51
389.846	367.28
390.225	360.5
390.605	369.31
390.984	369.76
391.363	365.47
391.743	374.06
392.122	372.48
392.501	381.06
392.881	384.23
393.26	394.62
393.639	368.41
394.018	371.35
394.397	385.36
394.776	389.42
395.155	363.21
395.534	354.17
395.913	385.58
396.292	380.16
396.671	386.49
397.05	387.62
397.429	386.71
397.808	393.49
398.186	409.76
398.565	377
398.944	396.43
399.323	391.68
399.701	372.48
400.08	401.63
400.458	405.47
400.837	403.89
401.215	407.96
401.594	408.18
401.972	405.02
402.351	396.66
402.729	389.88
403.107	401.18
403.486	410.89
403.864	404.57
404.242	398.92
404.62	409.76
404.999	413.38
405.377	390.33
405.755	400.72
406.133	410.22
406.511	424
406.889	421.51
407.267	429.65
407.645	433.94
408.023	433.04
408.401	442.76
408.779	435.98
409.156	437.79
409.534	432.59
409.912	436.66
410.29	459.48
410.667	457.45
411.045	449.08
411.422	465.35
411.8	455.41
412.178	453.15
412.555	456.09
412.933	466.26
413.31	466.71
413.687	460.16
414.065	471.91
414.442	490.44
414.819	500.61
415.197	509.42
415.574	490.89
415.951	474.62
416.328	480.72
416.705	493.15
417.082	479.37
417.46	512.36
417.837	501.96
418.214	519.59
418.591	516.2
418.967	523.43
419.344	510.55
419.721	495.41
420.098	511.91
420.475	516.2
420.852	525.47
421.228	515.75
421.605	527.5
421.982	517.11
422.358	545.8
422.735	541.29
423.111	537.67
423.488	556.43
423.864	550.55
424.241	549.87
424.617	553.49
424.994	552.36
425.37	561.62
425.746	562.75
426.123	562.08
426.499	559.59
426.875	552.58
427.251	588.29
427.627	567.27
428.003	596.2
428.379	583.77
428.756	592.36
429.132	597.78
429.507	616.31
429.883	605.69
430.259	605.46
430.635	608.18
431.011	609.98
431.387	598.68
431.763	643.88
432.138	657.44
432.514	632.81
432.89	661.96
433.265	640.04
433.641	649.53
434.016	661.96
434.392	658.34
434.767	680.94
435.143	678.68
435.518	680.72
435.894	691.56
436.269	698.12
436.644	688.4
437.02	729.75
437.395	706.7
437.77	708.74
438.145	723.43
438.52	748.96
438.895	755.74
439.271	722.98
439.646	748.51
440.021	723.2
440.395	748.96
440.77	734.73
441.145	749.87
441.52	777.66
441.895	759.36
442.27	774.27
442.645	778.12
443.019	789.41
443.394	778.34
443.769	807.94
444.143	793.48
444.518	785.57
444.892	807.72
445.267	821.96
445.641	805.46
446.016	823.99
446.39	804.1
446.764	841.39
447.139	828.51
447.513	874.16
447.887	831.22
448.262	836.19
448.636	868.51
449.01	839.58
449.384	871.45
449.758	863.54
450.132	859.92
450.506	889.98
450.88	868.73
451.254	875.29
451.628	897.21
452.002	894.5
452.376	914.83
452.75	915.74
453.123	910.09
453.497	952.8
453.871	950.99
454.244	970.43
454.618	952.12
454.992	968.84
455.365	977.21
455.739	1002.52
456.112	1018.11
456.486	998.45
456.859	1047.49
457.232	1033.48
457.606	1017.43
457.979	1037.32
458.352	1055.85
458.725	1101.04
459.099	1087.26
459.472	1104.66
459.845	1135.85
460.218	1130.42
460.591	1162.29
460.964	1147.6
461.337	1182.62
461.71	1176.97
462.083	1191.89
462.456	1207.48
462.829	1215.17
463.201	1229.18
463.574	1247.03
463.947	1274.83
464.32	1291.32
464.692	1279.12
465.065	1287.03
465.438	1324.77
465.81	1356.41
466.183	1371.09
466.555	1399.12
466.928	1396.18
467.3	1379.23
467.672	1449.06
468.045	1472.11
468.417	1463.75
468.789	1517.53
469.161	1510.98
469.534	1551.43
469.906	1606.12
470.278	1604.53
470.65	1633.91
471.022	1681.59
471.394	1698.77
471.766	1723.63
472.138	1767.24
472.51	1808.14
472.882	1859.44
473.253	1892.44
473.625	1926.33
473.997	1960.68
474.369	1985.54
474.74	2049.49
475.112	2062.38
475.484	2129.72
475.855	2199.55
476.227	2218.76
476.598	2298.3
476.97	2360.45
477.341	2390.95
477.713	2461.91
478.084	2487.22
478.455	2553.66
478.827	2622.13
479.198	2757.95
479.569	2778.51
479.94	2852.18
480.311	2956.14
480.682	3016.02
481.053	3142.35
481.424	3200.42
481.795	3272.96
482.166	3339.63
482.537	3469.34
482.908	3565.39
483.279	3647.42
483.65	3728.77
484.021	3845.83
484.391	3966.96
484.762	4050.57
485.133	4162.66
485.503	4223.22
485.874	4354.74
486.244	4455.76
486.615	4586.15
486.985	4722.87
487.356	4832.47
487.726	4992.24
488.097	5128.96
488.467	5217.77
488.837	5384.1
489.207	5448.95
489.578	5645.33
489.948	5761.03
490.318	5895.27
490.688	5990.86
491.058	6154.92
491.428	6295.48
491.798	6464.07
492.168	6580
492.538	6714.46
492.908	6899.31
493.278	7055.24
493.648	7144.28
494.017	7275.35
494.387	7422.46
494.757	7549.69
495.126	7737.03
495.496	7794.43
495.866	7977.93
496.235	8182.67
496.605	8285.71
496.974	8387.63
497.344	8572.49
497.713	8670.11
498.082	8813.38
498.452	8964.11
498.821	8981.74
499.19	9196.88
499.559	9336.99
499.928	9370.21
500.298	9532.69
500.667	9696.07
501.036	9734.94
501.405	9934.03
501.774	9908.95
502.143	10096.06
502.512	10162.73
502.88	10361.37
503.249	10422.16
503.618	10470.29
503.987	10622.38
504.356	10794.35
504.724	10842.71
505.093	10903.95
505.462	11073.44
505.83	11181.91
506.199	11235.02
506.567	11435.46
506.936	11451.73
507.304	11713.42
507.672	11750.26
508.041	11756.81
508.409	11894.43
508.777	11987.76
509.145	12084.71
509.514	12150.7
509.882	12267.76
510.25	12307.98
510.618	12431.82
510.986	12498.71
511.354	12601.08
511.722	12743.9
512.09	12840.17
512.458	12853.28
512.826	12993.61
513.193	13030.22
513.561	13100.05
513.929	13196.77
514.297	13288.52
514.664	13402.64
515.032	13539.59
515.4	13597.67
515.767	13608.96
516.135	13690.54
516.502	13678.11
516.869	13853.93
517.237	13904.55
517.604	13889.41
517.972	14019.35
518.339	14076.97
518.706	14195.39
519.073	14239.68
519.44	14315.39
519.808	14410.3
520.175	14404.42
520.542	14511.31
520.909	14656.17
521.276	14588.83
521.643	14762.61
522.009	14833.79
522.376	14904.75
522.743	14900.68
523.11	15081.47
523.477	15174.35
523.843	15244.63
524.21	15386.32
524.577	15438.75
524.943	15497.05
525.31	15470.61
525.676	15669.02
526.043	15749.7
526.409	15700.66
526.776	15864.95
527.142	15903.59
527.508	15853.88
527.874	15961.9
528.241	16065.85
528.607	16084.38
528.973	16128.45
529.339	16056.58
529.705	16266.75
530.071	16338.16
530.437	16353.07
530.803	16454.09
531.169	16483.69
531.535	16421.55
531.901	16541.09
532.267	16545.38
532.632	16605.72
532.998	16580.19
533.364	16571.6
533.73	16700.86
534.095	16756.68
534.461	16770.24
534.826	16789.45
535.192	16817.02
535.557	16886.39
535.923	16787.19
536.288	16891.82
536.653	16831.25
537.019	16814.3
537.384	16826.05
537.749	16864.02
538.114	16821.76
538.479	16908.99
538.845	16850.46
539.21	16776.11
539.575	16927.75
539.94	16882.1
540.305	16943.57
540.67	16874.42
541.034	16934.53
541.399	16901.76
541.764	16923.23
542.129	16931.36
542.494	16912.83
542.858	16926.62
543.223	16934.07
543.587	16948.31
543.952	16884.58
544.316	16916.9
544.681	16824.47
545.045	16970.46
545.41	16994.64
545.774	16932.72
546.138	16904.24
546.503	16955.77
546.867	16914.87
547.231	16989.89
547.595	16992.83
547.959	16929.33
548.324	16850.91
548.688	16935.2
549.052	16909.89
549.416	16921.42
549.779	16932.04
550.143	16844.36
550.507	16869.9
550.871	16977.01
551.235	16857.92
551.599	16963.45
551.962	16894.08
552.326	16951.93
552.689	16982.66
553.053	16855.66
553.417	16899.05
553.78	17005.49
554.143	16839.16
554.507	16992.6
554.87	16940.4
555.234	17110.34
555.597	16987.18
555.96	16960.06
556.323	17052.94
556.686	16960.74
557.05	16974.98
557.413	17054.52
557.776	17043.68
558.139	17125.48
558.502	17092.49
558.865	17096.78
559.228	17155.31
559.59	17127.74
559.953	17164.58
560.316	17237.12
560.679	17306.49
561.041	17302.65
561.404	17413.38
561.767	17359.83
562.129	17415.42
562.492	17537.22
562.854	17428.75
563.217	17415.64
563.579	17454.06
563.941	17548.3
564.304	17597.79
564.666	17645.92
565.028	17705.35
565.39	17627.84
565.753	17612.47
566.115	17639.82
566.477	17727.95
566.839	17864.22
567.201	17840.94
567.563	17790.78
567.925	17973.82
568.287	17948.06
568.648	17929.75
569.01	17981.73
569.372	17987.38
569.734	18029.41
570.095	18106.93
570.457	18108.96
570.819	18177.43
571.18	18088.39
571.542	18188.5
571.903	18218.56
572.265	18190.76
572.626	18266.02
572.987	18341.5
573.349	18427.37
573.71	18410.87
574.071	18384.66
574.432	18383.53
574.794	18435.28
575.155	18403.64
575.516	18352.12
575.877	18421.04
576.238	18599.34
576.599	18611.32
576.96	18559.34
577.32	18615.61
577.681	18565.67
578.042	18598.89
578.403	18551.43
578.763	18583.75
579.124	18637.31
579.485	18678.89
579.845	18640.02
580.206	18655.61
580.566	18733.35
580.927	18676.18
581.287	18737.87
581.648	18553.47
582.008	18782.61
582.368	18648.15
582.728	18680.7
583.089	18664.42
583.449	18673.24
583.809	18693.58
584.169	18673.01
584.529	18622.62
584.889	18836.17
585.249	18597.99
585.609	18611.54
585.969	18778.55
586.329	18550.98
586.688	18659.9
587.048	18690.64
587.408	18533.35
587.768	18605.89
588.127	18484.32
588.487	18521.83
588.846	18615.61
589.206	18530.64
589.565	18583.97
589.925	18546.69
590.284	18537.2
590.643	18606.8
591.003	18541.26
591.362	18590.08
591.721	18576.52
592.08	18528.83
592.44	18577.65
592.799	18564.31
593.158	18560.02
593.517	18409.74
593.876	18445.9
594.235	18546.91
594.593	18509.85
594.952	18532.68
595.311	18540.59
595.67	18555.73
596.029	18595.05
596.387	18574.71
596.746	18641.15
597.104	18508.27
597.463	18547.14
597.822	18535.84
598.18	18470.76
598.538	18524.99
598.897	18648.61
599.255	18302.85
599.613	18725.89
599.972	18483.86
600.33	18590.08
600.688	18478.67
601.046	18520.25
601.404	18647.48
601.762	18618.32
602.12	18661.26
602.478	18637.08
602.836	18527.48
603.194	18443.41
603.552	18551.21
603.91	18565.44
604.268	18578.33
604.625	18603.41
604.983	18515.73
605.341	18551.89
605.698	18583.07
606.056	18608.83
606.413	18621.04
606.771	18661.03
607.128	18648.83
607.485	18604.09
607.843	18585.1
608.2	18715.72
608.557	18674.37
608.914	18615.84
609.272	18724.54
609.629	18816.74
609.986	18828.94
610.343	18788.26
610.7	18894.93
611.057	18906.23
611.414	18824.42
611.771	18904.42
612.127	19027.58
612.484	18940.8
612.841	18910.29
613.198	18892.89
613.554	18897.19
613.911	19068.48
614.267	18940.12
614.624	19050.63
614.98	19060.12
615.337	19196.16
615.693	19080.23
616.05	19057.18
616.406	19168.14
616.762	19101.48
617.118	19083.17
617.475	19194.13
617.831	19165.43
618.187	19109.61
618.543	19133.11
618.899	19236.16
619.255	19264.63
619.611	19232.09
619.967	19212.43
620.323	19252.66
620.678	19155.71
621.034	19229.83
621.39	19156.39
621.746	19148.03
622.101	19372.88
622.457	19216.5
622.812	19202.94
623.168	19349.83
623.523	19409.49
623.879	19416.72
624.234	19242.04
624.589	19405.65
624.945	19277.06
625.3	19293.33
625.655	19359.32
626.01	19447.91
626.365	19401.58
626.72	19456.95
627.075	19344.63
627.43	19353.22
627.785	19264.86
628.14	19312.32
628.495	19315.71
628.85	19307.8
629.205	19341.92
629.559	19316.16
629.914	19321.81
630.269	19267.35
630.623	19093.11
630.978	19138.08
631.332	19278.65
631.687	19276.39
632.041	19139.67
632.396	19184.86
632.75	19186.9
633.104	19173.11
633.459	19103.06
633.813	19028.26
634.167	19153.23
634.521	19092.44
634.875	19072.78
635.229	19167.46
635.583	18983.06
635.937	18955.26
636.291	18963.63
636.645	18960.01
636.999	18896.96
637.352	18998.43
637.706	18788.26
638.06	18944.19
638.413	18805.21
638.767	18850.86
639.121	18822.16
639.474	18698.1
639.828	18766.79
640.181	18828.26
640.534	18712.33
640.888	18724.54
641.241	18631.43
641.594	18665.33
641.947	18708.72
642.301	18615.84
642.654	18657.87
643.007	18691.32
643.36	18752.56
643.713	18561.38
644.066	18800.01
644.419	18532
644.771	18451.1
645.124	18331.33
645.477	18162.29
645.83	18172.46
646.182	18027.38
646.535	18068.96
646.888	18045.23
647.24	17943.09
647.593	18059.69
647.945	17927.49
648.298	17955.06
648.65	17880.94
649.002	17875.52
649.355	17964.33
649.707	17855.86
650.059	18000.71
650.411	18199.13
650.763	18260.59
651.115	18530.42
651.467	18405.67
651.819	18379.01
652.171	18358.9
652.523	18304.21
652.875	18366.58
653.227	18323.64
653.578	18399.35
653.93	18405.67
654.282	18325.22
654.633	18283.19
654.985	18260.59
655.337	18354.15
655.688	18342.4
656.039	18388.95
656.391	18209.97
656.742	18277.99
657.094	18328.39
657.445	18288.62
657.796	18263.53
658.147	18358.22
658.498	18309.86
658.849	18323.64
659.2	18271.21
659.551	18249.97
659.902	18422.85
660.253	18281.38
660.604	18305.79
660.955	18244.55
661.306	18295.85
661.656	18300.37
662.007	18340.14
662.358	18330.42
662.708	18350.76
663.059	18328.61
663.409	18188.96
663.76	18390.99
664.11	18390.08
664.461	18374.49
664.811	18351.66
665.161	18352.57
665.511	18288.84
665.862	18463.75
666.212	18392.34
666.562	18318.67
666.912	18316.64
667.262	18335.62
667.612	18454.94
667.962	18361.38
668.312	18283.19
668.662	18429.63
669.011	18360.25
669.361	18259.01
669.711	18295.39
670.06	18252.91
670.41	18300.37
670.76	18322.06
671.109	18311.44
671.459	18309.63
671.808	18308.28
672.157	18242.51
672.507	18188.96
672.856	18138.34
673.205	18127.72
673.554	18263.98
673.904	18141.95
674.253	18273.47
674.602	18163.87
674.951	17941.51
675.3	17802.75
675.649	18193.48
675.998	18053.82
676.346	18154.61
676.695	18094.72
677.044	17955.06
677.393	18079.58
677.741	18017.89
678.09	17998
678.438	17814.73
678.787	17995.74
679.135	18015.18
679.484	17913.03
679.832	17974.5
680.181	17844.56
680.529	17896.08
680.877	17852.69
681.225	17892.02
681.573	17938.12
681.922	17812.7
682.27	17732.25
682.618	17737.67
682.966	17584.9
683.314	17666.71
683.661	17589.42
684.009	17511.23
684.357	17553.27
684.705	17501.29
685.053	17528.18
685.4	17437.79
685.748	17367.28
686.095	17390.79
686.443	17236.67
686.79	17253.84
687.138	17266.72
687.485	17171.58
687.832	17147.4
688.18	17118.93
688.527	17084.13
688.874	16996.22
689.221	16984.92
689.568	16982.89
689.915	16885.26
690.262	16824.7
690.609	16861.99
690.956	16695.21
691.303	16786.96
691.65	16655.44
691.997	16577.7
692.344	16546.06
692.69	16495.22
693.037	16541.32
693.383	16468.1
693.73	16477.36
694.077	16304.71
694.423	16278.5
694.769	16248.44
695.116	16199.86
695.462	16196.47
695.808	16034.44
696.155	16120.54
696.501	15894.1
696.847	15927.1
697.193	15920.09
697.539	15858.4
697.885	15782.01
698.231	15669.93
698.577	15647.78
698.923	15659.53
699.269	15572.53
699.614	15409.37
699.96	15447.33
700.306	15382.02
700.651	15352.2
700.997	15270.84
701.342	15195.36
701.688	15165.99
702.033	15184.97
702.379	15141.13
702.724	15098.87
703.069	15023.16
703.415	14878.54
703.76	14935.03
704.105	14854.36
704.45	14864.07
704.795	14723.06
705.14	14686.68
705.485	14735.49
705.83	14603.29
706.175	14638.77
706.52	14621.59
706.865	14449.17
707.209	14576.17
707.554	14365.1
707.899	14430.19
708.243	14319.45
708.588	14275.16
708.932	14133.47
709.277	14215.28
709.621	14227.48
709.966	14126.69
710.31	14075.84
710.654	14031.33
710.998	14053.92
711.342	13956.98
711.687	13948.39
712.031	13837.88
712.375	13839.69
712.719	13842.4
713.063	13792.01
713.407	13851.44
713.75	13765.57
714.094	13690.54
714.438	13722.63
714.782	13725.12
715.125	13613.48
715.469	13689.64
715.812	13471.34
716.156	13522.41
716.499	13519.02
716.843	13570.55
717.186	13479.7
717.53	13550.89
717.873	13489.65
718.216	13496.65
718.559	13402.64
718.902	13342.08
719.246	13303.44
719.589	13307.73
719.932	13244.68
720.275	13250.56
720.617	13218.92
720.96	13169.88
721.303	13225.02
721.646	13208.07
721.989	13195.64
722.331	13159.26
722.674	13127.62
723.016	13157.22
723.359	13079.26
723.701	13101.86
724.044	13068.87
724.386	13007.85
724.729	13088.75
725.071	12998.81
725.413	13037
725.755	13091.92
726.097	13029.77
726.439	12924.24
726.782	12938.25
727.124	13072.26
727.465	12880.85
727.807	12956.1
728.149	12970.79
728.491	12888.08
728.833	12958.13
729.175	12906.84
729.516	12871.58
729.858	12874.52
730.199	12931.69
730.541	12892.37
730.882	12877.91
731.224	12957.46
731.565	12860.51
731.906	12776.22
732.248	12819.15
732.589	12773.05
732.93	12748.42
733.271	12761.75
733.612	12682.43
733.953	12799.04
734.294	12736.9
734.635	12754.98
734.976	12767.63
735.317	12755.65
735.658	12715.43
735.999	12702.1
736.339	12732.6
736.68	12705.49
737.021	12712.72
737.361	12698.03
737.702	12755.43
738.042	12723.34
738.383	12736.22
738.723	12806.5
739.063	12753.85
739.404	12745.94
739.744	12738.7
740.084	12782.77
740.424	12763.79
740.764	12726.95
741.104	12870.9
741.444	12853.5
741.784	12728.76
742.124	12751.59
742.464	12855.99
742.804	12831.58
743.143	12906.61
743.483	12804.24
743.823	12887.4
744.162	12946.61
744.502	13006.04
744.841	12969.43
745.181	13058.47
745.52	13099.6
745.86	13122.2
746.199	13128.3
746.538	13162.42
746.877	13234.28
747.216	13238.13
747.556	13214.62
747.895	13310.21
748.234	13270.67
748.573	13394.51
748.911	13443.09
749.25	13416.2
749.589	13526.48
749.928	13562.41
750.267	13696.19
750.605	13736.64
750.944	13791.56
751.283	13838.56
751.621	13943.42
751.96	13975.06
752.298	14053.7
752.636	14136.86
752.975	14137.99
753.313	14227.03
753.651	14440.13
753.989	14461.15
754.327	14527.13
754.666	14579.56
755.004	14719.44
755.342	14834.02
755.679	14962.83
756.017	14992.66
756.355	15152.65
