Data from hue_340_FLMS001491_70.txt Node
Date: Mon Feb 06 15:43:27 GMT 2017
User: dcchb
Spectrometer: FLMS00149
Trigger mode: 0
Integration Time (sec): 2.000000E-2
Scans to average: 10
Electric dark correction enabled: true
Nonlinearity correction enabled: false
Boxcar width: 0
XAxis mode: Wavelengths
Number of Pixels in Spectrum: 2048
>>>>>Begin Spectral Data<<<<<
341.393	0
341.776	0
342.16	0
342.543	-55.37
342.927	-67.12
343.31	-42.94
343.693	-81.13
344.077	-66.89
344.46	-45.42
344.843	-65.99
345.226	-47.23
345.61	-38.64
345.993	-11.53
346.376	4.29
346.759	1.13
347.142	11.3
347.525	46.33
347.908	62.15
348.291	68.02
348.674	95.59
349.057	110.96
349.44	112.09
349.823	162.48
350.206	152.76
350.588	187.11
350.971	184.63
351.354	210.16
351.737	226.89
352.119	238.64
352.502	252.42
352.884	267.79
353.267	282.7
353.65	290.39
354.032	284.74
354.414	308.92
354.797	311.86
355.179	312.76
355.562	332.87
355.944	315.02
356.326	328.13
356.709	339.2
357.091	334.45
357.473	346.21
357.855	341.91
358.238	343.49
358.62	325.19
359.002	332.65
359.384	333.1
359.766	333.1
360.148	322.7
360.53	350.05
360.912	331.06
361.294	316.15
361.676	339.2
362.057	322.7
362.439	314.79
362.821	320.44
363.203	322.03
363.584	324.96
363.966	310.5
364.348	295.13
364.729	303.72
365.111	305.08
365.493	324.51
365.874	315.47
366.256	319.54
366.637	320.44
367.019	323.83
367.4	293.55
367.781	315.47
368.163	317.51
368.544	306.88
368.925	305.75
369.306	317.96
369.688	298.52
370.069	314.57
370.45	296.26
370.831	307.34
371.212	301.24
371.593	298.52
371.974	302.59
372.355	305.08
372.736	331.06
373.117	291.97
373.498	301.91
373.879	298.3
374.26	300.11
374.641	295.13
375.021	322.7
375.402	323.38
375.783	321.12
376.163	330.39
376.544	310.05
376.925	331.06
377.305	321.12
377.686	310.05
378.066	303.95
378.447	310.73
378.827	324.51
379.208	315.25
379.588	327.45
379.968	324.96
380.349	322.93
380.729	314.34
381.109	321.8
381.489	322.48
381.87	325.42
382.25	325.64
382.63	312.76
383.01	338.07
383.39	305.53
383.77	328.8
384.15	317.96
384.53	333.1
384.91	341.91
385.29	346.21
385.67	336.49
386.049	334.91
386.429	353.89
386.809	343.49
387.189	348.01
387.568	343.49
387.948	355.24
388.328	336.71
388.707	325.87
389.087	372.42
389.466	350.73
389.846	341.23
390.225	333.78
390.605	345.08
390.984	365.41
391.363	354.34
391.743	366.32
392.122	350.5
392.501	367.67
392.881	348.01
393.26	356.15
393.639	361.8
394.018	361.8
394.397	355.92
394.776	374.68
395.155	371.74
395.534	353.89
395.913	369.71
396.292	364.28
396.671	357.96
397.05	390.05
397.429	353.89
397.808	370.61
398.186	362.48
398.565	366.77
398.944	368.58
399.323	381.23
399.701	392.98
400.08	360.22
400.458	375.13
400.837	388.01
401.215	388.92
401.594	384.4
401.972	388.24
402.351	390.72
402.729	388.46
403.107	388.92
403.486	398.63
403.864	388.92
404.242	384.17
404.62	378.07
404.999	431.63
405.377	384.17
405.755	409.93
406.133	402.7
406.511	416.26
406.889	414.68
407.267	403.38
407.645	424.17
408.023	426.2
408.401	418.75
408.779	433.21
409.156	448.35
409.534	434.11
409.912	413.77
410.29	433.21
410.667	445.19
411.045	434.34
411.422	446.77
411.8	442.7
412.178	480.89
412.555	456.71
412.933	457.62
413.31	478.41
413.687	486.31
414.065	477.05
414.442	475.02
414.819	487.67
415.197	478.41
415.574	512.3
415.951	503.72
416.328	492.87
416.705	485.86
417.082	504.85
417.46	508.46
417.837	519.31
418.214	510.27
418.591	500.1
418.967	540.32
419.344	537.61
419.721	539.19
420.098	538.97
420.475	537.84
420.852	529.25
421.228	542.36
421.605	568.8
421.982	546.65
422.358	580.78
422.735	556.6
423.111	576.71
423.488	582.58
423.864	560.66
424.241	579.65
424.617	571.74
424.994	590.94
425.37	583.71
425.746	574.67
426.123	591.17
426.499	595.24
426.875	595.01
427.251	611.28
427.627	641.57
428.003	619.87
428.379	624.62
428.756	639.31
429.132	637.72
429.507	633.43
429.883	671.39
430.259	666.42
430.635	669.36
431.011	669.36
431.387	673.65
431.763	687.89
432.138	669.81
432.514	703.48
432.89	724.05
433.265	720.43
433.641	706.87
434.016	729.25
434.392	724.27
434.767	746.42
435.143	713.2
435.518	747.78
435.894	739.19
436.269	747.1
436.644	758.17
437.02	758.4
437.395	764.05
437.77	759.53
438.145	769.7
438.52	787.1
438.895	812.86
439.271	821
439.646	810.83
440.021	792.75
440.395	813.54
440.77	805.85
441.145	813.09
441.52	847.89
441.895	809.24
442.27	825.06
442.645	835.01
443.019	853.99
443.394	842.69
443.769	838.4
444.143	827.1
444.518	885.4
444.892	832.97
445.267	868
445.641	862.12
446.016	874.55
446.39	869.13
446.764	892.18
447.139	886.76
447.513	885.17
447.887	892.41
448.262	882.91
448.636	931.27
449.01	900.32
449.384	901.22
449.758	920.65
450.132	919.07
450.506	926.3
450.88	917.72
451.254	942.8
451.628	927.89
452.002	956.59
452.376	932.18
452.75	962.91
453.123	964.49
453.497	979.18
453.871	998.62
454.244	987.54
454.618	984.61
454.992	1006.3
455.365	1021.89
455.739	1015.34
456.112	1058.73
456.486	1000.88
456.859	1016.02
457.232	1039.75
457.606	1023.48
457.979	1044.72
458.352	1053.76
458.725	1065.06
459.099	1092.17
459.472	1079.07
459.845	1095.34
460.218	1112.74
460.591	1070.03
460.964	1101.21
461.337	1135.56
461.71	1138.05
462.083	1145.73
462.456	1143.02
462.829	1184.6
463.201	1168.33
463.574	1186.86
463.947	1192.74
464.32	1213.53
464.692	1206.52
465.065	1225.5
465.438	1207.65
465.81	1259.63
466.183	1235
466.555	1274.09
466.928	1308.89
467.3	1244.26
467.672	1314.32
468.045	1322
468.417	1337.14
468.789	1349.12
469.161	1349.57
469.534	1378.27
469.906	1405.39
470.278	1389.12
470.65	1430.7
471.022	1432.28
471.394	1438.15
471.766	1450.36
472.138	1468.89
472.51	1519.06
472.882	1498.04
473.253	1539.62
473.625	1555.21
473.997	1582.56
474.369	1566.96
474.74	1604.48
475.112	1629.79
475.484	1649.45
475.855	1703.01
476.227	1701.65
476.598	1710.92
476.97	1748.2
477.341	1785.26
477.713	1790.24
478.084	1813.96
478.455	1847.86
478.827	1899.61
479.198	1919.72
479.569	1906.16
479.94	1948.65
480.311	1971.02
480.682	1969.67
481.053	2033.62
481.424	2093.28
481.795	2082.66
482.166	2128.31
482.537	2156.1
482.908	2144.58
483.279	2176.89
483.65	2239.26
484.021	2262.99
484.391	2306.83
484.762	2306.83
485.133	2343.44
485.503	2368.75
485.874	2390.67
486.244	2458.47
486.615	2484.68
486.985	2505.7
487.356	2484.91
487.726	2509.31
488.097	2577.33
488.467	2573.72
488.837	2669.99
489.207	2639.48
489.578	2694.39
489.948	2728.97
490.318	2767.16
490.688	2758.35
491.058	2805.35
491.428	2873.82
491.798	2882.64
492.168	2927.83
492.538	2895.97
492.908	2947.04
493.278	2957.21
493.648	2960.83
494.017	3005.34
494.387	3060.48
494.757	3070.88
495.126	3067.72
495.496	3110.65
495.866	3110.65
496.235	3153.14
496.605	3178
496.974	3239.46
497.344	3275.62
497.713	3243.3
498.082	3296.86
498.452	3262.97
498.821	3270.65
499.19	3298.44
499.559	3378.89
499.928	3399.68
500.298	3367.6
500.667	3404.66
501.036	3409.85
501.405	3437.65
501.774	3408.05
502.143	3462.51
502.512	3480.36
502.88	3543.64
503.249	3518.1
503.618	3508.16
503.987	3527.59
504.356	3565.1
504.724	3583.63
505.093	3564.65
505.462	3603.07
505.83	3669.73
506.199	3646.01
506.567	3698.89
506.936	3677.87
507.304	3718.09
507.672	3729.39
508.041	3731.65
508.409	3752.67
508.777	3789.28
509.145	3789.05
509.514	3765.78
509.882	3800.8
510.25	3817.98
510.618	3860.01
510.986	3848.49
511.354	3865.21
511.722	3893
512.09	3909.73
512.458	3859.79
512.826	3909.5
513.193	3937.07
513.561	3933.46
513.929	3984.3
514.297	3964.19
514.664	3998.99
515.032	4020.69
515.4	4033.57
515.767	4051.19
516.135	4006.22
516.502	4006.9
516.869	4087.35
517.237	4075.83
517.604	4059.1
517.972	4096.84
518.339	4107.01
518.706	4142.94
519.073	4154.69
519.44	4136.16
519.808	4187.01
520.175	4152.43
520.542	4198.31
520.909	4190.4
521.276	4193.11
521.643	4257.06
522.009	4278.08
522.376	4261.58
522.743	4319.89
523.11	4363.05
523.477	4353.11
523.843	4396.04
524.21	4438.3
524.577	4455.02
524.943	4480.33
525.31	4469.49
525.676	4514.46
526.043	4525.53
526.409	4486.21
526.776	4602.59
527.142	4554
527.508	4638.3
527.874	4603.04
528.241	4616.83
528.607	4652.31
528.973	4705.19
529.339	4693.21
529.705	4745.19
530.071	4754.68
530.437	4733.21
530.803	4776.82
531.169	4818.4
531.535	4774.79
531.901	4787.9
532.267	4838.06
532.632	4892.75
532.998	4895.01
533.364	4913.77
533.73	4954.22
534.095	4984.73
534.461	5033.54
534.826	4978.4
535.192	5000.09
535.557	5012.52
535.923	5053.88
536.288	5098.62
536.653	5111.73
537.019	5128
537.384	5152.41
537.749	5153.54
538.114	5167.55
538.479	5189.69
538.845	5171.84
539.21	5202.58
539.575	5248.68
539.94	5295.91
540.305	5319.86
540.67	5302.01
541.034	5329.58
541.399	5335.23
541.764	5350.37
542.129	5398.5
542.494	5450.25
542.858	5415.22
543.223	5377.94
543.587	5468.1
543.952	5496.35
544.316	5496.35
544.681	5525.5
545.045	5537.48
545.41	5600.76
545.774	5582.9
546.138	5610.93
546.503	5618.16
546.867	5655.22
547.231	5713.52
547.595	5703.58
547.959	5720.3
548.324	5723.92
548.688	5802.79
549.052	5718.95
549.416	5793.29
549.779	5797.36
550.143	5772.28
550.507	5861.77
550.871	5868.09
551.235	5901.99
551.599	5917.36
551.962	5932.27
552.326	5946.96
552.689	5942.44
553.053	5982.22
553.417	6001.2
553.78	6059.05
554.143	6033.51
554.507	6068.32
554.87	6071.25
555.234	6100.18
555.597	6137.69
555.96	6142.21
556.323	6129.1
556.686	6151.02
557.05	6273.73
557.413	6201.19
557.776	6210.91
558.139	6253.39
558.502	6257.69
558.865	6258.59
559.228	6335.65
559.59	6318.03
559.953	6406.16
560.316	6395.09
560.679	6450.68
561.041	6467.85
561.404	6434.18
561.767	6569.77
562.129	6477.34
562.492	6581.75
562.854	6556.66
563.217	6538.36
563.579	6578.58
563.941	6599.6
564.304	6663.78
564.666	6668.53
565.028	6637.57
565.39	6715.53
565.753	6704.23
566.115	6715.76
566.477	6694.06
566.839	6740.84
567.201	6777.22
567.563	6817.67
567.925	6871.91
568.287	6868.29
568.648	6909.87
569.01	6899.03
569.372	6963.66
569.734	6951
570.095	7024.9
570.457	7041.4
570.819	7093.15
571.18	7122.98
571.542	7162.75
571.903	7192.13
572.265	7165.24
572.626	7204.33
572.987	7229.19
573.349	7304.89
573.71	7399.13
574.071	7404.1
574.432	7484.77
574.794	7539.69
575.155	7556.86
575.516	7566.58
575.877	7646.8
576.238	7757.31
576.599	7740.81
576.96	7802.28
577.32	7889.96
577.681	7926.12
578.042	7987.36
578.403	8066.68
578.763	8195.26
579.124	8201.82
579.485	8363.4
579.845	8400.68
580.206	8539.66
580.566	8663.28
580.927	8681.35
581.287	8811.52
581.648	8888.35
582.008	9101.68
582.368	9145.52
582.728	9293.77
583.089	9470.49
583.449	9602.46
583.809	9671.61
584.169	9888.78
584.529	9951.6
584.889	10232.5
585.249	10324.02
585.609	10457.58
585.969	10661.64
586.329	10815.99
586.688	11082.42
587.048	11209.42
587.408	11359.93
587.768	11618.9
588.127	11850.76
588.487	11996.29
588.846	12312.9
589.206	12528.26
589.565	12813.67
589.925	12961.02
590.284	13182.03
590.643	13472.19
591.003	13644.84
591.362	14042.57
591.721	14242.34
592.08	14514.65
592.44	14754.19
592.799	15004.35
593.158	15288.19
593.517	15573.6
593.876	15839.36
594.235	16045.91
594.593	16285
594.952	16615.61
595.311	16869.39
595.67	17162.49
596.029	17488.81
596.387	17876.59
596.746	18085.63
597.104	18341.66
597.463	18561.55
597.822	18894.87
598.18	19062.78
598.538	19407.85
598.897	19687.17
599.255	19914.05
599.613	20450.54
599.972	20651.43
600.33	20991.76
600.688	21062.95
601.046	21398.99
601.404	21752.2
601.762	22016.37
602.12	22355.8
602.478	22671.49
602.836	22838.95
603.194	22958.04
603.552	23349.22
603.91	23589.44
604.268	23825.14
604.625	24028.97
604.983	24336.99
605.341	24530.2
605.698	24796.86
606.056	25128.15
606.413	25252.9
606.771	25685.2
607.128	25879.32
607.485	25931.52
607.843	26261.23
608.2	26524.73
608.557	26880.65
608.914	27017.14
609.272	27216.23
609.629	27594.08
609.986	27776.9
610.343	27837.01
610.7	28235.19
611.057	28355.64
611.414	28509.76
611.771	28795.85
612.127	28949.97
612.484	29206.01
612.841	29464.54
613.198	29568.49
613.554	29646.68
613.911	29992.21
614.267	30085.99
614.624	30383.61
614.98	30451.18
615.337	30659.76
615.693	30944.95
616.05	30944.72
616.406	31226.3
616.762	31246.41
617.118	31534.54
617.475	31492.73
617.831	31631.26
618.187	31920.29
618.543	32014.75
618.899	32389.88
619.255	32480.73
619.611	32393.95
619.967	32767.95
620.323	32785.8
620.678	32707.61
621.034	32950.77
621.39	32889.53
621.746	33103.08
622.101	33508.27
622.457	33409.97
622.812	33546.91
623.168	33576.74
623.523	33755.95
623.879	33965.21
624.234	33729.51
624.589	33967.92
624.945	34101.25
625.3	34118.2
625.655	34258.31
626.01	34195.49
626.365	34321.36
626.72	34405.65
627.075	34367.01
627.43	34424.41
627.785	34480.22
628.14	34746.21
628.495	34734
628.85	34814.23
629.205	34662.82
629.559	34970.83
629.914	34894.22
630.269	34977.39
630.623	35035.91
630.978	34850.38
631.332	35117.95
631.687	35215.12
632.041	35138.51
632.396	35208.11
632.75	35138.51
633.104	35192.29
633.459	35088.57
633.813	35170.37
634.167	35178.06
634.521	35179.64
634.875	35273.87
635.229	35210.83
635.583	35035.01
635.937	35147.55
636.291	35224.38
636.645	35167.44
636.999	35053.77
637.352	35302.12
637.706	35198.17
638.06	35218.96
638.413	35272.74
638.767	35157.04
639.121	35358.17
639.474	35125.63
639.828	35158.17
640.181	35247.21
640.534	35244.05
640.888	35137.16
641.241	35053.77
641.594	34995.92
641.947	35253.54
642.301	35168.57
642.654	35213.09
643.007	35206.08
643.36	35174.22
643.713	35128.34
644.066	35228.45
644.419	35023.71
644.771	34790.27
645.124	34523.39
645.477	34388.7
645.83	34254.69
646.182	34268.03
646.535	34116.17
646.888	34191.19
647.24	34086.56
647.593	34251.53
647.945	34098.76
648.298	34035.72
648.65	34028.26
649.002	33863.06
649.355	34126.11
649.707	34089.73
650.059	34132.44
650.411	34555.7
650.763	34545.53
651.115	35041.11
651.467	34824.17
651.819	34886.54
652.171	34628.24
652.523	34756.15
652.875	34664.4
653.227	34568.58
653.578	34811.29
653.93	34752.53
654.282	34494.46
654.633	34491.97
654.985	34466.66
655.337	34717.05
655.688	34727
656.039	34792.08
656.391	34402.26
656.742	34551.63
657.094	34516.15
657.445	34600.67
657.796	34570.84
658.147	34448.59
658.498	34465.31
658.849	34528.13
659.2	34459.66
659.551	34461.69
659.902	34529.94
660.253	34462.14
660.604	34468.92
660.955	34404.52
661.306	34536.49
661.656	34462.37
662.007	34379.21
662.358	34467.57
662.708	34440.9
663.059	34267.35
663.409	34234.58
663.76	34550.5
664.11	34347.8
664.461	34412.2
664.811	34386.21
665.161	34388.25
665.511	34264.18
665.862	34389.83
666.212	34448.13
666.562	34465.76
666.912	34368.14
667.262	34225.54
667.612	34400.45
667.962	34313.45
668.312	34285.2
668.662	34424.63
669.011	34347.8
669.361	34311.64
669.711	34194.81
670.06	34217.63
670.41	34132.66
670.76	34232.55
671.109	34337.85
671.459	34295.82
671.808	34136.96
672.157	34418.53
672.507	34079.78
672.856	34055.83
673.205	34036.85
673.554	34132.44
673.904	34045.88
674.253	34211.98
674.602	34128.82
674.951	33578.1
675.3	33414.49
675.649	33981.48
675.998	34033.46
676.346	33920.24
676.695	34081.82
677.044	33827.13
677.393	33983.97
677.741	33878.88
678.09	33896.06
678.438	33724.09
678.787	33790.3
679.135	33906.91
679.484	33692.9
679.832	33879.11
680.181	33559.8
680.529	33633.24
680.877	33499.46
681.225	33521.15
681.573	33693.13
681.922	33424.43
682.27	33454.04
682.618	33463.98
682.966	33240.48
683.314	33526.35
683.661	33372.46
684.009	33175.17
684.357	33179.24
684.705	33088.62
685.053	33085.68
685.4	33057.21
685.748	32874.84
686.095	32861.96
686.443	32857.44
686.79	32826.26
687.138	32897.21
687.485	32800.72
687.832	32688.86
688.18	32675.3
688.527	32605.7
688.874	32545.81
689.221	32501.97
689.568	32374.74
689.915	32323.9
690.262	32311.01
690.609	32271.69
690.956	32049.78
691.303	32165.71
691.65	31880.07
691.997	31945.83
692.344	31713.52
692.69	31744.7
693.037	31702.67
693.383	31630.35
693.73	31636.68
694.077	31423.81
694.423	31434.43
694.769	31307.2
695.116	31341.32
695.462	31256.13
695.808	31062.69
696.155	31293.41
696.501	31043.93
696.847	31014.55
697.193	30709.7
697.539	30927.1
697.885	30630.38
698.231	30617.95
698.577	30494.79
698.923	30406.66
699.269	30261.58
699.614	30123.5
699.96	30117.4
700.306	30163.95
700.651	30069.72
700.997	29932.32
701.342	29946.78
701.688	29844.64
702.033	29749.95
702.379	29789.95
702.724	29564.65
703.069	29647.36
703.415	29262.96
703.76	29413.01
704.105	29401.49
704.45	29293.47
704.795	29179.12
705.14	29085.56
705.485	29161.27
705.83	28963.31
706.175	28911.56
706.52	28972.8
706.865	28742.97
707.209	28863.2
707.554	28551.57
707.899	28732.8
708.243	28603.09
708.588	28563.09
708.932	28342.08
709.277	28416.43
709.621	28367.84
709.966	28154.29
710.31	28253.04
710.654	28140.28
710.998	28061.18
711.342	28074.97
711.687	28051.69
712.031	27930.79
712.375	27789.78
712.719	27797.69
713.063	27739.16
713.407	27795.2
713.75	27592.95
714.094	27636.79
714.438	27563.34
714.782	27545.94
715.125	27393.18
715.469	27412.39
715.812	27340.52
716.156	27145.27
716.499	27178.27
716.843	27188.89
717.186	27103.47
717.53	27217.14
717.873	27141.21
718.216	27082.9
718.559	26872.51
718.902	26782.57
719.246	26836.81
719.589	26872.74
719.932	26683.14
720.275	26662.8
720.617	26597.72
720.96	26657.38
721.303	26542.13
721.646	26486.31
721.989	26378.06
722.331	26478.85
722.674	26432.3
723.016	26394.33
723.359	26272.08
723.701	26285.18
724.044	26019.65
724.386	25998.19
724.729	26145.08
725.071	26052.65
725.413	26078.64
725.755	26051.97
726.097	25828.25
726.439	25741.92
726.782	25829.6
727.124	25938.53
727.465	25817.63
727.807	25683.84
728.149	25679.55
728.491	25753.45
728.833	25709.61
729.175	25612.21
729.516	25501.7
729.858	25476.39
730.199	25519.55
730.541	25483.62
730.882	25577.41
731.224	25522.27
731.565	25377.41
731.906	25360.69
732.248	25288.37
732.589	25157.76
732.93	25121.15
733.271	25220.58
733.612	25148.49
733.953	25143.75
734.294	25033.47
734.635	25000.02
734.976	24979.46
735.317	24861.49
735.658	24835.96
735.999	24835.05
736.339	24828.27
736.68	24918.21
737.021	24805.68
737.361	24661.95
737.702	24887.03
738.042	24755.51
738.383	24654.04
738.723	24703.98
739.063	24488.85
739.404	24492.69
739.744	24509.41
740.084	24418.34
740.424	24479.36
740.764	24459.02
741.104	24374.27
741.444	24233.49
741.784	24234.39
742.124	24256.31
742.464	24238.23
742.804	24214.73
743.143	24099.71
743.483	24135.18
743.823	24078.69
744.162	24084.79
744.502	24017.9
744.841	23812.26
745.181	23962.76
745.52	23888.64
745.86	23934.06
746.199	23870.11
746.538	23846.6
746.877	23844.34
747.216	23849.54
747.556	23838.92
747.895	23758.25
748.234	23692.71
748.573	23628.08
748.911	23660.85
749.25	23531.13
749.589	23432.6
749.928	23398.03
750.267	23460.85
750.605	23323
750.944	23405.94
751.283	23315.09
751.621	23349.89
751.96	23133.63
752.298	23170.24
752.636	23118.49
752.975	23036.68
753.313	22971.83
753.651	23100.41
753.989	22934.99
754.327	22900.87
754.666	22728.67
755.004	22801.21
755.342	22760.76
755.679	22782.23
756.017	22610.25
756.355	22675.79
756.693	22583.59
757.031	22608.9
757.368	22383.82
757.706	22449.35
758.044	22275.35
758.381	22386.53
758.719	22288.45
759.056	22311.05
759.394	22248.68
759.731	22057.95
760.068	21961.91
760.405	21958.07
760.743	21982.7
761.08	21887.79
761.417	21792.42
