Data from hue_80_FLMS001491_46.txt Node
Date: Mon Feb 06 15:23:03 GMT 2017
User: dcchb
Spectrometer: FLMS00149
Trigger mode: 0
Integration Time (sec): 2.000000E-2
Scans to average: 10
Electric dark correction enabled: true
Nonlinearity correction enabled: false
Boxcar width: 0
XAxis mode: Wavelengths
Number of Pixels in Spectrum: 2048
>>>>>Begin Spectral Data<<<<<
341.393	-6.07
341.776	-6.07
342.16	-6.07
342.543	-52.63
342.927	-61.67
343.31	-53.53
343.693	-71.16
344.077	-62.34
344.46	-64.38
344.843	-59.86
345.226	-34.1
345.61	-17.15
345.993	-44.04
346.376	-29.8
346.759	23.08
347.142	36.19
347.525	46.35
347.908	53.59
348.291	82.51
348.674	86.81
349.057	107.82
349.44	122.06
349.823	135.17
350.206	163.87
350.588	193.7
350.971	194.15
351.354	222.85
351.737	242.73
352.119	246.12
352.502	268.5
352.884	272.79
353.267	286.8
353.65	282.51
354.032	304.2
354.414	282.28
354.797	315.95
355.179	327.03
355.562	323.18
355.944	306.91
356.326	323.18
356.709	317.31
357.091	315.5
357.473	314.82
357.855	335.39
358.238	329.74
358.62	325.67
359.002	339.91
359.384	330.42
359.766	334.03
360.148	309.17
360.53	317.53
360.912	335.61
361.294	315.95
361.676	328.38
362.057	340.58
362.439	329.51
362.821	330.64
363.203	321.6
363.584	319.12
363.966	329.51
364.348	315.27
364.729	328.61
365.111	305.33
365.493	320.25
365.874	306.01
366.256	296.29
366.637	298.33
367.019	305.78
367.4	303.07
367.781	296.52
368.163	329.96
368.544	283.64
368.925	326.8
369.306	306.46
369.688	312.11
370.069	304.88
370.45	316.18
370.831	297.2
371.212	312.11
371.593	288.61
371.974	295.84
372.355	317.31
372.736	336.06
373.117	309.4
373.498	316.86
373.879	311.66
374.26	310.75
374.641	307.59
375.021	308.72
375.402	300.13
375.783	326.57
376.163	322.96
376.544	330.42
376.925	335.16
377.305	335.16
377.686	316.18
378.066	347.82
378.447	328.16
378.827	343.97
379.208	317.08
379.588	322.96
379.968	322.05
380.349	321.6
380.729	341.26
381.109	320.25
381.489	325.67
381.87	331.09
382.25	327.03
382.63	332.9
383.01	344.88
383.39	344.43
383.77	343.07
384.15	331.09
384.53	329.06
384.91	339.68
385.29	361.37
385.67	370.41
386.049	327.25
386.429	359.11
386.809	349.4
387.189	360.24
387.568	358.21
387.948	347.59
388.328	344.43
388.707	338.78
389.087	355.27
389.466	354.6
389.846	364.99
390.225	348.04
390.605	366.35
390.984	355.95
391.363	364.31
391.743	367.02
392.122	352.56
392.501	367.93
392.881	383.07
393.26	353.92
393.639	360.02
394.018	378.32
394.397	370.19
394.776	344.2
395.155	364.76
395.534	346.01
395.913	379.91
396.292	374.93
396.671	380.81
397.05	374.93
397.429	378.1
397.808	393.69
398.186	397.08
398.565	398.44
398.944	384.42
399.323	363.18
399.701	373.58
400.08	403.63
400.458	394.14
400.837	389.4
401.215	406.8
401.594	399.34
401.972	394.14
402.351	377.42
402.729	399.34
403.107	393.92
403.486	404.31
403.864	420.36
404.242	418.77
404.62	406.8
404.999	403.41
405.377	432.33
405.755	424.2
406.133	403.63
406.511	427.36
406.889	440.02
407.267	418.1
407.645	430.53
408.023	431.43
408.401	424.88
408.779	423.97
409.156	454.03
409.534	443.63
409.912	426.68
410.29	413.58
410.667	443.18
411.045	448.6
411.422	444.31
411.8	452.9
412.178	455.61
412.555	468.49
412.933	471.88
413.31	456.06
413.687	470.3
414.065	451.99
414.442	461.49
414.819	465.33
415.197	498.77
415.574	481.15
415.951	485.21
416.328	482.05
416.705	482.05
417.082	495.83
417.46	508.72
417.837	489.96
418.214	504.2
418.591	532.9
418.967	497.87
419.344	511.65
419.721	515.49
420.098	515.72
420.475	512.11
420.852	503.97
421.228	509.62
421.605	513.69
421.982	536.74
422.358	514.14
422.735	564.76
423.111	522.27
423.488	545.1
423.864	548.71
424.241	546.23
424.617	568.83
424.994	561.14
425.37	557.75
425.746	531.77
426.123	564.99
426.499	547.81
426.875	579.9
427.251	553.69
427.627	576.74
428.003	583.52
428.379	594.36
428.756	581.93
429.132	576.28
429.507	612.44
429.883	619.67
430.259	615.15
430.635	604.98
431.011	632.55
431.387	628.03
431.763	628.26
432.138	624.64
432.514	631.65
432.89	646.79
433.265	662.61
433.641	682.95
434.016	668.71
434.392	675.26
434.767	701.7
435.143	691.99
435.518	692.67
435.894	696.28
436.269	712.1
436.644	724.3
437.02	700.12
437.395	708.48
437.77	713.91
438.145	724.08
438.52	723.85
438.895	755.71
439.271	743.06
439.646	741.25
440.021	753
440.395	725.88
440.77	751.87
441.145	803.85
441.52	770.86
441.895	779.22
442.27	755.26
442.645	772.21
443.019	806.79
443.394	762.95
443.769	783.74
444.143	797.07
444.518	814.47
444.892	808.82
445.267	826.67
445.641	844.07
446.016	820.12
446.39	844.98
446.764	832.77
447.139	832.55
447.513	859.44
447.887	879.1
448.262	856.28
448.636	864.86
449.01	854.7
449.384	901.7
449.758	894.92
450.132	915.26
450.506	881.81
450.88	905.09
451.254	893.34
451.628	903.73
452.002	940.57
452.376	903.51
452.75	944.41
453.123	913
453.497	951.42
453.871	966.78
454.244	1000.91
454.618	987.12
454.992	986.89
455.365	1005.2
455.739	1010.4
456.112	1017.85
456.486	1014.24
456.859	1037.52
457.232	1060.57
457.606	1060.79
457.979	1092.43
458.352	1070.96
458.725	1100.34
459.099	1085.2
459.472	1138.98
459.845	1130.39
460.218	1140.34
460.591	1142.15
460.964	1158.64
461.337	1196.61
461.71	1178.08
462.083	1235.7
462.456	1203.61
462.829	1204.74
463.201	1247
463.574	1257.4
463.947	1276.38
464.32	1295.81
464.692	1319.99
465.065	1322.71
465.438	1331.52
465.81	1364.74
466.183	1396.6
466.555	1406.32
466.928	1439.09
467.3	1420.78
467.672	1440.89
468.045	1478.41
468.417	1525.19
468.789	1497.16
469.161	1529.93
469.534	1542.59
469.906	1628.91
470.278	1620.32
470.65	1651.06
471.022	1671.17
471.394	1727.67
471.766	1746.2
472.138	1778.51
472.51	1845.18
472.882	1885.18
473.253	1821
473.625	1936.02
473.997	1968.56
474.369	2012.63
474.74	2024.38
475.112	2061.44
475.484	2098.5
475.855	2199.74
476.227	2211.72
476.598	2310.7
476.97	2329.46
477.341	2375.78
477.713	2470.47
478.084	2533.29
478.455	2580.07
478.827	2595.44
479.198	2705.04
479.569	2733.52
479.94	2855.55
480.311	2930.57
480.682	2992.72
481.053	3108.2
481.424	3217.8
481.795	3230.45
482.166	3343.67
482.537	3395.42
482.908	3544.79
483.279	3604.91
483.65	3704.56
484.021	3856.88
484.391	3907.72
484.762	3995.86
485.133	4090.54
485.503	4201.73
485.874	4383.64
486.244	4395.62
486.615	4553.35
486.985	4659.34
487.356	4829.51
487.726	4919.22
488.097	5053
488.467	5144.98
488.837	5313.79
489.207	5404.41
489.578	5615.7
489.948	5679.65
490.318	5813.43
490.688	5940.44
491.058	6070.83
491.428	6193.54
491.798	6405.06
492.168	6555.34
492.538	6610.25
492.908	6760.98
493.278	6907.19
493.648	7014.08
494.017	7176.11
494.387	7300.4
494.757	7445.03
495.126	7599.15
495.496	7704.46
495.866	7878.24
496.235	7977.45
496.605	8142.86
496.974	8261.73
497.344	8366.36
497.713	8479.35
498.082	8669.63
498.452	8765.67
498.821	8888.38
499.19	8931.32
499.559	9109.17
499.928	9178.32
500.298	9234.81
500.667	9412.89
501.036	9470.97
501.405	9626.89
501.774	9734.01
502.143	9847.45
502.512	9933.1
502.88	10131.29
503.249	10117.5
503.618	10288.35
503.987	10393.43
504.356	10488.57
504.724	10592.07
505.093	10745.96
505.462	10773.08
505.83	10938.05
506.199	10956.58
506.567	11222.78
506.936	11199.06
507.304	11364.93
507.672	11364.02
508.041	11444.7
508.409	11636.78
508.777	11700.74
509.145	11771.02
509.514	11868.64
509.882	11946.38
510.25	12070.9
510.618	12138.47
510.986	12177.11
511.354	12363.09
511.722	12337.1
512.09	12545.01
512.458	12477.67
512.826	12692.8
513.193	12710.43
513.561	12727.38
513.929	12842.63
514.297	12991.1
514.664	13084.2
515.032	13126.91
515.4	13204.2
515.767	13328.49
516.135	13354.25
516.502	13315.38
516.869	13484.19
517.237	13592.21
517.604	13514.48
517.972	13684.19
518.339	13795.82
518.706	13767.58
519.073	13881.7
519.44	13888.02
519.808	14065.65
520.175	14088.92
520.542	14221.58
520.909	14242.59
521.276	14249.82
521.643	14400.55
522.009	14471.51
522.376	14636.71
522.743	14621.56
523.11	14696.82
523.477	14866.98
523.843	14826.31
524.21	15061.1
524.577	15058.39
524.943	15088.9
525.31	15193.3
525.676	15238.05
526.043	15337.48
526.409	15299.06
526.776	15411.37
527.142	15506.29
527.508	15566.85
527.874	15595.55
528.241	15664.25
528.607	15722.33
528.973	15839.61
529.339	15707.86
529.705	15912.15
530.071	16011.36
530.437	15981.75
530.803	15974.07
531.169	16079.61
531.535	16075.54
531.901	16102.43
532.267	16122.32
532.632	16127.97
532.998	16190.56
533.364	16213.39
533.73	16292.03
534.095	16284.12
534.461	16269.66
534.826	16421.29
535.192	16405.92
535.557	16554.62
535.923	16412.25
536.288	16460.61
536.653	16442.76
537.019	16386.72
537.384	16449.77
537.749	16525.02
538.114	16496.09
538.479	16542.64
538.845	16532.25
539.21	16510.55
539.575	16496.32
539.94	16577.45
540.305	16626.03
540.67	16592.36
541.034	16523.21
541.399	16545.13
541.764	16632.13
542.129	16607.73
542.494	16561.4
542.858	16583.77
543.223	16609.76
543.587	16647.73
543.952	16587.39
544.316	16648.4
544.681	16489.99
545.045	16604.79
545.41	16616.31
545.774	16531.34
546.138	16669.19
546.503	16563.21
546.867	16570.21
547.231	16685.01
547.595	16624.68
547.959	16627.61
548.324	16627.84
548.688	16603.43
549.052	16637.1
549.416	16582.42
549.779	16585.58
550.143	16606.82
550.507	16653.83
550.871	16715.29
551.235	16597.56
551.599	16598.69
551.962	16694.96
552.326	16714.17
552.689	16756.88
553.053	16634.17
553.417	16668.29
553.78	16889.53
554.143	16682.98
554.507	16717.78
554.87	16746.48
555.234	16843.65
555.597	16755.07
555.96	16672.36
556.323	16675.75
556.686	16750.1
557.05	16765.01
557.413	16813.6
557.776	16755.75
558.139	16904.22
558.502	16857.66
558.865	16943.09
559.228	16995.74
559.59	17040.26
559.953	16983.31
560.316	17067.83
560.679	17085.91
561.041	17115.96
561.404	17180.59
561.767	17265.56
562.129	17217.43
562.492	17280.03
562.854	17266.01
563.217	17232.57
563.579	17266.01
563.941	17411.32
564.304	17333.81
564.666	17450.64
565.028	17465.11
565.39	17455.16
565.753	17567.02
566.115	17535.61
566.477	17543.07
566.839	17632.11
567.201	17702.16
567.563	17697.42
567.925	17805.89
568.287	17780.35
568.648	17791.88
569.01	17929.5
569.372	17931.76
569.734	17915.94
570.095	17984.19
570.457	18095.6
570.819	18054.92
571.18	18029.38
571.542	18054.47
571.903	18109.38
572.265	18199.55
572.626	18149.16
572.987	18263.28
573.349	18198.42
573.71	18351.18
574.071	18245.2
574.432	18325.87
574.794	18421.01
575.155	18401.35
575.516	18272.99
575.877	18396.38
576.238	18456.27
576.599	18571.52
576.96	18463.27
577.32	18336.5
577.681	18464.63
578.042	18445.87
578.403	18514.8
578.763	18525.64
579.124	18618.97
579.485	18668.69
579.845	18630.95
580.206	18652.65
580.566	18621.91
580.927	18582.59
581.287	18643.61
581.648	18647.45
582.008	18651.52
582.368	18695.81
582.728	18694.68
583.089	18615.13
583.449	18563.83
583.809	18675.24
584.169	18694.23
584.529	18535.59
584.889	18647.9
585.249	18654.23
585.609	18541.91
585.969	18633.21
586.329	18532.42
586.688	18632.53
587.048	18564.74
587.408	18542.37
587.768	18547.11
588.127	18507.11
588.487	18549.15
588.846	18626.66
589.206	18530.39
589.565	18505.3
589.925	18586.21
590.284	18521.12
590.643	18556.38
591.003	18538.75
591.362	18554.34
591.721	18478.41
592.08	18540.78
592.44	18562.7
592.799	18521.58
593.158	18572.65
593.517	18572.42
593.876	18531.97
594.235	18507.11
594.593	18542.82
594.952	18562.7
595.311	18469.83
595.67	18410.62
596.029	18563.16
596.387	18597.73
596.746	18609.93
597.104	18474.12
597.463	18496.49
597.822	18533.33
598.18	18450.62
598.538	18376.27
598.897	18510.5
599.255	18419.88
599.613	18710.04
599.972	18596.6
600.33	18623.27
600.688	18457.4
601.046	18616.49
601.404	18632.76
601.762	18592.76
602.12	18710.27
602.478	18689.71
602.836	18694
603.194	18520.22
603.552	18537.39
603.91	18624.85
604.268	18656.49
604.625	18614.91
604.983	18715.69
605.341	18583.27
605.698	18687.9
606.056	18683.15
606.413	18728.8
606.771	18724.06
607.128	18746.88
607.485	18628.69
607.843	18686.54
608.2	18754.56
608.557	18778.07
608.914	18731.51
609.272	18783.49
609.629	18809.48
609.986	18902.58
610.343	18709.82
610.7	18977.83
611.057	18941.45
611.414	18912.3
611.771	18945.74
612.127	19051.28
612.484	18933.32
612.841	18996.36
613.198	18911.4
613.554	19032.75
613.911	19118.4
614.267	19066.87
614.624	19117.94
614.98	19134.21
615.337	19202.24
615.693	19167.21
616.05	19107.55
616.406	19236.13
616.762	19213.99
617.118	19184.38
617.475	19104.61
617.831	19389.35
618.187	19336.69
618.543	19268.67
618.899	19429.35
619.255	19246.3
619.611	19416.24
619.967	19409.46
620.323	19358.16
620.678	19357.03
621.034	19302.12
621.39	19349.8
621.746	19356.58
622.101	19531.94
622.457	19291.72
622.812	19413.53
623.168	19455.79
623.523	19437.48
623.879	19475.45
624.234	19397.71
624.589	19408.33
624.945	19444.71
625.3	19486.75
625.655	19427.54
626.01	19506.63
626.365	19509.35
626.72	19462.12
627.075	19471.83
627.43	19425.51
627.785	19326.3
628.14	19416.92
628.495	19462.79
628.85	19444.49
629.205	19372.17
629.559	19522.45
629.914	19306.64
630.269	19355.9
630.623	19337.6
630.978	19310.25
631.332	19471.61
631.687	19349.35
632.041	19313.42
632.396	19446.3
632.75	19192.97
633.104	19205.17
633.459	19186.87
633.813	19158.62
634.167	19198.85
634.521	19159.75
634.875	19275.68
635.229	19222.12
635.583	19074.33
635.937	19055.35
636.291	18999.75
636.645	18977.61
636.999	18994.56
637.352	19079.98
637.706	18931.28
638.06	19038.4
638.413	18979.64
638.767	18974.22
639.121	19001.79
639.474	18851.28
639.828	18891.06
640.181	18894.22
640.534	18898.29
640.888	18827.56
641.241	18739.65
641.594	18776.26
641.947	18831.85
642.301	18718.41
642.654	18797.95
643.007	18799.08
643.36	18770.38
643.713	18743.49
644.066	18805.64
644.419	18716.6
644.771	18561.35
645.124	18416.72
645.477	18407.68
645.83	18192.32
646.182	18243.39
646.535	18128.14
646.888	18178.76
647.24	18101.02
647.593	18140.34
647.945	18105.54
648.298	18041.36
648.65	18097.63
649.002	17956.84
649.355	18067.58
649.707	18076.84
650.059	18216.72
650.411	18455.81
650.763	18395.48
651.115	18536.72
651.467	18515.25
651.819	18508.92
652.171	18500.11
652.523	18371.75
652.875	18351.18
653.227	18318.19
653.578	18458.75
653.93	18437.06
654.282	18396.83
654.633	18419.66
654.985	18341.01
655.337	18352.31
655.688	18331.07
656.039	18477.96
656.391	18400
656.742	18322.48
657.094	18439.09
657.445	18422.37
657.796	18470.28
658.147	18424.18
658.498	18435.02
658.849	18469.83
659.2	18529.71
659.551	18344.18
659.902	18488.36
660.253	18495.81
660.604	18459.43
660.955	18404.52
661.306	18420.79
661.656	18477.06
662.007	18460.79
662.358	18430.73
662.708	18451.07
663.059	18469.6
663.409	18365.42
663.76	18576.04
664.11	18556.38
664.461	18545.76
664.811	18546.21
665.161	18597.51
665.511	18435.48
665.862	18412.88
666.212	18530.39
666.562	18406.55
666.912	18548.69
667.262	18495.59
667.612	18545.3
667.962	18475.25
668.312	18446.77
668.662	18544.17
669.011	18447.23
669.361	18499.65
669.711	18459.66
670.06	18380.34
670.41	18383.27
670.76	18417.62
671.109	18452.42
671.459	18304.63
671.808	18341.92
672.157	18395.7
672.507	18266.44
672.856	18325.65
673.205	18329.72
673.554	18348.7
673.904	18333.11
674.253	18352.77
674.602	18320
674.951	17995.71
675.3	17875.04
675.649	18233.22
675.998	18234.8
676.346	18255.37
676.695	18276.84
677.044	18135.82
677.393	18236.16
677.741	18156.61
678.09	18235.48
678.438	18128.14
678.787	18148.25
679.135	18104.18
679.484	17903.29
679.832	18083.17
680.181	17962.49
680.529	17996.62
680.877	17956.39
681.225	17956.39
681.573	18040.23
681.922	17875.49
682.27	17845.89
682.618	17788.49
682.966	17765.66
683.314	17818.99
683.661	17669.85
684.009	17615.84
684.357	17652.45
684.705	17461.49
685.053	17587.36
685.4	17520.25
685.748	17486.12
686.095	17506.69
686.443	17354.15
686.79	17445.9
687.138	17372.68
687.485	17283.42
687.832	17259.24
688.18	17228.5
688.527	17113.25
688.874	17180.59
689.221	17143.53
689.568	17080.48
689.915	16951.9
690.262	17033.48
690.609	16931.79
690.956	16866.03
691.303	16899.92
691.65	16817.21
691.997	16781.06
692.344	16630.33
692.69	16713.49
693.037	16615.18
693.383	16461.52
693.73	16435.3
694.077	16424.46
694.423	16379.03
694.769	16306.49
695.116	16312.82
695.462	16290.45
695.808	16235.31
696.155	16184.91
696.501	16106.5
696.847	16033.73
697.193	15927.75
697.539	15954.64
697.885	15864.02
698.231	15814.08
698.577	15823.12
698.923	15749.22
699.269	15655.21
699.614	15558.26
699.96	15555.78
700.306	15562.56
700.651	15507.19
700.997	15472.16
701.342	15427.42
701.688	15313.75
702.033	15305.84
702.379	15216.13
702.724	15180.87
703.069	15180.42
703.415	15066.3
703.76	15043.93
704.105	15061.55
704.45	14937.26
704.795	14856.36
705.14	14842.8
705.485	14822.24
705.83	14831.73
706.175	14846.87
706.52	14720.32
706.865	14656.82
707.209	14608.23
707.554	14535.47
707.899	14604.62
708.243	14481.68
708.588	14377.73
708.932	14313.55
709.277	14334.79
709.621	14339.76
709.966	14185.87
710.31	14277.39
710.654	14189.94
710.998	14184.51
711.342	14179.77
711.687	14074.91
712.031	14007.34
712.375	13941.13
712.719	14031.07
713.063	13934.58
713.407	14064.74
713.75	13936.61
714.094	13875.37
714.438	13860.68
714.782	13843.96
715.125	13850.74
715.469	13839.66
715.812	13658.65
716.156	13633.79
716.499	13707.01
716.843	13763.06
717.186	13622.49
717.53	13669.73
717.873	13643.29
718.216	13632.21
718.559	13544.3
718.902	13473.8
719.246	13481.26
719.589	13427.25
719.932	13433.12
720.275	13431.77
720.617	13450.3
720.96	13384.08
721.303	13361.71
721.646	13382.95
721.989	13329.85
722.331	13304.76
722.674	13292.33
723.016	13251.21
723.359	13307.93
723.701	13287.59
724.044	13185.22
724.386	13137.54
724.729	13253.24
725.071	13173.92
725.413	13269.96
725.755	13139.12
726.097	13168.5
726.439	13081.04
726.782	13073.36
727.124	13086.46
727.465	13039.01
727.807	13123.75
728.149	13010.08
728.491	12966.47
728.833	13066.13
729.175	12991.1
729.516	13013.25
729.858	12995.17
730.199	13044.66
730.541	12914.72
730.882	12987.48
731.224	13036.97
731.565	12809.41
731.906	12957.65
732.248	12977.09
732.589	12897.99
732.93	12855.06
733.271	12918.56
733.612	12912.91
733.953	12869.07
734.294	12801.05
734.635	12892.34
734.976	12901.61
735.317	12870.2
735.658	12897.09
735.999	12819.58
736.339	12873.81
736.68	12947.71
737.021	12866.58
737.361	12785
737.702	12904.1
738.042	12829.3
738.383	12818
738.723	12943.19
739.063	12855.51
739.404	12886.24
739.744	12877.43
740.084	12842.4
740.424	12950.42
740.764	12915.39
741.104	12998.33
741.444	12892.12
741.784	12865.45
742.124	13040.14
742.464	12982.51
742.804	12989.74
743.143	12958.33
743.483	13021.61
743.823	12967.6
744.162	12984.32
744.502	13062.51
744.841	13081.27
745.181	13140.02
745.52	13157.2
745.86	13113.13
746.199	13143.64
746.538	13119.91
746.877	13242.39
747.216	13319.9
747.556	13288.94
747.895	13335.95
748.234	13295.72
748.573	13411.43
748.911	13482.39
749.25	13532.78
749.589	13515.15
749.928	13573.68
750.267	13621.14
750.605	13629.27
750.944	13774.58
751.283	13728.25
751.621	13951.75
751.96	13888.02
752.298	13951.3
752.636	14107.23
752.975	14125.31
753.313	14229.26
753.651	14336.6
753.989	14419.54
754.327	14449.14
754.666	14483.49
755.004	14683.26
755.342	14826.08
755.679	14895.91
756.017	14887.55
756.355	15082.8
756.693	15158.05
