Data from hue_130_FLMS001491_00001.txt Node
Date: Tue Feb 07 16:57:03 GMT 2017
User: dcchb
Spectrometer: FLMS00149
Trigger mode: 0
Integration Time (sec): 2.000000E-2
Scans to average: 10
Electric dark correction enabled: true
Nonlinearity correction enabled: false
Boxcar width: 0
XAxis mode: Wavelengths
Number of Pixels in Spectrum: 2048
>>>>>Begin Spectral Data<<<<<
341.393	-2.84
341.776	-2.84
342.16	-2.84
342.543	-52.78
342.927	-59.33
343.31	-56.4
343.693	-71.76
344.077	-97.53
344.46	-46.68
344.843	-67.02
345.226	-43.97
345.61	-26.12
345.993	-20.24
346.376	-3.74
346.759	2.13
347.142	27.44
347.525	57.5
347.908	59.76
348.291	75.8
348.674	102.7
349.057	108.12
349.44	134.56
349.823	124.16
350.206	175.46
350.588	229.7
350.971	225.18
351.354	234.89
351.737	250.04
352.119	253.88
352.502	275.8
352.884	283.03
353.267	283.03
353.65	295.68
354.032	301.11
354.414	304.72
354.797	333.42
355.179	336.81
355.562	327.77
355.944	331.39
356.326	345.4
356.709	348.79
357.091	347.89
357.473	350.15
357.855	353.31
358.238	347.21
358.62	335.23
359.002	356.7
359.384	363.03
359.766	361.22
360.148	332.07
360.53	321.45
360.912	345.4
361.294	331.16
361.676	350.37
362.057	327.1
362.439	333.42
362.821	334.33
363.203	349.02
363.584	337.04
363.966	334.78
364.348	332.75
364.729	333.42
365.111	313.76
365.493	338.62
365.874	337.72
366.256	331.62
366.637	331.39
367.019	334.33
367.4	328.68
367.781	306.76
368.163	328.68
368.544	351.73
368.925	320.32
369.306	320.77
369.688	326.19
370.069	308.57
370.45	315.12
370.831	341.56
371.212	301.56
371.593	310.15
371.974	337.94
372.355	327.1
372.736	316.7
373.117	318.96
373.498	311.5
373.879	330.26
374.26	311.05
374.641	328.68
375.021	299.53
375.402	325.97
375.783	333.2
376.163	349.47
376.544	350.82
376.925	348.34
377.305	334.33
377.686	329.58
378.066	320.99
378.447	328.45
378.827	329.58
379.208	337.04
379.588	323.71
379.968	352.41
380.349	346.98
380.729	347.21
381.109	350.82
381.489	362.8
381.87	342.69
382.25	351.95
382.63	353.08
383.01	342.01
383.39	355.57
383.77	346.53
384.15	341.11
384.53	364.84
384.91	370.48
385.29	367.09
385.67	353.08
386.049	360.09
386.429	345.4
386.809	356.02
387.189	366.87
387.568	358.51
387.948	354.44
388.328	359.86
388.707	372.29
389.087	382.24
389.466	375.23
389.846	366.87
390.225	377.72
390.605	372.97
390.984	399.18
391.363	355.8
391.743	390.37
392.122	382.46
392.501	372.29
392.881	357.15
393.26	362.35
393.639	383.82
394.018	389.92
394.397	390.82
394.776	373.2
395.155	373.87
395.534	391.28
395.913	404.38
396.292	385.63
396.671	410.03
397.05	388.79
397.429	417.26
397.808	408
398.186	414.78
398.565	409.81
398.944	427.88
399.323	398.73
399.701	423.14
400.08	417.72
400.458	432.4
400.837	423.59
401.215	431.73
401.594	407.32
401.972	412.74
402.351	452.52
402.729	421.1
403.107	426.3
403.486	414.55
403.864	406.64
404.242	438.73
404.62	438.73
404.999	452.52
405.377	413.65
405.755	445.06
406.133	467.43
406.511	446.64
406.889	450.71
407.267	436.92
407.645	444.83
408.023	460.2
408.401	443.03
408.779	478.73
409.156	456.81
409.534	491.61
409.912	452.52
410.29	484.38
410.667	485.28
411.045	478.73
411.422	505.62
411.8	488.45
412.178	500.65
412.555	496.36
412.933	463.82
413.31	495.45
413.687	516.24
414.065	504.27
414.442	489.35
414.819	512.85
415.197	533.87
415.574	523.47
415.951	508.33
416.328	529.12
416.705	531.16
417.082	510.59
417.46	542.46
417.837	541.55
418.214	534.55
418.591	539.52
418.967	549.01
419.344	555.79
419.721	557.15
420.098	517.83
420.475	577.26
420.852	557.37
421.228	575.9
421.605	556.47
421.982	552.17
422.358	586.3
422.735	594.43
423.111	597.15
423.488	600.76
423.864	598.5
424.241	582.91
424.617	596.24
424.994	590.59
425.37	612.74
425.746	631.04
426.123	636.24
426.499	626.3
426.875	637.37
427.251	620.65
427.627	637.6
428.003	633.08
428.379	649.35
428.756	650.03
429.132	654.09
429.507	668.56
429.883	686.41
430.259	687.99
430.635	667.88
431.011	670.14
431.387	693.87
431.763	722.11
432.138	690.93
432.514	709.23
432.89	714.43
433.265	721.89
433.641	743.36
434.016	740.19
434.392	748.33
434.767	748.78
435.143	740.64
435.518	786.52
435.894	767.76
436.269	790.59
436.644	791.04
437.02	815.44
437.395	788.33
437.77	804.15
438.145	796.46
438.52	823.81
438.895	824.94
439.271	833.3
439.646	819.29
440.021	854.09
440.395	879.85
440.77	880.3
441.145	847.76
441.52	864.26
441.895	860.64
442.27	884.82
442.645	871.49
443.019	887.53
443.394	892.96
443.769	907.65
444.143	882.56
444.518	885.5
444.892	933.18
445.267	905.84
445.641	934.99
446.016	938.61
446.39	938.61
446.764	914.43
447.139	950.36
447.513	957.81
447.887	944.48
448.262	982.67
448.636	987.42
449.01	970.24
449.384	977.47
449.758	981.32
450.132	997.13
450.506	1014.08
450.88	1031.71
451.254	1028.77
451.628	1023.12
452.002	1028.09
452.376	1040.3
452.75	1054.53
453.123	1054.99
453.497	1089.34
453.871	1058.15
454.244	1115.78
454.618	1104.25
454.992	1071.26
455.365	1130.24
455.739	1130.92
456.112	1164.36
456.486	1181.08
456.859	1180.18
457.232	1196.68
457.606	1220.41
457.979	1207.3
458.352	1217.69
458.725	1243.68
459.099	1266.05
459.472	1285.26
459.845	1285.26
460.218	1307.41
460.591	1317.13
460.964	1297.24
461.337	1359.16
461.71	1374.98
462.083	1417.69
462.456	1396.22
462.829	1438.48
463.201	1457.46
463.574	1443.9
463.947	1491.36
464.32	1500.85
464.692	1501.98
465.065	1562.77
465.438	1566.61
465.81	1593.96
466.183	1625.14
466.555	1638.47
466.928	1643.9
467.3	1663.56
467.672	1725.7
468.045	1736.78
468.417	1747.4
468.789	1746.04
469.161	1807.96
469.534	1848.19
469.906	1859.71
470.278	1918.24
470.65	1890.44
471.022	1955.75
471.394	2012.02
471.766	2026.26
472.138	2057.67
472.51	2123.66
472.882	2181.74
473.253	2219.48
473.625	2258.57
473.997	2266.25
474.369	2350.55
474.74	2374.05
475.112	2423.54
475.484	2463.54
475.855	2565.23
476.227	2623.76
476.598	2665.34
476.97	2699.01
477.341	2838.89
477.713	2873.02
478.084	2936.52
478.455	2971.55
478.827	3039.57
479.198	3203.18
479.569	3259.22
479.94	3322.95
480.311	3388.03
480.682	3500.35
481.053	3621.02
481.424	3695.59
481.795	3767.23
482.166	3871.86
482.537	3995.7
482.908	4116.15
483.279	4163.38
483.65	4317.05
484.021	4401.57
484.391	4549.81
484.762	4616.47
485.133	4696.25
485.503	4822.34
485.874	5011.94
486.244	5126.29
486.615	5286.74
486.985	5378.94
487.356	5530.12
487.726	5587.3
488.097	5790.46
488.467	5882.66
488.837	6112.93
489.207	6197.9
489.578	6372.81
489.948	6459.14
490.318	6602.64
490.688	6738.23
491.058	6848.05
491.428	7042.85
491.798	7149.06
492.168	7385.67
492.538	7492.56
492.908	7681.25
493.278	7801.7
493.648	7902.49
494.017	8014.58
494.387	8193.33
494.757	8338.41
495.126	8534.34
495.496	8575.69
495.866	8724.62
496.235	8910.15
496.605	8974.55
496.974	9097.49
497.344	9292.96
497.713	9386.07
498.082	9478.95
498.452	9648.66
498.821	9754.87
499.19	9857.92
499.559	9926.39
499.928	10132.04
500.298	10209.55
500.667	10414.06
501.036	10433.27
501.405	10463.1
501.774	10611.57
502.143	10742.42
502.512	10837.78
502.88	10920.04
503.249	11003.43
503.618	11193.25
503.987	11137.43
504.356	11353.92
504.724	11466.01
505.093	11441.83
505.462	11468.05
505.83	11615.61
506.199	11749.17
506.567	11898.77
506.936	11970.18
507.304	12045.88
507.672	12159.78
508.041	12202.72
508.409	12307.35
508.777	12352.09
509.145	12569.26
509.514	12469.15
509.882	12602.03
510.25	12521.58
510.618	12682.03
510.986	12733.32
511.354	12816.94
511.722	12973.32
512.09	13057.16
512.458	13049.7
512.826	13137.83
513.193	13215.57
513.561	13256.25
513.929	13312.52
514.297	13354.1
514.664	13538.95
515.032	13465.96
515.4	13572.17
515.767	13570.82
516.135	13627.31
516.502	13602.91
516.869	13806.29
517.237	13867.53
517.604	13726.52
517.972	13936.68
518.339	13956.79
518.706	13950.69
519.073	13951.82
519.44	14087.41
519.808	14141.65
520.175	14041.31
520.542	14253.51
520.909	14234.98
521.276	14168.77
521.643	14314.52
522.009	14425.48
522.376	14379.83
522.743	14489.21
523.11	14499.15
523.477	14616.21
523.843	14670
524.21	14778.24
524.577	14803.55
524.943	14717.68
525.31	14764.46
525.676	14859.37
526.043	14865.24
526.409	14962.42
526.776	14984.79
527.142	15067.27
527.508	14946.82
527.874	15186.14
528.241	15077.89
528.607	15030.66
528.973	15182.52
529.339	15080.61
529.705	15166.03
530.071	15166.25
530.437	15190.89
530.803	15275.18
531.169	15196.76
531.535	15189.53
531.901	15108.18
532.267	15265.69
532.632	15263.43
532.998	15201.51
533.364	15124.22
533.73	15166.25
534.095	15231.79
534.461	15240.15
534.826	15256.65
535.192	15267.27
535.557	15201.06
535.923	15188.85
536.288	15271.11
536.653	15165.35
537.019	15106.82
537.384	15081.51
537.749	15154.95
538.114	15069.31
538.479	15063.43
538.845	15041.96
539.21	14977.78
539.575	14990.67
539.94	14893.27
540.305	14954.28
540.67	14905.92
541.034	14865.24
541.399	14837.9
541.764	14820.73
542.129	14845.58
542.494	14820.95
542.858	14763.78
543.223	14743.67
543.587	14757.68
543.952	14633.61
544.316	14623.44
544.681	14464.13
545.045	14548.87
545.41	14542.54
545.774	14545.48
546.138	14493.5
546.503	14427.97
546.867	14436.56
547.231	14447.63
547.595	14421.19
547.959	14323.11
548.324	14366.5
548.688	14273.62
549.052	14259.84
549.416	14229.78
549.779	14184.13
550.143	14198.14
550.507	14232.94
550.871	14146.39
551.235	14060.75
551.599	14121.99
551.962	14115.66
552.326	14036.11
552.689	14101.42
553.053	13953.63
553.417	13917.7
553.78	14071.37
554.143	13976.68
554.507	13977.13
554.87	13944.82
555.234	14019.62
555.597	13953.86
555.96	13872.95
556.323	13899.85
556.686	13848.32
557.05	13888.32
557.413	13801.77
557.776	13795.22
558.139	13923.8
558.502	13871.6
558.865	13820.75
559.228	13906.4
559.59	13865.95
559.953	13851.71
560.316	13929.22
560.679	13917.02
561.041	13970.35
561.404	14019.84
561.767	14007.41
562.129	13969.68
562.492	14060.75
562.854	13854.42
563.217	13866.63
563.579	13851.49
563.941	13999.96
564.304	13937.59
564.666	13966.74
565.028	13981.88
565.39	13938.04
565.753	14077.92
566.115	13958.15
566.477	14032.72
566.839	14056.23
567.201	14084.25
567.563	14025.04
567.925	14162.89
568.287	14130.35
568.648	14142.78
569.01	14150.69
569.372	14173.29
569.734	14133.29
570.095	14231.59
570.457	14248.31
570.819	14281.76
571.18	14249.89
571.542	14203.79
571.903	14310.46
572.265	14287.41
572.626	14390.91
572.987	14308.65
573.349	14273.4
573.71	14457.35
574.071	14326.05
574.432	14453.96
574.794	14429.32
575.155	14481.3
575.516	14353.39
575.877	14444.24
576.238	14430.68
576.599	14423.67
576.96	14437.91
577.32	14413.51
577.681	14487.18
578.042	14476.33
578.403	14484.92
578.763	14455.76
579.124	14534.41
579.485	14499.15
579.845	14540.73
580.206	14438.82
580.566	14507.06
580.927	14474.07
581.287	14590.22
581.648	14496.21
582.008	14524.01
582.368	14449.44
582.728	14499.38
583.089	14449.44
583.449	14472.49
583.809	14460.96
584.169	14494.86
584.529	14505.93
584.889	14479.49
585.249	14418.02
585.609	14322.89
585.969	14425.26
586.329	14376.44
586.688	14419.61
587.048	14396.1
587.408	14402.88
587.768	14385.94
588.127	14293.51
588.487	14296.67
588.846	14405.14
589.206	14357.91
589.565	14284.24
589.925	14281.31
590.284	14331.02
590.643	14332.6
591.003	14300.51
591.362	14333.06
591.721	14332.15
592.08	14262.32
592.44	14310.01
592.799	14341.19
593.158	14201.08
593.517	14254.41
593.876	14310.46
594.235	14305.03
594.593	14283.79
594.952	14242.89
595.311	14158.37
595.67	14213.96
596.029	14286.05
596.387	14197.92
596.746	14286.28
597.104	14201.31
597.463	14238.37
597.822	14310.46
598.18	14195.43
598.538	14190.69
598.897	14309.78
599.255	14083.8
599.613	14368.31
599.972	14184.13
600.33	14236.33
600.688	14235.43
601.046	14197.24
601.404	14198.37
601.762	14193.4
602.12	14286.05
602.478	14261.19
602.836	14340.51
603.194	14150.69
603.552	14227.52
603.91	14141.65
604.268	14225.71
604.625	14174.87
604.983	14293.96
605.341	14181.42
605.698	14223.91
606.056	14320.4
606.413	14217.13
606.771	14240.18
607.128	14323.56
607.485	14164.47
607.843	14169.44
608.2	14241.98
608.557	14276.56
608.914	14359.27
609.272	14291.02
609.629	14357.01
609.986	14387.52
610.343	14341.19
610.7	14387.07
611.057	14381.64
611.414	14427.74
611.771	14373.28
612.127	14419.83
612.484	14460.74
612.841	14518.36
613.198	14405.37
613.554	14404.69
613.911	14433.17
614.267	14468.64
614.624	14408.08
614.98	14375.99
615.337	14547.51
615.693	14518.14
616.05	14466.16
616.406	14621.86
616.762	14525.59
617.118	14454.86
617.475	14531.02
617.831	14618.02
618.187	14608.75
618.543	14553.39
618.899	14769.65
619.255	14695.76
619.611	14651.92
619.967	14713.84
620.323	14778.69
620.678	14655.76
621.034	14554.07
621.39	14546.38
621.746	14530.34
622.101	14731.24
622.457	14595.87
622.812	14563.33
623.168	14700.28
623.523	14702.09
623.879	14698.02
624.234	14637.91
624.589	14651.92
624.945	14686.49
625.3	14649.88
625.655	14655.08
626.01	14626.61
626.365	14663.22
626.72	14630.67
627.075	14646.49
627.43	14648.08
627.785	14619.38
628.14	14714.74
628.495	14711.12
628.85	14660.05
629.205	14566.72
629.559	14696.66
629.914	14572.15
630.269	14638.81
630.623	14592.03
630.978	14552.48
631.332	14552.71
631.687	14673.84
632.041	14577.12
632.396	14607.4
632.75	14445.37
633.104	14575.08
633.459	14451.92
633.813	14489.21
634.167	14383.9
634.521	14449.21
634.875	14470.45
635.229	14408.31
635.583	14386.39
635.937	14347.97
636.291	14387.52
636.645	14334.86
636.999	14339.16
637.352	14360.17
637.706	14267.29
638.06	14274.98
638.413	14188.2
638.767	14298.48
639.121	14160.63
639.474	14164.02
639.828	14200.86
640.181	14217.8
640.534	14084.7
640.888	14178.26
641.241	14078.6
641.594	14137.35
641.947	14253.51
642.301	14084.93
642.654	14127.64
643.007	14092.16
643.36	14125.6
643.713	14096.68
644.066	14095.32
644.419	14016.23
644.771	13917.93
645.124	13856.91
645.477	13856.01
645.83	13641.1
646.182	13626.41
646.535	13640.64
646.888	13675.45
647.24	13630.02
647.593	13634.77
647.945	13622.79
648.298	13493.53
648.65	13462.12
649.002	13442.23
649.355	13509.8
649.707	13531.04
650.059	13590.02
650.411	13741.21
650.763	13785.73
651.115	13922.22
651.467	13808.1
651.819	13805.16
652.171	13929.45
652.523	13845.61
652.875	13921.54
653.227	13769.23
653.578	13883.12
653.93	13921.77
654.282	13833.41
654.633	13824.59
654.985	13855.33
655.337	13817.81
655.688	13856.46
656.039	13934.42
656.391	13790.24
656.742	13879.06
657.094	13839.06
657.445	13950.47
657.796	13848.1
658.147	13825.05
658.498	13825.27
658.849	13917.25
659.2	13909.11
659.551	13768.55
659.902	13855.33
660.253	13901.88
660.604	13855.55
660.955	13771.04
661.306	13912.73
661.656	13843.8
662.007	13877.02
662.358	13827.98
662.708	13828.21
663.059	13897.59
663.409	13804.48
663.76	13897.81
664.11	13950.69
664.461	13962.9
664.811	13952.05
665.161	13872.28
665.511	13884.03
665.862	13882.45
666.212	13936.23
666.562	13914.99
666.912	13969.68
667.262	13890.36
667.612	13855.33
667.962	13856.68
668.312	13831.15
668.662	13959.05
669.011	13905.95
669.361	13936.68
669.711	13827.08
670.06	13873.63
670.41	13792.28
670.76	13797.25
671.109	13863.01
671.459	13791.6
671.808	13789.11
672.157	13784.6
672.507	13779.85
672.856	13758.38
673.205	13823.01
673.554	13771.71
673.904	13721.77
674.253	13824.37
674.602	13803.35
674.951	13604.71
675.3	13458.05
675.649	13752.73
675.998	13689
676.346	13650.36
676.695	13776.69
677.044	13598.39
677.393	13701.21
677.741	13762
678.09	13583.47
678.438	13515.9
678.787	13566.75
679.135	13622.34
679.484	13491.5
679.832	13565.84
680.181	13464.38
680.529	13436.36
680.877	13433.64
681.225	13451.27
681.573	13523.59
681.922	13390.26
682.27	13362.23
682.618	13378.96
682.966	13393.19
683.314	13363.14
683.661	13324.04
684.009	13244.04
684.357	13160.66
684.705	13196.59
685.053	13180.77
685.4	13186.19
685.748	13149.36
686.095	13143.48
686.443	13037.27
686.79	13058.51
687.138	13021.9
687.485	13121.79
687.832	13046.54
688.18	12972.64
688.527	12879.31
688.874	12872.75
689.221	12925.18
689.568	12794.11
689.915	12743.49
690.262	12783.72
690.609	12733.78
690.956	12683.38
691.303	12668.24
691.65	12581.24
691.997	12569.03
692.344	12485.42
692.69	12431.18
693.037	12468.02
693.383	12338.31
693.73	12465.76
694.077	12291.75
694.423	12291.53
694.769	12302.83
695.116	12154.13
695.462	12129.05
695.808	12055.6
696.155	12180.12
696.501	11994.81
696.847	12061.93
697.193	11931.54
697.539	11982.38
697.885	11870.75
698.231	11826.68
698.577	11811.54
698.923	11839.79
699.269	11705.55
699.614	11604.99
699.96	11629.62
700.306	11613.13
700.651	11591.21
700.997	11505.33
701.342	11466.92
701.688	11460.81
702.033	11511.21
702.379	11350.31
702.724	11284.77
703.069	11322.29
703.415	11261.95
703.76	11218.79
704.105	11156.64
704.45	11162.97
704.795	11085.23
705.14	11080.03
705.485	10968.17
705.83	11021.96
706.175	10983.09
706.52	10928.63
706.865	10891.34
707.209	10927.95
707.554	10833.03
707.899	10885.69
708.243	10816.09
708.588	10776.09
708.932	10755.97
709.277	10709.87
709.621	10637.79
709.966	10630.55
710.31	10649.76
710.654	10583.55
710.998	10626.26
711.342	10555.08
711.687	10496.09
712.031	10483.67
712.375	10473.5
712.719	10465.36
713.063	10406.38
713.407	10492.25
713.75	10466.26
714.094	10343.78
714.438	10383.78
714.782	10392.82
715.125	10338.36
715.469	10318.47
715.812	10291.81
716.156	10215.65
716.499	10226.04
716.843	10243.22
717.186	10175.42
717.53	10234.86
717.873	10158.7
718.216	10152.37
718.559	10172.94
718.902	10092.04
719.246	10147.18
719.589	10040.06
719.932	10016.56
720.275	10042.09
720.617	10046.61
720.96	9922.55
721.303	10031.25
721.646	10013.39
721.989	9946.28
722.331	9984.02
722.674	9899.73
723.016	9918.03
723.359	9862.89
723.701	9926.62
724.044	9826.28
724.386	9834.87
724.729	9894.75
725.071	9942.89
725.413	9887.07
725.755	9788.99
726.097	9813.85
726.439	9788.77
726.782	9799.62
727.124	9777.24
727.465	9769.11
727.807	9748.09
728.149	9822.21
728.491	9780.41
728.833	9773.18
729.175	9707.41
729.516	9746.74
729.858	9737.24
730.199	9748.09
730.541	9739.96
730.882	9651.6
731.224	9678.04
731.565	9697.25
731.906	9746.51
732.248	9728.66
732.589	9628.55
732.93	9654.08
733.271	9703.57
733.612	9677.58
733.953	9718.71
734.294	9584.03
734.635	9652.05
734.976	9638.72
735.317	9684.59
735.658	9614.31
735.999	9639.39
736.339	9602.56
736.68	9735.21
737.021	9754.42
737.361	9688.43
737.702	9739.73
738.042	9630.35
738.383	9678.94
738.723	9701.31
739.063	9776.56
739.404	9773.18
739.744	9763.68
740.084	9671.48
740.424	9854.76
740.764	9730.92
741.104	9835.77
741.444	9735.21
741.784	9754.42
742.124	9816.79
742.464	9872.61
742.804	9840.29
743.143	9874.64
743.483	9898.14
743.823	9946.96
744.162	9927.52
744.502	9980.4
744.841	9988.76
745.181	10047.97
745.52	10034.19
745.86	10087.74
746.199	10115.31
746.538	10137.23
746.877	10167.97
747.216	10317.34
747.556	10326.16
747.895	10361.86
748.234	10413.38
748.573	10421.07
748.911	10530.9
749.25	10559.14
749.589	10546.94
749.928	10607.05
750.267	10800.94
750.605	10828.97
750.944	10882.07
751.283	10916.2
751.621	11092.01
751.96	11109.64
752.298	11233.7
752.636	11334.04
752.975	11318.45
753.313	11442.28
753.651	11634.82
753.989	11642.05
754.327	11698.77
754.666	11820.58
755.004	12024.87
755.342	12207.01
755.679	12414.24
756.017	12402.71
756.355	12627.34
756.693	12750.05
