Data from hue_210_FLMS001491_00051.txt Node
Date: Tue Feb 07 16:41:23 GMT 2017
User: dcchb
Spectrometer: FLMS00149
Trigger mode: 0
Integration Time (sec): 2.000000E-2
Scans to average: 10
Electric dark correction enabled: true
Nonlinearity correction enabled: false
Boxcar width: 0
XAxis mode: Wavelengths
Number of Pixels in Spectrum: 2048
>>>>>Begin Spectral Data<<<<<
341.393	-22.8
341.776	-22.8
342.16	-22.8
342.543	-65.05
342.927	-68.9
343.31	-58.05
343.693	-65.96
344.077	-60.76
344.46	-56.47
344.843	-48.11
345.226	-46.3
345.61	-37.48
345.993	-15.11
346.376	-11.04
346.759	8.84
347.142	31.67
347.525	37.32
347.908	55.39
348.291	69.63
348.674	91.33
349.057	105.11
349.44	125
349.823	140.36
350.206	165.67
350.588	177.88
350.971	204.99
351.354	222.62
351.737	231.21
352.119	235.5
352.502	249.06
352.884	269.17
353.267	280.02
353.65	304.65
354.032	272.56
354.414	301.49
354.797	305.56
355.179	308.49
355.562	315.73
355.944	329.96
356.326	328.16
356.709	331.32
357.091	319.34
357.473	325.44
357.855	319.79
358.238	332
358.62	316.86
359.002	332.67
359.384	328.16
359.766	339
360.148	324.09
360.53	325.67
360.912	322.51
361.294	311.43
361.676	341.49
362.057	328.16
362.439	341.94
362.821	338.78
363.203	321.38
363.584	322.51
363.966	332
364.348	326.35
364.729	340.13
365.111	310.75
365.493	311.21
365.874	315.5
366.256	319.79
366.637	320.92
367.019	288.83
367.4	312.11
367.781	313.01
368.163	307.82
368.544	302.39
368.925	307.14
369.306	332.45
369.688	315.5
370.069	316.4
370.45	316.63
370.831	298.1
371.212	302.39
371.593	291.09
371.974	316.86
372.355	292
372.736	320.92
373.117	312.34
373.498	325.44
373.879	307.59
374.26	297.65
374.641	285.67
375.021	311.66
375.402	308.72
375.783	317.31
376.163	312.11
376.544	307.36
376.925	296.74
377.305	317.76
377.686	329.74
378.066	315.5
378.447	315.73
378.827	307.82
379.208	326.12
379.588	332.22
379.968	320.7
380.349	311.21
380.729	324.54
381.109	311.88
381.489	329.51
381.87	329.51
382.25	319.79
382.63	316.63
383.01	318.21
383.39	348.95
383.77	332
384.15	342.62
384.53	338.55
384.91	339.45
385.29	340.58
385.67	336.52
386.049	349.17
386.429	348.72
386.809	329.29
387.189	340.13
387.568	341.49
387.948	341.94
388.328	347.82
388.707	356.18
389.087	358.44
389.466	365.44
389.846	342.39
390.225	360.24
390.605	356.86
390.984	338.32
391.363	356.63
391.743	358.66
392.122	367.93
392.501	359.79
392.881	366.57
393.26	355.5
393.639	358.21
394.018	348.27
394.397	374.93
394.776	359.34
395.155	374.71
395.534	365.22
395.913	371.54
396.292	370.19
396.671	388.27
397.05	398.89
397.429	374.03
397.808	387.81
398.186	389.4
398.565	384.65
398.944	359.34
399.323	389.62
399.701	382.39
400.08	389.62
400.458	397.08
400.837	368.83
401.215	417.42
401.594	407.02
401.972	416.51
402.351	406.57
402.729	424.88
403.107	421.94
403.486	420.58
403.864	420.13
404.242	433.92
404.62	419.45
404.999	438.43
405.377	459.45
405.755	434.14
406.133	434.82
406.511	466.91
406.889	435.95
407.267	449.28
407.645	464.87
408.023	462.39
408.401	490.41
408.779	482.95
409.156	488.15
409.534	490.64
409.912	509.85
410.29	504.2
410.667	494.03
411.045	513.69
411.422	500.35
411.8	527.47
412.178	538.09
412.555	570.18
412.933	581.48
413.31	571.99
413.687	590.52
414.065	594.59
414.442	599.79
414.819	598.66
415.197	621.48
415.574	616.51
415.951	638.43
416.328	626.68
416.705	636.85
417.082	632.33
417.46	652.21
417.837	661.03
418.214	672.78
418.591	672.78
418.967	697.64
419.344	711.2
419.721	708.94
420.098	714.59
420.475	747.13
420.852	736.05
421.228	753.68
421.605	770.18
421.982	781.02
422.358	800.91
422.735	826.45
423.111	812.21
423.488	809.27
423.864	825.77
424.241	869.61
424.617	871.19
424.994	882.72
425.37	905.99
425.746	891.98
426.123	905.54
426.499	945.31
426.875	948.93
427.251	970.85
427.627	986.67
428.003	959.55
428.379	1012.66
428.756	1014.92
429.132	1020.11
429.507	1026.22
429.883	1034.58
430.259	1040.23
430.635	1085.88
431.011	1076.38
431.387	1099.66
431.763	1149.15
432.138	1139.66
432.514	1155.25
432.89	1162.94
433.265	1196.38
433.641	1219.21
434.016	1195.48
434.392	1253.1
434.767	1270.5
435.143	1269.15
435.518	1315.93
435.894	1345.76
436.269	1362.03
436.644	1385.53
437.02	1393.66
437.395	1430.5
437.77	1449.48
438.145	1481.8
438.52	1482.7
438.895	1496.49
439.271	1527.9
439.646	1561.8
440.021	1588.24
440.395	1603.15
440.77	1594.56
441.145	1651.28
441.52	1659.87
441.895	1672.98
442.27	1701.23
442.645	1700.1
443.019	1745.29
443.394	1759.08
443.769	1755.91
444.143	1778.29
444.518	1817.61
444.892	1813.77
445.267	1818.29
445.641	1853.76
446.016	1829.81
446.39	1874.33
446.764	1886.31
447.139	1895.12
447.513	1909.58
447.887	1940.77
448.262	1929.02
448.636	1936.02
449.01	1959.07
449.384	1992.52
449.758	1998.85
450.132	2049.92
450.506	2025.96
450.88	2082.23
451.254	2048.34
451.628	2079.97
452.002	2105.51
452.376	2145.06
452.75	2158.39
453.123	2169.46
453.497	2207.2
453.871	2220.99
454.244	2232.96
454.618	2249.91
454.992	2261.21
455.365	2296.24
455.739	2364.26
456.112	2366.75
456.486	2386.86
456.859	2373.53
457.232	2418.72
457.606	2446.74
457.979	2475.9
458.352	2541.88
458.725	2526.06
459.099	2550.24
459.472	2637.92
459.845	2590.47
460.218	2663.69
460.591	2666.62
460.964	2683.57
461.337	2751.82
461.71	2768.09
462.083	2808.77
462.456	2840.86
462.829	2844.93
463.201	2887.18
463.574	2883.12
463.947	2945.94
464.32	2970.57
464.692	2993.62
465.065	3043.34
465.438	3065.71
465.81	3115.2
466.183	3147.29
466.555	3203.79
466.928	3181.64
467.3	3253.05
467.672	3270.68
468.045	3364.69
468.417	3308.42
468.789	3377.79
469.161	3408.3
469.534	3448.98
469.906	3515.19
470.278	3530.33
470.65	3604
471.022	3651.01
471.394	3734.39
471.766	3737.11
472.138	3782.75
472.51	3830.66
472.882	3853.71
473.253	3945.46
473.625	3956.76
473.997	4052.8
474.369	4075.4
474.74	4117.21
475.112	4209.64
475.484	4210.54
475.855	4296.41
476.227	4341.61
476.598	4447.14
476.97	4461.38
477.341	4549.74
477.713	4588.83
478.084	4626.35
478.455	4754.25
478.827	4796.29
479.198	4884.65
479.569	4888.71
479.94	5058.65
480.311	5058.2
480.682	5160.12
481.053	5269.04
481.424	5331.41
481.795	5349.94
482.166	5442.82
482.537	5497.06
482.908	5619.32
483.279	5641.01
483.65	5735.47
484.021	5846.88
484.391	5913.09
484.762	5965.3
485.133	5989.93
485.503	6031.73
485.874	6166.42
486.244	6195.12
486.615	6342.23
486.985	6370.48
487.356	6501.33
487.726	6431.27
488.097	6614.77
488.467	6631.72
488.837	6767.08
489.207	6788.32
489.578	6884.14
489.948	6913.74
490.318	7026.06
490.688	7031.48
491.058	7158.71
491.428	7244.36
491.798	7211.36
492.168	7397.12
492.538	7443.45
492.908	7466.27
493.278	7533.16
493.648	7552.6
494.017	7628.3
494.387	7690.22
494.757	7757.11
495.126	7779.48
495.496	7786.72
495.866	7838.92
496.235	7922.76
496.605	7976.54
496.974	8025.13
497.344	8097.89
497.713	8104.45
498.082	8165.46
498.452	8156.2
498.821	8222.18
499.19	8191.9
499.559	8229.87
499.928	8368.62
500.298	8312.35
500.667	8422.18
501.036	8361.84
501.405	8463.99
501.774	8456.53
502.143	8410.88
502.512	8444.78
502.88	8539.24
503.249	8576.75
503.618	8581.72
503.987	8601.38
504.356	8658.78
504.724	8690.87
505.093	8679.57
505.462	8769.74
505.83	8746.01
506.199	8807.25
506.567	8841.38
506.936	8886.35
507.304	8907.59
507.672	8953.01
508.041	8926.35
508.409	8925.67
508.777	9068.49
509.145	8967.48
509.514	9006.12
509.882	9064.2
510.25	9065.33
510.618	9053.58
510.986	9075.5
511.354	9122.95
511.722	9193.46
512.09	9192.78
512.458	9188.71
512.826	9188.26
513.193	9218.77
513.561	9160.69
513.929	9223.74
514.297	9287.24
514.664	9255.6
515.032	9284.98
515.4	9373.79
515.767	9335.83
516.135	9322.95
516.502	9283.85
516.869	9328.37
517.237	9306.9
517.604	9274.36
517.972	9311.2
518.339	9360.01
518.706	9323.62
519.073	9363.85
519.44	9430.97
519.808	9473.9
520.175	9328.37
520.542	9443.62
520.909	9434.13
521.276	9389.84
521.643	9476.84
522.009	9428.71
522.376	9494.69
522.743	9461.47
523.11	9466.67
523.477	9530.4
523.843	9545.77
524.21	9568.59
524.577	9635.03
524.943	9607.23
525.31	9533.56
525.676	9584.86
526.043	9572.21
526.409	9620.34
526.776	9651.75
527.142	9567.91
527.508	9674.8
527.874	9605.43
528.241	9550.29
528.607	9568.59
528.973	9612.43
529.339	9541.02
529.705	9598.19
530.071	9647.23
530.437	9625.99
530.803	9585.31
531.169	9672.09
531.535	9543.73
531.901	9524.07
532.267	9471.64
532.632	9475.71
532.998	9487.69
533.364	9465.77
533.73	9444.75
534.095	9458.54
534.461	9442.94
534.826	9368.37
535.192	9364.53
535.557	9351.42
535.923	9301.7
536.288	9377.41
536.653	9308.71
537.019	9254.7
537.384	9218.09
537.749	9257.86
538.114	9224.64
538.479	9118.43
538.845	9178.32
539.21	9053.8
539.575	9077.76
539.94	9052.67
540.305	9092.9
540.67	8969.96
541.034	8950.53
541.399	8997.76
541.764	8917.99
542.129	8923.41
542.494	8861.49
542.858	8840.02
543.223	8827.37
543.587	8819.01
543.952	8719.12
544.316	8682.51
544.681	8697.43
545.045	8701.27
545.41	8622.4
545.774	8607.94
546.138	8601.16
546.503	8511.22
546.867	8427.83
547.231	8476.19
547.595	8392.58
547.959	8450.88
548.324	8404.1
548.688	8362.52
549.052	8300.37
549.416	8284.33
549.779	8189.64
550.143	8211.79
550.507	8243.65
550.871	8158.68
551.235	8133.37
551.599	8095.18
551.962	8125.24
552.326	8130.66
552.689	8070.78
553.053	7985.13
553.417	7977.22
553.78	8028.74
554.143	7951.68
554.507	7873.27
554.87	7878.01
555.234	7935.41
555.597	7846.38
555.96	7843.89
556.323	7836.88
556.686	7842.31
557.05	7834.4
557.413	7812.25
557.776	7702.65
558.139	7740.84
558.502	7731.8
558.865	7671.92
559.228	7718.47
559.59	7600.05
559.953	7663.56
560.316	7679.37
560.679	7652.71
561.041	7668.98
561.404	7619.94
561.767	7667.17
562.129	7644.57
562.492	7674.4
562.854	7658.81
563.217	7538.81
563.579	7591.02
563.941	7620.39
564.304	7619.26
564.666	7587.63
565.028	7581.75
565.39	7567.06
565.753	7598.92
566.115	7544.69
566.477	7634.63
566.839	7605.25
567.201	7659.71
567.563	7606.38
567.925	7655.65
568.287	7587.85
568.648	7618.13
569.01	7644.57
569.372	7679.6
569.734	7626.49
570.095	7618.81
570.457	7603.67
570.819	7666.04
571.18	7583.11
571.542	7698.58
571.903	7625.59
572.265	7640.05
572.626	7725.7
572.987	7652.48
573.349	7677.34
573.71	7711.46
574.071	7686.61
574.432	7743.33
574.794	7750.78
575.155	7797.56
575.516	7644.8
575.877	7793.5
576.238	7705.59
576.599	7739.49
576.96	7670.11
577.32	7777.45
577.681	7811.57
578.042	7749.88
578.403	7727.28
578.763	7838.24
579.124	7741.75
579.485	7765.7
579.845	7793.5
580.206	7791.91
580.566	7798.69
580.927	7808.41
581.287	7859.03
581.648	7827.85
582.008	7884.79
582.368	7844.34
582.728	7877.34
583.089	7850.9
583.449	7900.39
583.809	7889.76
584.169	7937.67
584.529	7926.37
584.889	7936.54
585.249	7879.14
585.609	7827.85
585.969	7933.6
586.329	7899.93
586.688	7962.76
587.048	7937.45
587.408	7965.02
587.768	7920.27
588.127	7907.16
588.487	7896.32
588.846	8023.32
589.206	7859.93
589.565	7917.79
589.925	7942.87
590.284	7889.31
590.643	7897
591.003	7988.52
591.362	8020.61
591.721	7965.24
592.08	7971.8
592.44	8044.34
592.799	8018.12
593.158	7996.88
593.517	8003.43
593.876	8115.75
594.235	7947.84
594.593	7996.43
594.952	8011.34
595.311	7989.87
595.67	8012.47
596.029	8035.07
596.387	8062.64
596.746	8049.53
597.104	8022.19
597.463	7951.23
597.822	8003.43
598.18	8054.05
598.538	8010.21
598.897	8044.56
599.255	7941.74
599.613	8118.68
599.972	8054.05
600.33	7971.12
600.688	8014.73
601.046	7992.36
601.404	8038.91
601.762	8004.34
602.12	8107.16
602.478	8056.99
602.836	8075.75
603.194	8035.52
603.552	8081.4
603.91	8030.33
604.268	8074.84
604.625	7978.12
604.983	8030.78
605.341	8009.08
605.698	8020.16
606.056	8072.81
606.413	8061.06
606.771	8063.55
607.128	8108.97
607.485	8049.08
607.843	8071.23
608.2	8109.19
608.557	8103.77
608.914	8065.13
609.272	8112.81
609.629	8100.15
609.986	8144.9
610.343	8082.98
610.7	8125.01
611.057	8141.96
611.414	8123.66
611.771	8124.33
612.127	8176.99
612.484	8181.28
612.841	8142.64
613.198	8133.83
613.554	8128.18
613.911	8200.04
614.267	8152.58
614.624	8137.22
614.98	8177.89
615.337	8229.64
615.693	8239.81
616.05	8258.12
616.406	8257.89
616.762	8238.23
617.118	8192.81
617.475	8181.96
617.831	8272.13
618.187	8223.99
618.543	8256.08
618.899	8330.88
619.255	8268.29
619.611	8233.71
619.967	8305.57
620.323	8325.01
620.678	8325.91
621.034	8223.31
621.39	8313.26
621.746	8291.34
622.101	8341.73
622.457	8284.56
622.812	8278.23
623.168	8301.5
623.523	8287.27
623.879	8322.75
624.234	8322.3
624.589	8344.44
624.945	8318.68
625.3	8268.74
625.655	8268.29
626.01	8314.39
626.365	8246.59
626.72	8285.01
627.075	8225.35
627.43	8233.26
627.785	8260.6
628.14	8287.49
628.495	8283.65
628.85	8293.14
629.205	8288.17
629.559	8205.69
629.914	8242.98
630.269	8212.02
630.623	8209.08
630.978	8232.58
631.332	8220.83
631.687	8284.33
632.041	8187.84
632.396	8241.39
632.75	8209.98
633.104	8202.52
633.459	8179.02
633.813	8160.94
634.167	8153.94
634.521	8085.69
634.875	8096.99
635.229	8144.22
635.583	8060.83
635.937	8044.79
636.291	8122.98
636.645	8099.25
636.999	8049.76
637.352	8099.02
637.706	8077.56
638.06	8046.14
638.413	8022.64
638.767	8072.58
639.121	8073.26
639.474	7987.84
639.828	8016.54
640.181	8038.46
640.534	7999.14
640.888	7995.52
641.241	7943.77
641.594	7982.87
641.947	7974.28
642.301	7965.69
642.654	7921.4
643.007	7985.13
643.36	7960.95
643.713	7889.31
644.066	7975.86
644.419	7945.13
644.771	7905.36
645.124	7807.73
645.477	7742.2
645.83	7762.08
646.182	7660.84
646.535	7658.58
646.888	7715.08
647.24	7679.83
647.593	7699.71
647.945	7676.21
648.298	7670.34
648.65	7619.04
649.002	7632.6
649.355	7653.16
649.707	7634.63
650.059	7700.39
650.411	7794.17
650.763	7762.54
651.115	7851.8
651.467	7850.22
651.819	7803.44
652.171	7852.03
652.523	7864.45
652.875	7868.3
653.227	7749.43
653.578	7849.77
653.93	7799.6
654.282	7800.95
654.633	7824.46
654.985	7808.18
655.337	7851.12
655.688	7867.84
656.039	7901.29
656.391	7785.81
656.742	7829.65
657.094	7847.96
657.445	7880.72
657.796	7857
658.147	7838.92
658.498	7856.54
658.849	7911.23
659.2	7800.95
659.551	7832.36
659.902	7862.65
660.253	7847.28
660.604	7864.45
660.955	7878.69
661.306	7885.7
661.656	7867.39
662.007	7903.55
662.358	7917.11
662.708	7905.36
663.059	7896.77
663.409	7845.7
663.76	7892.25
664.11	7930.44
664.461	7883.89
664.811	7887.73
665.161	7904.91
665.511	7937.67
665.862	7951.01
666.212	7981.06
666.562	7968.18
666.912	7894.06
667.262	7898.8
667.612	7960.72
667.962	7949.88
668.312	7931.12
668.662	7966.6
669.011	7922.08
669.361	7898.8
669.711	7915.75
670.06	7925.47
670.41	7920.72
670.76	7948.29
671.109	7871.46
671.459	7908.52
671.808	7910.55
672.157	7931.35
672.507	7782.42
672.856	7923.66
673.205	7880.05
673.554	7906.26
673.904	7841.4
674.253	7904.68
674.602	7866.49
674.951	7739.03
675.3	7720.28
675.649	7861.74
675.998	7838.24
676.346	7828.52
676.695	7888.86
677.044	7780.39
677.393	7812.03
677.741	7776.77
678.09	7788.07
678.438	7795.53
678.787	7780.39
679.135	7762.54
679.484	7661.52
679.832	7746.04
680.181	7683.89
680.529	7639.6
680.877	7698.13
681.225	7630.11
681.573	7703.33
681.922	7591.02
682.27	7626.95
682.618	7558.02
682.966	7607.51
683.314	7565.25
683.661	7614.07
684.009	7522.32
684.357	7564.58
684.705	7528.42
685.053	7522.32
685.4	7507.63
685.748	7446.61
686.095	7490.23
686.443	7374.3
686.79	7419.27
687.138	7386.73
687.485	7442.09
687.832	7392.83
688.18	7413.39
688.527	7336.33
688.874	7320.51
689.221	7317.8
689.568	7248.65
689.915	7232.83
690.262	7261.53
690.609	7226.28
690.956	7147.18
691.303	7139.73
691.65	7146.28
691.997	7103.34
692.344	7038.26
692.69	7035.32
693.037	7098.15
693.383	7030.35
693.73	7057.92
694.077	6949
694.423	6952.84
694.769	6861.77
695.116	6910.58
695.462	6877.81
695.808	6856.35
696.155	6859.06
696.501	6803.47
696.847	6796.46
697.193	6765.05
697.539	6760.53
697.885	6703.35
698.231	6715.11
698.577	6681.66
698.923	6592.17
699.269	6610.93
699.614	6623.13
699.96	6543.36
700.306	6528.9
700.651	6542.46
700.997	6516.69
701.342	6481.67
701.688	6453.19
702.033	6400.09
702.379	6368.67
702.724	6357.38
703.069	6359.18
703.415	6335.23
703.76	6320.77
704.105	6303.82
704.45	6283.03
704.795	6195.57
705.14	6229.02
705.485	6244.38
705.83	6187.21
706.175	6191.28
706.52	6200.09
706.865	6104.5
707.209	6115.35
707.554	6101.11
707.899	6097.27
708.243	6057.95
708.588	6051.85
708.932	5990.15
709.277	6028.12
709.621	5955.13
709.966	5982.24
710.31	5929.36
710.654	5883.94
710.998	5920.32
711.342	5920.32
711.687	5926.43
712.031	5843.26
712.375	5826.77
712.719	5882.13
713.063	5825.64
713.407	5864.05
713.75	5861.34
714.094	5871.51
714.438	5768.46
714.782	5815.47
715.125	5805.53
715.469	5757.17
715.812	5784.28
716.156	5709.26
716.499	5739.09
716.843	5723.27
717.186	5716.04
717.53	5799.88
717.873	5711.74
718.216	5712.19
718.559	5711.97
718.902	5640.11
719.246	5697.05
719.589	5638.07
719.932	5615.7
720.275	5659.99
720.617	5642.82
720.96	5587.9
721.303	5588.58
721.646	5608.24
721.989	5573.44
722.331	5672.42
722.674	5597.62
723.016	5631.07
723.359	5556.49
723.701	5613.89
724.044	5577.28
724.386	5543.84
724.729	5594.46
725.071	5564.85
725.413	5566.21
725.755	5505.19
726.097	5576.6
726.439	5604.17
726.782	5533.22
727.124	5572.54
727.465	5540.67
727.807	5523.5
728.149	5500.67
728.491	5504.29
728.833	5500.45
729.175	5551.75
729.516	5556.04
729.858	5506.1
730.199	5610.5
730.541	5499.32
730.882	5532.31
731.224	5518.08
731.565	5573.22
731.906	5516.27
732.248	5518.53
732.589	5544.06
732.93	5535.93
733.271	5502.48
733.612	5531.63
733.953	5531.18
734.294	5532.09
734.635	5488.7
734.976	5559.43
735.317	5512.43
735.658	5542.93
735.999	5529.6
736.339	5552.42
736.68	5598.07
737.021	5517.4
737.361	5530.05
737.702	5506.32
738.042	5621.8
738.383	5551.07
738.723	5610.95
739.063	5595.59
739.404	5595.14
739.744	5623.38
740.084	5571.18
740.424	5667.45
740.764	5654.79
741.104	5658.86
741.444	5625.87
741.784	5645.3
742.124	5750.84
742.464	5704.51
742.804	5717.17
743.143	5721.46
743.483	5773.89
743.823	5788.12
744.162	5845.3
744.502	5851.63
744.841	5838.29
745.181	5890.49
745.52	5928.01
745.86	5915.58
746.199	6000.55
746.538	6027.44
746.877	6037.61
747.216	6115.8
747.556	6118.74
747.895	6163.48
748.234	6262.24
748.573	6224.5
748.911	6359.18
749.25	6379.52
749.589	6416.81
749.928	6580.65
750.267	6627.65
750.605	6666.97
750.944	6726.86
751.283	6742.9
751.621	6867.19
751.96	6921.88
752.298	7028.09
752.636	7075.55
752.975	7164.13
753.313	7290.68
753.651	7423.79
753.989	7481.87
754.327	7574.97
754.666	7665.82
755.004	7838.92
755.342	8005.92
755.679	8066.71
756.017	8224.9
756.355	8311.22
756.693	8456.98
757.031	8655.39
757.368	8722.06
757.706	8911.88
758.044	9013.35
758.381	9207.24
758.719	9266.23
759.056	9482.72
759.394	9613.11
759.731	9714.12
760.068	10000.67
760.405	10086.99
760.743	10184.17
761.08	10390.49
761.417	10589.13
761.754	10654.66
762.091	10883.13
762.428	11124.71
762.765	11211.26
763.102	11412.61
763.438	11588.42
763.775	11679.5
764.112	11872.94
764.449	12058.69
764.785	12274.06
765.122	12403.09
765.458	12478.34
765.795	12636.76
766.131	12910.88
766.467	13054.83
766.804	13115.62
767.14	13251.21
767.476	13427.92
767.812	13569.61
768.148	13714.47
768.485	13856.61
768.821	13919.21
