Data from hue_190_FLMS001491_00075.txt Node
Date: Tue Feb 07 16:45:45 GMT 2017
User: dcchb
Spectrometer: FLMS00149
Trigger mode: 0
Integration Time (sec): 2.000000E-2
Scans to average: 10
Electric dark correction enabled: true
Nonlinearity correction enabled: false
Boxcar width: 0
XAxis mode: Wavelengths
Number of Pixels in Spectrum: 2048
>>>>>Begin Spectral Data<<<<<
341.393	-24.69
341.776	-24.69
342.16	-24.69
342.543	-61.07
342.927	-54.52
343.31	-61.52
343.693	-77.79
344.077	-63.78
344.46	-61.52
344.843	-71.24
345.226	-35.54
345.61	-24.46
345.993	-10.45
346.376	-14.29
346.759	17.57
347.142	22.32
347.525	53.5
347.908	46.27
348.291	92.37
348.674	88.3
349.057	100.28
349.44	149.32
349.823	164.46
350.206	163.33
350.588	186.15
350.971	206.27
351.354	229.09
351.737	215.53
352.119	245.36
352.502	257.34
352.884	264.34
353.267	274.51
353.65	304.79
354.032	311.8
354.414	315.19
354.797	322.65
355.179	308.64
355.562	308.41
355.944	315.42
356.326	344.12
356.709	338.92
357.091	347.05
357.473	354.96
357.855	324.91
358.238	327.84
358.62	335.08
359.002	330.56
359.384	327.84
359.766	317.45
360.148	350.22
360.53	308.86
360.912	306.15
361.294	316.32
361.676	322.42
362.057	330.33
362.439	332.14
362.821	334.85
363.203	330.56
363.584	297.34
363.966	314.51
364.348	311.35
364.729	321.07
365.111	308.86
365.493	326.26
365.874	313.16
366.256	323.55
366.637	309.31
367.019	320.84
367.4	306.6
367.781	310.44
368.163	303.66
368.544	289.88
368.925	290.11
369.306	334.85
369.688	309.54
370.069	300.05
370.45	303.44
370.831	303.21
371.212	294.85
371.593	301.63
371.974	300.05
372.355	317.68
372.736	319.71
373.117	296.21
373.498	317.45
373.879	309.99
374.26	310.67
374.641	319.26
375.021	308.86
375.402	319.48
375.783	302.53
376.163	328.75
376.544	319.03
376.925	319.48
377.305	342.53
377.686	310.9
378.066	335.53
378.447	314.06
378.827	334.62
379.208	326.26
379.588	326.94
379.968	336.21
380.349	319.94
380.729	312.03
381.109	334.85
381.489	344.12
381.87	313.83
382.25	334.62
382.63	312.25
383.01	332.59
383.39	337.79
383.77	317.45
384.15	319.94
384.53	321.74
384.91	340.27
385.29	334.17
385.67	321.97
386.049	344.34
386.429	331.91
386.809	337.56
387.189	329.65
387.568	340.95
387.948	339.14
388.328	360.84
388.707	355.19
389.087	340.27
389.466	334.85
389.846	359.03
390.225	358.35
390.605	351.8
390.984	373.49
391.363	367.62
391.743	370.1
392.122	344.12
392.501	357.45
392.881	370.78
393.26	354.51
393.639	378.46
394.018	370.78
394.397	370.56
394.776	391.8
395.155	375.75
395.534	382.53
395.913	375.07
396.292	356.32
396.671	377.33
397.05	387.96
397.429	396.09
397.808	382.53
398.186	377.56
398.565	389.54
398.944	387.96
399.323	370.56
399.701	371.69
400.08	411.46
400.458	407.16
400.837	397.45
401.215	426.37
401.594	377.79
401.972	411.01
402.351	411.23
402.729	378.01
403.107	424.11
403.486	413.94
403.864	439.93
404.242	438.35
404.62	419.82
404.999	451.68
405.377	442.19
405.755	432.02
406.133	446.26
406.511	444.23
406.889	448.07
407.267	446.49
407.645	454.39
408.023	449.42
408.401	469.54
408.779	484.45
409.156	484.45
409.534	477.67
409.912	493.94
410.29	504.79
410.667	495.07
411.045	506.82
411.422	512.47
411.8	490.78
412.178	555.86
412.555	542.98
412.933	536.43
413.31	541.85
413.687	575.07
414.065	563.09
414.442	580.27
414.819	589.98
415.197	605.8
415.574	602.19
415.951	620.27
416.328	620.94
416.705	621.4
417.082	609.87
417.46	611.68
417.837	650.77
418.214	658.91
418.591	635.41
418.967	652.81
419.344	699.36
419.721	693.71
420.098	693.94
420.475	691.22
420.852	709.3
421.228	739.36
421.605	742.97
421.982	766.48
422.358	748.4
422.735	746.14
423.111	777.78
423.488	814.16
423.864	802.86
424.241	813.93
424.617	831.79
424.994	858.45
425.37	885.34
425.746	864.78
426.123	904.78
426.499	888.73
426.875	884.21
427.251	913.59
427.627	934.38
428.003	950.43
428.379	947.26
428.756	967.15
429.132	980.48
429.507	996.3
429.883	984.55
430.259	1019.8
430.635	1013.25
431.011	1046.24
431.387	1035.85
431.763	1061.84
432.138	1076.3
432.514	1101.84
432.89	1101.84
433.265	1110.42
433.641	1147.03
434.016	1170.99
434.392	1207.82
434.767	1210.53
435.143	1159.69
435.518	1257.54
435.894	1260.02
436.269	1292.79
436.644	1316.29
437.02	1306.35
437.395	1335.28
437.77	1370.08
438.145	1420.25
438.52	1427.7
438.895	1436.97
439.271	1450.98
439.646	1476.29
440.021	1533.69
440.395	1500.24
440.77	1518.55
441.145	1546.8
441.52	1599.68
441.895	1583.18
442.27	1613.46
442.645	1613.69
443.019	1644.42
443.394	1650.07
443.769	1692.1
444.143	1668.83
444.518	1708.15
444.892	1714.25
445.267	1714.47
445.641	1723.29
446.016	1762.16
446.39	1778.88
446.764	1784.53
447.139	1800.57
447.513	1818.65
447.887	1846.9
448.262	1861.59
448.636	1849.84
449.01	1909.72
449.384	1915.37
449.758	1912.66
450.132	1941.59
450.506	1958.08
450.88	1970.97
451.254	1976.61
451.628	2014.35
452.002	2018.2
452.376	2031.08
452.75	2055.26
453.123	2066.33
453.497	2102.04
453.871	2108.14
454.244	2123.28
454.618	2180.45
454.992	2216.16
455.365	2228.59
455.739	2274.69
456.112	2307.68
456.486	2302.71
456.859	2347.9
457.232	2396.72
457.606	2378.64
457.979	2380.9
458.352	2435.36
458.725	2460.22
459.099	2496.6
459.472	2558.75
459.845	2560.1
460.218	2608.91
460.591	2631.96
460.964	2675.35
461.337	2703.38
461.71	2718.97
462.083	2789.47
462.456	2773.66
462.829	2756.71
463.201	2814.78
463.574	2878.96
463.947	2905.86
464.32	2984.95
464.692	2978.4
465.065	3019.98
465.438	3085.06
465.81	3075.57
466.183	3150.14
466.555	3257.03
466.928	3212.29
467.3	3201.67
467.672	3268.56
468.045	3385.62
468.417	3411.61
468.789	3430.81
469.161	3468.33
469.534	3510.36
469.906	3605.05
470.278	3610.02
470.65	3684.14
471.022	3751.94
471.394	3797.36
471.766	3844.36
472.138	3894.53
472.51	3999.16
472.882	4048.2
473.253	4057.46
473.625	4166.39
473.997	4222.66
474.369	4252.49
474.74	4309.66
475.112	4397.79
475.484	4485.25
475.855	4536.55
476.227	4639.6
476.598	4701.06
476.97	4746.03
477.341	4886.59
477.713	4928.85
478.084	4976.31
478.455	5109.64
478.827	5089.75
479.198	5313.25
479.569	5337.43
479.94	5457.2
480.311	5528.61
480.682	5676.4
481.053	5800.92
481.424	5850.41
481.795	5866.46
482.166	6023.29
482.537	6150.97
482.908	6224.86
483.279	6267.58
483.65	6377.63
484.021	6520.9
484.391	6577.4
484.762	6656.27
485.133	6708.24
485.503	6853.77
485.874	6969.7
486.244	7032.75
486.615	7123.15
486.985	7254.89
487.356	7365.85
487.726	7434.32
488.097	7622.79
488.467	7599.52
488.837	7809.46
489.207	7818.72
489.578	8027.3
489.948	8028.88
490.318	8235.66
490.688	8176.9
491.058	8354.07
491.428	8440.63
491.798	8507.97
492.168	8662.31
492.538	8658.02
492.908	8748.41
493.278	8856.89
493.648	8906.6
494.017	8988.41
494.387	9060.5
494.757	9181.17
495.126	9227.72
495.496	9271.56
495.866	9291.22
496.235	9405.35
496.605	9409.41
496.974	9443.76
497.344	9543.87
497.713	9606.7
498.082	9583.19
498.452	9740.93
498.821	9783.64
499.19	9754.94
499.559	9846.69
499.928	9862.96
500.298	9988.38
500.667	10064.31
501.036	9974.37
501.405	10073.12
501.774	10105.44
502.143	10149.73
502.512	10119.68
502.88	10209.62
503.249	10220.47
503.618	10324.19
503.987	10308.6
504.356	10295.72
504.724	10401.93
505.093	10413
505.462	10388.6
505.83	10467.69
506.199	10501.59
506.567	10569.16
506.936	10516.96
507.304	10582.26
507.672	10665.43
508.041	10680.57
508.409	10748.36
508.777	10752.43
509.145	10792.65
509.514	10845.99
509.882	10824.52
510.25	10735.93
510.618	10840.34
510.986	10860
511.354	10947.23
511.722	10953.55
512.09	10961.01
512.458	10881.24
512.826	11061.35
513.193	11068.58
513.561	11023.16
513.929	11078.3
514.297	11083.95
514.664	11136.6
515.032	11069.03
515.4	11139.76
515.767	11083.04
516.135	11127.79
516.502	11064.29
516.869	11223.38
517.237	11152.19
517.604	11083.95
517.972	11187.67
518.339	11162.81
518.706	11167.79
519.073	11145.19
519.44	11131.18
519.808	11280.32
520.175	11178.63
520.542	11267.9
520.909	11246.43
521.276	11242.13
521.643	11262.47
522.009	11273.55
522.376	11259.76
522.743	11269.7
523.11	11292.08
523.477	11306.99
523.843	11344.5
524.21	11388.57
524.577	11400.77
524.943	11383.82
525.31	11347.89
525.676	11343.15
526.043	11397.16
526.409	11385.63
526.776	11415.46
527.142	11445.07
527.508	11412.07
527.874	11397.16
528.241	11331.62
528.607	11378.4
528.973	11367.78
529.339	11319.19
529.705	11310.38
530.071	11331.62
530.437	11285.97
530.803	11299.53
531.169	11213.66
531.535	11248.69
531.901	11176.37
532.267	11118.97
532.632	11121.23
532.998	11113.32
533.364	11066.32
533.73	11029.48
534.095	11089.6
534.461	11029.48
534.826	11022.48
535.192	11034.68
535.557	10981.58
535.923	10893.44
536.288	10867
536.653	10781.81
537.019	10717.4
537.384	10664.75
537.749	10743.39
538.114	10588.59
538.479	10602.38
538.845	10564.19
539.21	10455.26
539.575	10467.69
539.94	10393.57
540.305	10451.42
540.67	10326.45
541.034	10242.61
541.399	10290.52
541.764	10203.52
542.129	10184.76
542.494	10088.94
542.858	10089.4
543.223	9972.34
543.587	9959
543.952	9928.95
544.316	9932.79
544.681	9847.82
545.045	9836.75
545.41	9792.45
545.774	9708.61
546.138	9672.01
546.503	9692.8
546.867	9597.66
547.231	9578
547.595	9443.76
547.959	9429.07
548.324	9395.18
548.688	9330.55
549.052	9272.02
549.416	9223.2
549.779	9208.29
550.143	9148.18
550.507	9176.65
550.871	9055.75
551.235	9029.31
551.599	9109.08
551.962	8990.89
552.326	8919.26
552.689	8913.16
553.053	8787.06
553.417	8770.56
553.78	8859.82
554.143	8816.21
554.507	8761.52
554.87	8672.94
555.234	8759.49
555.597	8656.89
555.96	8613.05
556.323	8544.58
556.686	8557.68
557.05	8498.48
557.413	8526.05
557.776	8484.01
558.139	8476.56
558.502	8438.59
558.865	8387.29
559.228	8397.01
559.59	8378.25
559.953	8294.19
560.316	8404.92
560.679	8333.51
561.041	8406.05
561.404	8310.23
561.767	8367.18
562.129	8206.96
562.492	8307.52
562.854	8232.27
563.217	8176.23
563.579	8230.91
563.941	8214.19
564.304	8231.82
564.666	8195.66
565.028	8221.42
565.39	8196.34
565.753	8235.21
566.115	8236.34
566.477	8178.94
566.839	8234.3
567.201	8231.59
567.563	8204.25
567.925	8176.45
568.287	8218.71
568.648	8164.25
569.01	8221.42
569.372	8179.39
569.734	8160.86
570.095	8235.43
570.457	8223
570.819	8216
571.18	8172.84
571.542	8220.07
571.903	8190.01
572.265	8224.81
572.626	8147.07
572.987	8182.33
573.349	8211.93
573.71	8143.68
574.071	8193.17
574.432	8234.08
574.794	8238.82
575.155	8222.78
575.516	8190.01
575.877	8143.01
576.238	8139.16
576.599	8169.45
576.96	8164.02
577.32	8156.11
577.681	8145.49
578.042	8165.15
578.403	8196.56
578.763	8162.89
579.124	8155.44
579.485	8111.59
579.845	8183.01
580.206	8179.16
580.566	8169.45
580.927	8104.14
581.287	8129.22
581.648	8112.05
582.008	8134.87
582.368	8142.55
582.728	8145.94
583.089	8138.71
583.449	8042.9
583.809	7980.75
584.169	8139.39
584.529	8037.47
584.889	8096.23
585.249	8018.04
585.609	7985.27
585.969	8054.2
586.329	7989.56
586.688	7987.76
587.048	7991.37
587.408	7963.12
587.768	7971.03
588.127	7926.29
588.487	7911.6
588.846	7970.13
589.206	7896.46
589.565	7924.25
589.925	7975.33
590.284	7893.75
590.643	7912.5
591.003	7979.62
591.362	7969.68
591.721	7921.32
592.08	7858.04
592.44	7889
592.799	7935.33
593.158	7877.02
593.517	7900.98
593.876	7895.78
594.235	7844.26
594.593	7802
594.952	7863.69
595.311	7811.04
595.67	7815.78
596.029	7842.45
596.387	7834.77
596.746	7785.95
597.104	7743.02
597.463	7824.82
597.822	7773.52
598.18	7794.09
598.538	7794.99
598.897	7786.18
599.255	7704.15
599.613	7855.33
599.972	7810.81
600.33	7763.13
600.688	7736.69
601.046	7752.51
601.404	7790.7
601.762	7787.08
602.12	7823.69
602.478	7727.2
602.836	7815.33
603.194	7697.59
603.552	7672.74
603.91	7622.34
604.268	7720.19
604.625	7708.67
604.983	7731.72
605.341	7675.22
605.698	7719.74
606.056	7742.11
606.413	7698.72
606.771	7745.73
607.128	7759.29
607.485	7717.03
607.843	7739.18
608.2	7775.33
608.557	7784.37
608.914	7709.57
609.272	7759.74
609.629	7743.24
609.986	7755.45
610.343	7715.22
610.7	7784.37
611.057	7794.99
611.414	7755.9
611.771	7746.63
612.127	7762
612.484	7826.4
612.841	7863.69
613.198	7778.95
613.554	7747.31
613.911	7813.52
614.267	7782.34
614.624	7779.4
614.98	7768.33
615.337	7833.64
615.693	7833.18
616.05	7835.44
616.406	7858.72
616.762	7814.2
617.118	7830.92
617.475	7852.84
617.831	7877.02
618.187	7830.47
618.543	7827.53
618.899	7917.25
619.255	7874.99
619.611	7844.93
619.967	7885.84
620.323	7892.62
620.678	7832.96
621.034	7860.3
621.39	7896.23
621.746	7801.32
622.101	7886.06
622.457	7948.21
622.812	7838.83
623.168	7947.53
623.523	7884.93
623.879	7933.97
624.234	7813.75
624.589	7858.27
624.945	7907.98
625.3	7926.51
625.655	7832.96
626.01	7879.06
626.365	7901.2
626.72	7821.21
627.075	7794.77
627.43	7801.55
627.785	7823.69
628.14	7822.56
628.495	7899.62
628.85	7804.71
629.205	7762
629.559	7798.16
629.914	7778.27
630.269	7762
630.623	7810.81
630.978	7754.32
631.332	7798.16
631.687	7757.71
632.041	7793.18
632.396	7812.62
632.75	7677.71
633.104	7740.98
633.459	7621.89
633.813	7707.76
634.167	7774.2
634.521	7670.25
634.875	7723.36
635.229	7632.96
635.583	7638.39
635.937	7645.17
636.291	7658.05
636.645	7603.81
636.999	7659.86
637.352	7580.08
637.706	7575.11
638.06	7595.68
638.413	7600.2
638.767	7536.02
639.121	7563.59
639.474	7449.47
639.828	7522.01
640.181	7500.76
640.534	7507.99
640.888	7486.98
641.241	7476.36
641.594	7492.85
641.947	7525.85
642.301	7483.59
642.654	7515
643.007	7496.92
643.36	7459.86
643.713	7437.04
644.066	7474.78
644.419	7394.78
644.771	7364.95
645.124	7364.04
645.477	7378.05
645.83	7284.72
646.182	7229.81
646.535	7241.11
646.888	7221
647.24	7203.14
647.593	7220.09
647.945	7220.54
648.298	7207.21
648.65	7212.64
649.002	7182.13
649.355	7199.53
649.707	7213.77
650.059	7292.86
650.411	7288.34
650.763	7346.19
651.115	7369.92
651.467	7353.2
651.819	7364.27
652.171	7352.07
652.523	7363.14
652.875	7330.37
653.227	7348.45
653.578	7376.7
653.93	7416.25
654.282	7398.62
654.633	7315.91
654.985	7310.94
655.337	7415.12
655.688	7397.72
656.039	7409.01
656.391	7355.46
656.742	7369.69
657.094	7341.67
657.445	7405.62
657.796	7348.45
658.147	7399.3
658.498	7339.86
658.849	7434.1
659.2	7334.67
659.551	7379.64
659.902	7350.94
660.253	7388.22
660.604	7427.09
660.955	7391.84
661.306	7395.91
661.656	7419.41
662.007	7422.57
662.358	7492.85
662.708	7502.12
663.059	7435.45
663.409	7371.5
663.76	7444.72
664.11	7385.51
664.461	7412.63
664.811	7503.48
665.161	7417.6
665.511	7426.19
665.862	7429.13
666.212	7424.61
666.562	7464.83
666.912	7438.84
667.262	7460.54
667.612	7438.39
667.962	7457.6
668.312	7433.42
668.662	7444.04
669.011	7468.22
669.361	7415.79
669.711	7429.35
670.06	7371.28
670.41	7402.23
670.76	7426.41
671.109	7423.25
671.459	7366.53
671.808	7398.39
672.157	7423.93
672.507	7324.04
672.856	7413.53
673.205	7404.95
673.554	7347.32
673.904	7386.19
674.253	7378.05
674.602	7383.03
674.951	7278.17
675.3	7228.45
675.649	7308.45
675.998	7374.66
676.346	7317.94
676.695	7339.19
677.044	7294.67
677.393	7260.09
677.741	7315.68
678.09	7335.34
678.438	7271.39
678.787	7311.39
679.135	7263.48
679.484	7248.11
679.832	7255.57
680.181	7175.8
680.529	7238.85
680.877	7228.68
681.225	7156.14
681.573	7270.03
681.922	7210.38
682.27	7172.64
682.618	7126.54
682.966	7121.56
683.314	7127.44
683.661	7091.51
684.009	7099.42
684.357	7089.02
684.705	7034.33
685.053	7031.17
685.4	7032.07
685.748	6970.61
686.095	7040.66
686.443	6923.38
686.79	6902.36
687.138	6951.4
687.485	6923.38
687.832	6931.74
688.18	6973.55
688.527	6865.53
688.874	6878.63
689.221	6800.22
689.568	6771.52
689.915	6821.23
690.262	6786.43
690.609	6764.74
690.956	6693.55
691.303	6759.31
691.65	6657.4
691.997	6668.69
692.344	6664.4
692.69	6631.18
693.037	6632.09
693.383	6486.1
693.73	6573.33
694.077	6535.59
694.423	6528.13
694.769	6525.65
695.116	6485.2
695.462	6473.45
695.808	6417.85
696.155	6415.14
696.501	6401.81
696.847	6374.69
697.193	6343.28
697.539	6343.73
697.885	6302.38
698.231	6214.47
698.577	6271.64
698.923	6200.01
699.269	6212.44
699.614	6143.51
699.96	6137.18
700.306	6190.06
700.651	6113.68
700.997	6108.48
701.342	6082.04
701.688	6060.12
702.033	6019.67
702.379	5989.62
702.724	5991.42
703.069	6031.42
703.415	5935.83
703.76	5919.79
704.105	5967.47
704.45	5903.29
704.795	5863.74
705.14	5834.14
705.485	5842.5
705.83	5811.32
706.175	5822.39
706.52	5782.62
706.865	5807.47
707.209	5739.68
707.554	5708.72
707.899	5743.75
708.243	5723.18
708.588	5713.01
708.932	5681.6
709.277	5653.35
709.621	5651.09
709.966	5626.24
710.31	5583.07
710.654	5593.47
710.998	5574.49
711.342	5553.47
711.687	5550.31
712.031	5531.55
712.375	5564.09
712.719	5513.47
713.063	5532.23
713.407	5503.53
713.75	5498.1
714.094	5454.49
714.438	5469.86
714.782	5481.38
715.125	5445
715.469	5449.74
715.812	5401.16
716.156	5382.63
716.499	5428.73
716.843	5349.63
717.186	5367.94
717.53	5412.46
717.873	5375.4
718.216	5347.83
718.559	5338.33
718.902	5330.65
719.246	5331.55
719.589	5358.9
719.932	5299.01
720.275	5288.62
720.617	5336.98
720.96	5265.34
721.303	5279.35
721.646	5330.42
721.989	5261.5
722.331	5325.45
722.674	5228.28
723.016	5266.92
723.359	5254.72
723.701	5277.09
724.044	5253.82
724.386	5204.33
724.729	5204.1
725.071	5187.15
725.413	5217.89
725.755	5216.3
726.097	5185.8
726.439	5191.67
726.782	5224.66
727.124	5218.11
727.465	5225.57
727.807	5192.12
728.149	5173.37
728.491	5188.73
728.833	5167.04
729.175	5168.85
729.516	5218.11
729.858	5218.79
730.199	5180.82
730.541	5183.08
730.882	5168.4
731.224	5192.58
731.565	5228.28
731.906	5181.95
732.248	5183.31
732.589	5184.21
732.93	5219.24
733.271	5141.05
733.612	5181.73
733.953	5250.88
734.294	5182.86
734.635	5139.92
734.976	5222.86
735.317	5220.15
735.658	5160.94
735.999	5216.3
736.339	5195.06
736.68	5217.43
737.021	5227.38
737.361	5203.2
737.702	5189.64
738.042	5270.99
738.383	5247.94
738.723	5254.04
739.063	5222.41
739.404	5273.93
739.744	5285.91
740.084	5238.9
740.424	5320.26
740.764	5330.65
741.104	5341.5
741.444	5336.75
741.784	5293.14
742.124	5361.38
742.464	5335.85
742.804	5367.26
743.143	5406.58
743.483	5437.31
743.823	5416.98
744.162	5444.32
744.502	5472.12
744.841	5519.8
745.181	5548.95
745.52	5553.47
745.86	5598.89
746.199	5595.5
746.538	5675.05
746.877	5741.49
747.216	5717.08
747.556	5765.89
747.895	5811.54
748.234	5816.29
748.573	5911.65
748.911	5913.23
749.25	5976.74
749.589	5995.27
749.928	6108.26
750.267	6120.46
750.605	6219.44
750.944	6270.74
751.283	6321.59
751.621	6418.08
751.96	6519.09
752.298	6591.63
752.636	6716.38
752.975	6759.54
753.313	6857.16
753.651	6939.87
753.989	6992.3
754.327	7160.66
754.666	7249.02
755.004	7409.47
755.342	7479.52
755.679	7636.58
756.017	7730.59
756.355	7919.74
756.693	7996.57
757.031	8187.75
757.368	8270.69
757.706	8424.58
758.044	8540.74
758.381	8724.46
758.719	8855.76
759.056	8968.97
759.394	9145.69
759.731	9279.47
760.068	9472.24
760.405	9627.71
760.743	9720.59
761.08	9944.31
761.417	10107.25
761.754	10253.46
762.091	10370.74
762.428	10617.97
762.765	10747.91
763.102	11000.11
763.438	11063.83
763.775	11201.91
764.112	11431.73
764.449	11614.78
764.785	11719.64
765.122	11910.59
765.458	12014.99
765.795	12314.2
766.131	12374.76
766.467	12524.13
766.804	12725.48
