Data from hue_250_FLMS001491_00031.txt Node
Date: Tue Feb 07 16:00:52 GMT 2017
User: dcchb
Spectrometer: FLMS00149
Trigger mode: 0
Integration Time (sec): 2.000000E-2
Scans to average: 10
Electric dark correction enabled: true
Nonlinearity correction enabled: false
Boxcar width: 0
XAxis mode: Wavelengths
Number of Pixels in Spectrum: 2048
>>>>>Begin Spectral Data<<<<<
341.393	-5.96
341.776	-5.96
342.16	-5.96
342.543	-63.13
342.927	-55
343.31	-63.81
343.693	-65.62
344.077	-56.81
344.46	-75.56
344.843	-45.06
345.226	-17.49
345.61	-27.88
345.993	-24.04
346.376	-7.99
346.759	20.25
347.142	10.99
347.525	30.87
347.908	55.96
348.291	60.03
348.674	102.74
349.057	103.42
349.44	130.31
349.823	114.71
350.206	161.72
350.588	190.42
350.971	222.06
351.354	217.54
351.737	234.49
352.119	229.29
352.502	253.02
352.884	271.09
353.267	266.35
353.65	299.12
354.032	295.27
354.414	300.25
354.797	317.65
355.179	315.16
355.562	319.68
355.944	306.8
356.326	314.94
356.709	330.98
357.091	316.29
357.473	333.01
357.855	310.64
358.238	333.24
358.62	334.82
359.002	336.63
359.384	334.14
359.766	321.04
360.148	328.72
360.53	319.45
360.912	343.18
361.294	332.56
361.676	328.04
362.057	300.47
362.439	317.42
362.821	331.66
363.203	346.57
363.584	323.97
363.966	301.83
364.348	327.14
364.729	323.3
365.111	330.75
365.493	295.95
365.874	301.83
366.256	291.43
366.637	294.82
367.019	315.39
367.4	292.11
367.781	271.09
368.163	299.34
368.544	290.3
368.925	292.11
369.306	316.29
369.688	293.01
370.069	294.14
370.45	304.31
370.831	315.16
371.212	302.73
371.593	314.48
371.974	293.47
372.355	321.71
372.736	305.9
373.117	310.19
373.498	319
373.879	282.39
374.26	307.03
374.641	305.44
375.021	307.93
375.402	319
375.783	310.64
376.163	302.96
376.544	317.87
376.925	310.87
377.305	299.79
377.686	329.17
378.066	317.2
378.447	314.71
378.827	331.88
379.208	313.58
379.588	302.28
379.968	332.79
380.349	319.91
380.729	306.35
381.109	345.22
381.489	338.44
381.87	318.1
382.25	331.21
382.63	327.14
383.01	328.04
383.39	335.05
383.77	335.05
384.15	334.6
384.53	322.62
384.91	355.39
385.29	334.6
385.67	354.26
386.049	342.05
386.429	338.89
386.809	348.83
387.189	357.42
387.568	352.45
387.948	363.97
388.328	348.83
388.707	349.74
389.087	331.21
389.466	359.45
389.846	351.09
390.225	362.84
390.605	344.31
390.984	356.97
391.363	351.09
391.743	363.07
392.122	348.61
392.501	377.08
392.881	356.74
393.26	390.41
393.639	371.43
394.018	373.69
394.397	378.89
394.776	387.02
395.155	386.8
395.534	365.56
395.913	384.09
396.292	381.6
396.671	393.13
397.05	379.11
397.429	389.28
397.808	376.18
398.186	385.89
398.565	419.79
398.944	383.86
399.323	390.41
399.701	403.52
400.08	386.57
400.458	406.46
400.837	400.13
401.215	384.09
401.594	419.57
401.972	411.88
402.351	420.02
402.729	424.54
403.107	417.76
403.486	432.45
403.864	450.3
404.242	439.45
404.62	409.62
404.999	412.11
405.377	436.51
405.755	437.42
406.133	453.01
406.511	413.92
406.889	449.39
407.267	458.66
407.645	467.7
408.023	472.22
408.401	471.77
408.779	484.65
409.156	479.22
409.534	482.39
409.912	477.19
410.29	489.39
410.667	509.51
411.045	512.9
411.422	520.13
411.8	507.7
412.178	536.85
412.555	540.92
412.933	515.38
413.31	572.78
413.687	566
414.065	538.43
414.442	576.4
414.819	591.54
415.197	580.01
415.574	603.06
415.951	586.57
416.328	604.42
416.705	610.07
417.082	597.19
417.46	603.06
417.837	626.11
418.214	608.49
418.591	627.47
418.967	629.5
419.344	638.99
419.721	652.55
420.098	648.94
420.475	671.54
420.852	686
421.228	657.98
421.605	688.03
421.982	702.5
422.358	692.78
422.735	714.47
423.111	729.16
423.488	759.22
423.864	760.12
424.241	737.52
424.617	756.05
424.994	768.48
425.37	776.62
425.746	781.82
426.123	782.95
426.499	778.65
426.875	824.3
427.251	851.19
427.627	836.73
428.003	857.52
428.379	852.77
428.756	846.45
429.132	883.06
429.507	886.67
429.883	880.12
430.259	909.5
430.635	888.48
431.011	918.54
431.387	915.15
431.763	949.49
432.138	950.4
432.514	969.16
432.89	954.47
433.265	1011.19
433.641	1029.27
434.016	986.1
434.392	1042.15
434.767	1043.73
435.143	1078.76
435.518	1101.81
435.894	1090.73
436.269	1135.48
436.644	1131.41
437.02	1134.12
437.395	1129.15
437.77	1179.09
438.145	1193.78
438.52	1210.5
438.895	1210.73
439.271	1227.45
439.646	1252.09
440.021	1288.02
440.395	1296.83
440.77	1292.76
441.145	1275.81
441.52	1308.58
441.895	1321.01
442.27	1344.06
442.645	1351.07
443.019	1357.17
443.394	1362.59
443.769	1383.38
444.143	1392.42
444.518	1413.89
444.892	1429.26
445.267	1421.8
445.641	1451.63
446.016	1443.27
446.39	1454.79
446.764	1454.34
447.139	1445.3
447.513	1460.89
447.887	1497.73
448.262	1480.55
448.636	1510.61
449.01	1511.74
449.384	1532.98
449.758	1548.8
450.132	1543.6
450.506	1565.52
450.88	1550.61
451.254	1591.29
451.628	1597.61
452.002	1619.53
452.376	1628.8
452.75	1644.84
453.123	1638.52
453.497	1644.62
453.871	1675.13
454.244	1730.04
454.618	1698.4
454.992	1735.01
455.365	1741.11
455.739	1796.25
456.112	1792.41
456.486	1822.24
456.859	1839.41
457.232	1828.57
457.606	1836.25
457.979	1914.67
458.352	1910.15
458.725	1918.51
459.099	1921.67
459.472	1969.81
459.845	1983.59
460.218	2005.06
460.591	2028.79
460.964	2040.77
461.337	2069.47
461.71	2111.05
462.083	2102.91
462.456	2123.02
462.829	2118.73
463.201	2170.03
463.574	2170.93
463.947	2196.69
464.32	2247.54
464.692	2270.82
465.065	2290.7
465.438	2313.98
465.81	2327.99
466.183	2340.42
466.555	2375.67
466.928	2379.06
467.3	2387.88
467.672	2418.38
468.045	2500.19
468.417	2480.53
468.789	2556.01
469.161	2526.63
469.534	2581.77
469.906	2650.69
470.278	2635.1
470.65	2676.23
471.022	2685.04
471.394	2788.77
471.766	2774.98
472.138	2780.63
472.51	2878.26
472.882	2916.45
473.253	2930.46
473.625	2932.72
473.997	3045.48
474.369	3035.77
474.74	3040.51
475.112	3115.77
475.484	3155.54
475.855	3218.59
476.227	3173.17
476.598	3292.94
476.97	3316.66
477.341	3352.37
477.713	3433.05
478.084	3443.21
478.455	3537.9
478.827	3526.15
479.198	3624.23
479.569	3598.92
479.94	3787.16
480.311	3766.82
480.682	3811.34
481.053	3874.16
481.424	3976.08
481.795	3987.83
482.166	4028.51
482.537	4036.87
482.908	4163.2
483.279	4150.09
483.65	4238.45
484.021	4250.65
484.391	4299.46
484.762	4340.14
485.133	4406.13
485.503	4444.77
485.874	4527.25
486.244	4608.61
486.615	4590.3
486.985	4657.87
487.356	4790.52
487.726	4818.77
488.097	4928.37
488.467	4883.18
488.837	4973.34
489.207	5054.47
489.578	5117.07
489.948	5096.5
490.318	5172.89
490.688	5170.17
491.058	5254.92
491.428	5370.62
491.798	5392.77
492.168	5450.39
492.538	5492.88
492.908	5527
493.278	5532.88
493.648	5594.12
494.017	5683.38
494.387	5700.56
494.757	5716.38
495.126	5792.31
495.496	5792.08
495.866	5801.12
496.235	5852.19
496.605	5898.97
496.974	5938.74
497.344	5953.66
497.713	6014.45
498.082	6005.41
498.452	6041.79
498.821	6089.02
499.19	6145.52
499.559	6183.93
499.928	6171.73
500.298	6161.34
500.667	6258.51
501.036	6251.5
501.405	6274.78
501.774	6317.04
502.143	6353.19
502.512	6356.36
502.88	6403.59
503.249	6412.4
503.618	6397.26
503.987	6383.7
504.356	6505.73
504.724	6513.42
505.093	6538.27
505.462	6556.35
505.83	6617.37
506.199	6666.63
506.567	6635.67
506.936	6688.1
507.304	6740.08
507.672	6744.37
508.041	6809.23
508.409	6846.74
508.777	6811.49
509.145	6862.33
509.514	6874.31
509.882	6900.3
510.25	6838.15
510.618	6877.25
510.986	6916.12
511.354	6962.44
511.722	7025.95
512.09	7079.96
512.458	7008.32
512.826	7075.44
513.193	7096.68
513.561	7079.5
513.929	7126.96
514.297	7229.56
514.664	7171.93
515.032	7206.73
515.4	7219.39
515.767	7209.44
516.135	7187.52
516.502	7224.58
516.869	7322.43
517.237	7311.14
517.604	7260.74
517.972	7305.71
518.339	7350.46
518.706	7444.92
519.073	7376.9
519.44	7438.36
519.808	7442.43
520.175	7430.45
520.542	7438.59
520.909	7511.36
521.276	7481.75
521.643	7481.98
522.009	7588.42
522.376	7625.03
522.743	7563.33
523.11	7601.75
523.477	7647.4
523.843	7655.31
524.21	7780.28
524.577	7719.71
524.943	7739.82
525.31	7712.48
525.676	7816.66
526.043	7845.13
526.409	7822.08
526.776	7866.15
527.142	7829.99
527.508	7858.47
527.874	7967.84
528.241	7947.95
528.607	7918.58
528.973	7952.47
529.339	7981.4
529.705	7957.22
530.071	8004.9
530.437	8043.09
530.803	8069.31
531.169	8050.55
531.535	8050.55
531.901	8027.95
532.267	8041.29
532.632	8083.32
532.998	8066.6
533.364	8091
533.73	8081.74
534.095	8171.9
534.461	8139.14
534.826	8120.61
535.192	8087.61
535.557	8136.42
535.923	8109.53
536.288	8145.24
536.653	8072.92
537.019	8058.46
537.384	8071.12
537.749	8085.8
538.114	8071.12
538.479	8084
538.845	8064.34
539.21	8001.96
539.575	8088.97
539.94	8136.88
540.305	8047.39
540.67	8083.09
541.034	8072.25
541.399	8137.1
541.764	8114.73
542.129	8057.56
542.494	8036.09
542.858	8081.96
543.223	8021.17
543.587	8114.05
543.952	8032.02
544.316	8059.14
544.681	8001.29
545.045	8069.76
545.41	8064.79
545.774	8026.14
546.138	8017.33
546.503	8058.23
546.867	8048.29
547.231	8015.07
547.595	8085.58
547.959	7986.82
548.324	7992.7
548.688	8011.91
549.052	7990.67
549.416	7991.8
549.779	7978.01
550.143	7994.96
550.507	7997.67
550.871	8011.23
551.235	7993.6
551.599	7964.23
551.962	7979.59
552.326	7939.59
552.689	8036.99
553.053	7980.95
553.417	7958.8
553.78	8054.39
554.143	7959.48
554.507	7979.59
554.87	8014.62
555.234	8088.29
555.597	7965.13
555.96	7985.69
556.323	8038.8
556.686	7993.83
557.05	8083.54
557.413	8048.52
557.776	8003.32
558.139	8051
558.502	8053.04
558.865	8088.97
559.228	8047.61
559.59	8168.29
559.953	8140.72
560.316	8169.42
560.679	8167.38
561.041	8184.56
561.404	8208.74
561.767	8235.86
562.129	8141.4
562.492	8195.41
562.854	8218.91
563.217	8177.33
563.579	8251.9
563.941	8271.79
564.304	8260.71
564.666	8342.97
565.028	8312.69
565.39	8358.34
565.753	8395.63
566.115	8436.76
566.477	8438.56
566.839	8451.44
567.201	8476.3
567.563	8436.76
567.925	8514.27
568.287	8561.27
568.648	8506.36
569.01	8549.75
569.372	8608.05
569.734	8567.15
570.095	8593.36
570.457	8605.56
570.819	8672.91
571.18	8634.49
571.542	8699.8
571.903	8726.92
572.265	8719.91
572.626	8756.97
572.987	8766.92
573.349	8812.34
573.71	8844.65
574.071	8836.07
574.432	8871.32
574.794	8935.05
575.155	8861.38
575.516	8876.97
575.877	8943.41
576.238	8971.43
576.599	8952.45
576.96	8951.32
577.32	8970.3
577.681	9018.66
578.042	9025.89
578.403	9024.08
578.763	9043.29
579.124	9072.22
579.485	9142.5
579.845	9139.79
580.206	9107.47
580.566	9120.35
580.927	9176.85
581.287	9186.34
581.648	9150.86
582.008	9188.83
582.368	9234.25
582.728	9268.37
583.089	9293.68
583.449	9216.17
583.809	9220.24
584.169	9239.22
584.529	9265.21
584.889	9363.06
585.249	9299.78
585.609	9233.34
585.969	9340.23
586.329	9305.89
586.688	9306.56
587.048	9275.83
587.408	9329.39
587.768	9401.48
588.127	9392.21
588.487	9420.23
588.846	9426.56
589.206	9373
589.565	9406.45
589.925	9463.4
590.284	9391.31
590.643	9514.69
591.003	9477.63
591.362	9530.51
591.721	9549.72
592.08	9467.01
592.44	9474.24
592.799	9543.62
593.158	9435.15
593.517	9575.48
593.876	9558.31
594.235	9510.4
594.593	9576.16
594.952	9548.82
595.311	9497.97
595.67	9601.02
596.029	9687.12
596.387	9608.25
596.746	9649.61
597.104	9612.54
597.463	9561.02
597.822	9628.36
598.18	9574.13
598.538	9602.15
598.897	9707.46
599.255	9616.39
599.613	9714.69
599.972	9728.7
600.33	9708.36
600.688	9660.45
601.046	9698.87
601.404	9645.31
601.762	9716.04
602.12	9772.09
602.478	9787.91
602.836	9756.49
603.194	9718.76
603.552	9755.59
603.91	9688.25
604.268	9746.55
604.625	9743.61
604.983	9765.53
605.341	9691.64
605.698	9772.77
606.056	9740.22
606.413	9716.72
606.771	9857.28
607.128	9784.74
607.485	9723.05
607.843	9755.59
608.2	9828.13
608.557	9855.02
608.914	9783.61
609.272	9832.2
609.629	9878.53
609.986	9883.95
610.343	9919.43
610.7	9975.02
611.057	9886.66
611.414	9923.5
611.771	9904.74
612.127	9870.62
612.484	9924.85
612.841	9965.75
613.198	9921.69
613.554	9961.01
613.911	9971.63
614.267	10008.01
614.624	9991.97
614.98	9979.99
615.337	10044.85
615.693	9980.67
616.05	9963.95
616.406	10087.79
616.762	10075.13
617.118	9970.73
617.475	10049.37
617.831	10070.61
618.187	10050.27
618.543	10031.97
618.899	10142.47
619.255	10105.86
619.611	10105.64
619.967	10233.54
620.323	10191.74
620.678	10071.06
621.034	10075.13
621.39	10102.7
621.746	10029.03
622.101	10222.47
622.457	10041.01
622.812	10183.83
623.168	10149.48
623.523	10100.89
623.879	10230.38
624.234	10092.31
624.589	10111.74
624.945	10166.43
625.3	10103.6
625.655	10146.99
626.01	10121.23
626.365	10178.4
626.72	10110.38
627.075	10124.85
627.43	10105.41
627.785	10095.69
628.14	10045.3
628.495	10147.22
628.85	10076.71
629.205	10049.37
629.559	10114
629.914	10054.34
630.269	10054.11
630.623	10042.82
630.978	10032.42
631.332	10119.2
631.687	10062.48
632.041	10054.57
632.396	10014.57
632.75	9984.06
633.104	10024.96
633.459	9947.22
633.813	9984.74
634.167	9928.92
634.521	9906.1
634.875	9954
635.229	9859.77
635.583	9862.93
635.937	9795.82
636.291	9795.59
636.645	9870.84
636.999	9833.33
637.352	9796.04
637.706	9782.93
638.06	9881.92
638.413	9796.95
638.767	9728.7
639.121	9756.49
639.474	9735.93
639.828	9821.13
640.181	9776.61
640.534	9770.28
640.888	9641.02
641.241	9710.39
641.594	9721.47
641.947	9697.97
642.301	9683.28
642.654	9688.25
643.007	9661.13
643.36	9577.74
643.713	9644.86
644.066	9671.07
644.419	9599.44
644.771	9526.9
645.124	9479.44
645.477	9391.08
645.83	9409.61
646.182	9371.42
646.535	9331.65
646.888	9378.43
647.24	9333.46
647.593	9352.66
647.945	9287.58
648.298	9268.82
648.65	9238.77
649.002	9260.46
649.355	9307.69
649.707	9294.13
650.059	9341.59
650.411	9438.99
650.763	9456.62
651.115	9526.67
651.467	9519.66
651.819	9501.59
652.171	9541.81
652.523	9485.32
652.875	9500.23
653.227	9477.63
653.578	9486.45
653.93	9477.18
654.282	9384.75
654.633	9370.97
654.985	9445.99
655.337	9470.63
655.688	9477.63
656.039	9432.44
656.391	9393.11
656.742	9407.58
657.094	9470.85
657.445	9467.01
657.796	9424.53
658.147	9529.83
658.498	9523.05
658.849	9461.59
659.2	9418.65
659.551	9438.09
659.902	9390.63
660.253	9427.92
660.604	9497.07
660.955	9409.84
661.306	9456.62
661.656	9433.34
662.007	9547.91
662.358	9496.39
662.708	9416.62
663.059	9444.64
663.409	9407.58
663.76	9444.19
664.11	9497.29
664.461	9498.42
664.811	9407.58
665.161	9424.53
665.511	9522.15
665.862	9474.24
666.212	9507.46
666.562	9525.54
666.912	9440.57
667.262	9416.16
667.612	9486.22
667.962	9451.19
668.312	9409.61
668.662	9495.03
669.011	9438.54
669.361	9454.58
669.711	9429.05
670.06	9403.96
670.41	9445.09
670.76	9442.6
671.109	9440.8
671.459	9429.72
671.808	9401.93
672.157	9483.51
672.507	9374.58
672.856	9356.05
673.205	9346.79
673.554	9408.71
673.904	9369.39
674.253	9385.21
674.602	9313.34
674.951	9267.92
675.3	9219.11
675.649	9311.99
675.998	9265.89
676.346	9293.91
676.695	9307.69
677.044	9259.56
677.393	9238.54
677.741	9322.38
678.09	9259.33
678.438	9184.76
678.787	9234.25
679.135	9204.19
679.484	9188.83
679.832	9246
680.181	9132.33
680.529	9256.4
680.877	9142.95
681.225	9174.14
681.573	9169.62
681.922	9135.95
682.27	9081.71
682.618	9086
682.966	9072.9
683.314	9121.48
683.661	9008.27
684.009	9003.75
684.357	8996.51
684.705	8939.79
685.053	8951.77
685.4	8966.69
685.748	8918.78
686.095	8900.92
686.443	8930.75
686.79	8878.33
687.138	8905.44
687.485	8893.69
687.832	8780.7
688.18	8804.88
688.527	8751.78
688.874	8718.56
689.221	8692.57
689.568	8747.03
689.915	8681.95
690.262	8679.46
690.609	8664.32
690.956	8639.69
691.303	8646.92
691.65	8596.3
691.997	8516.98
692.344	8497.09
692.69	8467.04
693.037	8485.57
693.383	8347.94
693.73	8417.1
694.077	8413.48
694.423	8366.02
694.769	8338.68
695.116	8309.3
695.462	8331.9
695.808	8270.21
696.155	8293.03
696.501	8301.84
696.847	8196.99
697.193	8148.63
697.539	8134.39
697.885	8188.17
698.231	8055.75
698.577	8116.99
698.923	8039.03
699.269	8021.17
699.614	8011.68
699.96	7947.5
700.306	7933.72
700.651	7900.05
700.997	7915.19
701.342	7856.21
701.688	7831.35
702.033	7828.86
702.379	7794.29
702.724	7828.64
703.069	7792.93
703.415	7724.23
703.76	7740.28
704.105	7669.09
704.45	7622.31
704.795	7642.43
705.14	7595.87
705.485	7620.28
705.83	7550.68
706.175	7538.02
706.52	7490.79
706.865	7430
707.209	7466.84
707.554	7419.16
707.899	7486.95
708.243	7412.6
708.588	7387.52
708.932	7352.26
709.277	7351.13
709.621	7294.19
709.966	7269.78
710.31	7281.08
710.654	7186.39
710.998	7274.75
711.342	7199.5
711.687	7198.37
712.031	7141.2
712.375	7180.52
712.719	7159.5
713.063	7179.61
713.407	7129.22
713.75	7143.23
714.094	7055.77
714.438	7056
714.782	7052.16
715.125	7044.48
715.469	7040.63
715.812	6989.56
716.156	6967.87
716.499	6962.44
716.843	7037.47
717.186	6971.26
717.53	7014.65
717.873	6895.1
718.216	7012.84
718.559	6943.46
718.902	6913.41
719.246	6932.39
719.589	6873.18
719.932	6888.77
720.275	6823.24
720.617	6876.12
720.96	6833.86
721.303	6820.53
721.646	6812.84
721.989	6817.36
722.331	6863.69
722.674	6831.83
723.016	6784.37
723.359	6763.81
723.701	6752.96
724.044	6744.6
724.386	6736.01
724.729	6800.41
725.071	6735.33
725.413	6745.05
725.755	6693.07
726.097	6660.76
726.439	6713.19
726.782	6661.44
727.124	6788.66
727.465	6697.82
727.807	6672.06
728.149	6688.78
728.491	6676.58
728.833	6670.47
729.175	6700.3
729.516	6633.64
729.858	6580.31
730.199	6671.83
730.541	6667.76
730.882	6595.9
731.224	6663.02
731.565	6611.27
731.906	6596.58
732.248	6659.18
732.589	6600.65
732.93	6594.09
733.271	6637.71
733.612	6636.58
733.953	6586.18
734.294	6552.96
734.635	6525.85
734.976	6640.19
735.317	6600.65
735.658	6565.62
735.999	6578.27
736.339	6537.82
736.68	6608.78
737.021	6610.81
737.361	6617.37
737.702	6583.7
738.042	6592.51
738.383	6585.28
738.723	6579.4
739.063	6584.15
739.404	6638.61
739.744	6627.31
740.084	6589.35
740.424	6649.01
740.764	6583.92
741.104	6668.44
741.444	6592.06
741.784	6646.75
742.124	6681.32
742.464	6631.38
742.804	6700.98
743.143	6656.92
743.483	6649.68
743.823	6684.94
744.162	6689.23
744.502	6717.48
744.841	6682.68
745.181	6748.89
745.52	6766.97
745.86	6814.2
746.199	6801.77
746.538	6866.85
746.877	6865.27
747.216	6932.61
747.556	6924.7
747.895	6885.16
748.234	6958.38
748.573	6986.4
748.911	7066.85
749.25	7046.06
749.589	7083.34
749.928	7139.61
750.267	7197.01
750.605	7211.48
750.944	7323.79
751.283	7312.49
751.621	7386.16
751.96	7427.52
752.298	7486.27
752.636	7558.59
752.975	7574.18
753.313	7616.44
753.651	7709.09
753.989	7738.02
754.327	7797.68
754.666	7884.68
755.004	8013.26
755.342	8128.06
755.679	8115.41
756.017	8195.63
756.355	8327.83
756.693	8366.7
757.031	8552.68
757.368	8563.31
757.706	8667.71
758.044	8770.53
758.381	8855.05
758.719	8940.47
759.056	9104.08
759.394	9188.15
759.731	9106.79
760.068	9352.21
760.405	9337.3
760.743	9470.85
761.08	9658.87
761.417	9665.42
761.754	9834.68
762.091	9876.94
762.428	10015.02
762.765	10041.69
763.102	10201.91
763.438	10282.81
763.775	10400.09
764.112	10488.23
764.449	10604.38
764.785	10681.22
765.122	10707.43
765.458	10754.89
765.795	10920.53
766.131	11069.23
766.467	11083.01
766.804	11204.14
767.14	11243.46
767.476	11290.47
767.812	11371.37
768.148	11478.71
768.485	11564.58
