Data from hue_130_FLMS001491_00085.txt Node
Date: Tue Feb 07 16:58:12 GMT 2017
User: dcchb
Spectrometer: FLMS00149
Trigger mode: 0
Integration Time (sec): 2.000000E-2
Scans to average: 10
Electric dark correction enabled: true
Nonlinearity correction enabled: false
Boxcar width: 0
XAxis mode: Wavelengths
Number of Pixels in Spectrum: 2048
>>>>>Begin Spectral Data<<<<<
341.393	-32.73
341.776	-32.73
342.16	-32.73
342.543	-79.73
342.927	-62.1
343.31	-59.17
343.693	-74.76
344.077	-67.75
344.46	-51.71
344.843	-44.48
345.226	-43.35
345.61	-31.37
345.993	-28.21
346.376	-7.87
346.759	32.36
347.142	28.29
347.525	28.52
347.908	54.5
348.291	66.26
348.674	88.18
349.057	110.55
349.44	120.72
349.823	105.12
350.206	174.5
350.588	172.69
350.971	197.1
351.354	219.47
351.737	240.49
352.119	260.83
352.502	279.58
352.884	292.24
353.267	268.06
353.65	295.63
354.032	292.92
354.414	277.1
354.797	324.33
355.179	319.58
355.562	334.95
355.944	327.94
356.326	339.02
356.709	345.34
357.091	343.99
357.473	347.6
357.855	337.43
358.238	352.35
358.62	329.3
359.002	339.02
359.384	350.09
359.766	333.82
360.148	343.08
360.53	324.1
360.912	330.88
361.294	337.43
361.676	325.01
362.057	337.43
362.439	331.56
362.821	340.37
363.203	344.21
363.584	297.44
363.966	328.17
364.348	316.42
364.729	322.75
365.111	339.47
365.493	309.86
365.874	323.2
366.256	348.73
366.637	320.71
367.019	330.66
367.4	303.09
367.781	308.73
368.163	311.9
368.544	302.41
368.925	305.8
369.306	308.06
369.688	294.05
370.069	308.73
370.45	291.33
370.831	321.39
371.212	311.45
371.593	308.73
371.974	307.6
372.355	294.27
372.736	303.99
373.117	310.09
373.498	301.05
373.879	309.86
374.26	307.38
374.641	314.38
375.021	296.98
375.402	322.07
375.783	318.23
376.163	325.68
376.544	325.23
376.925	335.63
377.305	338.34
377.686	330.66
378.066	328.4
378.447	339.24
378.827	340.37
379.208	341.05
379.588	341.73
379.968	332.91
380.349	323.88
380.729	325.46
381.109	343.31
381.489	338.79
381.87	339.02
382.25	341.28
382.63	344.89
383.01	356.87
383.39	356.87
383.77	327.04
384.15	349.19
384.53	356.87
384.91	329.07
385.29	352.35
385.67	376.53
386.049	352.12
386.429	356.64
386.809	349.41
387.189	345.12
387.568	353.03
387.948	368.17
388.328	353.25
388.707	369.75
389.087	366.13
389.466	370.65
389.846	362.97
390.225	371.56
390.605	375.85
390.984	358.68
391.363	367.26
391.743	381.28
392.122	383.54
392.501	366.59
392.881	362.07
393.26	357.32
393.639	371.56
394.018	373.59
394.397	367.49
394.776	378.56
395.155	373.37
395.534	367.72
395.913	389.18
396.292	394.83
396.671	376.53
397.05	417.21
397.429	388.51
397.808	385.34
398.186	396.42
398.565	386.92
398.944	413.82
399.323	422.86
399.701	400.26
400.08	382.41
400.458	405.46
400.837	393.93
401.215	394.38
401.594	406.81
401.972	402.74
402.351	407.04
402.729	418.79
403.107	422.4
403.486	391.67
403.864	415.62
404.242	429.64
404.62	402.52
404.999	394.83
405.377	438.9
405.755	436.64
406.133	407.94
406.511	424.44
406.889	429.18
407.267	446.13
407.645	442.74
408.023	451.78
408.401	432.8
408.779	445
409.156	439.8
409.534	434.61
409.912	468.28
410.29	454.49
410.667	474.61
411.045	457.21
411.422	470.31
411.8	470.09
412.178	482.29
412.555	456.98
412.933	477.32
413.31	485.91
413.687	512.35
414.065	489.3
414.442	483.19
414.819	500.82
415.197	503.76
415.574	505.57
415.951	488.39
416.328	505.34
416.705	511.89
417.082	495.85
417.46	500.14
417.837	497.2
418.214	525
418.591	531.33
418.967	543.08
419.344	533.14
419.721	512.57
420.098	525.23
420.475	547.6
420.852	558.45
421.228	543.3
421.605	553.25
421.982	563.87
422.358	539.46
422.735	554.15
423.111	550.31
423.488	577.2
423.864	550.76
424.241	572.46
424.617	593.7
424.994	574.94
425.37	576.07
425.746	578.33
426.123	600.03
426.499	602.74
426.875	602.96
427.251	620.82
427.627	611.1
428.003	622.17
428.379	630.31
428.756	604.77
429.132	613.13
429.507	616.52
429.883	665.11
430.259	634.6
430.635	620.37
431.011	668.95
431.387	652.68
431.763	689.52
432.138	676.41
432.514	651.32
432.89	691.78
433.265	688.61
433.641	682.51
434.016	691.55
434.392	699.01
434.767	708.72
435.143	711.21
435.518	733.13
435.894	736.97
436.269	735.62
436.644	750.31
437.02	739.46
437.395	773.81
437.77	777.2
438.145	758.67
438.52	749.18
438.895	764.54
439.271	791.66
439.646	779.68
440.021	797.76
440.395	814.26
440.77	810.42
441.145	812.22
441.52	816.74
441.895	814.48
442.27	808.83
442.645	809.96
443.019	832.56
443.394	855.39
443.769	830.98
444.143	842.28
444.518	848.83
444.892	864.65
445.267	854.94
445.641	887.48
446.016	878.44
446.39	859.91
446.764	900.13
447.139	884.09
447.513	910.75
447.887	910.98
448.262	903.3
448.636	919.79
449.01	916.18
449.384	924.76
449.758	944.42
450.132	960.47
450.506	935.39
450.88	948.72
451.254	943.75
451.628	987.14
452.002	988.26
452.376	984.2
452.75	1000.47
453.123	981.03
453.497	1016.06
453.871	1014.03
454.244	1022.61
454.618	1028.72
454.992	1048.15
455.365	1043.86
455.739	1094.93
456.112	1093.35
456.486	1095.83
456.859	1105.55
457.232	1085.89
457.606	1119.33
457.979	1133.35
458.352	1167.47
458.725	1181.71
459.099	1159.56
459.472	1200.46
459.845	1204.76
460.218	1197.07
460.591	1258.99
460.964	1235.04
461.337	1256.05
461.71	1281.59
462.083	1289.05
462.456	1302.61
462.829	1343.74
463.201	1328.14
463.574	1352.32
463.947	1379.22
464.32	1371.31
464.692	1390.74
465.065	1409.04
465.438	1440.68
465.81	1473
466.183	1504.86
466.555	1508.03
466.928	1538.08
467.3	1553.45
467.672	1581.92
468.045	1629.83
468.417	1595.48
468.789	1647.68
469.161	1678.64
469.534	1685.2
469.906	1714.35
470.278	1763.84
470.65	1787.57
471.022	1844.74
471.394	1922.03
471.766	1871.63
472.138	1903.04
472.51	1959.09
472.882	2011.29
473.253	2042.02
473.625	2062.59
473.997	2131.96
474.369	2161.79
474.74	2206.09
475.112	2247.67
475.484	2294.9
475.855	2368.57
476.227	2391.84
476.598	2509.81
476.97	2558.85
477.341	2600.65
477.713	2645.17
478.084	2715.23
478.455	2814.66
478.827	2872.06
479.198	2969.68
479.569	3044.03
479.94	3141.2
480.311	3161.09
480.682	3262.78
481.053	3381.65
481.424	3492.15
481.795	3523.11
482.166	3660.96
482.537	3724.69
482.908	3795.87
483.279	3925.36
483.65	4010.56
484.021	4162.87
484.391	4231.34
484.762	4327.84
485.133	4433.82
485.503	4510.66
485.874	4716.53
486.244	4799.92
486.615	4903.19
486.985	5050.76
487.356	5211.2
487.726	5329.85
488.097	5427.92
488.467	5494.36
488.837	5674.47
489.207	5795.14
489.578	5982.48
489.948	6133.67
490.318	6232.19
490.688	6374.34
491.058	6489.59
491.428	6659.3
491.798	6757.6
492.168	6987.88
492.538	7111.27
492.908	7246.41
493.278	7330.7
493.648	7458.38
494.017	7579.05
494.387	7736.79
494.757	7895.65
495.126	7993.73
495.496	8082.09
495.866	8222.65
496.235	8349.88
496.605	8532.47
496.974	8646.37
497.344	8768.85
497.713	8872.58
498.082	8947.15
498.452	9117.99
498.821	9207.94
499.19	9279.12
499.559	9425.78
499.928	9505.33
500.298	9666
500.667	9770.18
501.036	9757.3
501.405	9911.42
501.774	9937.86
502.143	10154.35
502.512	10188.48
502.88	10313.67
503.249	10414.91
503.618	10473.44
503.987	10581.23
504.356	10656.49
504.724	10753.43
505.093	10753.43
505.462	10813.32
505.83	10916.59
506.199	11055.34
506.567	11228
506.936	11132.41
507.304	11350.93
507.672	11416.24
508.041	11389.12
508.409	11487.2
508.777	11666.18
509.145	11750.92
509.514	11691.94
509.882	11825.27
510.25	11877.47
510.618	11913.85
510.986	11900.97
511.354	12115.66
511.722	12197.46
512.09	12294.86
512.458	12296.89
512.826	12357.01
513.193	12405.59
513.561	12406.04
513.929	12463.9
514.297	12594.51
514.664	12560.39
515.032	12656.66
515.4	12738.69
515.767	12793.15
516.135	12782.98
516.502	12722.65
516.869	12957.89
517.237	12880.38
517.604	12969.19
517.972	13009.87
518.339	13000.38
518.706	13095.29
519.073	13103.65
519.44	13155.4
519.808	13279.02
520.175	13186.36
520.542	13261.16
520.909	13312.69
521.276	13285.12
521.643	13404.66
522.009	13443.53
522.376	13479.91
522.743	13567.37
523.11	13570.53
523.477	13673.81
523.843	13750.19
524.21	13812.33
524.577	13875.61
524.943	13818.21
525.31	13884.65
525.676	13940.69
526.043	13949.05
526.409	13992.22
526.776	14083.29
527.142	14030.18
527.508	13985.21
527.874	14077.19
528.241	14097.75
528.607	14061.59
528.973	14154.92
529.339	14090.75
529.705	14144.53
530.071	14287.35
530.437	14234.7
530.803	14331.87
531.169	14171.42
531.535	14213.91
531.901	14163.06
532.267	14247.8
532.632	14217.75
532.998	14165.77
533.364	14235.15
533.73	14227.01
534.095	14212.32
534.461	14273.57
534.826	14296.84
535.192	14269.72
535.557	14271.98
535.923	14155.38
536.288	14169.84
536.653	14190.86
537.019	14093.23
537.384	14160.8
537.749	14140.46
538.114	14127.58
538.479	14066.79
538.845	14095.26
539.21	13970.97
539.575	13965.32
539.94	14000.8
540.305	14001.03
540.67	13930.3
541.034	13853.69
541.399	13805.78
541.764	13917.64
542.129	13869.06
542.494	13870.41
542.858	13714.71
543.223	13721.26
543.587	13763.97
543.952	13658.89
544.316	13745.67
544.681	13618.89
545.045	13701.6
545.41	13639.46
545.774	13642.85
546.138	13617.76
546.503	13615.96
546.867	13552.68
547.231	13603.07
547.595	13475.17
547.959	13506.13
548.324	13311.1
548.688	13317.88
549.052	13395.62
549.416	13346.13
549.779	13305.91
550.143	13190.2
550.507	13252.58
550.871	13223.2
551.235	13181.16
551.599	13241.05
551.962	13171.45
552.326	13073.6
552.689	13178.9
553.053	13017.78
553.417	13061.39
553.78	13170.32
554.143	13123.54
554.507	13073.6
554.87	13072.02
555.234	13099.58
555.597	12973.03
555.96	13010.77
556.323	13032.47
556.686	12952.02
557.05	12961.74
557.413	12940.04
557.776	12964.45
558.139	12941.4
558.502	12957.89
558.865	12922.64
559.228	12922.64
559.59	13015.97
559.953	12958.12
560.316	13083.99
560.679	13019.59
561.041	13049.19
561.404	13106.14
561.767	13018.46
562.129	13000.38
562.492	13124.67
562.854	13099.58
563.217	12996.31
563.579	12996.99
563.941	13109.08
564.304	13068.85
564.666	13150.66
565.028	13058.46
565.39	13090.55
565.753	13133.03
566.115	13065.46
566.477	13180.03
566.839	13164.22
567.201	13188.17
567.563	13178.68
567.925	13271.33
568.287	13266.13
568.648	13267.04
569.01	13294.83
569.372	13392.23
569.734	13267.26
570.095	13370.09
570.457	13371.89
570.819	13304.78
571.18	13361.95
571.542	13457.99
571.903	13355.62
572.265	13342.74
572.626	13405.79
572.987	13397.66
573.349	13427.03
573.71	13453.7
574.071	13418.22
574.432	13458.67
574.794	13526.92
575.155	13476.07
575.516	13408.5
575.877	13553.58
576.238	13495.51
576.599	13463.87
576.96	13460.48
577.32	13534.15
577.681	13597.2
578.042	13560.59
578.403	13532.79
578.763	13563.08
579.124	13571.21
579.485	13603.53
579.845	13575.96
580.206	13556.52
580.566	13581.83
580.927	13588.39
581.287	13577.31
581.648	13553.13
582.008	13614.83
582.368	13579.35
582.728	13545.45
583.089	13447.37
583.449	13592
583.809	13538.22
584.169	13548.61
584.529	13495.96
584.889	13585.22
585.249	13430.88
585.609	13458.22
585.969	13467.48
586.329	13521.95
586.688	13504.55
587.048	13421.38
587.408	13421.84
587.768	13457.99
588.127	13412.35
588.487	13422.06
588.846	13476.52
589.206	13336.19
589.565	13326.47
589.925	13484.21
590.284	13378.9
590.643	13374.61
591.003	13332.8
591.362	13391.78
591.721	13346.13
592.08	13340.26
592.44	13372.57
592.799	13404.44
593.158	13401.5
593.517	13383.42
593.876	13345.91
594.235	13268.17
594.593	13237.43
594.952	13338.45
595.311	13242.86
595.67	13298.68
596.029	13378.67
596.387	13357.21
596.746	13376.87
597.104	13190.88
597.463	13252.35
597.822	13383.19
598.18	13222.97
598.538	13243.76
598.897	13302.29
599.255	13286.25
599.613	13347.04
599.972	13272.24
600.33	13274.5
600.688	13192.46
601.046	13343.19
601.404	13295.06
601.762	13334.16
602.12	13406.24
602.478	13329.41
602.836	13332.8
603.194	13170.77
603.552	13323.31
603.91	13236.76
604.268	13252.12
604.625	13234.04
604.983	13264.55
605.341	13146.36
605.698	13259.35
606.056	13394.49
606.413	13238.56
606.771	13345.23
607.128	13296.42
607.485	13291.22
607.843	13262.74
608.2	13316.3
608.557	13372.8
608.914	13262.97
609.272	13381.16
609.629	13399.24
609.986	13441.27
610.343	13471.78
610.7	13473.59
611.057	13452.8
611.414	13396.98
611.771	13430.88
612.127	13474.04
612.484	13492.79
612.841	13450.76
613.198	13413.93
613.554	13506.13
613.911	13557.88
614.267	13521.04
614.624	13448.28
614.98	13483.53
615.337	13598.55
615.693	13573.24
616.05	13517.88
616.406	13545.22
616.762	13590.42
617.118	13571.89
617.475	13518.56
617.831	13581.83
618.187	13622.51
618.543	13620.25
618.899	13669.51
619.255	13725.11
619.611	13671.77
619.967	13720.36
620.323	13686.01
620.678	13679.23
621.034	13609.18
621.39	13647.82
621.746	13641.72
622.101	13826.57
622.457	13599.23
622.812	13794.26
623.168	13742.73
623.523	13772.11
623.879	13695.05
624.234	13611.44
624.589	13703.64
624.945	13709.29
625.3	13641.27
625.655	13647.59
626.01	13701.83
626.365	13642.62
626.72	13681.94
627.075	13723.52
627.43	13625.45
627.785	13637.88
628.14	13633.36
628.495	13627.03
628.85	13677.42
629.205	13587.26
629.559	13637.65
629.914	13574.83
630.269	13653.69
630.623	13609.4
630.978	13601.72
631.332	13613.92
631.687	13583.64
632.041	13511.33
632.396	13529.4
632.75	13552.45
633.104	13578.89
633.459	13549.52
633.813	13481.04
634.167	13483.08
634.521	13432.91
634.875	13457.77
635.229	13422.97
635.583	13370.31
635.937	13345
636.291	13367.6
636.645	13318.34
636.999	13334.83
637.352	13360.37
637.706	13258.9
638.06	13338
638.413	13260.48
638.767	13284.89
639.121	13327.15
639.474	13203.31
639.828	13201.05
640.181	13260.71
640.534	13196.08
640.888	13116.31
641.241	13094.61
641.594	13190.66
641.947	13154.05
642.301	13091.22
642.654	13136.19
643.007	13084.9
643.36	13126.7
643.713	13085.57
644.066	13119.02
644.419	13095.29
644.771	12977.55
645.124	12932.13
645.477	12855.07
645.83	12797.45
646.182	12722.87
646.535	12765.13
646.888	12720.61
647.24	12654.85
647.593	12701.86
647.945	12619.37
648.298	12658.69
648.65	12615.08
649.002	12517.45
649.355	12688.97
649.707	12629.99
650.059	12692.36
650.411	12788.63
650.763	12883.77
651.115	12964.45
651.467	12984.56
651.819	12952.24
652.171	12926.93
652.523	12922.64
652.875	12862.3
653.227	12875.86
653.578	12931.91
653.93	12999.47
654.282	12902.3
654.633	12860.72
654.985	12860.5
655.337	12895.52
655.688	12909.99
656.039	12960.38
656.391	12821.85
656.742	12889.42
657.094	12858.46
657.445	12994.05
657.796	12887.84
658.147	12954.96
658.498	12901.17
658.849	12934.39
659.2	12904.79
659.551	12835.64
659.902	12922.64
660.253	12920.38
660.604	12931.23
660.955	12845.35
661.306	12911.12
661.656	12911.12
662.007	12921.06
662.358	12977.1
662.708	12893.94
663.059	12917.22
663.409	12848.97
663.76	12913.15
664.11	12939.36
664.461	12940.95
664.811	12973.49
665.161	13057.33
665.511	12860.5
665.862	12922.41
666.212	12998.34
666.562	12936.65
666.912	13000.38
667.262	12964.67
667.612	12914.05
667.962	12990.21
668.312	12934.62
668.662	12954.73
669.011	12886.26
669.361	12927.84
669.711	12844.22
670.06	12839.48
670.41	12866.14
670.76	12928.29
671.109	12931
671.459	12918.35
671.808	12853.04
672.157	12911.12
672.507	12831.57
672.856	12702.99
673.205	12820.04
673.554	12867.95
673.904	12740.27
674.253	12869.53
674.602	12832.93
674.951	12665.7
675.3	12569.66
675.649	12794.06
675.998	12658.92
676.346	12816.88
676.695	12821.4
677.044	12663.66
677.393	12722.65
677.741	12740.27
678.09	12685.58
678.438	12703.44
678.787	12666.6
679.135	12759.71
679.484	12620.95
679.832	12719.71
680.181	12561.07
680.529	12526.27
680.877	12533.72
681.225	12570.33
681.573	12576.66
681.922	12463.22
682.27	12476.32
682.618	12515.87
682.966	12409.89
683.314	12476.1
683.661	12352.26
684.009	12342.77
684.357	12299.15
684.705	12225.94
685.053	12316.78
685.4	12313.62
685.748	12188.42
686.095	12166.28
686.443	12136.67
686.79	12155.65
687.138	12183.9
687.485	12101.65
687.832	12075.43
688.18	12066.84
688.527	11980.52
688.874	12071.82
689.221	11878.37
689.568	11952.27
689.915	11930.12
690.262	11945.72
690.609	11819.84
690.956	11792.5
691.303	11803.12
691.65	11740.07
691.997	11701.66
692.344	11619.4
692.69	11620.75
693.037	11616.91
693.383	11462.79
693.73	11549.12
694.077	11474.32
694.423	11414.21
694.769	11390.03
695.116	11312.06
695.462	11307.09
695.808	11399.06
696.155	11336.69
696.501	11209.24
696.847	11200.65
697.193	11053.99
697.539	11200.88
697.885	10995.91
698.231	11005.4
698.577	11022.35
698.923	10918.4
699.269	10896.25
699.614	10872.52
699.96	10844.28
700.306	10790.72
700.651	10703.26
700.997	10729.48
701.342	10704.62
701.688	10639.08
702.033	10656.71
702.379	10611.74
702.724	10546.66
703.069	10552.53
703.415	10484.29
703.76	10471.41
704.105	10455.13
704.45	10463.95
704.795	10347.57
705.14	10360.67
705.485	10309.83
705.83	10232.32
706.175	10230.28
706.52	10197.51
706.865	10165.88
707.209	10148.25
707.554	10133.56
707.899	10117.52
708.243	10044.75
708.588	10072.09
708.932	9934.02
709.277	9898.99
709.621	9970.4
709.966	9948.48
710.31	9855.38
710.654	9789.39
710.998	9793.68
711.342	9794.81
711.687	9746
712.031	9711.43
712.375	9697.41
712.719	9795.49
713.063	9663.97
713.407	9746.68
713.75	9593.69
714.094	9628.04
714.438	9619.22
714.782	9655.61
715.125	9600.02
715.469	9558.66
715.812	9524.31
716.156	9475.05
716.499	9538.32
716.843	9476.18
717.186	9457.42
717.53	9473.69
717.873	9468.95
718.216	9458.1
718.559	9396.63
718.902	9413.13
719.246	9437.99
719.589	9387.82
719.932	9287.26
720.275	9332.9
720.617	9357.54
720.96	9327.25
721.303	9336.07
721.646	9296.3
721.989	9226.92
722.331	9266.24
722.674	9247.26
723.016	9253.13
723.359	9223.98
723.701	9253.36
724.044	9202.96
724.386	9149.86
724.729	9267.6
725.071	9231.89
725.413	9143.76
725.755	9151.67
726.097	9161.16
726.439	9124.55
726.782	9051.78
727.124	9147.15
727.465	9060.37
727.807	9101.95
728.149	9070.09
728.491	9073.93
728.833	9098.11
729.175	9051.33
729.516	9095.4
729.858	9079.35
730.199	9063.08
730.541	9073.7
730.882	9043.65
731.224	9053.14
731.565	9011.78
731.906	9133.36
732.248	9047.26
732.589	9014.04
732.93	9068.96
733.271	9004.33
733.612	9083.42
733.953	9074.38
734.294	9011.78
734.635	8996.42
734.976	9047.04
735.317	9011.78
735.658	8986.25
735.999	8988.28
736.339	8980.37
736.68	9087.94
737.021	9043.19
737.361	8996.64
737.702	9046.13
738.042	8997.77
738.383	9042.52
738.723	8990.54
739.063	9036.19
739.404	9040.93
739.744	9086.36
740.084	9030.31
740.424	9153.47
740.764	9105.79
741.104	9148.95
741.444	9122.51
741.784	9090.65
742.124	9176.98
742.464	9162.97
742.804	9141.04
743.143	9157.99
743.483	9245.45
743.823	9204.09
744.162	9173.59
744.502	9261.04
744.841	9295.62
745.181	9412.45
745.52	9305.33
745.86	9402.96
746.199	9448.83
746.538	9484.54
746.877	9510.07
747.216	9586.23
747.556	9565.89
747.895	9614.7
748.234	9655.83
748.573	9768.15
748.911	9729.28
749.25	9820.58
749.589	9907.58
749.928	9991.42
750.267	10065.09
750.605	10117.29
750.944	10161.36
751.283	10246.33
751.621	10324.97
751.96	10397.74
752.298	10481.8
752.636	10614.68
752.975	10619.42
753.313	10764.28
753.651	10840.21
753.989	10939.19
754.327	11048.34
754.666	11091.28
755.004	11323.13
755.342	11460.76
755.679	11510.7
756.017	11593.18
756.355	11797.47
756.693	11781.2
757.031	12054.64
757.368	12118.14
757.706	12304.8
758.044	12391.58
758.381	12624.8
