Data from hue_340_FLMS001491_6.txt Node
Date: Mon Feb 06 15:42:13 GMT 2017
User: dcchb
Spectrometer: FLMS00149
Trigger mode: 0
Integration Time (sec): 2.000000E-2
Scans to average: 10
Electric dark correction enabled: true
Nonlinearity correction enabled: false
Boxcar width: 0
XAxis mode: Wavelengths
Number of Pixels in Spectrum: 2048
>>>>>Begin Spectral Data<<<<<
341.393	-22.47
341.776	-22.47
342.16	-22.47
342.543	-57.05
342.927	-79.87
343.31	-70.61
343.693	-83.49
344.077	-57.72
344.46	-67.22
344.843	-63.15
345.226	-38.97
345.61	-32.64
345.993	-2.36
346.376	-12.75
346.759	5.1
347.142	53.46
347.525	29.05
347.908	72.22
348.291	68.6
348.674	94.59
349.057	105.89
349.44	114.47
349.823	129.84
350.206	155.83
350.588	199.44
350.971	219.1
351.354	236.28
351.737	219.56
352.119	235.83
352.502	281.7
352.884	249.39
353.267	284.41
353.65	303.62
354.032	310.85
354.414	312.66
354.797	310.63
355.179	323.06
355.562	318.54
355.944	323.51
356.326	349.72
356.709	325.32
357.091	335.03
357.473	346.11
357.855	353.79
358.238	336.84
358.62	346.56
359.002	354.92
359.384	344.75
359.766	345.88
360.148	327.58
360.53	335.03
360.912	321.25
361.294	330.97
361.676	323.06
362.057	323.51
362.439	325.99
362.821	325.32
363.203	314.02
363.584	308.37
363.966	311.53
364.348	307.24
364.729	320.12
365.111	304.75
365.493	320.8
365.874	319.67
366.256	316.5
366.637	298.88
367.019	285.77
367.4	312.21
367.781	289.61
368.163	299.1
368.544	304.53
368.925	304.53
369.306	280.12
369.688	318.54
370.069	310.4
370.45	323.73
370.831	294.36
371.212	311.08
371.593	300.68
371.974	285.77
372.355	336.62
372.736	308.37
373.117	313.79
373.498	330.97
373.879	329.16
374.26	321.02
374.641	312.44
375.021	319.89
375.402	337.29
375.783	311.76
376.163	326.67
376.544	314.47
376.925	319.21
377.305	324.19
377.686	315.15
378.066	309.72
378.447	307.01
378.827	311.76
379.208	312.66
379.588	314.92
379.968	335.49
380.349	317.86
380.729	339.33
381.109	335.03
381.489	340.91
381.87	330.74
382.25	332.32
382.63	343.17
383.01	341.36
383.39	344.75
383.77	337.29
384.15	343.39
384.53	340.01
384.91	327.58
385.29	343.85
385.67	331.19
386.049	334.36
386.429	334.58
386.809	334.13
387.189	344.75
387.568	333.45
387.948	339.78
388.328	335.71
388.707	335.71
389.087	357.18
389.466	366.22
389.846	350.85
390.225	342.72
390.605	375.26
390.984	359.89
391.363	349.72
391.743	344.75
392.122	349.5
392.501	380
392.881	361.02
393.26	385.43
393.639	360.34
394.018	372.32
394.397	349.95
394.776	366.9
395.155	376.39
395.534	386.56
395.913	361.47
396.292	361.02
396.671	390.63
397.05	378.87
397.429	387.69
397.808	381.81
398.186	390.85
398.565	377.97
398.944	372.09
399.323	381.59
399.701	375.03
400.08	385.43
400.458	390.63
400.837	396.05
401.215	413.68
401.594	411.19
401.972	399.44
402.351	403.73
402.729	411.19
403.107	381.36
403.486	386.11
403.864	420.91
404.242	414.13
404.62	390.17
404.999	415.94
405.377	406.67
405.755	411.42
406.133	426.56
406.511	424.3
406.889	420.23
407.267	430.17
407.645	425.65
408.023	449.61
408.401	441.47
408.779	448.02
409.156	458.19
409.534	422.94
409.912	448.7
410.29	438.31
410.667	449.38
411.045	475.59
411.422	441.7
411.8	462.49
412.178	466.78
412.555	459.55
412.933	468.82
413.31	482.37
413.687	497.52
414.065	502.26
414.442	485.31
414.819	497.74
415.197	534.12
415.574	510.4
415.951	517.18
416.328	531.19
416.705	520.79
417.082	515.59
417.46	532.09
417.837	539.77
418.214	536.84
418.591	541.58
418.967	561.24
419.344	552.2
419.721	588.36
420.098	565.08
420.475	576.61
420.852	588.81
421.228	600.34
421.605	585.2
421.982	596.72
422.358	594.46
422.735	604.63
423.111	579.32
423.488	595.14
423.864	604.18
424.241	606.21
424.617	612.31
424.994	611.64
425.37	621.81
425.746	644.63
426.123	655.48
426.499	639.66
426.875	640.11
427.251	643.95
427.627	662.71
428.003	657.96
428.379	673.33
428.756	665.87
429.132	677.62
429.507	696.61
429.883	703.84
430.259	718.53
430.635	708.36
431.011	707
431.387	718.07
431.763	719.43
432.138	725.53
432.514	754.68
432.89	709.71
433.265	757.85
433.641	768.24
434.016	773.67
434.392	791.52
434.767	792.2
435.143	792.42
435.518	808.92
435.894	809.6
436.269	805.3
436.644	814.12
437.02	827.68
437.395	837.85
437.77	845.53
438.145	836.72
438.52	864.06
438.895	863.83
439.271	859.77
439.646	876.04
440.021	873.55
440.395	861.12
440.77	914.91
441.145	883.04
441.52	898.41
441.895	889.14
442.27	877.62
442.645	907.45
443.019	930.27
443.394	930.5
443.769	927.79
444.143	936.37
444.518	945.41
444.892	932.31
445.267	967.79
445.641	940.22
446.016	937.28
446.39	950.61
446.764	958.29
447.139	960.78
447.513	1001.23
447.887	969.82
448.262	972.98
448.636	984.96
449.01	979.99
449.384	981.8
449.758	982.02
450.132	999.87
450.506	1012.98
450.88	1008.91
451.254	1025.18
451.628	1012.08
452.002	1040.55
452.376	1011.85
452.75	1026.54
453.123	1037.39
453.497	1069.7
453.871	1052.53
454.244	1069.48
454.618	1107.44
454.992	1109.7
455.365	1073.09
455.739	1104.73
456.112	1099.08
456.486	1126.43
456.859	1128.23
457.232	1135.69
457.606	1155.58
457.979	1142.92
458.352	1195.58
458.725	1186.08
459.099	1206.2
459.472	1201.9
459.845	1214.11
460.218	1218.17
460.591	1246.42
460.964	1233.54
461.337	1263.82
461.71	1275.57
462.083	1284.84
462.456	1281
462.829	1287.1
463.201	1315.12
463.574	1321.67
463.947	1334.33
464.32	1360.32
464.692	1367.32
465.065	1367.77
465.438	1379.07
465.81	1402.35
466.183	1398.28
466.555	1428.11
466.928	1456.13
467.3	1436.47
467.672	1466.76
468.045	1464.5
468.417	1504.95
468.789	1491.84
469.161	1531.39
469.534	1536.36
469.906	1555.11
470.278	1580.88
470.65	1619.52
471.022	1624.27
471.394	1657.94
471.766	1633.53
472.138	1666.75
472.51	1693.19
472.882	1726.64
473.253	1762.34
473.625	1750.82
473.997	1788.33
474.369	1784.71
474.74	1811.38
475.112	1851.83
475.484	1880.53
475.855	1907.65
476.227	1899.06
476.598	1953.3
476.97	1973.18
477.341	2000.98
477.713	2045.95
478.084	2052.95
478.455	2092.95
478.827	2130.69
479.198	2163.23
479.569	2179.73
479.94	2220.63
480.311	2215.66
480.682	2292.95
481.053	2312.38
481.424	2344.7
481.795	2382.21
482.166	2417.92
482.537	2444.58
482.908	2514.41
483.279	2497.91
483.65	2547.4
484.021	2627.4
484.391	2613.62
484.762	2605.71
485.133	2687.97
485.503	2703.11
485.874	2750.79
486.244	2792.14
486.615	2781.75
486.985	2856.32
487.356	2874.18
487.726	2955.08
488.097	2974.06
488.467	2948.3
488.837	3029.43
489.207	3085.7
489.578	3165.47
489.948	3112.14
490.318	3205.69
490.688	3200.49
491.058	3288.4
491.428	3287.27
491.798	3304.22
492.168	3425.12
492.538	3399.36
492.908	3444.1
493.278	3440.94
493.648	3473.48
494.017	3525.91
494.387	3553.25
494.757	3581.05
495.126	3621.5
495.496	3638.68
495.866	3651.78
496.235	3696.53
496.605	3723.87
496.974	3748.05
497.344	3751.89
497.713	3764.32
498.082	3809.74
498.452	3825.79
498.821	3864.66
499.19	3860.36
499.559	3929.74
499.928	3933.81
500.298	3922.06
500.667	3973.36
501.036	4006.12
501.405	4014.48
501.774	4030.76
502.143	4060.59
502.512	4012.9
502.88	4031.66
503.249	4105.1
503.618	4137.87
503.987	4157.98
504.356	4120.24
504.724	4212.67
505.093	4211.09
505.462	4174.71
505.83	4238.43
506.199	4227.59
506.567	4338.77
506.936	4298.32
507.304	4377.41
507.672	4368.37
508.041	4370.63
508.409	4378.54
508.777	4426.45
509.145	4446.56
509.514	4435.04
509.882	4470.52
510.25	4446.34
510.618	4524.08
510.986	4521.59
511.354	4521.36
511.722	4581.02
512.09	4597.75
512.458	4569.72
512.826	4624.41
513.193	4649.27
513.561	4633
513.929	4670.29
514.297	4719.33
514.664	4761.58
515.032	4729.72
515.4	4762.26
515.767	4742.83
516.135	4805.88
516.502	4723.39
516.869	4821.47
517.237	4834.35
517.604	4787.35
517.972	4845.42
518.339	4865.76
518.706	4837.97
519.073	4879.09
519.44	4859.66
519.808	4980.34
520.175	4919.55
520.542	5045.42
520.909	4994.35
521.276	5013.78
521.643	5040.9
522.009	5052.42
522.376	5098.75
522.743	5076.83
523.11	5131.52
523.477	5185.98
523.843	5192.98
524.21	5204.28
524.577	5268.69
524.943	5251.97
525.31	5243.38
525.676	5312.3
526.043	5303.04
526.409	5395.01
526.776	5454.45
527.142	5397.73
527.508	5411.74
527.874	5477.05
528.241	5509.36
528.607	5571.96
528.973	5535.35
529.339	5573.99
529.705	5624.84
530.071	5613.76
530.437	5656.02
530.803	5706.87
531.169	5746.87
531.535	5712.07
531.901	5683.14
532.267	5773.99
532.632	5816.92
532.998	5802.69
533.364	5856.02
533.73	5893.53
534.095	5956.58
534.461	5932.4
534.826	5942.34
535.192	5973.98
535.557	5995
535.923	6004.94
536.288	6063.24
536.653	6129.91
537.019	6102.57
537.384	6109.35
537.749	6134.66
538.114	6184.15
538.479	6187.76
538.845	6182.79
539.21	6228.44
539.575	6265.27
539.94	6310.24
540.305	6329.45
540.67	6286.97
541.034	6356.8
541.399	6337.81
541.764	6411.94
542.129	6439.05
542.494	6475.89
542.858	6475.44
543.223	6461.65
543.587	6514.98
543.952	6585.04
544.316	6538.94
544.681	6616.22
545.045	6628.2
545.41	6642.66
545.774	6640.63
546.138	6695.32
546.503	6738.26
546.867	6772.6
547.231	6738.48
547.595	6797.46
547.959	6887.63
548.324	6844.01
548.688	6865.48
549.052	6917.46
549.416	6910
549.779	6910
550.143	6968.53
550.507	7001.3
550.871	7047.85
551.235	7021.86
551.599	7008.08
551.962	7090.34
552.326	7118.13
552.689	7122.2
553.053	7174.4
553.417	7152.71
553.78	7218.02
554.143	7207.85
554.507	7262.08
554.87	7246.49
555.234	7319.48
555.597	7285.36
555.96	7327.62
556.323	7370.55
556.686	7312.25
557.05	7424.11
557.413	7451.68
557.776	7422.53
558.139	7497.33
558.502	7510.89
558.865	7506.82
559.228	7534.39
559.59	7582.75
559.953	7575.07
560.316	7679.02
560.679	7591.57
561.041	7701.17
561.404	7737.55
561.767	7752.69
562.129	7752.69
562.492	7800.6
562.854	7831.79
563.217	7749.98
563.579	7889.86
563.941	7927.83
564.304	7912.24
564.666	7904.78
565.028	7973.48
565.39	7974.83
565.753	7985.45
566.115	8066.36
566.477	8042.85
566.839	8113.13
567.201	8121.95
567.563	8179.8
567.925	8238.1
568.287	8189.74
568.648	8214.83
569.01	8236.29
569.372	8318.78
569.734	8358.1
570.095	8414.37
570.457	8421.83
570.819	8464.99
571.18	8468.61
571.542	8562.39
571.903	8500.92
572.265	8618.66
572.626	8714.93
572.987	8637.19
573.349	8748.15
573.71	8787.47
574.071	8849.39
574.432	8890.51
574.794	8923.96
575.155	8973
575.516	9092.77
575.877	9073.56
576.238	9203.95
576.599	9264.74
576.96	9316.49
577.32	9379.99
577.681	9474.68
578.042	9507.67
578.403	9662.25
578.763	9703.6
579.124	9791.06
579.485	9939.75
579.845	10022.24
580.206	10054.55
580.566	10096.81
580.927	10278.5
581.287	10451.15
581.648	10457.93
582.008	10677.59
582.368	10811.14
582.728	10943.12
583.089	11087.52
583.449	11224.01
583.809	11423.1
584.169	11570.44
584.529	11746.03
584.889	11959.36
585.249	12132.01
585.609	12306.92
585.969	12547.59
586.329	12654.94
586.688	12875.04
587.048	13127.47
587.408	13414.46
587.768	13562.26
588.127	13759.31
588.487	13963.83
588.846	14326.08
589.206	14499.41
589.565	14688.55
589.925	14996.34
590.284	15260.06
590.643	15494.63
591.003	15687.85
591.362	16075.86
591.721	16258.68
592.08	16549.52
592.44	16917.65
592.799	17175.49
593.158	17458.88
593.517	17711.3
593.876	18047.34
594.235	18212.53
594.593	18587.66
594.952	18838.05
595.311	19219.28
595.67	19494.08
596.029	19837.8
596.387	20149.88
596.746	20442.53
597.104	20685.91
597.463	20906.02
597.822	21374.03
598.18	21521.37
598.538	21756.62
598.897	22222.82
599.255	22316.38
599.613	22797.49
599.972	23061.89
600.33	23311.83
600.688	23580.75
601.046	23956.56
601.404	24213.73
601.762	24467.73
602.12	24844.45
602.478	25052.58
602.836	25385
603.194	25371.44
603.552	25799
603.91	25914.47
604.268	26371.41
604.625	26502.26
604.983	26858.4
605.341	26937.27
605.698	27412.74
606.056	27686.4
606.413	27796.01
606.771	28031.03
607.128	28479.38
607.485	28444.12
607.843	28650
608.2	29149.87
608.557	29315.97
608.914	29544.44
609.272	29757.31
609.629	29995.5
609.986	30262.16
610.343	30277.3
610.7	30780.56
611.057	30948.01
611.414	31074.34
611.771	31341.45
612.127	31670.03
612.484	31833.87
612.841	32014.88
613.198	32032.28
613.554	32252.16
613.911	32546.16
614.267	32744.12
614.624	32820.51
614.98	33039.94
615.337	33413.94
615.693	33324.22
616.05	33526.25
616.406	33809.86
616.762	33771.89
617.118	33977.09
617.475	34131.43
617.831	34311.09
618.187	34600.57
618.543	34583.62
618.899	34828.36
619.255	34827.01
619.611	34842.15
619.967	35285.75
620.323	35464.73
620.678	35320.78
621.034	35481
621.39	35547.44
621.746	35568.68
622.101	36083.25
622.457	35883.25
622.812	35972.74
623.168	36144.71
623.523	36202.79
623.879	36540.18
624.234	36359.85
624.589	36517.81
624.945	36684.13
625.3	36738.82
625.655	36868.76
626.01	36938.59
626.365	36972.04
626.72	36921.42
627.075	37003.45
627.43	37127.74
627.785	37182.43
628.14	37122.31
628.495	37213.61
628.85	37392.59
629.205	37296.77
629.559	37481.4
629.914	37416.77
630.269	37483.44
630.623	37482.53
630.978	37445.92
631.332	37573.83
631.687	37748.51
632.041	37682.75
632.396	37768.17
632.75	37623.77
633.104	37682.07
633.459	37524.79
633.813	37780.38
634.167	37666.48
634.521	37684.79
634.875	37748.97
635.229	37737.21
635.583	37608.86
635.937	37576.99
636.291	37558.01
636.645	37769.53
636.999	37585.58
637.352	37804.1
637.706	37668.06
638.06	37747.38
638.413	37637.78
638.767	37457
639.121	37721.62
639.474	37472.81
639.828	37543.55
640.181	37694.05
640.534	37648.4
640.888	37524.79
641.241	37371.57
641.594	37526.15
641.947	37709.64
642.301	37625.8
642.654	37602.08
643.007	37472.36
643.36	37537.67
643.713	37533.83
644.066	37649.98
644.419	37485.02
644.771	37289.99
645.124	36867.18
645.477	36803.91
645.83	36774.75
646.182	36541.54
646.535	36515.78
646.888	36659.5
647.24	36370.7
647.593	36469
647.945	36487.76
648.298	36370.92
648.65	36435.1
649.002	36314.43
649.355	36407.08
649.707	36229.23
650.059	36509.22
650.411	36834.86
650.763	36965.48
651.115	37314.85
651.467	37230.33
651.819	37125.48
652.171	37081.86
652.523	37165.03
652.875	37172.03
653.227	36909.89
653.578	37128.19
653.93	37110.79
654.282	37000.96
654.633	37005.26
654.985	37003.45
655.337	37042.54
655.688	37031.92
656.039	37116.67
656.391	36896.78
656.742	36882.1
657.094	36881.87
657.445	37047.06
657.796	36927.52
658.147	36801.65
658.498	36794.64
658.849	36868.08
659.2	36961.87
659.551	36786.5
659.902	36893.85
660.253	36826.05
660.604	36853.4
660.955	36594.65
661.306	36789.89
661.656	36799.84
662.007	36810.23
662.358	36743.12
662.708	36770.46
663.059	36714.64
663.409	36557.36
663.76	36850.91
664.11	36791.25
664.461	36694.08
664.811	36810.23
665.161	36665.6
665.511	36571.14
665.862	36678.71
666.212	36748.77
666.562	36754.19
666.912	36672.84
667.262	36585.83
667.612	36691.59
667.962	36685.94
668.312	36615.21
668.662	36782.44
669.011	36584.93
669.361	36630.8
669.711	36535.21
670.06	36585.15
670.41	36488.66
670.76	36458.6
671.109	36581.76
671.459	36535.66
671.808	36440.07
672.157	36565.72
672.507	36316.91
672.856	36417.25
673.205	36449.79
673.554	36621.99
673.904	36406.4
674.253	36618.83
674.602	36441.65
674.951	36032.4
675.3	35857.49
675.649	36339.06
675.998	36244.6
676.346	36330.92
676.695	36431.03
677.044	36145.39
677.393	36277.59
677.741	36163.92
678.09	36160.76
678.438	36022
678.787	36144.04
679.135	36168.67
679.484	35906.08
679.832	36032.4
680.181	35812.52
680.529	35856.13
680.877	35908.56
681.225	35812.52
681.573	36129.35
681.922	35710.83
682.27	35676.48
682.618	35682.58
682.966	35699.3
683.314	35714.44
683.661	35656.82
684.009	35356.26
684.357	35324.62
684.705	35466.09
685.053	35233.55
685.4	35300.44
685.748	35083.05
686.095	34999.66
686.443	35004.86
686.79	35067.91
687.138	35047.57
687.485	35099.77
687.832	34845.76
688.18	34906.55
688.527	34720.57
688.874	34690.29
689.221	34685.54
689.568	34626.34
689.915	34425.44
690.262	34571.65
690.609	34356.96
690.956	34240.13
691.303	34256.4
691.65	34024.09
691.997	34072.68
692.344	33924.21
692.69	34000.36
693.037	33990.42
693.383	33748.17
693.73	33829.07
694.077	33572.58
694.423	33433.15
694.769	33463.2
695.116	33270.66
695.462	33382.53
695.808	33245.35
696.155	33337.56
696.501	33029.77
696.847	33117
697.193	32868.64
697.539	32972.37
697.885	32749.55
698.231	32652.83
698.577	32635.2
698.923	32486.28
699.269	32402.21
699.614	32258.04
699.96	32260.97
700.306	32300.52
700.651	32012.84
700.997	31908.21
701.342	31950.93
701.688	31940.76
702.033	31802.23
702.379	31669.12
702.724	31567.21
703.069	31763.36
703.415	31262.13
703.76	31311.85
704.105	31314.33
704.45	31301.45
704.795	31093.77
705.14	31003.15
705.485	30960.22
705.83	30860.11
706.175	30861.24
706.52	30791.41
706.865	30756.15
707.209	30606.55
707.554	30534.24
707.899	30710.73
708.243	30389.61
708.588	30466.44
708.932	30279.78
709.277	30231.87
709.621	30301.48
709.966	29987.81
710.31	30045.21
710.654	29870.08
710.998	29944.42
711.342	29937.42
711.687	29971.99
712.031	29634.6
712.375	29606.35
712.719	29620.37
713.063	29578.11
713.407	29737.2
713.75	29367.49
714.094	29574.26
714.438	29343.08
714.782	29407.94
715.125	29151.9
715.469	29325.23
715.812	29119.36
716.156	28949.42
716.499	28975.41
716.843	29150.1
717.186	28914.17
717.53	28916.43
717.873	28945.35
718.216	28776.09
718.559	28724.34
718.902	28551.92
719.246	28632.82
719.589	28579.94
719.932	28447.51
720.275	28409.78
720.617	28364.58
720.96	28280.74
721.303	28362.55
721.646	28430.79
721.989	28135.88
722.331	28188.09
722.674	28130.23
723.016	28154.19
723.359	28111.25
723.701	28167.07
724.044	27888.21
724.386	27830.81
724.729	27922.56
725.071	27864.93
725.413	27803.24
725.755	27717.59
726.097	27624.71
726.439	27471.27
726.782	27513.08
727.124	27627.65
727.465	27456.58
727.807	27434.21
728.149	27412.97
728.491	27496.35
728.833	27478.5
729.175	27276.92
729.516	27257.49
729.858	27302.01
730.199	27247.77
730.541	27117.83
730.882	27144.27
731.224	27257.04
731.565	27046.42
731.906	26926.2
732.248	26939.98
732.589	26815.02
732.93	26785.86
733.271	26759.88
733.612	26795.58
733.953	26863.38
734.294	26731.4
734.635	26617.51
734.976	26604.4
735.317	26514.91
735.658	26468.13
735.999	26502.48
736.339	26516.94
736.68	26540.9
737.021	26477.4
737.361	26269.94
737.702	26493.22
738.042	26361.02
738.383	26294.13
738.723	26376.16
739.063	26222.71
739.404	26332.32
739.744	26253.67
740.084	25994.47
740.424	26062.04
740.764	26035.83
741.104	26121.47
741.444	25876.28
741.784	25868.83
742.124	25810.07
742.464	25824.53
742.804	25836.28
743.143	25860.01
743.483	25786.34
743.823	25566.23
744.162	25549.74
744.502	25545.44
744.841	25465.9
745.181	25585.22
745.52	25492.56
745.86	25545.9
746.199	25408.27
746.538	25403.75
746.877	25457.31
747.216	25396.52
747.556	25445.33
747.895	25288.05
748.234	25174.15
748.573	25122.63
748.911	25100.94
749.25	25050.09
749.589	24977.55
749.928	25026.59
750.267	25152.01
750.605	25032.46
750.944	24922.64
751.283	24827.27
751.621	24913.6
751.96	24774.62
752.298	24753.37
752.636	24708.86
752.975	24629.99
753.313	24681.96
753.651	24694.39
753.989	24449.88
754.327	24540.5
754.666	24254.4
755.004	24312.71
755.342	24308.87
755.679	24316.32
756.017	24094.41
756.355	24230.9
756.693	24098.7
757.031	24120.17
757.368	23973.51
757.706	23953.62
758.044	23869.1
758.381	23898.26
758.719	23804.47
759.056	23721.54
759.394	23724.02
759.731	23648.54
760.068	23485.61
760.405	23509.11
