Data from hue_50_FLMS001491_70.txt Node
Date: Mon Feb 06 15:10:46 GMT 2017
User: dcchb
Spectrometer: FLMS00149
Trigger mode: 0
Integration Time (sec): 2.000000E-2
Scans to average: 10
Electric dark correction enabled: true
Nonlinearity correction enabled: false
Boxcar width: 0
XAxis mode: Wavelengths
Number of Pixels in Spectrum: 2048
>>>>>Begin Spectral Data<<<<<
341.393	-11.36
341.776	-11.36
342.16	-11.36
342.543	-43.9
342.927	-59.72
343.31	-62.65
343.693	-63.78
344.077	-67.4
344.46	-60.85
344.843	-59.04
345.226	-41.19
345.61	-18.81
345.993	-34.18
346.376	5.59
346.759	17.57
347.142	6.5
347.525	31.36
347.908	41.98
348.291	75.87
348.674	104.8
349.057	124.23
349.44	126.27
349.823	139.37
350.206	145.02
350.588	192.25
350.971	201.75
351.354	223.21
351.737	253.5
352.119	250.11
352.502	255.98
352.884	278.13
353.267	267.96
353.65	305.7
354.032	301.18
354.414	298.47
354.797	321.29
355.179	323.55
355.562	327.39
355.944	338.24
356.326	366.71
356.709	329.43
357.091	335.75
357.473	330.1
357.855	352.93
358.238	322.65
358.62	348.63
359.002	345.47
359.384	350.89
359.766	340.05
360.148	328.52
360.53	345.02
360.912	347.05
361.294	348.41
361.676	343.44
362.057	320.61
362.439	322.42
362.821	327.62
363.203	311.8
363.584	341.63
363.966	330.1
364.348	330.78
364.729	337.56
365.111	317.22
365.493	333.49
365.874	296.21
366.256	326.49
366.637	324.68
367.019	319.26
367.4	316.32
367.781	309.09
368.163	296.21
368.544	309.09
368.925	308.41
369.306	328.52
369.688	299.37
370.069	315.87
370.45	311.8
370.831	306.38
371.212	307.96
371.593	328.07
371.974	323.1
372.355	322.19
372.736	288.52
373.117	312.03
373.498	316.32
373.879	313.38
374.26	328.52
374.641	335.75
375.021	307.73
375.402	326.04
375.783	294.63
376.163	341.63
376.544	326.49
376.925	331.91
377.305	334.85
377.686	320.39
378.066	323.1
378.447	331.23
378.827	340.05
379.208	329.43
379.588	351.12
379.968	335.08
380.349	323.78
380.729	333.49
381.109	326.26
381.489	348.86
381.87	338.69
382.25	333.27
382.63	354.28
383.01	317.45
383.39	337.56
383.77	336.66
384.15	362.19
384.53	345.02
384.91	351.8
385.29	341.63
385.67	324.23
386.049	345.7
386.429	355.19
386.809	341.86
387.189	332.59
387.568	322.87
387.948	361.29
388.328	342.76
388.707	358.35
389.087	334.17
389.466	353.83
389.846	349.76
390.225	364.68
390.605	328.52
390.984	373.04
391.363	349.09
391.743	373.27
392.122	368.52
392.501	362.19
392.881	362.87
393.26	362.87
393.639	387.73
394.018	367.17
394.397	364.23
394.776	362.19
395.155	368.07
395.534	374.85
395.913	392.25
396.292	385.7
396.671	366.04
397.05	390.44
397.429	374.4
397.808	391.35
398.186	359.48
398.565	382.31
398.944	382.98
399.323	389.54
399.701	373.72
400.08	394.74
400.458	379.82
400.837	415.53
401.215	404.23
401.594	391.8
401.972	389.54
402.351	371.01
402.729	386.15
403.107	368.3
403.486	395.64
403.864	373.27
404.242	407.62
404.62	390.22
404.999	414.4
405.377	390.22
405.755	389.76
406.133	428.63
406.511	409.88
406.889	411.23
407.267	433.83
407.645	407.62
408.023	420.05
408.401	420.5
408.779	424.79
409.156	426.6
409.534	413.72
409.912	427.95
410.29	432.93
410.667	422.98
411.045	435.64
411.422	428.63
411.8	460.95
412.178	420.72
412.555	427.73
412.933	444.9
413.31	442.64
413.687	445.13
414.065	453.04
414.442	436.99
414.819	447.39
415.197	472.7
415.574	479.48
415.951	450.33
416.328	466.82
416.705	464.56
417.082	492.81
417.46	479.03
417.837	479.25
418.214	486.03
418.591	483.77
418.967	491.68
419.344	494.62
419.721	484.9
420.098	509.99
420.475	499.14
420.852	507.27
421.228	491.23
421.605	491.23
421.982	493.04
422.358	495.98
422.735	515.64
423.111	518.57
423.488	507.95
423.864	507.73
424.241	524.22
424.617	512.25
424.994	540.27
425.37	531.23
425.746	538.46
426.123	532.81
426.499	526.71
426.875	526.03
427.251	549.08
427.627	551.57
428.003	538.69
428.379	557.67
428.756	534.39
429.132	553.15
429.507	567.61
429.883	546.37
430.259	564.9
430.635	568.06
431.011	568.74
431.387	578.91
431.763	582.08
432.138	608.29
432.514	603.77
432.89	615.97
433.265	606.71
433.641	585.24
434.016	621.62
434.392	625.01
434.767	618.91
435.143	613.26
435.518	621.17
435.894	631.57
436.269	638.34
436.644	651.45
437.02	646.48
437.395	628.4
437.77	646.48
438.145	658.46
438.52	669.08
438.895	649.19
439.271	663.88
439.646	686.71
440.021	669.98
440.395	677.44
440.77	681.28
441.145	683.09
441.52	708.63
441.895	694.84
442.27	700.04
442.645	704.11
443.019	693.71
443.394	699.59
443.769	699.13
444.143	685.35
444.518	726.25
444.892	702.98
445.267	733.26
445.641	734.16
446.016	727.38
446.39	744.33
446.764	749.53
447.139	751.79
447.513	755.4
447.887	746.36
448.262	769.41
448.636	750.88
449.01	755.4
449.384	753.6
449.758	781.62
450.132	767.15
450.506	785.46
450.88	803.76
451.254	812.13
451.628	806.02
452.002	798.79
452.376	800.83
452.75	800.15
453.123	826.14
453.497	829.98
453.871	835.18
454.244	851.22
454.618	835.63
454.992	847.15
455.365	895.97
455.739	868.17
456.112	901.84
456.486	905.46
456.859	885.12
457.232	907.26
457.606	896.87
457.979	959.69
458.352	949.3
458.725	957.21
459.099	945.68
459.472	960.82
459.845	949.98
460.218	992.69
460.591	992.23
460.964	996.3
461.337	1019.13
461.71	1006.47
462.083	1035.4
462.456	1040.82
462.829	1056.64
463.201	1071.1
463.574	1044.66
463.947	1122.4
464.32	1090.76
464.692	1126.47
465.065	1123.98
465.438	1146.81
465.81	1161.72
466.183	1173.92
466.555	1188.84
466.928	1190.87
467.3	1214.15
467.672	1230.65
468.045	1243.98
468.417	1275.16
468.789	1309.74
469.161	1312.9
469.534	1340.02
469.906	1364.43
470.278	1406.01
470.65	1386.8
471.022	1449.62
471.394	1491.2
471.766	1477.87
472.138	1548.83
472.51	1571.43
472.882	1606.91
473.253	1609.84
473.625	1651.2
473.997	1681.48
474.369	1714.25
474.74	1754.25
475.112	1819.1
475.484	1852.78
475.855	1881.48
476.227	1938.88
476.598	2023.62
476.97	2047.12
477.341	2102.49
477.713	2150.4
478.084	2191.75
478.455	2273.1
478.827	2306.78
479.198	2414.34
479.569	2461.8
479.94	2512.87
480.311	2594.23
480.682	2668.8
481.053	2757.39
481.424	2845.74
481.795	2926.87
482.166	2997.6
482.537	3120.99
482.908	3186.07
483.279	3265.85
483.65	3369.35
484.021	3507.2
484.391	3576.57
484.762	3648.44
485.133	3773.4
485.503	3884.81
485.874	3999.84
486.244	4121.64
486.615	4231.7
486.985	4360.73
487.356	4481.18
487.726	4625.81
488.097	4770.67
488.467	4835.3
488.837	5022.86
489.207	5158.45
489.578	5302.85
489.948	5409.29
490.318	5539.68
490.688	5606.8
491.058	5810.86
491.428	5944.19
491.798	6098.31
492.168	6276.39
492.538	6368.59
492.908	6562.03
493.278	6678.41
493.648	6793.21
494.017	6966.09
494.387	7102.58
494.757	7197.49
495.126	7388.22
495.496	7513.87
495.866	7613.08
496.235	7798.83
496.605	7973.07
496.974	8058.04
497.344	8241.31
497.713	8340.52
498.082	8490.79
498.452	8661.86
498.821	8857.11
499.19	8910.44
499.559	9038.12
499.928	9160.83
500.298	9331.9
500.667	9455.29
501.036	9579.58
501.405	9704.1
501.774	9829.29
502.143	9995.84
502.512	10094.59
502.88	10278.09
503.249	10320.8
503.618	10432.89
503.987	10606.67
504.356	10742.71
504.724	10783.61
505.093	10882.82
505.462	11031.29
505.83	11207.56
506.199	11359.19
506.567	11492.97
506.936	11586.76
507.304	11770.03
507.672	11805.73
508.041	11949.23
508.409	12035.79
508.777	12260.64
509.145	12274.87
509.514	12358.04
509.882	12471.93
510.25	12571.59
510.618	12723.9
510.986	12772.72
511.354	12968.42
511.722	13175.19
512.09	13243.66
512.458	13280.95
512.826	13468.74
513.193	13609.76
513.561	13666.93
513.929	13772.46
514.297	13870.54
514.664	13993.25
515.032	14040.48
515.4	14270.98
515.767	14360.92
516.135	14482.05
516.502	14349.17
516.869	14683.4
517.237	14855.6
517.604	14802.04
517.972	15010.62
518.339	15093.33
518.706	15162.03
519.073	15228.47
519.44	15346.21
519.808	15528.57
520.175	15569.03
520.542	15746.87
520.909	15757.27
521.276	15790.49
521.643	16114.55
522.009	16135.34
522.376	16304.37
522.743	16384.37
523.11	16548.89
523.477	16679.05
523.843	16844.7
524.21	17034.3
524.577	17126.05
524.943	17236.55
525.31	17242.88
525.676	17545.47
526.043	17568.07
526.409	17670.67
526.776	17905.01
527.142	17976.19
527.508	18129.18
527.874	18265
528.241	18341.16
528.607	18413.02
528.973	18605.33
529.339	18596.74
529.705	18776.4
530.071	18971.65
530.437	19015.26
530.803	19108.37
531.169	19234.47
531.535	19186.56
531.901	19280.34
532.267	19418.87
532.632	19571.18
532.998	19548.58
533.364	19751.29
533.73	19744.74
534.095	19966.88
534.461	20034.22
534.826	20048.68
535.192	20156.02
535.557	20353.76
535.923	20277.83
536.288	20457.71
536.653	20627.88
537.019	20512.17
537.384	20704.94
537.749	20779.74
538.114	20784.48
538.479	20835.33
538.845	20966.17
539.21	21005.49
539.575	21050.92
539.94	21212.04
540.305	21313.06
540.67	21181.08
541.034	21386.95
541.399	21500.85
541.764	21649.32
542.129	21690.67
542.494	21777.68
542.858	21837.56
543.223	21864.68
543.587	21969.76
543.952	21951.23
544.316	22020.61
544.681	22115.07
545.045	22230.77
545.41	22259.02
545.774	22325.46
546.138	22385.34
546.503	22515.06
546.867	22561.16
547.231	22772
547.595	22690.65
547.959	22802.28
548.324	22909.62
548.688	22990.3
549.052	23092.44
549.416	23030.3
549.779	23163.4
550.143	23218.99
550.507	23427.58
550.871	23474.13
551.235	23430.51
551.599	23700.79
551.962	23674.35
552.326	23712.09
552.689	23919.77
553.053	23893.1
553.417	23892.2
553.78	24262.81
554.143	24037.96
554.507	24259.19
554.87	24267.78
555.234	24463.03
555.597	24471.62
555.96	24452.63
556.323	24648.79
556.686	24683.81
557.05	24829.35
557.413	24884.49
557.776	24902.11
558.139	25138.49
558.502	25182.78
558.865	25343.46
559.228	25544.36
559.59	25588.42
559.953	25509.56
560.316	25836.33
560.679	25836.55
561.041	25989.09
561.404	26115.87
561.767	26188.41
562.129	26001.52
562.492	26412.58
562.854	26451.45
563.217	26608.96
563.579	26658.9
563.941	26748.39
564.304	26897.54
564.666	27106.58
565.028	27100.7
565.39	27143.18
565.753	27412.33
566.115	27398.32
566.477	27481.93
566.839	27562.16
567.201	27733.68
567.563	27786.78
567.925	28127.11
568.287	27986.78
568.648	28141.8
569.01	28247.56
569.372	28315.58
569.734	28466.99
570.095	28669.02
570.457	28601.68
570.819	28834.21
571.18	28774.55
571.542	28975.68
571.903	28951.27
572.265	29245.73
572.626	29172.06
572.987	29422.9
573.349	29501.54
573.71	29567.53
574.071	29607.3
574.432	29741.08
574.794	29963.9
575.155	29957.8
575.516	29917.35
575.877	30166.61
576.238	30217.68
576.599	30389.2
576.96	30474.17
577.32	30549.65
577.681	30674.84
578.042	30779.7
578.403	30817.44
578.763	30881.39
579.124	31069.41
579.485	31223.53
579.845	31266.69
580.206	31365.45
580.566	31379.46
580.927	31545.78
581.287	31690.64
581.648	31729.05
582.008	32036.39
582.368	32068.93
582.728	32186.44
583.089	32199.32
583.449	32346.44
583.809	32465.53
584.169	32609.03
584.529	32665.07
584.889	33021
585.249	32905.29
585.609	32885.63
585.969	33163.14
586.329	33237.04
586.688	33460.08
587.048	33486.75
587.408	33490.14
587.768	33566.97
588.127	33846.51
588.487	33825.27
588.846	34107.97
589.206	34081.76
589.565	34248.08
589.925	34430.22
590.284	34459.38
590.643	34611.69
591.003	34789.99
591.362	34970.55
591.721	35094.16
592.08	35153.37
592.44	35343.87
592.799	35546.35
593.158	35575.51
593.517	35694.6
593.876	35784.31
594.235	35770.53
594.593	35942.28
594.952	36044.42
595.311	36104.08
595.67	36284.19
596.029	36405.99
596.387	36493
596.746	36745.87
597.104	36653.44
597.463	36796.72
597.822	36943.38
598.18	36922.36
598.538	36981.57
598.897	37236.7
599.255	37144.05
599.613	37589.46
599.972	37604.15
600.33	37747.43
600.688	37586.3
601.046	37891.6
601.404	37935.44
601.762	38018.38
602.12	38250.69
602.478	38225.61
602.836	38295.89
603.194	38190.35
603.552	38301.76
603.91	38414.07
604.268	38605.93
604.625	38562.09
604.983	38743.33
605.341	38843.44
605.698	38916.66
606.056	39028.75
606.413	39134.96
606.771	39344.67
607.128	39434.39
607.485	39361.85
607.843	39421.05
608.2	39628.51
608.557	39746.92
608.914	39643.42
609.272	39927.71
609.629	39905.11
609.986	40155.72
610.343	39960.7
610.7	40236.85
611.057	40312.56
611.414	40219
611.771	40424.19
612.127	40608.59
612.484	40574.92
612.841	40762.71
613.198	40703.51
613.554	40835.93
613.911	41079.09
614.267	41006.55
614.624	41048.58
614.98	41259.88
615.337	41395.69
615.693	41357.27
616.05	41324.51
616.406	41702.12
616.762	41484.73
617.118	41458.06
617.475	41623.48
617.831	41674.33
618.187	41730.15
618.543	41913.64
618.899	41884.27
619.255	42005.62
619.611	41962.23
619.967	42235.44
620.323	42286.29
620.678	42146.86
621.034	41971.95
621.39	42082
621.746	42226.86
622.101	42648.31
622.457	42359.96
622.812	42455.1
623.168	42540.97
623.523	42526.06
623.879	42644.02
624.234	42537.81
624.589	42644.92
624.945	42742.77
625.3	42738.03
625.655	42674.53
626.01	42810.34
626.365	42955.88
626.72	42845.37
627.075	42626.17
627.43	42779.38
627.785	42802.66
628.14	42882.66
628.495	42844.92
628.85	42709.1
629.205	42733.96
629.559	42966.27
629.914	42897.35
630.269	42744.81
630.623	42790
630.978	42694.87
631.332	42911.81
631.687	42949.55
632.041	42814.41
632.396	42939.15
632.75	42843.11
633.104	42790
633.459	42643.34
633.813	42717.01
634.167	42726.28
634.521	42588.88
634.875	42796.11
635.229	42699.39
635.583	42486.51
635.937	42439.96
636.291	42509.33
636.645	42575.77
636.999	42457.81
637.352	42467.98
637.706	42434.99
638.06	42581.65
638.413	42361.54
638.767	42493.52
639.121	42502.78
639.474	42096.24
639.828	42120.87
640.181	42288.55
640.534	42303.92
640.888	42258.95
641.241	41999.29
641.594	42061.89
641.947	42280.19
642.301	42054.88
642.654	42139.63
643.007	42101.89
643.36	42042.68
643.713	41844.49
644.066	42110.93
644.419	41979.4
644.771	41628.23
645.124	41247.67
645.477	41154.57
645.83	41006.1
646.182	40798.87
646.535	40695.37
646.888	40722.49
647.24	40574.02
647.593	40890.62
647.945	40683.39
648.298	40588.25
648.65	40416.96
649.002	40447.47
649.355	40584.19
649.707	40530.18
650.059	40640.91
650.411	41085.19
650.763	41237.73
651.115	41463.49
651.467	41416.93
651.819	41374.9
652.171	41463.94
652.523	41187.11
652.875	41335.58
653.227	41071.18
653.578	41455.12
653.93	41237.96
654.282	41081.12
654.633	41028.02
654.985	41160.44
655.337	41029.15
655.688	41151.4
656.039	41074.57
656.391	40837.06
656.742	40938.75
657.094	40847.01
657.445	41012.2
657.796	40927.91
658.147	40873.9
658.498	40758.19
658.849	40955.48
659.2	40934.69
659.551	40911.86
659.902	40942.82
660.253	40888.81
660.604	40785.54
660.955	40900.34
661.306	40884.97
661.656	40859.66
662.007	40812.66
662.358	40834.35
662.708	40790.74
663.059	40773.79
663.409	40604.3
663.76	40817.63
664.11	40851.98
664.461	40767.69
664.811	40694.47
665.161	40647.46
665.511	40628.25
665.862	40645.65
666.212	40833.45
666.562	40861.47
666.912	40673.68
667.262	40768.82
667.612	40691.53
667.962	40767.23
668.312	40602.27
668.662	40859.66
669.011	40711.19
669.361	40595.71
669.711	40616.05
670.06	40517.52
670.41	40458.09
670.76	40429.84
671.109	40679.33
671.459	40474.81
671.808	40421.25
672.157	40482.04
672.507	40159.79
672.856	40094.71
673.205	40244.31
673.554	40599.33
673.904	40259.68
674.253	40417.19
674.602	40321.37
674.951	39710.76
675.3	39581.05
675.649	40173.58
675.998	40185.1
676.346	40263.52
676.695	40338.54
677.044	40072.56
677.393	40085.44
677.741	40149.85
678.09	40056.74
678.438	39979.68
678.787	40055.61
679.135	39948.05
679.484	39795.73
679.832	39952.79
680.181	39720.71
680.529	39751.67
680.877	39746.02
681.225	39707.83
681.573	39891.55
681.922	39551.45
682.27	39478.45
682.618	39418.12
682.966	39431
683.314	39435.52
683.661	39445.23
684.009	39273.71
684.357	39130.89
684.705	39046.83
685.053	39066.26
685.4	39020.84
685.748	38973.61
686.095	38776.1
686.443	38801.18
686.79	38727.51
687.138	38715.99
687.485	38779.04
687.832	38597.12
688.18	38497.91
688.527	38375.43
688.874	38337.01
689.221	38464.47
689.568	38200.97
689.915	38183.35
690.262	38096.57
690.609	38120.07
690.956	37967.08
691.303	37929.12
691.65	37805.28
691.997	37632.17
692.344	37598.95
692.69	37393.08
693.037	37488.68
693.383	37220.89
693.73	37297.27
694.077	37094.79
694.423	37092.3
694.769	36974.56
695.116	36810.5
695.462	36880.33
695.808	36671.97
696.155	36761.69
696.501	36504.75
696.847	36568.25
697.193	36108.15
697.539	36346.78
697.885	36007.81
698.231	36010.07
698.577	35892.33
698.923	35985.89
699.269	35923.97
699.614	35752.9
699.96	35583.64
700.306	35667.03
700.651	35472.01
700.997	35326.47
701.342	35368.28
701.688	35245.57
702.033	35238.34
702.379	35067.27
702.724	35045.12
703.069	35144.56
703.415	34686.04
703.76	34808.29
704.105	34779.82
704.45	34623.21
704.795	34508.19
705.14	34440.17
705.485	34288.53
705.83	34233.85
706.175	34232.26
706.52	34096.22
706.865	33959.28
707.209	34122.89
707.554	33827.53
707.899	33864.82
708.243	33680.87
708.588	33610.13
708.932	33521.1
709.277	33479.97
709.621	33461.89
709.966	33175.79
710.31	33271.39
710.654	32979.87
710.998	33145.74
711.342	33056.93
711.687	33084.5
712.031	32855.35
712.375	32726.54
712.719	32830.27
713.063	32596.6
713.407	32849.02
713.75	32553.89
714.094	32620.1
714.438	32414.46
714.782	32510.95
715.125	32240
715.469	32378.98
715.812	32118.65
716.156	32175.14
716.499	32207.46
716.843	32113.9
717.186	31957.3
717.53	32083.85
717.873	32045.2
718.216	31807.47
718.559	31836.39
718.902	31528.61
719.246	31623.52
719.589	31614.48
719.932	31393.69
720.275	31534.48
720.617	31421.94
720.96	31375.62
721.303	31332.45
721.646	31355.28
721.989	31203.64
722.331	31258.1
722.674	31191.21
723.016	31137.2
723.359	31003.65
723.701	31097.88
724.044	30968.17
724.386	30777.89
724.729	30802.52
725.071	30753.03
725.413	30680.94
725.755	30654.5
726.097	30627.39
726.439	30444.57
726.782	30422.42
727.124	30609.08
727.465	30317.34
727.807	30387.62
728.149	30270.11
728.491	30180.17
728.833	30312.59
729.175	30045.71
729.516	30099.49
729.858	29910.12
730.199	30021.98
730.541	30004.35
730.882	30022.43
731.224	29892.49
731.565	29781.08
731.906	29821.98
732.248	29668.32
732.589	29648.66
732.93	29542.67
733.271	29497.02
733.612	29595.78
733.953	29598.49
734.294	29483.01
734.635	29389
734.976	29363.69
735.317	29222.45
735.658	29348.1
735.999	29365.05
736.339	29177.71
736.68	29361.43
737.021	29230.36
737.361	28945.62
737.702	29170.25
738.042	29086.18
738.383	28943.82
738.723	28977.26
739.063	28939.07
739.404	28909.92
739.744	28823.82
740.084	28656.59
740.424	28769.58
740.764	28774.1
741.104	28773.2
741.444	28570.49
741.784	28584.73
742.124	28606.65
742.464	28375.69
742.804	28413.21
743.143	28336.83
743.483	28496.6
743.823	28313.55
744.162	28208.02
744.502	28279.65
744.841	28192.2
745.181	28288.69
745.52	28056.83
745.86	28154.01
746.199	28113.33
746.538	27986.55
746.877	28022.94
747.216	28036.27
747.556	28039.21
747.895	27925.99
748.234	27847.12
748.573	27763.51
748.911	27858.19
749.25	27745.43
749.589	27644.87
749.928	27668.59
750.267	27778.65
750.605	27515.83
750.944	27464.98
751.283	27427.47
751.621	27485.1
751.96	27240.58
752.298	27314.03
752.636	27206.01
752.975	27167.82
753.313	27060.47
753.651	27109.06
753.989	27029.29
754.327	26878.56
754.666	26836.3
755.004	26871.1
755.342	26987.71
755.679	26789.3
756.017	26691.9
756.355	26821.61
756.693	26603.76
757.031	26671.33
