Data from hue_24_FLMS001491_00021.txt Node
Date: Tue Feb 07 17:12:01 GMT 2017
User: dcchb
Spectrometer: FLMS00149
Trigger mode: 0
Integration Time (sec): 2.000000E-2
Scans to average: 10
Electric dark correction enabled: true
Nonlinearity correction enabled: false
Boxcar width: 0
XAxis mode: Wavelengths
Number of Pixels in Spectrum: 2048
>>>>>Begin Spectral Data<<<<<
341.393	-5.96
341.776	-5.96
342.16	-5.96
342.543	-57.48
342.927	-49.12
343.31	-87.77
343.693	-74.43
344.077	-54.77
344.46	-63.36
344.843	-30.82
345.226	-53.19
345.61	-17.03
345.993	-30.82
346.376	-7.09
346.759	15.73
347.142	34.26
347.525	39.69
347.908	48.95
348.291	76.3
348.674	93.92
349.057	110.42
349.44	122.4
349.823	156.97
350.206	143.87
350.588	210.31
350.971	208.72
351.354	223.41
351.737	236.75
352.119	222.06
352.502	260.47
352.884	281.49
353.267	294.37
353.65	293.47
354.032	302.51
354.414	319.45
354.797	325.33
355.179	338.21
355.562	331.21
355.944	340.47
356.326	332.34
356.709	344.31
357.091	337.53
357.473	364.65
357.855	347.93
358.238	362.62
358.62	344.76
359.002	360.36
359.384	358.55
359.766	352
360.148	338.66
360.53	356.29
360.912	344.76
361.294	342.96
361.676	330.75
362.057	336.18
362.439	360.81
362.821	343.64
363.203	315.16
363.584	321.71
363.966	322.62
364.348	341.83
364.729	337.08
365.111	316.29
365.493	333.69
365.874	316.07
366.256	342.51
366.637	325.56
367.019	325.78
367.4	335.95
367.781	342.51
368.163	308.61
368.544	334.37
368.925	320.81
369.306	333.47
369.688	309.74
370.069	307.93
370.45	326.23
370.831	331.43
371.212	318.32
371.593	306.57
371.974	321.94
372.355	318.32
372.736	321.26
373.117	300.47
373.498	319.45
373.879	325.78
374.26	338.21
374.641	319.91
375.021	323.52
375.402	335.95
375.783	308.83
376.163	327.36
376.544	329.85
376.925	328.72
377.305	336.18
377.686	337.53
378.066	336.4
378.447	342.73
378.827	332.56
379.208	335.73
379.588	346.12
379.968	335.95
380.349	328.49
380.729	351.09
381.109	348.61
381.489	335.05
381.87	345.89
382.25	361.94
382.63	345.89
383.01	355.61
383.39	344.76
383.77	345.67
384.15	349.96
384.53	362.17
384.91	349.51
385.29	349.28
385.67	352.22
386.049	350.64
386.429	373.69
386.809	339.57
387.189	348.38
387.568	346.8
387.948	363.07
388.328	354.03
388.707	348.83
389.087	357.87
389.466	348.38
389.846	355.84
390.225	383.86
390.605	384.76
390.984	370.98
391.363	373.92
391.743	387.7
392.122	393.35
392.501	379.34
392.881	382.05
393.26	389.74
393.639	400.13
394.018	405.33
394.397	375.27
394.776	384.54
395.155	395.84
395.534	407.59
395.913	378.89
396.292	384.54
396.671	410.07
397.05	396.06
397.429	396.97
397.808	395.61
398.186	419.57
398.565	393.35
398.944	400.13
399.323	401.03
399.701	411.2
400.08	401.49
400.458	412.79
400.837	390.41
401.215	429.06
401.594	414.37
401.972	403.52
402.351	405.1
402.729	433.35
403.107	430.41
403.486	431.54
403.864	416.4
404.242	440.36
404.62	410.3
404.999	425.89
405.377	441.49
405.755	438.1
406.133	413.01
406.511	423.41
406.889	437.42
407.267	446.46
407.645	436.06
408.023	455.72
408.401	432.45
408.779	432.9
409.156	443.75
409.534	446.01
409.912	467.93
410.29	484.87
410.667	480.81
411.045	460.47
411.422	477.42
411.8	476.51
412.178	481.48
412.555	479.9
412.933	481.26
413.31	489.85
413.687	484.2
414.065	487.81
414.442	478.77
414.819	508.83
415.197	500.47
415.574	491.65
415.951	499.79
416.328	521.26
416.705	497.98
417.082	504.31
417.46	519.45
417.837	505.21
418.214	504.99
418.591	497.98
418.967	534.59
419.344	519
419.721	533.91
420.098	518.55
420.475	554.7
420.852	548.83
421.228	574.14
421.605	540.24
421.982	551.09
422.358	574.59
422.735	542.95
423.111	543.4
423.488	556.74
423.864	571.88
424.241	584.76
424.617	569.84
424.994	571.2
425.37	578.43
425.746	584.31
426.123	590.63
426.499	580.01
426.875	590.41
427.251	590.18
427.627	601.93
428.003	600.35
428.379	614.81
428.756	615.04
429.132	614.14
429.507	624.98
429.883	644.42
430.259	643.51
430.635	641.25
431.011	625.89
431.387	657.07
431.763	670.86
432.138	662.95
432.514	655.04
432.89	678.32
433.265	675.83
433.641	669.28
434.016	693.23
434.392	696.39
434.767	707.92
435.143	708.37
435.518	733.46
435.894	730.07
436.269	728.48
436.644	728.71
437.02	742.49
437.395	738.2
437.77	742.72
438.145	760.57
438.52	758.77
438.895	774.13
439.271	755.15
439.646	762.83
440.021	760.35
440.395	781.82
440.77	788.82
441.145	771.65
441.52	805.54
441.895	815.94
442.27	786.79
442.645	810.52
443.019	803.28
443.394	803.74
443.769	823.4
444.143	812.55
444.518	820.01
444.892	806.9
445.267	839.44
445.641	833.11
446.016	826.56
446.39	859.1
446.764	848.93
447.139	865.2
447.513	877.18
447.887	874.47
448.262	862.49
448.636	854.13
449.01	882.38
449.384	907.46
449.758	883.28
450.132	878.08
450.506	910.4
450.88	923.73
451.254	896.16
451.628	912.21
452.002	943.85
452.376	938.87
452.75	936.84
453.123	953.79
453.497	962.83
453.871	987.46
454.244	973.67
454.618	1015.71
454.992	988.82
455.365	982.71
455.739	1007.8
456.112	997.63
456.486	1024.07
456.859	1029.49
457.232	1060.9
457.606	1048.25
457.979	1066.78
458.352	1070.4
458.725	1091.19
459.099	1113.33
459.472	1112.2
459.845	1124.86
460.218	1140.45
460.591	1154.01
460.964	1143.16
461.337	1155.14
461.71	1196.72
462.083	1194.91
462.456	1190.39
462.829	1217.06
463.201	1278.98
463.574	1221.58
463.947	1248.47
464.32	1256.61
464.692	1301.35
465.065	1279.43
465.438	1289.37
465.81	1308.13
466.183	1328.92
466.555	1339.99
466.928	1364.4
467.3	1394.68
467.672	1372.31
468.045	1438.75
468.417	1419.99
468.789	1436.94
469.161	1455.02
469.534	1465.41
469.906	1492.08
470.278	1526.88
470.65	1561.91
471.022	1554.68
471.394	1564.17
471.766	1625.64
472.138	1588.8
472.51	1664.73
472.882	1677.39
473.253	1718.97
473.625	1704.5
473.997	1753.99
474.369	1770.49
474.74	1797.83
475.112	1821.11
475.484	1885.29
475.855	1891.16
476.227	1926.42
476.598	1970.48
476.97	2030.14
477.341	2065.4
477.713	2073.31
478.084	2088.45
478.455	2162.57
478.827	2178.16
479.198	2226.52
479.569	2247.77
479.94	2304.04
480.311	2333.19
480.682	2384.26
481.053	2421.77
481.424	2494.31
481.795	2515.1
482.166	2562.33
482.537	2577.93
482.908	2646.85
483.279	2653.63
483.65	2747.87
484.021	2786.06
484.391	2840.07
484.762	2847.07
485.133	2923.45
485.503	2994.41
485.874	2994.86
486.244	3064.69
486.615	3134.75
486.985	3155.99
487.356	3235.31
487.726	3264.69
488.097	3336.1
488.467	3356.66
488.837	3453.84
489.207	3497
489.578	3519.14
489.948	3563.44
490.318	3633.27
490.688	3672.59
491.058	3754.62
491.428	3781.96
491.798	3828.97
492.168	3908.51
492.538	3924.56
492.908	3995.06
493.278	4021.96
493.648	4040.26
494.017	4141.73
494.387	4180.82
494.757	4210.65
495.126	4242.74
495.496	4269.86
495.866	4357.09
496.235	4339.91
496.605	4367.48
496.974	4482.28
497.344	4494.71
497.713	4528.84
498.082	4539.68
498.452	4588.5
498.821	4656.29
499.19	4648.38
499.559	4697.19
499.928	4736.51
500.298	4774.25
500.667	4812.22
501.036	4805.89
501.405	4861.26
501.774	4882.05
502.143	4922.5
502.512	4933.34
502.88	5029.84
503.249	4973.57
503.618	5027.58
503.987	5051.08
504.356	5108.93
504.724	5114.81
505.093	5167.24
505.462	5138.54
505.83	5177.63
506.199	5216.5
506.567	5321.13
506.936	5322.26
507.304	5327.46
507.672	5354.12
508.041	5421.47
508.409	5425.54
508.777	5456.27
509.145	5487
509.514	5509.6
509.882	5490.17
510.25	5520.22
510.618	5580.11
510.986	5592.99
511.354	5635.93
511.722	5690.84
512.09	5695.58
512.458	5730.61
512.826	5771.06
513.193	5751.18
513.561	5831.4
513.929	5825.3
514.297	5859.65
514.664	5898.97
515.032	5917.5
515.4	5957.95
515.767	5971.74
516.135	6020.77
516.502	5946.43
516.869	6060.77
517.237	6048.12
517.604	6105.97
517.972	6131.73
518.339	6156.36
518.706	6141.67
519.073	6155.01
519.44	6198.62
519.808	6277.26
520.175	6253.76
520.542	6286.08
520.909	6376.47
521.276	6373.98
521.643	6472.51
522.009	6416.92
522.376	6445.4
522.743	6509.8
523.11	6603.58
523.477	6615.56
523.843	6684.03
524.21	6686.97
524.577	6789.12
524.943	6722.9
525.31	6776.01
525.676	6840.87
526.043	6836.35
526.409	6855.1
526.776	6979.17
527.142	6972.61
527.508	7037.7
527.874	7100.75
528.241	7155.66
528.607	7131.71
528.973	7259.16
529.339	7172.61
529.705	7237.92
530.071	7373.96
530.437	7340.74
530.803	7389.33
531.169	7418.03
531.535	7360.85
531.901	7473.84
532.267	7475.65
532.632	7526.05
532.998	7539.15
533.364	7583.9
533.73	7633.84
534.095	7661.18
534.461	7684.23
534.826	7736.66
535.192	7814.17
535.557	7856.88
535.923	7844.68
536.288	7850.56
536.653	7884
537.019	7949.76
537.384	7941.18
537.749	8015.52
538.114	7982.53
538.479	7982.98
538.845	8075.64
539.21	8027.5
539.575	8131
539.94	8133.49
540.305	8160.83
540.67	8149.08
541.034	8232.69
541.399	8258
541.764	8306.82
542.129	8374.84
542.494	8362.18
542.858	8397.21
543.223	8439.24
543.587	8472.46
543.952	8519.47
544.316	8534.61
544.681	8563.76
545.045	8599.69
545.41	8634.49
545.774	8659.12
546.138	8692.34
546.503	8700.03
546.867	8714.26
547.231	8836.07
547.595	8822.06
547.959	8819.12
548.324	8862.96
548.688	8842.17
549.052	8944.09
549.416	8937.99
549.779	9036.51
550.143	8999.23
550.507	9066.57
550.871	9103.4
551.235	9074.7
551.599	9137.3
551.962	9225.21
552.326	9171.2
552.689	9204.19
553.053	9213.01
553.417	9258.88
553.78	9355.6
554.143	9257.52
554.507	9416.62
554.87	9407.13
555.234	9431.08
555.597	9400.35
555.96	9488.03
556.323	9524.41
556.686	9618.42
557.05	9600.34
557.413	9624.07
557.776	9681.92
558.139	9689.15
558.502	9696.61
558.865	9728.02
559.228	9879.43
559.59	9802.37
559.953	9882.82
560.316	9965.08
560.679	9945.42
561.041	9955.36
561.404	9993.78
561.767	10084.62
562.129	10053.66
562.492	10197.16
562.854	10178.18
563.217	10180.44
563.579	10265.41
563.941	10301.11
564.304	10270.15
564.666	10356.48
565.028	10289.14
565.39	10357.83
565.753	10497.04
566.115	10525.97
566.477	10527.77
566.839	10560.09
567.201	10700.65
567.563	10643.25
567.925	10770.03
568.287	10700.88
568.648	10808.44
569.01	10741.55
569.372	10885.73
569.734	10824.94
570.095	10924.6
570.457	10998.04
570.819	11072.62
571.18	11037.59
571.542	11160.75
571.903	11093.41
572.265	11164.59
572.626	11260.41
572.987	11319.17
573.349	11372.72
573.71	11434.19
574.071	11456.34
574.432	11543.11
574.794	11637.8
575.155	11631.47
575.516	11748.53
575.877	11791.92
576.238	11763
576.599	11914.86
576.96	12016.32
577.32	12077.34
577.681	12166.6
578.042	12254.51
578.403	12250.21
578.763	12418.57
579.124	12474.62
579.485	12578.12
579.845	12723.65
580.206	12805.91
580.566	12858.11
580.927	13044.32
581.287	13247.7
581.648	13289.28
582.008	13470.97
582.368	13597.75
582.728	13728.14
583.089	13830.74
583.449	14014.69
583.809	14196.6
584.169	14414.9
584.529	14522.47
584.889	14858.96
585.249	14867.55
585.609	15072.51
585.969	15332.85
586.329	15431.15
586.688	15698.26
587.048	15854.41
587.408	16077.46
587.768	16305.48
588.127	16502.08
588.487	16829.53
588.846	17117.43
589.206	17241.27
589.565	17438.55
589.925	17876.06
590.284	18051.19
590.643	18262.03
591.003	18559.43
591.362	18925.75
591.721	19132.29
592.08	19391.72
592.44	19761.88
592.799	20116.22
593.158	20301.08
593.517	20602.31
593.876	20990.78
594.235	21160.94
594.593	21446.36
594.952	21770.64
595.311	21992.56
595.67	22407.24
596.029	22847.22
596.387	23071.4
596.746	23429.13
597.104	23637.49
597.463	23839.51
597.822	24388.2
598.18	24684.92
598.538	24847.62
598.897	25432.01
599.255	25402.64
599.613	26100.25
599.972	26237.19
600.33	26632.89
600.688	26868.81
601.046	27219.54
601.404	27490.04
601.762	27770.94
602.12	28307.65
602.478	28282.34
602.836	28722.55
603.194	28777.46
603.552	29272.82
603.91	29454.51
604.268	29807.95
604.625	29915.51
604.983	30308.95
605.341	30366.35
605.698	30782.83
606.056	31057.4
606.413	31301.47
606.771	31787.33
607.128	32050.15
607.485	32063.93
607.843	32451.27
608.2	32725.38
608.557	32998.6
608.914	33233.62
609.272	33531.46
609.629	33848.97
609.986	34087.83
610.343	34094.39
610.7	34594.03
611.057	34757.19
611.414	35085.77
611.771	35130.06
612.127	35538.42
612.484	35619.32
612.841	35879.88
613.198	36016.37
613.554	36118.74
613.911	36531.38
614.267	36695
614.624	36884.14
614.98	37036.91
615.337	37443.9
615.693	37329.1
616.05	37460.63
616.406	37868.75
616.762	37891.35
617.118	38003.21
617.475	38255.86
617.831	38397.55
618.187	38506.7
618.543	38689.75
618.899	39025.33
619.255	39202.27
619.611	39178.09
619.967	39553.45
620.323	39533.57
620.678	39545.09
621.034	39589.61
621.39	39637.29
621.746	39812.88
622.101	40425.74
622.457	40065.08
622.812	40377.84
623.168	40499.64
623.523	40586.19
623.879	40803.59
624.234	40681.78
624.589	40909.57
624.945	41071.6
625.3	41160.19
625.655	41023.92
626.01	41108.44
626.365	41324.93
626.72	41308.66
627.075	41367.42
627.43	41340.98
627.785	41411.93
628.14	41574.42
628.495	41761.98
628.85	41756.56
629.205	41623.91
629.559	41870.23
629.914	41738.03
630.269	41985.48
630.623	41835.2
630.978	41902.32
631.332	42151.58
631.687	42132.59
632.041	41995.2
632.396	42066.38
632.75	42067.51
633.104	42130.11
633.459	42059.37
633.813	42170.78
634.167	42085.36
634.521	42269.99
634.875	42115.87
635.229	42264.79
635.583	42026.61
635.937	42111.35
636.291	42145.93
636.645	42124.68
636.999	42014.4
637.352	42253.04
637.706	42009.21
638.06	42191.8
638.413	42070.45
638.767	42155.42
639.121	42262.98
639.474	41848.76
639.828	41968.3
640.181	42023.44
640.534	41975.31
640.888	41947.96
641.241	41902.77
641.594	42028.87
641.947	42003.78
642.301	42070.22
642.654	42004.91
643.007	41945.93
643.36	42080.39
643.713	41930.56
644.066	42025.02
644.419	41854.18
644.771	41686.73
645.124	41353.4
645.477	41266.85
645.83	41040.87
646.182	40876.13
646.535	40769.24
646.888	40908.9
647.24	40640.88
647.593	40940.31
647.945	40808.79
648.298	40728.34
648.65	40564.72
649.002	40653.31
649.355	40874.55
649.707	40762.91
650.059	40983.92
650.411	41329.45
650.763	41371.48
651.115	41796.1
651.467	41641.98
651.819	41507.98
652.171	41604.92
652.523	41416.91
652.875	41517.92
653.227	41378.94
653.578	41523.34
653.93	41612.83
654.282	41353.4
654.633	41239.51
654.985	41374.42
655.337	41340.52
655.688	41501.42
656.039	41553.85
656.391	41256.68
656.742	41200.64
657.094	41444.48
657.445	41464.36
657.796	41302.11
658.147	41229.79
658.498	41189.57
658.849	41429.33
659.2	41285.38
659.551	41155.9
659.902	41452.38
660.253	41166.29
660.604	41296.46
660.955	41110.25
661.306	41314.76
661.656	41167.65
662.007	41167.42
662.358	41209.23
662.708	41243.35
663.059	41214.42
663.409	40946.86
663.76	41277.93
664.11	41214.88
664.461	41307.53
664.811	41160.41
665.161	41214.42
665.511	41132.17
665.862	41161.77
666.212	41270.69
666.562	41248.77
666.912	41127.87
667.262	41171.94
667.612	41206.06
667.962	41128.55
668.312	41034.32
668.662	41263.92
669.011	41103.69
669.361	41093.98
669.711	40972.17
670.06	41015.56
670.41	41012.85
670.76	40939.4
671.109	41010.59
671.459	41013.3
671.808	40859.86
672.157	41013.53
672.507	40769.01
672.856	40740.99
673.205	40776.7
673.554	40995.9
673.904	40766.53
674.253	40919.52
674.602	40804.27
674.951	40335.35
675.3	40142.81
675.649	40744.83
675.998	40812.63
676.346	40717.49
676.695	40811.95
677.044	40493.77
677.393	40620.09
677.741	40856.24
678.09	40522.92
678.438	40619.64
678.787	40548
679.135	40477.5
679.484	40280.44
679.832	40537.38
680.181	40410.83
680.529	40510.49
680.877	40270.04
681.225	40335.13
681.573	40514.78
681.922	40212.64
682.27	40151.18
682.618	40117.73
682.966	39997.73
683.314	40131.06
683.661	39973.1
684.009	39760.45
684.357	39660.57
684.705	39581.47
685.053	39711.64
685.4	39582.15
685.748	39444.08
686.095	39364.76
686.443	39348.49
686.79	39256.96
687.138	39407.01
687.485	39336.51
687.832	39148.94
688.18	39215.16
688.527	39077.08
688.874	39085.67
689.221	38907.59
689.568	38815.62
689.915	38783.08
690.262	38781.95
690.609	38651.33
690.956	38595.28
691.303	38546.7
691.65	38408.85
691.997	38238.91
692.344	38166.37
692.69	38055.86
693.037	38056.99
693.383	37810.45
693.73	37775.87
694.077	37646.38
694.423	37724.57
694.769	37598.25
695.116	37483.45
695.462	37434.86
695.808	37384.02
696.155	37404.58
696.501	37082.33
696.847	37096.57
697.193	36823.13
697.539	37102.44
697.885	36730.25
698.231	36637.82
698.577	36725.5
698.923	36677.14
699.269	36494.1
699.614	36372.07
699.96	36312.41
700.306	36188.79
700.651	36044.39
700.997	36047.1
701.342	35958.52
701.688	35938.18
702.033	35855.24
702.379	35734.12
702.724	35458.64
703.069	35749.48
703.415	35390.62
703.76	35469.49
704.105	35474.69
704.45	35278.08
704.795	35031.99
705.14	35135.49
705.485	34957.87
705.83	34926.45
706.175	34816.63
706.52	34765.33
706.865	34641.26
707.209	34477.65
707.554	34430.65
707.899	34492.34
708.243	34364.21
708.588	34259.81
708.932	34114.05
709.277	34048.74
709.621	34078.34
709.966	33997.89
710.31	33959.25
710.654	33555.64
710.998	33756.77
711.342	33733.72
711.687	33719.25
712.031	33497.34
712.375	33439.94
712.719	33481.75
713.063	33380.51
713.407	33434.29
713.75	33238.59
714.094	33267.29
714.438	33081.53
714.782	33067.52
715.125	32891.48
715.469	33120.63
715.812	32827.07
716.156	32709.56
716.499	32755.21
716.843	32685.61
717.186	32530.81
717.53	32703.69
717.873	32632.73
718.216	32519.96
718.559	32334.21
718.902	32134.66
719.246	32288.33
719.589	32308.67
719.932	32080.88
720.275	32138.51
720.617	32064.83
720.96	32015.57
721.303	31988.68
721.646	31937.38
721.989	31699.65
722.331	31794.11
722.674	31696.03
723.016	31763.83
723.359	31595.47
723.701	31908.91
724.044	31555.02
724.386	31313.89
724.729	31473.66
725.071	31467.11
725.413	31399.77
725.755	31388.92
726.097	31120.23
726.439	31050.4
726.782	31047.91
727.124	31177.17
727.465	31054.92
727.807	30961.14
728.149	30903.74
728.491	30750.97
728.833	30799.78
729.175	30776.06
729.516	30791.87
729.858	30746.45
730.199	30687.92
730.541	30564.99
730.882	30584.65
731.224	30691.54
731.565	30464.2
731.906	30491.77
732.248	30466.01
732.589	30285.45
732.93	30303.3
733.271	30280.02
733.612	30259.23
733.953	30143.76
734.294	30068.05
734.635	29996.87
734.976	30098.11
735.317	29948.51
735.658	29976.08
735.999	29896.3
736.339	29888.39
736.68	29933.37
737.021	29840.71
737.361	29840.03
737.702	29926.81
738.042	29821.96
738.383	29640.27
738.723	29762.3
739.063	29584.22
739.404	29653.6
739.744	29569.31
740.084	29484.56
740.424	29509.2
740.764	29442.53
741.104	29471.68
741.444	29443.21
741.784	29275.53
742.124	29371.12
742.464	29231.69
742.804	29177.23
743.143	29203.22
743.483	29125.7
743.823	29073.05
744.162	28900.62
744.502	29124.12
744.841	28866.5
745.181	29026.27
745.52	28901.53
745.86	28946.95
746.199	28899.95
746.538	28761.19
746.877	28736.56
747.216	28788.31
747.556	28629.44
747.895	28704.02
748.234	28550.8
748.573	28556.23
748.911	28503.12
749.25	28645.26
749.589	28487.98
749.928	28536.11
750.267	28407.98
750.605	28408.43
750.944	28299.51
751.283	28191.04
751.621	28345.61
751.96	28185.61
752.298	28031.72
752.636	28286.18
752.975	27935.23
753.313	27929.58
753.651	28016.13
753.989	27921.67
754.327	27825.4
754.666	27727.1
755.004	27755.34
755.342	27706.76
755.679	27677.15
756.017	27488.46
756.355	27594.44
756.693	27467.67
757.031	27512.86
757.368	27329.82
757.706	27295.47
758.044	27220.89
758.381	27280.78
758.719	27163.49
759.056	27222.25
759.394	27096.6
