Data from hue_290_FLMS001491_00067.txt Node
Date: Tue Feb 07 15:53:05 GMT 2017
User: dcchb
Spectrometer: FLMS00149
Trigger mode: 0
Integration Time (sec): 2.000000E-2
Scans to average: 10
Electric dark correction enabled: true
Nonlinearity correction enabled: false
Boxcar width: 0
XAxis mode: Wavelengths
Number of Pixels in Spectrum: 2048
>>>>>Begin Spectral Data<<<<<
341.393	-17.53
341.776	-17.53
342.16	-17.53
342.543	-65.21
342.927	-55.04
343.31	-66.34
343.693	-63.85
344.077	-50.52
344.46	-54.59
344.843	-54.59
345.226	-34.25
345.61	-22.5
345.993	-7.36
346.376	4.84
346.759	-3.06
347.142	22.02
347.525	40.32
347.908	42.81
348.291	79.19
348.674	83.26
349.057	84.62
349.44	129.81
349.823	143.82
350.206	159.87
350.588	196.7
350.971	191.73
351.354	238.96
351.737	231.05
352.119	251.17
352.502	265.18
352.884	258.4
353.267	275.35
353.65	293.65
354.032	289.58
354.414	312.86
354.797	321.9
355.179	321.22
355.562	334.33
355.944	320.99
356.326	338.17
356.709	342.24
357.091	334.78
357.473	331.39
357.855	317.15
358.238	343.37
358.62	339.52
359.002	339.3
359.384	339.3
359.766	325.29
360.148	343.37
360.53	345.85
360.912	351.05
361.294	335.46
361.676	321.45
362.057	332.07
362.439	335.68
362.821	346.08
363.203	335.46
363.584	333.42
363.966	317.38
364.348	330.26
364.729	323.71
365.111	317.38
365.493	318.73
365.874	329.81
366.256	332.75
366.637	312.18
367.019	313.54
367.4	322.12
367.781	316.7
368.163	331.84
368.544	297.72
368.925	301.56
369.306	313.54
369.688	314.21
370.069	325.29
370.45	317.15
370.831	330.03
371.212	321.9
371.593	316.02
371.974	311.28
372.355	318.28
372.736	316.93
373.117	317.38
373.498	322.58
373.879	307.44
374.26	304.72
374.641	323.03
375.021	335.01
375.402	338.85
375.783	353.99
376.163	323.48
376.544	336.81
376.925	331.62
377.305	323.71
377.686	325.97
378.066	331.84
378.447	330.94
378.827	336.59
379.208	323.93
379.588	341.78
379.968	344.95
380.349	351.73
380.729	347.89
381.109	328.9
381.489	346.3
381.87	349.92
382.25	351.5
382.63	340.2
383.01	353.31
383.39	334.78
383.77	356.25
384.15	344.5
384.53	363.93
384.91	354.44
385.29	368.45
385.67	384.27
386.049	358.73
386.429	354.44
386.809	362.35
387.189	369.81
387.568	366.64
387.948	359.19
388.328	378.39
388.707	389.69
389.087	372.52
389.466	375.68
389.846	370.94
390.225	390.15
390.605	371.84
390.984	377.49
391.363	366.19
391.743	395.34
392.122	396.92
392.501	405.51
392.881	404.61
393.26	387.66
393.639	394.89
394.018	392.18
394.397	418.17
394.776	399.86
395.155	405.96
395.534	404.16
395.913	406.64
396.292	422.01
396.671	428.79
397.05	409.81
397.429	400.09
397.808	433.31
398.186	444.38
398.565	427.88
398.944	435.79
399.323	428.56
399.701	436.47
400.08	441.9
400.458	434.66
400.837	436.02
401.215	446.19
401.594	448.45
401.972	453.42
402.351	462.46
402.729	445.28
403.107	459.52
403.486	460.2
403.864	450.48
404.242	454.55
404.62	469.24
404.999	468.34
405.377	477.15
405.755	498.16
406.133	484.38
406.511	499.97
406.889	496.36
407.267	504.49
407.645	505.17
408.023	533.19
408.401	517.15
408.779	540.65
409.156	530.03
409.534	555.11
409.912	522.12
410.29	556.02
410.667	570.25
411.045	568.9
411.422	560.54
411.8	572.51
412.178	601.66
412.555	569.35
412.933	599.18
413.31	618.84
413.687	625.39
414.065	641.21
414.442	613.42
414.819	632.4
415.197	643.47
415.574	669.01
415.951	659.06
416.328	665.39
416.705	680.98
417.082	717.37
417.46	697.26
417.837	725.28
418.214	721.21
418.591	692.06
418.967	728.67
419.344	759.85
419.721	748.78
420.098	775.45
420.475	766.18
420.852	781.1
421.228	787.2
421.605	786.29
421.982	794.88
422.358	812.51
422.735	811.6
423.111	837.59
423.488	847.31
423.864	866.74
424.241	864.93
424.617	856.12
424.994	888.66
425.37	882.56
425.746	884.6
426.123	923.24
426.499	929.79
426.875	937.93
427.251	951.94
427.627	955.55
428.003	966.85
428.379	965.05
428.756	991.03
429.132	1008.89
429.507	1015.89
429.883	987.19
430.259	1076.68
430.635	1052.5
431.011	1061.09
431.387	1078.49
431.763	1054.31
432.138	1109
432.514	1127.75
432.89	1144.93
433.265	1151.71
433.641	1165.49
434.016	1174.08
434.392	1191.03
434.767	1215.43
435.143	1241.42
435.518	1214.98
435.894	1275.77
436.269	1282.1
436.644	1299.73
437.02	1294.08
437.395	1303.34
437.77	1342.44
438.145	1324.36
438.52	1354.41
438.895	1388.31
439.271	1368.65
439.646	1427.63
440.021	1405.94
440.395	1405.94
440.77	1417.24
441.145	1401.64
441.52	1432.38
441.895	1448.2
442.27	1454.98
442.645	1482.32
443.019	1487.97
443.394	1466.95
443.769	1509.44
444.143	1488.42
444.518	1529.78
444.892	1513.28
445.267	1539.95
445.641	1548.76
446.016	1532.26
446.39	1543.34
446.764	1573.62
447.139	1597.8
447.513	1596.67
447.887	1561.41
448.262	1583.56
448.636	1578.36
449.01	1610.68
449.384	1650.22
449.758	1617.23
450.132	1630.34
450.506	1645.03
450.88	1699.04
451.254	1658.13
451.628	1666.95
452.002	1706.95
452.376	1711.01
452.75	1708.3
453.123	1723.44
453.497	1730.45
453.871	1725.48
454.244	1787.4
454.618	1775.42
454.992	1808.19
455.365	1815.87
455.739	1863.33
456.112	1852.48
456.486	1878.92
456.859	1875.3
457.232	1917.11
457.606	1902.42
457.979	1921.18
458.352	1957.56
458.725	1978.35
459.099	1982.65
459.472	1981.52
459.845	2027.16
460.218	2029.88
460.591	2046.82
460.964	2023.1
461.337	2064.68
461.71	2125.47
462.083	2138.57
462.456	2141.96
462.829	2128.4
463.201	2160.72
463.574	2169.76
463.947	2205.24
464.32	2266.48
464.692	2288.4
465.065	2280.72
465.438	2289.53
465.81	2313.03
466.183	2306.48
466.555	2329.98
466.928	2369.98
467.3	2351
467.672	2397.1
468.045	2449.07
468.417	2449.75
468.789	2465.57
469.161	2493.37
469.534	2523.65
469.906	2547.15
470.278	2562.29
470.65	2583.76
471.022	2629.18
471.394	2639.35
471.766	2649.97
472.138	2719.8
472.51	2769.07
472.882	2797.77
473.253	2824.21
473.625	2851.78
473.997	2880.48
474.369	2899.23
474.74	2941.94
475.112	2958.44
475.484	2993.47
475.855	2982.62
476.227	3040.7
476.598	3138.55
476.97	3141.26
477.341	3155.5
477.713	3248.38
478.084	3229.39
478.455	3307.58
478.827	3319.56
479.198	3390.74
479.569	3401.14
479.94	3510.52
480.311	3509.61
480.682	3544.19
481.053	3589.83
481.424	3632.32
481.795	3667.57
482.166	3704.63
482.537	3752.54
482.908	3823.28
483.279	3809.72
483.65	3896.04
484.021	3970.84
484.391	3968.58
484.762	4055.81
485.133	4081.12
485.503	4092.42
485.874	4154.79
486.244	4180.55
486.615	4224.17
486.985	4270.72
487.356	4353.66
487.726	4389.81
488.097	4437.04
488.467	4407.89
488.837	4585.29
489.207	4576.7
489.578	4566.76
489.948	4638.39
490.318	4662.8
490.688	4703.03
491.058	4738.51
491.428	4835.68
491.798	4888.11
492.168	4910.25
492.538	4915.68
492.908	5017.37
493.278	5000.87
493.648	5049.68
494.017	5077.25
494.387	5102.56
494.757	5100.53
495.126	5251.49
495.496	5185.73
495.866	5199.51
496.235	5259.85
496.605	5326.74
496.974	5311.15
497.344	5419.84
497.713	5395.21
498.082	5406.06
498.452	5449.9
498.821	5476.11
499.19	5485.6
499.559	5550.24
499.928	5572.38
500.298	5616
500.667	5645.83
501.036	5637.69
501.405	5694.41
501.774	5618.48
502.143	5705.71
502.512	5782.77
502.88	5745.94
503.249	5791.59
503.618	5787.29
503.987	5850.11
504.356	5817.35
504.724	5866.39
505.093	5902.54
505.462	5911.13
505.83	6021.64
506.199	5979.38
506.567	6032.03
506.936	5972.15
507.304	6024.57
507.672	6077.91
508.041	6157.9
508.409	6179.37
508.777	6148.19
509.145	6164
509.514	6205.13
509.882	6257.11
510.25	6228.18
510.618	6270.67
510.986	6260.95
511.354	6345.47
511.722	6379.82
512.09	6318.58
512.458	6357.67
512.826	6446.26
513.193	6451.68
513.561	6460.49
513.929	6484
514.297	6561.96
514.664	6611.45
515.032	6579.36
515.4	6606.7
515.767	6643.99
516.135	6686.25
516.502	6586.14
516.869	6705.91
517.237	6716.31
517.604	6665.01
517.972	6728.74
518.339	6812.35
518.706	6807.83
519.073	6834.72
519.44	6814.83
519.808	6864.1
520.175	6879.01
520.542	6914.04
520.909	6951.1
521.276	6945
521.643	7028.61
522.009	7035.39
522.376	7061.83
522.743	7133.7
523.11	7247.14
523.477	7196.52
523.843	7270.64
524.21	7317.87
524.577	7340.92
524.943	7361.04
525.31	7445.78
525.676	7462.5
526.043	7484.2
526.409	7475.61
526.776	7588.37
527.142	7514.03
527.508	7617.53
527.874	7630.18
528.241	7670.63
528.607	7660.01
528.973	7708.37
529.339	7716.73
529.705	7757.64
530.071	7835.83
530.437	7949.27
530.803	7868.82
531.169	7916.73
531.535	7913.34
531.901	7899.33
532.267	7960.12
532.632	8047.34
532.998	8119.89
533.364	8142.48
533.73	8114.46
534.095	8199.66
534.461	8153.78
534.826	8281.46
535.192	8218.87
535.557	8330.5
535.923	8343.83
536.288	8267
536.653	8386.55
537.019	8343.16
537.384	8385.19
537.749	8341.35
538.114	8446.2
538.479	8512.87
538.845	8499.08
539.21	8431.74
539.575	8501.57
539.94	8549.48
540.305	8585.41
540.67	8563.94
541.034	8627.89
541.399	8632.19
541.764	8666.99
542.129	8660.21
542.494	8694.79
542.858	8727.1
543.223	8825.63
543.587	8737.27
543.952	8827.66
544.316	8811.62
544.681	8857.95
545.045	8902.46
545.41	8944.04
545.774	8940.2
546.138	8971.84
546.503	9015.46
546.867	8975
547.231	9118.73
547.595	9125.51
547.959	9076.02
548.324	9155.34
548.688	9162.57
549.052	9063.36
549.416	9166.86
549.779	9245.73
550.143	9189.46
550.507	9214.32
550.871	9257.03
551.235	9232.62
551.599	9338.84
551.962	9273.98
552.326	9327.99
552.689	9408.89
553.053	9456.12
553.417	9367.31
553.78	9541.32
554.143	9488.21
554.507	9502.9
554.87	9533.18
555.234	9599.17
555.597	9555.55
555.96	9546.51
556.323	9643.46
556.686	9635.78
557.05	9665.16
557.413	9692.5
557.776	9696.34
558.139	9753.74
558.502	9770.92
558.865	9757.81
559.228	9881.87
559.59	9885.94
559.953	9897.24
560.316	9953.51
560.679	10031.7
561.041	9962.55
561.404	10062.89
561.767	10095.43
562.129	10069.66
562.492	10202.54
562.854	10153.73
563.217	10129.1
563.579	10130.91
563.941	10248.42
564.304	10241.41
564.666	10335.19
565.028	10367.74
565.39	10329.32
565.753	10433.5
566.115	10465.59
566.477	10518.24
566.839	10553.72
567.201	10548.07
567.563	10538.13
567.925	10622.64
568.287	10687.73
568.648	10704.45
569.01	10718.91
569.372	10781.51
569.734	10770.21
570.095	10816.76
570.457	10931.11
570.819	10974.95
571.18	10983.76
571.542	11042.52
571.903	11006.82
572.265	11019.92
572.626	11144.89
572.987	11200.93
573.349	11220.59
573.71	11268.05
574.071	11313.7
574.432	11309.86
574.794	11441.83
575.155	11491.32
575.516	11473.47
575.877	11567.7
576.238	11591.88
576.599	11719.34
576.96	11694.03
577.32	11740.81
577.681	11869.62
578.042	11877.75
578.403	11925.44
578.763	12044.3
579.124	12040.01
579.485	12217.18
579.845	12269.15
580.206	12310.51
580.566	12360.45
580.927	12486.55
581.287	12572.65
581.648	12594.57
582.008	12823.72
582.368	12709.82
582.728	12902.36
583.089	12990.72
583.449	13030.49
583.809	13101.68
584.169	13255.34
584.529	13359.07
584.889	13498.05
585.249	13604.71
585.609	13672.51
585.969	13873.18
586.329	13856.01
586.688	14034.53
587.048	14073.63
587.408	14262.32
587.768	14451.24
588.127	14579.6
588.487	14578.02
588.846	14909.31
589.206	14859.14
589.565	15048.06
589.925	15291.67
590.284	15356.53
590.643	15582.29
591.003	15583.42
591.362	15827.93
591.721	15944.31
592.08	16077.87
592.44	16177.98
592.799	16398.54
593.158	16553.11
593.517	16617.97
593.876	16792.2
594.235	16793.1
594.593	17077.39
594.952	17183.38
595.311	17301.56
595.67	17488.23
596.029	17704.49
596.387	17863.13
596.746	18010.92
597.104	18080.08
597.463	18163.46
597.822	18458.6
598.18	18437.13
598.538	18544.92
598.897	18845.71
599.255	18696.78
599.613	19150.56
599.972	19168.63
600.33	19299.03
600.688	19419.02
601.046	19670.99
601.404	19731.56
601.762	19690.65
602.12	20055.39
602.478	20046.13
602.836	20229.17
603.194	20131.77
603.552	20326.57
603.91	20418.32
604.268	20545.55
604.625	20681.14
604.983	20801.59
605.341	20789.16
605.698	20970.39
606.056	21011.75
606.413	21189.37
606.771	21290.84
607.128	21295.81
607.485	21235.47
607.843	21406.09
608.2	21599.53
608.557	21714.1
608.914	21796.59
609.272	22021.89
609.629	21956.81
609.986	22175.34
610.343	22114.09
610.7	22345.27
611.057	22383.47
611.414	22329.46
611.771	22555.89
612.127	22609.22
612.484	22722.21
612.841	22730.12
613.198	22826.39
613.554	22883.79
613.911	23021.64
614.267	23018.25
614.624	23114.29
614.98	23131.24
615.337	23344.34
615.693	23340.28
616.05	23453.27
616.406	23563.55
616.762	23419.37
617.118	23555.64
617.475	23691
617.831	23692.81
618.187	23694.62
618.543	23813.71
618.899	23897.78
619.255	24040.14
619.611	23909.3
619.967	24121.05
620.323	24097.32
620.678	24077.66
621.034	24057.77
621.39	24137.77
621.746	24071.56
622.101	24303.64
622.457	24182.29
622.812	24373.7
623.168	24342.96
623.523	24391.55
623.879	24526.91
624.234	24335.05
624.589	24523.97
624.945	24515.61
625.3	24554.26
625.655	24482.39
626.01	24599.23
626.365	24603.29
626.72	24429.74
627.075	24578.44
627.43	24646.23
627.785	24591.77
628.14	24681.03
628.495	24722.16
628.85	24767.13
629.205	24630.86
629.559	24791.76
629.914	24653.24
630.269	24695.95
630.623	24612.33
630.978	24713.8
631.332	24746.34
631.687	24804.19
632.041	24725.32
632.396	24713.8
632.75	24625.21
633.104	24602.16
633.459	24624.76
633.813	24524.43
634.167	24628.6
634.521	24599.23
634.875	24683.07
635.229	24608.49
635.583	24525.56
635.937	24552.9
636.291	24603.97
636.645	24476.07
636.999	24600.36
637.352	24603.97
637.706	24332.79
638.06	24615.72
638.413	24387.48
638.767	24465.67
639.121	24396.29
639.474	24259.8
639.828	24402.62
640.181	24517.19
640.534	24336.86
640.888	24282.85
641.241	24185
641.594	24288.95
641.947	24320.82
642.301	24300.02
642.654	24281.72
643.007	24314.04
643.36	24399.23
643.713	24224.32
644.066	24363.53
644.419	24226.35
644.771	24138
645.124	23898.45
645.477	23794.95
645.83	23697.78
646.182	23529.65
646.535	23498.46
646.888	23551.12
647.24	23442.19
647.593	23554.73
647.945	23483.78
648.298	23414.17
648.65	23283.33
649.002	23359.71
649.355	23466.37
649.707	23529.2
650.059	23496.88
650.411	23780.49
650.763	23917.44
651.115	24134.15
651.467	24140.26
651.819	24019.81
652.171	24066.81
652.523	23991.56
652.875	23989.3
653.227	23906.36
653.578	24054.83
653.93	24003.31
654.282	23888.06
654.633	23925.35
654.985	23944.33
655.337	24064.1
655.688	23986.13
656.039	24196.75
656.391	24000.37
656.742	23993.59
657.094	23999.92
657.445	24043.53
657.796	24213.7
658.147	23984.33
658.498	23860.49
658.849	24123.98
659.2	23981.16
659.551	23902.3
659.902	23983.88
660.253	24102.74
660.604	24098.9
660.955	23974.84
661.306	24076.08
661.656	24092.8
662.007	24047.83
662.358	23972.35
662.708	24065
663.059	23955.18
663.409	23933.93
663.76	24111.56
664.11	24059.81
664.461	24005.34
664.811	24073.59
665.161	24116.98
665.511	24023.65
665.862	24124.21
666.212	24161.95
666.562	24037.43
666.912	24048.05
667.262	24114.72
667.612	24138.9
667.962	24151.1
668.312	24060.71
668.662	24183.19
669.011	24042.18
669.361	24014.83
669.711	23975.97
670.06	24035.63
670.41	23963.31
670.76	24086.92
671.109	23944.55
671.459	24001.5
671.808	23884.22
672.157	23907.49
672.507	23814.39
672.856	23724.67
673.205	23925.35
673.554	23997.43
673.904	23868.85
674.253	23970.99
674.602	23834.5
674.951	23563.77
675.3	23452.59
675.649	23830.66
675.998	23687.16
676.346	23762.86
676.695	23895.74
677.044	23636.09
677.393	23676.31
677.741	23608.07
678.09	23747.05
678.438	23632.47
678.787	23639.25
679.135	23561.97
679.484	23424.57
679.832	23517.45
680.181	23470.89
680.529	23513.38
680.877	23355.87
681.225	23419.37
681.573	23521.06
681.922	23447.84
682.27	23209.88
682.618	23184.8
682.966	23043.79
683.314	23273.16
683.661	23228.19
684.009	22976.67
684.357	22986.84
684.705	22961.08
685.053	23078.81
685.4	22929.67
685.748	22846.5
686.095	22826.39
686.443	22806.5
686.79	22825.26
687.138	22809.22
687.485	22639.96
687.832	22450.13
688.18	22691.03
688.527	22511.6
688.874	22508.66
689.221	22491.48
689.568	22365.61
689.915	22288.33
690.262	22382.56
690.609	22311.15
690.956	22143.02
691.303	22079.74
691.65	21958.39
691.997	22081.78
692.344	21826.19
692.69	21828.45
693.037	21865.74
693.383	21634.78
693.73	21682.69
694.077	21467.11
694.423	21555.92
694.769	21517.05
695.116	21411.97
695.462	21397.28
695.808	21297.17
696.155	21215.59
696.501	21107.34
696.847	21175.59
697.193	20941.24
697.539	21044.97
697.885	20890.62
698.231	20865.09
698.577	20737.18
698.923	20713.9
699.269	20661.7
699.614	20537.86
699.96	20367.7
700.306	20469.17
700.651	20389.85
700.997	20197.99
701.342	20179.46
701.688	20244.76
702.033	20227.36
702.379	20101.27
702.724	20015.17
703.069	20114.15
703.415	19799.8
703.76	19711.67
704.105	19846.81
704.45	19727.72
704.795	19594.84
705.14	19557.78
705.485	19492.92
705.83	19455.86
706.175	19489.08
706.52	19416.31
706.865	19328.63
707.209	19259.03
707.554	19175.87
707.899	19288.86
708.243	19183.78
708.588	19077.56
708.932	18900.62
709.277	18947.62
709.621	18934.97
709.966	18741.98
710.31	18874.86
710.654	18753.96
710.998	18711.25
711.342	18665.37
711.687	18656.33
712.031	18549.22
712.375	18416.79
712.719	18490.01
713.063	18462.44
713.407	18446.17
713.75	18388.09
714.094	18391.48
714.438	18246.85
714.782	18216.34
715.125	18126.85
715.469	18158.94
715.812	18024.03
716.156	18057.48
716.499	18071.71
716.843	18036.69
717.186	17961.21
717.53	18028.78
717.873	17978.16
718.216	17943.13
718.559	17875.56
718.902	17727.99
719.246	17828.1
719.589	17772.74
719.932	17615.68
720.275	17743.59
720.617	17694.32
720.96	17766.64
721.303	17681.44
721.646	17758.05
721.989	17531.62
722.331	17721.44
722.674	17607.32
723.016	17511.5
723.359	17515.12
723.701	17483.93
724.044	17494.1
724.386	17254.56
724.729	17416.82
725.071	17369.81
725.413	17328.91
725.755	17327.33
726.097	17310.6
726.439	17209.59
726.782	17200.1
727.124	17384.95
727.465	17271.51
727.807	17177.73
728.149	17285.07
728.491	17142.47
728.833	17281.9
729.175	17204.39
729.516	17143.83
729.858	17184.73
730.199	17092.08
730.541	17016.15
730.882	16968.69
731.224	17157.84
731.565	17072.19
731.906	17083.94
732.248	17108.8
732.589	16890.73
732.93	16937.96
733.271	17036.26
733.612	17069.25
733.953	17087.33
734.294	16998.97
734.635	16987.22
734.976	17019.54
735.317	16842.59
735.658	16955.81
735.999	16946.09
736.339	16951.07
736.68	16959.65
737.021	16950.84
737.361	16930.05
737.702	16941.12
738.042	16990.84
738.383	16896.15
738.723	17033.78
739.063	16899.32
739.404	16971.18
739.744	16928.02
740.084	16864.74
740.424	16962.14
740.764	16924.85
741.104	17086.88
741.444	17013.89
741.784	16894.12
742.124	17015.7
742.464	17031.74
742.804	16991.52
743.143	17059.09
743.483	17062.25
743.823	17040.78
744.162	17017.96
744.502	17092.53
744.841	17167.56
745.181	17230.15
745.52	17181.57
745.86	17310.6
746.199	17331.39
746.538	17195.13
746.877	17430.83
747.216	17468.34
747.556	17418.85
747.895	17586.3
748.234	17486.87
748.573	17587.43
748.911	17633.53
749.25	17697.94
749.589	17612.74
749.928	17811.61
750.267	17900.19
750.605	17914.43
750.944	17916.92
751.283	18033.3
751.621	18136.35
751.96	18209.56
752.298	18188.1
752.636	18244.14
752.975	18366.4
753.313	18339.5
753.651	18569.33
753.989	18772.26
754.327	18710.34
754.666	18798.47
755.004	19015.42
755.342	19157.34
755.679	19181.29
756.017	19273.94
756.355	19438.23
756.693	19401.4
757.031	19704.67
757.368	19551.45
757.706	19815.17
758.044	19914.6
758.381	19889.07
