Data from hue_140_FLMS001491_00026.txt Node
Date: Tue Feb 07 16:55:40 GMT 2017
User: dcchb
Spectrometer: FLMS00149
Trigger mode: 0
Integration Time (sec): 2.000000E-2
Scans to average: 10
Electric dark correction enabled: true
Nonlinearity correction enabled: false
Boxcar width: 0
XAxis mode: Wavelengths
Number of Pixels in Spectrum: 2048
>>>>>Begin Spectral Data<<<<<
341.393	-0.42
341.776	-0.42
342.16	-0.42
342.543	-45.39
342.927	-67.54
343.31	-67.31
343.693	-76.13
344.077	-64.38
344.46	-57.6
344.843	-45.85
345.226	-37.48
345.61	-11.5
345.993	-26.41
346.376	11.33
346.759	-2.23
347.142	26.24
347.525	26.92
347.908	42.96
348.291	71.66
348.674	90.42
349.057	119.35
349.44	121.16
349.823	165.67
350.206	163.41
350.588	199.8
350.971	219.01
351.354	223.98
351.737	225.56
352.119	241.83
352.502	274.37
352.884	275.5
353.267	282.51
353.65	302.62
354.032	299.23
354.414	308.72
354.797	335.39
355.179	303.98
355.562	340.58
355.944	327.93
356.326	352.56
356.709	347.36
357.091	346.46
357.473	352.11
357.855	338.32
358.238	352.79
358.62	326.57
359.002	332.22
359.384	357.53
359.766	365.67
360.148	348.95
360.53	330.64
360.912	330.19
361.294	328.83
361.676	337.19
362.057	336.97
362.439	357.76
362.821	353.47
363.203	329.74
363.584	334.71
363.966	316.18
364.348	329.29
364.729	321.6
365.111	319.12
365.493	315.05
365.874	316.4
366.256	309.17
366.637	333.58
367.019	332.45
367.4	327.93
367.781	324.31
368.163	324.77
368.544	331.32
368.925	313.92
369.306	327.93
369.688	303.52
370.069	301.26
370.45	320.02
370.831	309.17
371.212	315.5
371.593	330.87
371.974	317.76
372.355	326.57
372.736	304.2
373.117	310.53
373.498	303.07
373.879	328.83
374.26	304.88
374.641	309.62
375.021	312.79
375.402	327.48
375.783	317.99
376.163	334.71
376.544	327.25
376.925	323.86
377.305	348.49
377.686	311.88
378.066	341.94
378.447	321.83
378.827	314.82
379.208	336.52
379.588	343.3
379.968	338.1
380.349	332.67
380.729	326.57
381.109	303.75
381.489	332.22
381.87	358.44
382.25	333.8
382.63	350.53
383.01	350.53
383.39	334.26
383.77	344.88
384.15	336.52
384.53	341.04
384.91	338.78
385.29	348.04
385.67	365.44
386.049	350.75
386.429	353.01
386.809	358.44
387.189	342.84
387.568	364.76
387.948	348.27
388.328	361.37
388.707	344.65
389.087	369.74
389.466	375.16
389.846	361.6
390.225	376.29
390.605	369.96
390.984	352.34
391.363	388.49
391.743	374.71
392.122	384.42
392.501	372.9
392.881	387.81
393.26	378.1
393.639	372.67
394.018	380.13
394.397	389.4
394.776	358.89
395.155	395.72
395.534	396.63
395.913	398.21
396.292	400.7
396.671	386.91
397.05	411.09
397.429	404.31
397.808	394.37
398.186	379.91
398.565	369.96
398.944	374.93
399.323	409.28
399.701	408.61
400.08	403.86
400.458	396.85
400.837	412.9
401.215	415.84
401.594	409.96
401.972	405.67
402.351	410.86
402.729	400.02
403.107	416.97
403.486	411.99
403.864	389.62
404.242	403.63
404.62	447.47
404.999	424.65
405.377	422.84
405.755	428.04
406.133	446.8
406.511	427.59
406.889	434.82
407.267	430.75
407.645	438.89
408.023	441.37
408.401	446.57
408.779	438.21
409.156	448.15
409.534	431.88
409.912	435.27
410.29	449.28
410.667	453.8
411.045	453.8
411.422	466.91
411.8	475.72
412.178	463.29
412.555	468.04
412.933	468.04
413.31	495.16
413.687	483.41
414.065	489.96
414.442	495.38
414.819	494.7
415.197	511.65
415.574	484.76
415.951	517.08
416.328	496.96
416.705	504.42
417.082	516.4
417.46	519.79
417.837	510.98
418.214	552.1
418.591	538.55
418.967	546.23
419.344	529.28
419.721	552.33
420.098	517.3
420.475	534.7
420.852	510.52
421.228	523.86
421.605	540.8
421.982	536.96
422.358	534.03
422.735	563.4
423.111	581.71
423.488	560.92
423.864	568.83
424.241	558.43
424.617	564.31
424.994	591.43
425.37	598.2
425.746	567.47
426.123	589.62
426.499	590.75
426.875	592.33
427.251	602.05
427.627	596.85
428.003	595.49
428.379	605.66
428.756	601.59
429.132	600.46
429.507	625.77
429.883	631.65
430.259	636.17
430.635	644.31
431.011	646.79
431.387	656.28
431.763	667.36
432.138	648.15
432.514	686.34
432.89	677.3
433.265	684.76
433.641	687.47
434.016	687.92
434.392	702.83
434.767	713.91
435.143	704.64
435.518	721.14
435.894	713.46
436.269	729.95
436.644	727.24
437.02	739.22
437.395	755.26
437.77	744.19
438.145	766.79
438.52	773.79
438.895	772.89
439.271	757.3
439.646	775.83
440.021	777.86
440.395	799.56
440.77	812.89
441.145	804.07
441.52	814.47
441.895	803.85
442.27	807.46
442.645	825.32
443.019	848.59
443.394	837.52
443.769	862.15
444.143	836.16
444.518	826.67
444.892	844.98
445.267	835.26
445.641	869.61
446.016	876.16
446.39	875.49
446.764	877.29
447.139	891.08
447.513	875.94
447.887	875.26
448.262	896.73
448.636	888.82
449.01	893.11
449.384	881.81
449.758	901.7
450.132	914.35
450.506	936.73
450.88	931.08
451.254	955.48
451.628	938.99
452.002	967.01
452.376	972.88
452.75	994.35
453.123	978.99
453.497	967.23
453.871	992.54
454.244	1033.67
454.618	1011.98
454.992	1022.83
455.365	1048.59
455.739	1059.44
456.112	1064.18
456.486	1099.89
456.859	1077.74
457.232	1103.5
457.606	1112.77
457.979	1109.83
458.352	1148.47
458.725	1162.26
459.099	1146.21
459.472	1190.96
459.845	1209.94
460.218	1195.25
460.591	1223.27
460.964	1227.79
461.337	1255.81
461.71	1250.39
462.083	1308.47
462.456	1253.78
462.829	1333.78
463.201	1308.02
463.574	1320.67
463.947	1327.45
464.32	1365.19
464.692	1377.39
465.065	1404.06
465.438	1409.26
465.81	1462.36
466.183	1439.54
466.555	1498.52
466.928	1524.28
467.3	1514.79
467.672	1544.85
468.045	1600.66
468.417	1593.88
468.789	1627.78
469.161	1630.49
469.534	1677.27
469.906	1711.62
470.278	1708.68
470.65	1775.57
471.022	1786.42
471.394	1835.91
471.766	1856.7
472.138	1860.32
472.51	1899.41
472.882	1928.79
473.253	1966.76
473.625	2021.44
473.997	2079.97
474.369	2090.14
474.74	2145.28
475.112	2213.76
475.484	2236.13
475.855	2322.91
476.227	2358.38
476.598	2440.64
476.97	2459.4
477.341	2497.59
477.713	2592.28
478.084	2640.18
478.455	2705.95
478.827	2819.16
479.198	2869.33
479.569	2920.4
479.94	3063.68
480.311	3123.79
480.682	3196.1
481.053	3244.01
481.424	3381.86
481.795	3461.63
482.166	3521.07
482.537	3598.13
482.908	3701.63
483.279	3806.93
483.65	3887.38
484.021	4051
484.391	4090.32
484.762	4224.78
485.133	4320.82
485.503	4390.87
485.874	4591.32
486.244	4633.58
486.615	4792.22
486.985	4895.72
487.356	5027.69
487.726	5115.15
488.097	5245.99
488.467	5389.27
488.837	5523.5
489.207	5677.62
489.578	5807.79
489.948	5903.83
490.318	6017.95
490.688	6135.69
491.058	6291.39
491.428	6392.85
491.798	6545.84
492.168	6763.24
492.538	6874.88
492.908	6977.7
493.278	7152.83
493.648	7197.58
494.017	7362.55
494.387	7537.46
494.757	7579.04
495.126	7817
495.496	7819.94
495.866	7934.51
496.235	8142.19
496.605	8286.36
496.974	8310.09
497.344	8548.96
497.713	8634.38
498.082	8735.39
498.452	8906.01
498.821	8996.63
499.19	9023.29
499.559	9158.43
499.928	9249.73
500.298	9367.92
500.667	9485.2
501.036	9564.75
501.405	9727.23
501.774	9724.07
502.143	9825.08
502.512	9974
502.88	10069.82
503.249	10079.09
503.618	10146.65
503.987	10294.67
504.356	10417.16
504.724	10447.66
505.093	10501.9
505.462	10590.94
505.83	10707.54
506.199	10818.73
506.567	10963.81
506.936	10997.93
507.304	11100.3
507.672	11161.99
508.041	11198.83
508.409	11280.86
508.777	11390.92
509.145	11459.16
509.514	11526.05
509.882	11525.37
510.25	11498.03
510.618	11654.86
510.986	11754.3
511.354	11743.9
511.722	11893.95
512.09	12001.29
512.458	11988.41
512.826	12104.12
513.193	12072.71
513.561	12049.65
513.929	12163.78
514.297	12249.65
514.664	12305.24
515.032	12345.24
515.4	12459.81
515.767	12480.38
516.135	12533.71
516.502	12519.25
516.869	12608.28
517.237	12661.39
517.604	12667.49
517.972	12812.57
518.339	12709.75
518.706	12727.83
519.073	12837.88
519.44	12778.45
519.808	12891.44
520.175	12900.25
520.542	13099.8
520.909	13030.65
521.276	12919.46
521.643	13106.8
522.009	13154.94
522.376	13186.8
522.743	13236.06
523.11	13259.57
523.477	13355.16
523.843	13465.66
524.21	13457.75
524.577	13562.84
524.943	13546.34
525.31	13482.39
525.676	13650.29
526.043	13612.33
526.409	13717.18
526.776	13740.46
527.142	13701.81
527.508	13766.9
527.874	13764.64
528.241	13808.03
528.607	13729.38
528.973	13820.23
529.339	13824.98
529.705	13878.31
530.071	13898.42
530.437	13924.86
530.803	13835.14
531.169	13951.98
531.535	13853.9
531.901	13884.86
532.267	13860.23
532.632	13920.34
532.998	13883.28
533.364	13933.9
533.73	13874.24
534.095	13946.78
534.461	13852.09
534.826	13957.4
535.192	13903.84
535.557	13949.94
535.923	13834.01
536.288	13872.66
536.653	13919.66
537.019	13802.15
537.384	13744.98
537.749	13774.81
538.114	13668.82
538.479	13611.42
538.845	13762.6
539.21	13646.9
539.575	13650.29
539.94	13641.25
540.305	13586.11
540.67	13568.03
541.034	13589.05
541.399	13624.53
541.764	13564.87
542.129	13439.9
542.494	13499.79
542.858	13497.07
543.223	13459.11
543.587	13426.34
543.952	13350.19
544.316	13355.61
544.681	13368.72
545.045	13398.77
545.41	13330.98
545.774	13315.61
546.138	13234.48
546.503	13179.57
546.867	13076.75
547.231	13218.89
547.595	13106.58
547.959	13158.33
548.324	13067.93
548.688	13019.35
549.052	13008.27
549.416	12965.11
549.779	13010.76
550.143	12949.29
550.507	12984.55
550.871	12923.08
551.235	12887.6
551.599	12929.63
551.962	12900.48
552.326	12900.93
552.689	12833.36
553.053	12828.39
553.417	12724.89
553.78	12897.54
554.143	12739.81
554.507	12737.77
554.87	12651.67
555.234	12835.62
555.597	12658
555.96	12666.59
556.323	12683.99
556.686	12627.49
557.05	12673.14
557.413	12631.79
557.776	12677.21
558.139	12687.83
558.502	12679.92
558.865	12713.37
559.228	12696.87
559.59	12631.79
559.953	12635.63
560.316	12704.55
560.679	12629.75
561.041	12787.26
561.404	12643.09
561.767	12735.96
562.129	12641.96
562.492	12777.77
562.854	12681.73
563.217	12679.47
563.579	12681.05
563.941	12765.79
564.304	12748.85
564.666	12686.93
565.028	12722.18
565.39	12822.52
565.753	12768.51
566.115	12770.54
566.477	12859.58
566.839	12869.29
567.201	12935.28
567.563	12779.58
567.925	13003.53
568.287	12900.93
568.648	12860.48
569.01	12961.72
569.372	12961.04
569.734	12956.07
570.095	12953.13
570.457	12993.13
570.819	13014.83
571.18	13011.21
571.542	13002.17
571.903	13084.43
572.265	13091.89
572.626	13122.4
572.987	13014.6
573.349	13110.64
573.71	13124.43
574.071	13097.99
574.432	13194.71
574.794	13185.67
575.155	13123.07
575.516	13078.55
575.877	13228.16
576.238	13116.07
576.599	13181.15
576.96	13175.95
577.32	13166.24
577.681	13208.04
578.042	13317.19
578.403	13187.48
578.763	13344.76
579.124	13215.27
579.485	13202.84
579.845	13261.6
580.206	13257.76
580.566	13275.16
580.927	13217.08
581.287	13245.56
581.648	13221.15
582.008	13260.47
582.368	13250.75
582.728	13178.66
583.089	13218.44
583.449	13182.51
583.809	13267.02
584.169	13200.81
584.529	13159.91
584.889	13217.08
585.249	13219.12
585.609	13104.54
585.969	13145.67
586.329	13163.52
586.688	13161.04
587.048	13147.48
587.408	13097.09
587.768	13133.24
588.127	13109.29
588.487	13090.76
588.846	13150.19
589.206	13017.99
589.565	13081.04
589.925	13065.9
590.284	13093.7
590.643	13078.1
591.003	13136.41
591.362	13108.38
591.721	13018.22
592.08	13077.65
592.44	13090.31
592.799	13109.51
593.158	12977.54
593.517	13048.95
593.876	13039.69
594.235	13044.66
594.593	12993.13
594.952	12979.12
595.311	13017.54
595.67	12990.65
596.029	13092.34
596.387	13042.4
596.746	13047.14
597.104	12981.38
597.463	13027.71
597.822	13095.05
598.18	12949.07
598.538	12928.28
598.897	12928.95
599.255	12894.38
599.613	13046.24
599.972	12950.2
600.33	13033.36
600.688	12896.41
601.046	12931.89
601.404	13013.25
601.762	12968.05
602.12	13010.53
602.478	13087.82
602.836	12986.35
603.194	12961.04
603.552	12982.51
603.91	12940.93
604.268	12951.55
604.625	13029.74
604.983	12954.49
605.341	12969.86
605.698	13082.17
606.056	13051.21
606.413	13069.52
606.771	12963.53
607.128	13102.51
607.485	12975.05
607.843	12918.56
608.2	13027.26
608.557	13053.47
608.914	13010.99
609.272	13032.23
609.629	13170.08
609.986	13115.62
610.343	13083.53
610.7	13140.25
611.057	13156.52
611.414	13178.44
611.771	13163.3
612.127	13101.6
612.484	13123.07
612.841	13217.76
613.198	13124.88
613.554	13201.04
613.911	13229.51
614.267	13288.04
614.624	13170.53
614.98	13261.83
615.337	13356.51
615.693	13249.17
616.05	13305.67
616.406	13301.15
616.762	13276.74
617.118	13291.43
617.475	13364.2
617.831	13420.01
618.187	13288.04
618.543	13409.85
618.899	13412.33
619.255	13366.46
619.611	13396.74
619.967	13499.11
620.323	13413.69
620.678	13338.21
621.034	13302.5
621.39	13285.78
621.746	13322.62
622.101	13524.19
622.457	13349.51
622.812	13425.89
623.168	13377.53
623.523	13424.76
623.879	13504.31
624.234	13354.93
624.589	13427.47
624.945	13426.79
625.3	13484.65
625.655	13469.5
626.01	13427.7
626.365	13403.07
626.72	13414.36
627.075	13467.02
627.43	13450.97
627.785	13302.28
628.14	13397.87
628.495	13396.51
628.85	13300.92
629.205	13236.29
629.559	13397.87
629.914	13255.95
630.269	13270.19
630.623	13342.73
630.978	13256.85
631.332	13323.75
631.687	13311.54
632.041	13179.79
632.396	13378.21
632.75	13240.13
633.104	13284.65
633.459	13178.44
633.813	13250.75
634.167	13186.8
634.521	13241.26
634.875	13281.49
635.229	13173.02
635.583	13166.69
635.937	13117.42
636.291	13090.08
636.645	13162.17
636.999	13119.01
637.352	13120.14
637.706	12963.53
638.06	13020.25
638.413	13009.4
638.767	13016.18
639.121	12922.85
639.474	12979.12
639.828	12981.61
640.181	12902.51
640.534	12980.03
640.888	12885.11
641.241	12850.76
641.594	12916.52
641.947	12941.83
642.301	12872.01
642.654	12812.35
643.007	12882.63
643.36	12862.06
643.713	12792.46
644.066	12816.64
644.419	12752.24
644.771	12695.06
645.124	12659.36
645.477	12596.99
645.83	12490.32
646.182	12525.8
646.535	12425.69
646.888	12397.67
647.24	12312.92
647.593	12317.67
647.945	12324.22
648.298	12316.09
648.65	12277.9
649.002	12285.58
649.355	12393.6
649.707	12307.73
650.059	12409.65
650.411	12629.98
650.763	12549.3
651.115	12703.88
651.467	12656.87
651.819	12564.67
652.171	12611.67
652.523	12644.44
652.875	12611.22
653.227	12621.84
653.578	12713.82
653.93	12648.06
654.282	12591.34
654.633	12576.42
654.985	12581.39
655.337	12599.92
655.688	12632.24
656.039	12712.01
656.391	12631.11
656.742	12521.96
657.094	12650.77
657.445	12702.52
657.796	12646.25
658.147	12628.85
658.498	12608.28
658.849	12615.74
659.2	12660.26
659.551	12616.19
659.902	12652.8
660.253	12587.95
660.604	12716.98
660.955	12658
661.306	12685.12
661.656	12639.92
662.007	12631.33
662.358	12662.29
662.708	12669.3
663.059	12662.75
663.409	12594.73
663.76	12661.39
664.11	12636.53
664.461	12656.87
664.811	12764.66
665.161	12680.82
665.511	12625.68
665.862	12729.41
666.212	12697.77
666.562	12714.5
666.912	12682.86
667.262	12659.36
667.612	12717.43
667.962	12667.72
668.312	12633.82
668.662	12733.93
669.011	12585.46
669.361	12581.17
669.711	12628.4
670.06	12676.53
670.41	12578.23
670.76	12570.77
671.109	12648.06
671.459	12546.82
671.808	12559.7
672.157	12646.7
672.507	12511.56
672.856	12488.29
673.205	12555.63
673.554	12580.94
673.904	12473.6
674.253	12603.31
674.602	12566.03
674.951	12375.75
675.3	12327.16
675.649	12490.32
675.998	12449.19
676.346	12508.4
676.695	12554.27
677.044	12420.27
677.393	12541.85
677.741	12475.86
678.09	12404.45
678.438	12445.12
678.787	12373.94
679.135	12369.19
679.484	12298.24
679.832	12396.09
680.181	12281.29
680.529	12284.9
680.877	12231.8
681.225	12240.84
681.573	12280.16
681.922	12122.87
682.27	12157.45
682.618	12204.68
682.966	12147.05
683.314	12156.32
683.661	12176.21
684.009	12051.69
684.357	11989.54
684.705	12066.15
685.053	12027.73
685.4	12013.95
685.748	11922.88
686.095	11930.56
686.443	11851.69
686.79	11845.59
687.138	11904.8
687.485	11859.6
687.832	11833.62
688.18	11848.98
688.527	11717.91
688.874	11733.73
689.221	11706.61
689.568	11726.73
689.915	11640.63
690.262	11671.59
690.609	11543
690.956	11499.16
691.303	11483.12
691.65	11451.48
691.997	11475.43
692.344	11353.18
692.69	11357.02
693.037	11351.59
693.383	11219.62
693.73	11293.29
694.077	11197.93
694.423	11185.27
694.769	11133.75
695.116	11150.7
695.462	11094.65
695.808	11078.38
696.155	11026.4
696.501	10980.08
696.847	10957.93
697.193	10846.07
697.539	10918.16
697.885	10768.78
698.231	10801.33
698.577	10794.32
698.923	10727.43
699.269	10616.47
699.614	10635
699.96	10623.25
700.306	10544.38
700.651	10482.01
700.997	10476.81
701.342	10481.11
701.688	10415.12
702.033	10368.57
702.379	10422.35
702.724	10404.95
703.069	10370.6
703.415	10263.94
703.76	10207.22
704.105	10258.52
704.45	10178.97
704.795	10110.95
705.14	10028.69
705.485	10129.71
705.83	10014.23
706.175	10072.53
706.52	10006.32
706.865	9983.95
707.209	9877.51
707.554	9918.19
707.899	9882.93
708.243	9851.29
708.588	9898.53
708.932	9754.35
709.277	9796.83
709.621	9831.41
709.966	9729.49
710.31	9746.44
710.654	9633.9
710.998	9637.51
711.342	9711.64
711.687	9672.09
712.031	9513.45
712.375	9514.81
712.719	9590.06
713.063	9546.44
713.407	9576.27
713.75	9482.26
714.094	9503.06
714.438	9425.77
714.782	9523.17
715.125	9370.63
715.469	9458.99
715.812	9358.43
716.156	9313.91
716.499	9373.12
716.843	9310.74
717.186	9259.67
717.53	9332.21
717.873	9333.34
718.216	9269.84
718.559	9215.38
718.902	9207.92
719.246	9214.48
719.589	9157.53
719.932	9177.41
720.275	9145.32
720.617	9129.73
720.96	9144.19
721.303	9146.23
721.646	9126.57
721.989	9013.58
722.331	9151.65
722.674	9121.14
723.016	9116.85
723.359	9022.84
723.701	9047.25
724.044	9021.71
724.386	9044.99
724.729	9081.82
725.071	8962.73
725.413	8977.87
725.755	9013.35
726.097	9002.96
726.439	8933.35
726.782	8927.93
727.124	8951.21
727.465	8943.3
727.807	8938.1
728.149	8957.76
728.491	8946.46
728.833	8910.53
729.175	8914.6
729.516	8958.44
729.858	8915.05
730.199	8892.9
730.541	8905.78
730.882	8874.82
731.224	8894.48
731.565	8854.71
731.906	8833.69
732.248	8888.61
732.589	8825.33
732.93	8777.42
733.271	8780.14
733.612	8873.02
733.953	8854.71
734.294	8787.59
734.635	8773.81
734.976	8821.49
735.317	8789.18
735.658	8798.67
735.999	8899.23
736.339	8797.09
736.68	8827.59
737.021	8828.5
737.361	8785.33
737.702	8844.54
738.042	8807.71
738.383	8829.63
738.723	8798.67
739.063	8787.14
739.404	8880.7
739.744	8843.19
740.084	8826.46
740.424	8870.08
740.764	8877.08
741.104	8986.23
741.444	8845.45
741.784	8911.21
742.124	8883.64
742.464	8927.03
742.804	8904.88
743.143	9002.28
743.483	9062.84
743.823	8980.81
744.162	8974.71
744.502	9095.16
744.841	9118.43
745.181	9175.61
745.52	9141.48
745.86	9175.83
746.199	9213.12
746.538	9256.51
746.877	9314.59
747.216	9322.95
747.556	9326.34
747.895	9418.31
748.234	9418.54
748.573	9457.18
748.911	9527.24
749.25	9579.21
749.589	9649.04
749.928	9703.95
750.267	9824.85
750.605	9812.43
750.944	9901.91
751.283	9985.75
751.621	10099.65
751.96	10141.91
752.298	10262.13
752.636	10305.97
752.975	10356.14
753.313	10447.21
753.651	10660.54
753.989	10623.7
754.327	10766.3
754.666	10850.36
755.004	10913.41
755.342	11076.12
755.679	11215.78
756.017	11239.28
756.355	11437.02
756.693	11519.05
757.031	11713.39
757.368	11755.65
757.706	11883.78
758.044	12074.51
758.381	12219.82
758.719	12418.23
