Data from hue_120_FLMS001491_00029.txt Node
Date: Tue Feb 07 16:59:09 GMT 2017
User: dcchb
Spectrometer: FLMS00149
Trigger mode: 0
Integration Time (sec): 2.000000E-2
Scans to average: 10
Electric dark correction enabled: true
Nonlinearity correction enabled: false
Boxcar width: 0
XAxis mode: Wavelengths
Number of Pixels in Spectrum: 2048
>>>>>Begin Spectral Data<<<<<
341.393	-16.04
341.776	-16.04
342.16	-16.04
342.543	-44.29
342.927	-61.24
343.31	-61.69
343.693	-67.79
344.077	-52.88
344.46	-61.69
344.843	-43.61
345.226	-62.37
345.61	-38.64
345.993	-16.72
346.376	-11.3
346.759	17.4
347.142	14.01
347.525	39.32
347.908	60.34
348.291	83.61
348.674	83.84
349.057	118.19
349.44	125.65
349.823	148.47
350.206	167.45
350.588	217.17
350.971	219.66
351.354	217.85
351.737	245.42
352.119	254.68
352.502	256.26
352.884	259.65
353.267	284.74
353.65	294.91
354.032	294
354.414	301.01
354.797	324.74
355.179	305.3
355.562	320.67
355.944	336.49
356.326	319.77
356.709	333.78
357.091	325.87
357.473	348.69
357.855	344.17
358.238	334.68
358.62	332.42
359.002	345.75
359.384	318.18
359.766	346.66
360.148	348.47
360.53	347.56
360.912	339.2
361.294	370.61
361.676	343.04
362.057	300.11
362.439	307.56
362.821	320.67
363.203	336.49
363.584	311.63
363.966	331.29
364.348	321.57
364.729	318.86
365.111	297.17
365.493	308.24
365.874	313.44
366.256	316.15
366.637	300.11
367.019	315.7
367.4	310.5
367.781	318.64
368.163	327.67
368.544	317.05
368.925	315.25
369.306	309.14
369.688	300.78
370.069	317.51
370.45	319.09
370.831	308.69
371.212	321.35
371.593	319.54
371.974	317.05
372.355	311.4
372.736	324.74
373.117	328.35
373.498	296.04
373.879	312.76
374.26	307.56
374.641	317.51
375.021	314.34
375.402	341.01
375.783	352.99
376.163	341.46
376.544	326.77
376.925	336.26
377.305	318.64
377.686	330.16
378.066	341.91
378.447	312.08
378.827	329.26
379.208	342.59
379.588	334.91
379.968	349.14
380.349	329.48
380.729	332.87
381.109	338.97
381.489	347.79
381.87	335.58
382.25	350.73
382.63	350.05
383.01	363.38
383.39	343.04
383.77	352.31
384.15	344.4
384.53	343.72
384.91	339.88
385.29	340.1
385.67	335.36
386.049	339.88
386.429	368.8
386.809	375.13
387.189	362.7
387.568	369.26
387.948	362.93
388.328	350.95
388.707	372.19
389.087	364.28
389.466	387.79
389.846	367.45
390.225	374.91
390.605	362.25
390.984	356.83
391.363	383.72
391.743	351.86
392.122	374.45
392.501	381.23
392.881	375.13
393.26	359.31
393.639	370.16
394.018	404.51
394.397	397.5
394.776	380.1
395.155	395.7
395.534	382.81
395.913	397.05
396.292	385.75
396.671	387.56
397.05	410.38
397.429	395.7
397.808	409.03
398.186	407.22
398.565	413.55
398.944	395.47
399.323	387.33
399.701	401.8
400.08	414.23
400.458	415.13
400.837	416.71
401.215	397.28
401.594	428.01
401.972	431.63
402.351	412.87
402.729	428.46
403.107	429.14
403.486	427.56
403.864	412.19
404.242	419.88
404.62	440.89
404.999	450.16
405.377	426.2
405.755	437.73
406.133	421.23
406.511	432.31
406.889	467.33
407.267	422.36
407.645	440.44
408.023	461.23
408.401	460.1
408.779	467.33
409.156	463.94
409.534	468.69
409.912	442.47
410.29	464.85
410.667	495.35
411.045	471.17
411.422	475.47
411.8	478.63
412.178	474.34
412.555	492.64
412.933	494
413.31	509.14
413.687	502.81
414.065	510.5
414.442	505.07
414.819	522.47
415.197	496.71
415.574	523.83
415.951	504.62
416.328	522.47
416.705	519.31
417.082	512.08
417.46	528.57
417.837	528.12
418.214	504.62
418.591	533.09
418.967	546.65
419.344	526.99
419.721	559.08
420.098	568.35
420.475	536.71
420.852	548.01
421.228	576.48
421.605	568.35
421.982	556.37
422.358	560.44
422.735	567.44
423.111	575.8
423.488	581.68
423.864	588.46
424.241	574.45
424.617	606.31
424.994	606.31
425.37	609.25
425.746	625.97
426.123	616.48
426.499	592.98
426.875	617.61
427.251	626.2
427.627	640.89
428.003	639.98
428.379	628.01
428.756	656.71
429.132	658.51
429.507	660.55
429.883	653.32
430.259	676.14
430.635	688.34
431.011	656.03
431.387	673.65
431.763	693.09
432.138	695.57
432.514	688.57
432.89	709.13
433.265	697.38
433.641	737.38
434.016	700.09
434.392	712.75
434.767	756.82
435.143	732.18
435.518	732.64
435.894	771.28
436.269	738.06
436.644	752.3
437.02	769.47
437.395	784.39
437.77	771.73
438.145	773.31
438.52	780.77
438.895	801.79
439.271	814.67
439.646	809.47
440.021	817.61
440.395	838.4
440.77	827.32
441.145	820.32
441.52	815.12
441.895	836.36
442.27	839.53
442.645	831.39
443.019	862.12
443.394	845.85
443.769	871.16
444.143	853.99
444.518	873.88
444.892	859.64
445.267	888.34
445.641	879.98
446.016	895.57
446.39	895.34
446.764	917.72
447.139	914.78
447.513	918.39
447.887	914.33
448.262	920.88
448.636	963.59
449.01	945.96
449.384	932.63
449.758	940.09
450.132	990.48
450.506	953.2
450.88	975.12
451.254	974.21
451.628	999.97
452.002	1018.05
452.376	1010.37
452.75	1038.84
453.123	1030.93
453.497	1046.53
453.871	1052.63
454.244	1071.16
454.618	1078.39
454.992	1079.75
455.365	1084.27
455.739	1090.82
456.112	1123.59
456.486	1097.82
456.859	1122
457.232	1165.39
457.606	1152.74
457.979	1169.91
458.352	1195.9
458.725	1207.65
459.099	1207.2
459.472	1218.73
459.845	1221.21
460.218	1257.14
460.591	1285.62
460.964	1273.86
461.337	1328.33
461.71	1307.76
462.083	1327.87
462.456	1354.77
462.829	1356.35
463.201	1371.94
463.574	1401.32
463.947	1410.58
464.32	1426.18
464.692	1479.96
465.065	1469.11
465.438	1479.28
465.81	1511.37
466.183	1547.3
466.555	1585.04
466.928	1566.06
467.3	1599.05
467.672	1585.95
468.045	1667.53
468.417	1662.33
468.789	1680.18
469.161	1700.29
469.534	1784.36
469.906	1784.59
470.278	1790.24
470.65	1846.73
471.022	1904.58
471.394	1975.09
471.766	1973.51
472.138	1959.04
472.51	2039.04
472.882	2090.57
473.253	2108.87
473.625	2155.88
473.997	2233.61
474.369	2246.04
474.74	2309.32
475.112	2349.99
475.484	2393.16
475.855	2460.73
476.227	2464.12
476.598	2566.03
476.97	2638.57
477.341	2670.66
477.713	2730.55
478.084	2796.08
478.455	2938
478.827	2995.85
479.198	3066.59
479.569	3096.64
479.94	3260.48
480.311	3312.91
480.682	3410.08
481.053	3469.51
481.424	3580.02
481.795	3660.92
482.166	3763.06
482.537	3829.05
482.908	3983.17
483.279	4064.53
483.65	4180.23
484.021	4289.38
484.391	4380.9
484.762	4529.6
485.133	4615.02
485.503	4748.58
485.874	4857.05
486.244	5018.17
486.615	5160.09
486.985	5238.96
487.356	5390.14
487.726	5521.44
488.097	5664.94
488.467	5719.4
488.837	5948.77
489.207	6044.59
489.578	6169.56
489.948	6322.32
490.318	6539.94
490.688	6630.56
491.058	6808.63
491.428	6912.59
491.798	7046.82
492.168	7321.84
492.538	7335.63
492.908	7519.58
493.278	7673.47
493.648	7769.74
494.017	7949.62
494.387	8095.38
494.757	8209.05
495.126	8374.24
495.496	8437.07
495.866	8560.68
496.235	8733.78
496.605	8866.66
496.974	9043.83
497.344	9138.52
497.713	9275.91
498.082	9371.96
498.452	9541.22
498.821	9615.79
499.19	9661.44
499.559	9871.38
499.928	9983.24
500.298	10140.3
500.667	10253.97
501.036	10244.93
501.405	10400.4
501.774	10413.29
502.143	10594.98
502.512	10643.34
502.88	10813.95
503.249	10849.43
503.618	11048.07
503.987	11083.32
504.356	11120.61
504.724	11236.77
505.093	11364.9
505.462	11371.45
505.83	11440.6
506.199	11547.94
506.567	11726.02
506.936	11799.69
507.304	11939.57
507.672	11936.41
508.041	12019.34
508.409	12130.3
508.777	12172.79
509.145	12306.34
509.514	12303.41
509.882	12410.97
510.25	12377.98
510.618	12570.52
510.986	12542.04
511.354	12641.25
511.722	12766.22
512.09	12837.4
512.458	12867.68
512.826	13019.77
513.193	12979.77
513.561	13083.72
513.929	13127.56
514.297	13146.1
514.664	13297.28
515.032	13250.27
515.4	13418.86
515.767	13380.89
516.135	13411.85
516.502	13411.85
516.869	13609.36
517.237	13662.24
517.604	13541.11
517.972	13589.47
518.339	13733.88
518.706	13710.6
519.073	13823.59
519.44	13768.68
519.808	13877.38
520.175	13852.74
520.542	14003.47
520.909	14036.92
521.276	14015.68
521.643	14116.46
522.009	14142.45
522.376	14191.49
522.743	14249.12
523.11	14269
523.477	14411.37
523.843	14375.44
524.21	14529.79
524.577	14462.9
524.943	14541.09
525.31	14483.01
525.676	14667.41
526.043	14654.3
526.409	14603.91
526.776	14846.39
527.142	14676.9
527.508	14783.57
527.874	14764.58
528.241	14777.92
528.607	14783.34
528.973	14827.86
529.339	14787.86
529.705	14892.94
530.071	14894.98
530.437	14964.35
530.803	14922.55
531.169	15053.84
531.535	14995.76
531.901	14875.09
532.267	14996.44
532.632	14890.68
532.998	14961.87
533.364	14969.1
533.73	14997.57
534.095	15036.44
534.461	15047.74
534.826	15014.97
535.192	14988.76
535.557	14993.96
535.923	14904.24
536.288	14905.37
536.653	14874.64
537.019	14862.21
537.384	14830.12
537.749	14830.8
538.114	14758.03
538.479	14774.3
538.845	14721.42
539.21	14644.13
539.575	14688.43
539.94	14590.58
540.305	14713.51
540.67	14554.65
541.034	14523.69
541.399	14554.19
541.764	14495.44
542.129	14451.82
542.494	14541.76
542.858	14489.56
543.223	14382.9
543.587	14477.13
543.952	14323.92
544.316	14367.98
544.681	14290.47
545.045	14238.5
545.41	14278.95
545.774	14247.08
546.138	14186.29
546.503	14168.67
546.867	14112.85
547.231	14219.51
547.595	14117.82
547.959	14087.77
548.324	13978.39
548.688	13987.2
549.052	13984.49
549.416	13887.09
549.779	13882.35
550.143	13854.32
550.507	13868.11
550.871	13880.99
551.235	13796.7
551.599	13855.23
551.962	13817.49
552.326	13796.93
552.689	13786.08
553.053	13649.58
553.417	13619.3
553.78	13803.7
554.143	13702.24
554.507	13669.47
554.87	13637.83
555.234	13728
555.597	13643.94
555.96	13564.84
556.323	13554.45
556.686	13584.5
557.05	13620.88
557.413	13548.34
557.776	13499.53
558.139	13566.87
558.502	13509.02
558.865	13566.87
559.228	13539.98
559.59	13536.37
559.953	13482.13
560.316	13652.07
560.679	13668.12
561.041	13647.1
561.404	13612.07
561.767	13583.6
562.129	13558.06
562.492	13588.12
562.854	13556.48
563.217	13585.86
563.579	13546.31
563.941	13642.58
564.304	13656.36
564.666	13660.66
565.028	13675.35
565.39	13646.65
565.753	13670.38
566.115	13726.64
566.477	13778.39
566.839	13677.15
567.201	13776.81
567.563	13679.64
567.925	13862.69
568.287	13820.88
568.648	13799.41
569.01	13806.42
569.372	13928.22
569.734	13797.83
570.095	13909.46
570.457	13829.92
570.819	13842.12
571.18	13902.01
571.542	13965.73
571.903	13901.1
572.265	13943.81
572.626	13990.82
572.987	14002.34
573.349	13967.09
573.71	14051.16
574.071	14012.74
574.432	13998.73
574.794	14111.95
575.155	14022.91
575.516	13977.49
575.877	14043.02
576.238	14057.48
576.599	14042.79
576.96	14063.81
577.32	14116.69
577.681	14185.39
578.042	14105.62
578.403	14047.09
578.763	14049.12
579.124	14103.58
579.485	14104.04
579.845	14223.81
580.206	14140.65
580.566	14083.7
580.927	14082.12
581.287	14176.35
581.648	14076.01
582.008	14160.76
582.368	14163.02
582.728	14142.45
583.089	14147.42
583.449	14102.91
583.809	14032.17
584.169	14142
584.529	14087.31
584.889	14144.49
585.249	14127.76
585.609	13963.47
585.969	13987.43
586.329	14060.42
586.688	14104.94
587.048	13984.27
587.408	13965.51
587.768	13910.14
588.127	13969.12
588.487	13906.3
588.846	13997.37
589.206	13946.53
589.565	13852.52
589.925	14051.83
590.284	13932.29
590.643	13965.96
591.003	13972.51
591.362	13970.03
591.721	13880.99
592.08	13932.52
592.44	13891.61
592.799	13856.81
593.158	13928.22
593.517	13925.74
593.876	13905.62
594.235	13845.74
594.593	13875.57
594.952	13891.39
595.311	13829.47
595.67	13799.19
596.029	13899.75
596.387	13847.55
596.746	13877.38
597.104	13808.22
597.463	13834.89
597.822	13779.52
598.18	13723.48
598.538	13750.82
598.897	13876.7
599.255	13800.77
599.613	13887.77
599.972	13749.69
600.33	13801.67
600.688	13815.23
601.046	13834.66
601.404	13826.98
601.762	13882.8
602.12	13859.07
602.478	13816.81
602.836	13831.05
603.194	13778.85
603.552	13758.96
603.91	13791.28
604.268	13753.54
604.625	13745.4
604.983	13838.28
605.341	13754.44
605.698	13840.09
606.056	13823.37
606.413	13843.03
606.771	13887.32
607.128	13897.26
607.485	13876.02
607.843	13869.24
608.2	13879.64
608.557	13870.37
608.914	13889.58
609.272	13937.49
609.629	13966.19
609.986	13930.71
610.343	13836.02
610.7	13985.17
611.057	13950.82
611.414	13948.79
611.771	13893.65
612.127	14014.77
612.484	13938.84
612.841	14032.4
613.198	14026.98
613.554	13974.32
613.911	14094.32
614.267	14117.37
614.624	14048.9
614.98	14069.23
615.337	14049.12
615.693	14135
616.05	14081.66
616.406	14141.55
616.762	14146.75
617.118	14130.93
617.475	14125.05
617.831	14180.64
618.187	14178.61
618.543	14196.01
618.899	14270.36
619.255	14205.73
619.611	14182.23
619.967	14320.53
620.323	14309.91
620.678	14229
621.034	14145.39
621.39	14184.03
621.746	14163.47
622.101	14343.8
622.457	14177.93
622.812	14243.24
623.168	14331.15
623.523	14226.07
623.879	14283.47
624.234	14188.55
624.589	14283.69
624.945	14243.92
625.3	14253.64
625.655	14247.53
626.01	14198.04
626.365	14275.56
626.72	14247.76
627.075	14238.04
627.43	14226.97
627.785	14134.54
628.14	14155.56
628.495	14217.48
628.85	14219.74
629.205	14117.59
629.559	14226.29
629.914	14199.63
630.269	14154.66
630.623	14083.25
630.978	14092.96
631.332	14089.12
631.687	14216.8
632.041	14046.18
632.396	14169.12
632.75	13950.37
633.104	13998.05
633.459	14055
633.813	13965.28
634.167	13970.25
634.521	14052.96
634.875	13953.98
635.229	13908.79
635.583	13900.65
635.937	13894.32
636.291	13919.86
636.645	13896.13
636.999	13894.1
637.352	13851.84
637.706	13772.29
638.06	13832.18
638.413	13855
638.767	13759.86
639.121	13821.33
639.474	13766.87
639.828	13718.06
640.181	13659.53
640.534	13714.89
640.888	13683.71
641.241	13626.31
641.594	13694.33
641.947	13678.28
642.301	13692.75
642.654	13704.72
643.007	13710.6
643.36	13615.24
643.713	13586.31
644.066	13681
644.419	13586.76
644.771	13443.71
645.124	13405.3
645.477	13379.76
645.83	13278.97
646.182	13175.92
646.535	13169.82
646.888	13216.15
647.24	13125.76
647.593	13253.44
647.945	13155.13
648.298	13057.96
648.65	13021.8
649.002	13119.66
649.355	13144.06
649.707	13133.89
650.059	13229.26
650.411	13353.1
650.763	13297.28
651.115	13459.99
651.467	13441.68
651.819	13468.12
652.171	13457.95
652.523	13375.02
652.875	13433.55
653.227	13391.96
653.578	13540.89
653.93	13405.75
654.282	13379.99
654.633	13386.54
654.985	13405.98
655.337	13432.19
655.688	13430.83
656.039	13424.96
656.391	13345.64
656.742	13365.07
657.094	13344.28
657.445	13430.38
657.796	13394.45
658.147	13423.83
658.498	13477.61
658.849	13450.49
659.2	13370.27
659.551	13274.91
659.902	13408.91
660.253	13427.44
660.604	13464.5
660.955	13429.03
661.306	13405.98
661.656	13394.45
662.007	13453.66
662.358	13478.97
662.708	13471.28
663.059	13533.66
663.409	13354.9
663.76	13474.67
664.11	13442.81
664.461	13540.89
664.811	13501.57
665.161	13492.07
665.511	13487.78
665.862	13497.27
666.212	13488.91
666.562	13573.65
666.912	13475.8
667.262	13469.48
667.612	13484.62
667.962	13514.22
668.312	13514.67
668.662	13574.33
669.011	13505.18
669.361	13511.28
669.711	13505.63
670.06	13514.67
670.41	13388.8
670.76	13389.7
671.109	13558.06
671.459	13428.8
671.808	13415.47
672.157	13509.7
672.507	13338.41
672.856	13309.25
673.205	13321.68
673.554	13391.74
673.904	13387.44
674.253	13488.23
674.602	13393.55
674.951	13124.85
675.3	13062.93
675.649	13295.24
675.998	13274.45
676.346	13247.56
676.695	13379.76
677.044	13230.39
677.393	13316.03
677.741	13315.13
678.09	13275.81
678.438	13266.54
678.787	13214.34
679.135	13233.1
679.484	13126.21
679.832	13123.04
680.181	13030.84
680.529	13104.97
680.877	13035.36
681.225	13041.69
681.573	13117.17
681.922	13050.5
682.27	12836.05
682.618	12963.05
682.966	12907.46
683.314	12895.48
683.661	12916.95
684.009	12787.01
684.357	12767.8
684.705	12819.55
685.053	12751.3
685.4	12770.96
685.748	12699.78
686.095	12679.44
686.443	12608.71
686.79	12631.98
687.138	12669.95
687.485	12668.37
687.832	12564.64
688.18	12598.76
688.527	12526
688.874	12548.6
689.221	12467.69
689.568	12449.39
689.915	12380.92
690.262	12347.02
690.609	12327.36
690.956	12261.37
691.303	12292.33
691.65	12272.22
691.997	12183.18
692.344	12115.84
692.69	12074.48
693.037	12023.41
693.383	11947.93
693.73	11936.18
694.077	11851.21
694.423	11918.56
694.769	11862.51
695.116	11772.57
695.462	11764.89
695.808	11755.62
696.155	11725.12
696.501	11618.23
696.847	11687.15
697.193	11546.82
697.539	11552.01
697.885	11515.86
698.231	11436.31
698.577	11433.82
698.923	11435.86
699.269	11322.87
699.614	11207.61
699.96	11254.39
700.306	11311.34
700.651	11206.49
700.997	11146.83
701.342	11051.69
701.688	11030.44
702.033	11065.7
702.379	11011.91
702.724	11019.6
703.069	10948.64
703.415	10802.43
703.76	10826.16
704.105	10845.36
704.45	10758.59
704.795	10727.4
705.14	10660.96
705.485	10682.88
705.83	10639.27
706.175	10623.45
706.52	10570.8
706.865	10542.77
707.209	10529.89
707.554	10463.91
707.899	10516.33
708.243	10422.78
708.588	10437.47
708.932	10353.63
709.277	10346.85
709.621	10317.47
709.966	10303.23
710.31	10327.19
710.654	10196.12
710.998	10170.13
711.342	10237.24
711.687	10217.58
712.031	10161.31
712.375	10106.4
712.719	10178.49
713.063	10082.9
713.407	10130.13
713.75	10001.77
714.094	9988.21
714.438	9992.05
714.782	10035.22
715.125	9924.26
715.469	9897.59
715.812	9973.75
716.156	9838.84
716.499	9884.71
716.843	9825.96
717.186	9783.7
717.53	9848.33
717.873	9809.01
718.216	9837.48
718.559	9758.84
718.902	9671.38
719.246	9743.92
719.589	9685.62
719.932	9660.31
720.275	9729.01
720.617	9638.62
720.96	9620.54
721.303	9684.49
721.646	9600.65
721.989	9599.3
722.331	9620.31
722.674	9536.02
723.016	9571.05
723.359	9546.19
723.701	9562.01
724.044	9586.64
724.386	9507.77
724.729	9544.83
725.071	9564.04
725.413	9538.28
725.755	9514.1
726.097	9468.45
726.439	9449.7
726.782	9500.54
727.124	9496.93
727.465	9455.12
727.807	9499.64
728.149	9498.73
728.491	9437.27
728.833	9492.18
729.175	9431.84
729.516	9392.97
729.858	9422.8
730.199	9478.85
730.541	9420.32
730.882	9461.22
731.224	9422.13
731.565	9362.47
731.906	9458.51
732.248	9364.05
732.589	9346.87
732.93	9325.4
733.271	9348.23
733.612	9380.54
733.953	9425.06
734.294	9331.96
734.635	9309.81
734.976	9402.01
735.317	9294.44
735.658	9354.1
735.999	9367.89
736.339	9364.27
736.68	9331.96
737.021	9355.46
737.361	9301
737.702	9433.65
738.042	9346.19
738.383	9356.82
738.723	9454.67
739.063	9366.76
739.404	9452.63
739.744	9443.37
740.084	9371.96
740.424	9449.7
740.764	9406.98
741.104	9493.08
741.444	9434.78
741.784	9402.92
742.124	9512.07
742.464	9476.14
742.804	9504.61
743.143	9537.6
743.483	9546.87
743.823	9564.49
744.162	9577.38
744.502	9611.05
744.841	9680.42
745.181	9730.59
745.52	9739.86
745.86	9775.56
746.199	9783.7
746.538	9852.85
746.877	9908.21
747.216	9927.2
747.556	9939.63
747.895	10004.26
748.234	10000.64
748.573	10115.21
748.911	10201.54
749.25	10229.56
749.589	10254.42
749.928	10386.17
750.267	10492.61
750.605	10461.19
750.944	10579.61
751.283	10612.6
751.621	10785.93
751.96	10695.99
752.298	10827.29
752.636	11027.73
752.975	11007.39
753.313	11181.63
753.651	11323.09
753.989	11351.79
754.327	11425.69
754.666	11521.05
755.004	11659.58
755.342	11888.95
755.679	12019.12
756.017	12137.08
756.355	12351.31
756.693	12317.87
757.031	12483.06
757.368	12573.68
757.706	12829.27
758.044	12912.65
