Data from hue_290_FLMS001491_00024.txt Node
Date: Tue Feb 07 15:52:31 GMT 2017
User: dcchb
Spectrometer: FLMS00149
Trigger mode: 0
Integration Time (sec): 2.000000E-2
Scans to average: 10
Electric dark correction enabled: true
Nonlinearity correction enabled: false
Boxcar width: 0
XAxis mode: Wavelengths
Number of Pixels in Spectrum: 2048
>>>>>Begin Spectral Data<<<<<
341.393	-30.56
341.776	-30.56
342.16	-30.56
342.543	-58.59
342.927	-67.85
343.31	-50.45
343.693	-75.31
344.077	-60.17
344.46	-62.2
344.843	-56.33
345.226	-42.77
345.61	-30.11
345.993	-35.76
346.376	-4.35
346.759	15.31
347.142	32.26
347.525	33.84
347.908	37.68
348.291	64.57
348.674	105.93
349.057	127.85
349.44	126.72
349.823	118.58
350.206	157.68
350.588	196.55
350.971	196.32
351.354	220.73
351.737	215.98
352.119	228.41
352.502	241.52
352.884	262.31
353.267	277.68
353.65	276.09
354.032	290.33
354.414	291.46
354.797	293.95
355.179	314.96
355.562	306.83
355.944	314.06
356.326	328.07
356.709	321.74
357.091	352.93
357.473	340.73
357.855	336.66
358.238	319.26
358.62	333.72
359.002	325.81
359.384	341.4
359.766	333.04
360.148	311.12
360.53	326.49
360.912	321.97
361.294	327.17
361.676	310.67
362.057	332.14
362.439	324.68
362.821	336.21
363.203	326.71
363.584	339.82
363.966	309.31
364.348	313.61
364.729	334.62
365.111	319.26
365.493	318.81
365.874	306.15
366.256	328.75
366.637	311.35
367.019	312.7
367.4	318.35
367.781	300.27
368.163	306.83
368.544	301.4
368.925	333.27
369.306	312.25
369.688	288.3
370.069	311.12
370.45	318.13
370.831	291.46
371.212	318.13
371.593	298.92
371.974	323.1
372.355	295.98
372.736	300.73
373.117	297.79
373.498	320.16
373.879	303.66
374.26	323.78
374.641	313.83
375.021	311.35
375.402	323.1
375.783	322.42
376.163	333.49
376.544	335.53
376.925	328.07
377.305	314.29
377.686	326.94
378.066	321.07
378.447	332.36
378.827	331.01
379.208	338.24
379.588	342.53
379.968	312.25
380.349	334.17
380.729	337.79
381.109	331.46
381.489	347.28
381.87	351.12
382.25	343.44
382.63	348.41
383.01	366.26
383.39	339.6
383.77	348.86
384.15	359.48
384.53	354.96
384.91	331.69
385.29	358.8
385.67	343.89
386.049	344.57
386.429	339.82
386.809	361.74
387.189	367.17
387.568	348.63
387.948	364.68
388.328	365.58
388.707	357.67
389.087	362.42
389.466	364.23
389.846	359.03
390.225	380.95
390.605	345.25
390.984	372.36
391.363	380.05
391.743	371.01
392.122	361.74
392.501	370.78
392.881	387.5
393.26	374.4
393.639	397.22
394.018	377.79
394.397	385.92
394.776	387.96
395.155	361.97
395.534	387.05
395.913	401.29
396.292	400.38
396.671	394.51
397.05	404.23
397.429	391.57
397.808	380.27
398.186	400.16
398.565	427.73
398.944	396.09
399.323	399.03
399.701	392.93
400.08	387.96
400.458	417.56
400.837	427.05
401.215	424.34
401.594	436.32
401.972	409.42
402.351	422.98
402.729	418.92
403.107	438.35
403.486	419.14
403.864	453.26
404.242	450.55
404.62	456.2
404.999	454.17
405.377	439.25
405.755	445.58
406.133	455.98
406.511	496.43
406.889	478.35
407.267	476.54
407.645	480.38
408.023	475.19
408.401	468.86
408.779	462.08
409.156	484.9
409.534	507.05
409.912	522.87
410.29	509.99
410.667	530.33
411.045	520.61
411.422	532.13
411.8	537.78
412.178	542.53
412.555	555.18
412.933	552.92
413.31	594.05
413.687	571
414.065	568.06
414.442	590.44
414.819	589.31
415.197	582.08
415.574	603.32
415.951	629.08
416.328	631.11
416.705	596.31
417.082	663.43
417.46	625.01
417.837	655.29
418.214	665.69
418.591	672.47
418.967	658.91
419.344	672.69
419.721	704.78
420.098	676.08
420.475	705.46
420.852	688.06
421.228	720.38
421.605	706.59
421.982	733.26
422.358	771.45
422.735	753.14
423.111	748.85
423.488	782.97
423.864	793.59
424.241	793.82
424.617	799.92
424.994	797.21
425.37	817.32
425.746	836.08
426.123	823.88
426.499	839.92
426.875	858
427.251	863.42
427.627	895.74
428.003	871.33
428.379	897.77
428.756	898.45
429.132	903.65
429.507	919.47
429.883	964.89
430.259	942.07
430.635	961.95
431.011	978.22
431.387	982.52
431.763	1025
432.138	1017.32
432.514	1005.11
432.89	1032.23
433.265	1044.66
433.641	1057.32
434.016	1070.42
434.392	1070.88
434.767	1107.03
435.143	1067.94
435.518	1103.19
435.894	1142.51
436.269	1139.35
436.644	1139.12
437.02	1200.14
437.395	1193.58
437.77	1187.93
438.145	1229.97
438.52	1225.45
438.895	1256.18
439.271	1226.13
439.646	1265.9
440.021	1261.38
440.395	1264.54
440.77	1273.36
441.145	1266.12
441.52	1332.34
441.895	1314.71
442.27	1307.93
442.645	1318.55
443.019	1334.37
443.394	1333.69
443.769	1347.25
444.143	1356.74
444.518	1360.13
444.892	1366.24
445.267	1382.51
445.641	1383.64
446.016	1361.94
446.39	1426.57
446.764	1390.64
447.139	1374.14
447.513	1400.13
447.887	1397.42
448.262	1432.67
448.636	1428.83
449.01	1441.26
449.384	1439.91
449.758	1464.09
450.132	1467.93
450.506	1490.07
450.88	1468.38
451.254	1473.8
451.628	1508.38
452.002	1546.57
452.376	1523.07
452.75	1504.99
453.123	1534.59
453.497	1550.41
453.871	1568.04
454.244	1570.98
454.618	1579.56
454.992	1594.03
455.365	1617.3
455.739	1637.87
456.112	1629.05
456.486	1659.56
456.859	1673.57
457.232	1712.67
457.606	1664.31
457.979	1671.54
458.352	1709.96
458.725	1736.62
459.099	1727.81
459.472	1781.82
459.845	1782.95
460.218	1813.46
460.591	1831.99
460.964	1820.01
461.337	1806
461.71	1860.69
462.083	1888.26
462.456	1862.04
462.829	1838.09
463.201	1899.1
463.574	1894.13
463.947	1873.11
464.32	1969.16
464.692	1969.61
465.065	1955.82
465.438	1996.95
465.81	2036.05
466.183	2022.49
466.555	2069.72
466.928	2091.41
467.3	2050.96
467.672	2095.48
468.045	2168.47
468.417	2123.28
468.789	2142.49
469.161	2187.68
469.534	2215.03
469.906	2245.76
470.278	2257.29
470.65	2254.12
471.022	2280.79
471.394	2308.81
471.766	2324.18
472.138	2348.36
472.51	2375.25
472.882	2427.22
473.253	2428.13
473.625	2427
473.997	2460.22
474.369	2478.07
474.74	2524.4
475.112	2516.94
475.484	2600.78
475.855	2587.22
476.227	2659.76
476.598	2659.08
476.97	2697.05
477.341	2724.84
477.713	2788.8
478.084	2773.2
478.455	2792.41
478.827	2832.86
479.198	2907.89
479.569	2920.32
479.94	3003.48
480.311	2977.94
480.682	3035.57
481.053	3092.07
481.424	3117.6
481.795	3102.23
482.166	3193.76
482.537	3198.5
482.908	3280.76
483.279	3283.47
483.65	3308.78
484.021	3386.75
484.391	3387.65
484.762	3389.46
485.133	3434.2
485.503	3479.4
485.874	3534.54
486.244	3476.91
486.615	3604.82
486.985	3580.41
487.356	3677.36
487.726	3677.81
488.097	3755.32
488.467	3784.93
488.837	3809.33
489.207	3860.41
489.578	3917.35
489.948	3872.38
490.318	3972.49
490.688	3932.72
491.058	4040.29
491.428	4021.98
491.798	4097.69
492.168	4131.81
492.538	4173.39
492.908	4175.2
493.278	4246.84
493.648	4212.94
494.017	4245.48
494.387	4273.28
494.757	4280.96
495.126	4375.42
495.496	4376.78
495.866	4370.45
496.235	4436.21
496.605	4451.58
496.974	4442.09
497.344	4465.81
497.713	4484.12
498.082	4503.78
498.452	4571.8
498.821	4607.05
499.19	4577.45
499.559	4591.46
499.928	4635.53
500.298	4661.97
500.667	4714.62
501.036	4703.1
501.405	4717.11
501.774	4697.67
502.143	4779.03
502.512	4798.91
502.88	4833.26
503.249	4816.99
503.618	4822.19
503.987	4796.88
504.356	4896.54
504.724	4915.07
505.093	4890.21
505.462	4897.89
505.83	4902.64
506.199	4943.09
506.567	5023.99
506.936	4941.06
507.304	5051.79
507.672	5066.48
508.041	5072.58
508.409	5111
508.777	5123.88
509.145	5172.24
509.514	5164.78
509.882	5157.77
510.25	5126.36
510.618	5174.27
510.986	5223.99
511.354	5211.33
511.722	5295.17
512.09	5287.49
512.458	5246.59
512.826	5293.36
513.193	5325
513.561	5337.88
513.929	5338.11
514.297	5410.65
514.664	5396.64
515.032	5414.26
515.4	5396.86
515.767	5445.9
516.135	5440.48
516.502	5405.23
516.869	5498.33
517.237	5467.37
517.604	5514.6
517.972	5538.55
518.339	5589.85
518.706	5573.81
519.073	5581.72
519.44	5595.95
519.808	5649.96
520.175	5620.59
520.542	5701.71
520.909	5688.61
521.276	5729.28
521.643	5700.81
522.009	5743.3
522.376	5727.25
522.743	5789.4
523.11	5878.21
523.477	5900.81
523.843	5893.8
524.21	5887.47
524.577	5929.28
524.943	5956.17
525.31	5975.38
525.676	6003.18
526.043	6061.03
526.409	6076.85
526.776	6105.77
527.142	6083.4
527.508	6170.18
527.874	6168.37
528.241	6177.63
528.607	6198.88
528.973	6300.34
529.339	6306.67
529.705	6307.35
530.071	6373.79
530.437	6353.67
530.803	6339.44
531.169	6416.95
531.535	6364.3
531.901	6401.36
532.267	6427.35
532.632	6461.02
532.998	6503.05
533.364	6536.72
533.73	6509.15
534.095	6664.4
534.461	6596.83
534.826	6627.34
535.192	6611.75
535.557	6689.94
535.923	6619.88
536.288	6697.62
536.653	6750.95
537.019	6719.54
537.384	6778.97
537.749	6721.8
538.114	6765.87
538.479	6734
538.845	6821.23
539.21	6859.88
539.575	6824.62
539.94	6883.15
540.305	6890.84
540.67	6847
541.034	6908.91
541.399	6936.03
541.764	6964.73
542.129	6981.23
542.494	6978.52
542.858	7009.93
543.223	7064.62
543.587	7064.84
543.952	7048.35
544.316	7088.8
544.681	7108.23
545.045	7095.8
545.41	7146.2
545.774	7202.01
546.138	7174.44
546.503	7169.92
546.867	7163.37
547.231	7243.82
547.595	7250.83
547.959	7261.45
548.324	7250.83
548.688	7287.44
549.052	7309.36
549.416	7356.36
549.779	7396.36
550.143	7397.49
550.507	7375.34
550.871	7479.29
551.235	7437.49
551.599	7483.81
551.962	7497.83
552.326	7509.8
552.689	7529.92
553.053	7494.21
553.417	7453.53
553.78	7584.38
554.143	7548.45
554.507	7620.53
554.87	7597.48
555.234	7693.3
555.597	7647.88
555.96	7663.7
556.323	7705.5
556.686	7675.9
557.05	7759.97
557.413	7745.28
557.776	7753.19
558.139	7792.51
558.502	7791.6
558.865	7801.32
559.228	7866.86
559.59	7834.09
559.953	7935.33
560.316	7938.49
560.679	7909.11
561.041	7946.18
561.404	8026.85
561.767	8035.89
562.129	7994.54
562.492	8050.81
562.854	8127.41
563.217	8141.2
563.579	8103.69
563.941	8142.55
564.304	8192.95
564.666	8210.58
565.028	8249.44
565.39	8251.25
565.753	8253.96
566.115	8272.49
566.477	8364.92
566.839	8392.04
567.201	8400.17
567.563	8417.12
567.925	8483.79
568.287	8511.36
568.648	8462.32
569.01	8560.4
569.372	8619.83
569.734	8578.25
570.095	8618.25
570.457	8720.39
570.819	8721.07
571.18	8674.52
571.542	8777.34
571.903	8804.23
572.265	8760.39
572.626	8759.94
572.987	8880.16
573.349	8879.94
573.71	8905.7
574.071	8980.27
574.432	8965.58
574.794	9150.89
575.155	9119.25
575.516	9135.97
575.877	9216.2
576.238	9158.35
576.599	9331
576.96	9257.55
577.32	9354.05
577.681	9451.45
578.042	9477.43
578.403	9554.95
578.763	9589.52
579.124	9636.75
579.485	9669.52
579.845	9749.97
580.206	9870.64
580.566	9937.31
580.927	10035.16
581.287	10060.7
581.648	10076.51
582.008	10226.12
582.368	10358.99
582.728	10411.87
583.089	10522.15
583.449	10522.38
583.809	10574.58
584.169	10735.03
584.529	10836.72
584.889	10994.91
585.249	11035.81
585.609	11092.99
585.969	11263.38
586.329	11318.97
586.688	11410.72
587.048	11595.12
587.408	11640.32
587.768	11745.4
588.127	11976.58
588.487	11976.58
588.846	12276
589.206	12274.87
589.565	12391.26
589.925	12565.04
590.284	12744.24
590.643	12847.29
591.003	13004.57
591.362	13135.87
591.721	13194.85
592.08	13414.51
592.44	13490.21
592.799	13621.05
593.158	13773.14
593.517	13866.92
593.876	13999.35
594.235	14145.11
594.593	14344.2
594.952	14461.26
595.311	14514.14
595.67	14686.56
596.029	14887.46
596.387	14952.09
596.746	15194.35
597.104	15263.05
597.463	15358.64
597.822	15563.83
598.18	15626.2
598.538	15743.94
598.897	15932.63
599.255	15981.44
599.613	16298.5
599.972	16401.55
600.33	16446.29
600.688	16577.81
601.046	16679.73
601.404	16862.32
601.762	16971.93
602.12	17032.94
602.478	17159.49
602.836	17268.87
603.194	17294.4
603.552	17475.64
603.91	17464.57
604.268	17626.37
604.625	17669.08
604.983	17795.41
605.341	17785.69
605.698	17968.28
606.056	18147.71
606.413	18158.11
606.771	18359.46
607.128	18432.68
607.485	18398.78
607.843	18460.02
608.2	18634.93
608.557	18778.88
608.914	18800.81
609.272	18958.99
609.629	19088.48
609.986	19159.21
610.343	19175.94
610.7	19357.85
611.057	19358.98
611.414	19386.55
611.771	19494.35
612.127	19610.28
612.484	19652.53
612.841	19769.14
613.198	19755.81
613.554	19786.77
613.911	19898.18
614.267	20017.27
614.624	20023.82
614.98	20151.28
615.337	20290.03
615.693	20273.31
616.05	20333.87
616.406	20402.34
616.762	20465.17
617.118	20552.4
617.475	20472.85
617.831	20596.69
618.187	20762.11
618.543	20753.52
618.899	20938.38
619.255	20881.43
619.611	20941.54
619.967	20872.39
620.323	21083.68
620.678	20958.26
621.034	21047.75
621.39	20974.99
621.746	20995.55
622.101	21256.79
622.457	21151.48
622.812	21294.07
623.168	21332.72
623.523	21298.59
623.879	21435.99
624.234	21255.88
624.589	21338.59
624.945	21430.34
625.3	21388.08
625.655	21532.71
626.01	21482.99
626.365	21544.46
626.72	21498.81
627.075	21543.56
627.43	21527.74
627.785	21463.56
628.14	21518.02
628.495	21546.72
628.85	21517.34
629.205	21393.73
629.559	21625.14
629.914	21596.21
630.269	21584.46
630.623	21616.55
630.978	21540.85
631.332	21501.3
631.687	21640.28
632.041	21504.69
632.396	21631.47
632.75	21475.99
633.104	21469.66
633.459	21401.41
633.813	21435.76
634.167	21472.6
634.521	21516.89
634.875	21484.8
635.229	21539.04
635.583	21428.76
635.937	21454.75
636.291	21488.87
636.645	21376.78
636.999	21373.62
637.352	21489.55
637.706	21454.29
638.06	21402.09
638.413	21353.73
638.767	21339.04
639.121	21399.38
639.474	21307.86
639.828	21276.9
640.181	21346.95
640.534	21386.5
640.888	21217.01
641.241	21156.22
641.594	21119.16
641.947	21345.37
642.301	21167.75
642.654	21209.33
643.007	21228.54
643.36	21224.47
643.713	21288.42
644.066	21270.57
644.419	21142.66
644.771	20923.24
645.124	20823.8
645.477	20799.4
645.83	20720.08
646.182	20552.62
646.535	20608.89
646.888	20592.17
647.24	20489.8
647.593	20633.07
647.945	20530.7
648.298	20359.41
648.65	20589.23
649.002	20468.78
649.355	20536.35
649.707	20533.41
650.059	20691.38
650.411	20846.4
650.763	20971.14
651.115	21108.54
651.467	21017.47
651.819	21101.54
652.171	21042.78
652.523	20882.78
652.875	21039.84
653.227	20968.88
653.578	21072.84
653.93	21085.26
654.282	20967.08
654.633	20875.55
654.985	20974.08
655.337	21038.94
655.688	21071.71
656.039	21140.63
656.391	20873.29
656.742	20962.78
657.094	20994.65
657.445	21008.66
657.796	21012.27
658.147	21026.06
658.498	21000.07
658.849	21045.49
659.2	20988.32
659.551	20938.6
659.902	21030.35
660.253	21059.95
660.604	20989.67
660.955	20893.41
661.306	21028.54
661.656	20985.15
662.007	20964.59
662.358	21022.67
662.708	21026.96
663.059	21144.02
663.409	20927.98
663.76	21165.04
664.11	21038.94
664.461	21149.44
664.811	21122.78
665.161	21090.91
665.511	21056.11
665.862	21066.96
666.212	21087.52
666.562	21174.08
666.912	21131.59
667.262	21059.95
667.612	21104.93
667.962	21050.24
668.312	21069.45
668.662	21110.57
669.011	21151.03
669.361	21100.63
669.711	20956.23
670.06	21003.91
670.41	21009.56
670.76	21004.36
671.109	21051.59
671.459	21017.24
671.808	20884.82
672.157	20973.63
672.507	20863.58
672.856	21017.47
673.205	20837.36
673.554	20931.82
673.904	20838.27
674.253	20991.71
674.602	20920.3
674.951	20591.72
675.3	20551.49
675.649	20841.2
675.998	20699.29
676.346	20812.05
676.695	20879.17
677.044	20682.56
677.393	20883.01
677.741	20763.24
678.09	20751.94
678.438	20709
678.787	20589.68
679.135	20691.15
679.484	20524.15
679.832	20604.15
680.181	20488.67
680.529	20553.53
680.877	20544.04
681.225	20505.39
681.573	20616.8
681.922	20468.56
682.27	20366.87
682.618	20443.7
682.966	20284.38
683.314	20315.12
683.661	20273.08
684.009	20130.49
684.357	20203.03
684.705	20118.96
685.053	20217.04
685.4	20067.21
685.748	19947.44
686.095	19979.31
686.443	19900.21
686.79	19946.09
687.138	19977.05
687.485	19927.33
687.832	19824.73
688.18	19871.29
688.527	19685.08
688.874	19695.47
689.221	19699.09
689.568	19640.33
689.915	19476.04
690.262	19559.43
690.609	19481.92
690.956	19355.82
691.303	19414.12
691.65	19210.29
691.997	19259.32
692.344	19275.14
692.69	19120.8
693.037	19087.8
693.383	18974.81
693.73	18942.5
694.077	18908.37
694.423	18853.91
694.769	18756.29
695.116	18708.83
695.462	18693.69
695.808	18693.01
696.155	18659.57
696.501	18465.22
696.847	18530.76
697.193	18411.44
697.539	18329.86
697.885	18116.76
698.231	18164.44
698.577	18162.4
698.923	18136.87
699.269	18021.39
699.614	17877.44
699.96	17821.85
700.306	17849.64
700.651	17796.09
700.997	17674.06
701.342	17676.77
701.688	17623.21
702.033	17584.11
702.379	17586.15
702.724	17466.6
703.069	17567.39
703.415	17296.44
703.76	17285.14
704.105	17293.05
704.45	17200.17
704.795	17155.42
705.14	17037.24
705.485	17093.05
705.83	17014.64
706.175	16981.19
706.52	16905.71
706.865	16848.31
707.209	16807.64
707.554	16832.72
707.899	16824.13
708.243	16751.82
708.588	16665.04
708.932	16567.19
709.277	16538.72
709.621	16539.85
709.966	16439.29
710.31	16390.02
710.654	16305.73
710.998	16328.33
711.342	16339.85
711.687	16190.48
712.031	16251.95
712.375	16142.57
712.719	16129.46
713.063	16107.32
713.407	16078.62
713.75	16048.56
714.094	16058.28
714.438	15958.17
714.782	15988.9
715.125	16009.01
715.469	15849.02
715.812	15757.27
716.156	15756.59
716.499	15782.13
716.843	15860.77
717.186	15677.5
717.53	15728.12
717.873	15726.31
718.216	15694.67
718.559	15634.33
718.902	15559.08
719.246	15565.86
719.589	15539.2
719.932	15430.05
720.275	15499.87
720.617	15565.41
720.96	15512.76
721.303	15415.81
721.646	15525.41
721.989	15378.97
722.331	15451.51
722.674	15352.08
723.016	15455.36
723.359	15325.64
723.701	15417.39
724.044	15299.65
724.386	15216.94
724.729	15294.68
725.071	15248.36
725.413	15265.98
725.755	15159.54
726.097	15147.12
726.439	15056.5
726.782	15088.59
727.124	15155.7
727.465	15056.27
727.807	15075.93
728.149	15041.58
728.491	15092.65
728.833	15018.98
729.175	15049.04
729.516	14956.16
729.858	15023.05
730.199	14956.84
730.541	14974.69
730.882	14907.57
731.224	15052.66
731.565	14866.45
731.906	14949.61
732.248	15032.77
732.589	14968.59
732.93	14933.79
733.271	14879.33
733.612	14973.79
733.953	15017.4
734.294	14916.39
734.635	14853.11
734.976	14876.39
735.317	14853.56
735.658	14902.15
735.999	14953.67
736.339	14901.92
736.68	14862.38
737.021	14874.35
737.361	14801.14
737.702	14824.64
738.042	14811.98
738.383	14870.96
738.723	14873
739.063	14889.5
739.404	14886.56
739.744	14894.24
740.084	14860.8
740.424	14872.09
740.764	14877.74
741.104	14976.72
741.444	14860.8
741.784	14856.28
742.124	14958.42
742.464	14925.88
742.804	14938.08
743.143	14952.32
743.483	14957.52
743.823	14959.78
744.162	14920.91
744.502	15061.24
744.841	15022.6
745.181	15139.43
745.52	15099.89
745.86	15160.67
746.199	15120.22
746.538	15164.74
746.877	15322.93
747.216	15343.04
747.556	15335.59
747.895	15329.03
748.234	15402.48
748.573	15456.71
748.911	15412.19
749.25	15622.58
749.589	15645.18
749.928	15742.13
750.267	15769.25
750.605	15795.69
750.944	15802.69
751.283	15946.42
751.621	16070.48
751.96	16047.88
752.298	16216.69
752.636	16216.92
752.975	16235.45
753.313	16244.04
753.651	16518.38
753.989	16629.56
754.327	16636.12
754.666	16755.89
755.004	16848.09
755.342	16920.18
755.679	17069.33
756.017	17127.4
756.355	17211.47
756.693	17303.67
757.031	17515.19
757.368	17473.61
757.706	17558.8
758.044	17577.56
758.381	17799.48
758.719	17791.34
759.056	18122.18
