Data from hue_220_FLMS001491_00100.txt Node
Date: Tue Feb 07 16:40:13 GMT 2017
User: dcchb
Spectrometer: FLMS00149
Trigger mode: 0
Integration Time (sec): 2.000000E-2
Scans to average: 10
Electric dark correction enabled: true
Nonlinearity correction enabled: false
Boxcar width: 0
XAxis mode: Wavelengths
Number of Pixels in Spectrum: 2048
>>>>>Begin Spectral Data<<<<<
341.393	-11.37
341.776	-11.37
342.16	-11.37
342.543	-62.67
342.927	-92.72
343.31	-66.28
343.693	-76.9
344.077	-78.26
344.46	-74.87
344.843	-69.45
345.226	-32.84
345.61	-38.26
345.993	-29.67
346.376	-1.2
346.759	19.14
347.142	38.12
347.525	52.13
347.908	72.02
348.291	74.28
348.674	95.97
349.057	116.08
349.44	123.54
349.823	134.84
350.206	163.99
350.588	177.55
350.971	189.98
351.354	215.52
351.737	226.59
352.119	247.38
352.502	291.45
352.884	276.08
353.267	285.8
353.65	282.63
354.032	290.09
354.414	316.76
354.797	332.58
355.179	314.5
355.562	310.88
355.944	325.34
356.326	321.73
356.709	343.42
357.091	352.46
357.473	329.19
357.855	337.1
358.238	346.59
358.62	323.99
359.002	337.32
359.384	352.01
359.766	356.98
360.148	335.06
360.53	329.86
360.912	327.15
361.294	320.15
361.676	320.37
362.057	323.76
362.439	328.96
362.821	333.25
363.203	343.2
363.584	322.63
363.966	334.38
364.348	314.95
364.729	305.91
365.111	304.1
365.493	303.65
365.874	322.41
366.256	310.88
366.637	321.28
367.019	298.9
367.4	301.62
367.781	300.49
368.163	305.46
368.544	312.69
368.925	308.17
369.306	309.07
369.688	319.92
370.069	289.64
370.45	308.85
370.831	282.18
371.212	307.04
371.593	293.71
371.974	305.46
372.355	308.85
372.736	311.11
373.117	300.94
373.498	308.62
373.879	306.81
374.26	299.81
374.641	322.18
375.021	301.39
375.402	315.85
375.783	306.14
376.163	317.66
376.544	327.38
376.925	317.44
377.305	338.45
377.686	315.4
378.066	316.76
378.447	323.08
378.827	321.95
379.208	318.79
379.588	335.51
379.968	313.37
380.349	324.21
380.729	328.96
381.109	331.45
381.489	340.71
381.87	330.54
382.25	327.38
382.63	340.03
383.01	319.02
383.39	319.92
383.77	331.45
384.15	335.06
384.53	319.02
384.91	345.46
385.29	334.38
385.67	365.57
386.049	356.76
386.429	341.84
386.809	357.89
387.189	340.03
387.568	348.62
387.948	336.42
388.328	343.88
388.707	346.59
389.087	359.47
389.466	362.41
389.846	367.6
390.225	352.24
390.605	371.45
390.984	364.44
391.363	365.8
391.743	322.41
392.122	384.1
392.501	358.11
392.881	389.98
393.26	366.02
393.639	376.19
394.018	377.32
394.397	391.33
394.776	371.22
395.155	375.96
395.534	378.68
395.913	384.1
396.292	387.04
396.671	396.98
397.05	388.85
397.429	408.96
397.808	400.37
398.186	413.25
398.565	373.7
398.944	383.2
399.323	394.04
399.701	414.38
400.08	388.85
400.458	393.37
400.837	415.74
401.215	413.25
401.594	421.16
401.972	407.15
402.351	416.19
402.729	425.68
403.107	427.94
403.486	411.67
403.864	420.71
404.242	437.21
404.62	432.23
404.999	433.14
405.377	453.02
405.755	458.9
406.133	445.34
406.511	460.93
406.889	471.33
407.267	472.69
407.645	462.52
408.023	508.39
408.401	470.65
408.779	468.39
409.156	494.38
409.534	492.57
409.912	490.54
410.29	509.75
410.667	517.66
411.045	512.46
411.422	521.5
411.8	550.42
412.178	522.85
412.555	552.91
412.933	530.76
413.31	561.95
413.687	577.54
414.065	579.35
414.442	588.39
414.819	590.42
415.197	608.95
415.574	619.8
415.951	619.35
416.328	632.23
416.705	636.97
417.082	629.52
417.46	660.25
417.837	654.6
418.214	689.63
418.591	661.61
418.967	684.43
419.344	693.02
419.721	681.04
420.098	711.55
420.475	698.67
420.852	706.13
421.228	735.96
421.605	744.09
421.982	776.18
422.358	748.16
422.735	793.35
423.111	780.25
423.488	785.67
423.864	839
424.241	838.33
424.617	831.32
424.994	872.22
425.37	857.53
425.746	884.88
426.123	872.67
426.499	876.74
426.875	907.48
427.251	935.05
427.627	951.54
428.003	943.63
428.379	954.48
428.756	943.41
429.132	982.73
429.507	1020.92
429.883	1022.95
430.259	1020.92
430.635	1039.45
431.011	1040.81
431.387	1057.08
431.763	1081.93
432.138	1088.26
432.514	1102.05
432.89	1117.64
433.265	1121.93
433.641	1185.21
434.016	1173.01
434.392	1209.39
434.767	1215.49
435.143	1221.14
435.518	1240.57
435.894	1291.42
436.269	1287.13
436.644	1336.84
437.02	1330.52
437.395	1341.59
437.77	1361.7
438.145	1375.71
438.52	1423.39
438.895	1420.46
439.271	1455.94
439.646	1468.82
440.021	1501.81
440.395	1491.87
440.77	1512.88
441.145	1508.14
441.52	1569.38
441.895	1551.08
442.27	1593.33
442.645	1591.07
443.019	1635.59
443.394	1641.24
443.769	1671.3
444.143	1650.96
444.518	1707.91
444.892	1709.26
445.267	1694.57
445.641	1754.69
446.016	1744.52
446.39	1707
446.764	1750.84
447.139	1732.77
447.513	1751.07
447.887	1765.08
448.262	1774.35
448.636	1817.51
449.01	1835.59
449.384	1858.86
449.758	1855.02
450.132	1900.67
450.506	1897.51
450.88	1910.84
451.254	1925.3
451.628	1936.6
452.002	1960.78
452.376	1965.98
452.75	1958.52
453.123	2002.14
453.497	2036.71
453.871	2017.28
454.244	2111.96
454.618	2077.39
454.992	2151.96
455.365	2123.72
455.739	2173.66
456.112	2198.06
456.486	2213.2
456.859	2217.27
457.232	2257.95
457.606	2263.37
457.979	2267.89
458.352	2328.91
458.725	2335.46
459.099	2383.37
459.472	2410.49
459.845	2438.51
460.218	2414.1
460.591	2450.03
460.964	2462.92
461.337	2483.25
461.71	2515.34
462.083	2575.68
462.456	2581.56
462.829	2604.15
463.201	2676.47
463.574	2652.52
463.947	2666.07
464.32	2734.77
464.692	2746.98
465.065	2758.5
465.438	2811.38
465.81	2821.55
466.183	2835.56
466.555	2905.16
466.928	2918.04
467.3	2942.9
467.672	2980.87
468.045	3071.94
468.417	3054.31
468.789	3096.57
469.161	3113.07
469.534	3141.99
469.906	3200.52
470.278	3244.36
470.65	3279.62
471.022	3300.41
471.394	3365.72
471.766	3358.03
472.138	3435.32
472.51	3457.47
472.882	3561.87
473.253	3542.21
473.625	3599.16
473.997	3646.39
474.369	3659.72
474.74	3694.07
475.112	3759.6
475.484	3813.39
475.855	3873.05
476.227	3899.26
476.598	4027.17
476.97	4017
477.341	4115.53
477.713	4138.58
478.084	4132.25
478.455	4216.99
478.827	4284.79
479.198	4412.92
479.569	4445.24
479.94	4488.17
480.311	4551.45
480.682	4596.42
481.053	4699.01
481.424	4717.77
481.795	4776.53
482.166	4879.35
482.537	4906.02
482.908	4946.24
483.279	5035.05
483.65	5104.88
484.021	5161.38
484.391	5228.72
484.762	5221.49
485.133	5300.35
485.503	5343.74
485.874	5484.3
486.244	5532.89
486.615	5575.6
486.985	5654.7
487.356	5716.39
487.726	5755.26
488.097	5863.73
488.467	5904.18
488.837	5965.65
489.207	6019.88
489.578	6110.5
489.948	6147.79
490.318	6182.82
490.688	6294.23
491.058	6315.02
491.428	6382.36
491.798	6384.39
492.168	6535.35
492.538	6547.33
492.908	6571.96
493.278	6704.61
493.648	6662.13
494.017	6810.82
494.387	6760.66
494.757	6769.02
495.126	6863.03
495.496	6919.97
495.866	6929.24
496.235	6980.31
496.605	7055.34
496.974	7094.21
497.344	7031.38
497.713	7146.63
498.082	7188.44
498.452	7199.97
498.821	7285.39
499.19	7251.72
499.559	7317.48
499.928	7298.95
500.298	7345.5
500.667	7427.98
501.036	7409.9
501.405	7462.56
501.774	7416.23
502.143	7514.53
502.512	7504.36
502.88	7569.67
503.249	7545.27
503.618	7558.37
503.987	7574.19
504.356	7594.98
504.724	7660.07
505.093	7663
505.462	7693.29
505.83	7748.43
506.199	7786.17
506.567	7831.59
506.936	7828.88
507.304	7862.32
507.672	7875.88
508.041	7858.71
508.409	7904.13
508.777	7980.06
509.145	8073.62
509.514	8003.33
509.882	8024.58
510.25	8026.61
510.618	8065.93
510.986	8052.37
511.354	8095.54
511.722	8074.07
512.09	8165.14
512.458	8128.53
512.826	8127.17
513.193	8202.88
513.561	8098.93
513.929	8197.91
514.297	8238.58
514.664	8231.13
515.032	8326.49
515.4	8312.25
515.767	8283.1
516.135	8343.21
516.502	8299.6
516.869	8348.86
517.237	8343.44
517.604	8310.9
517.972	8370.56
518.339	8366.26
518.706	8324.46
519.073	8378.69
519.44	8358.35
519.808	8375.75
520.175	8388.64
520.542	8448.97
520.909	8429.76
521.276	8439.71
521.643	8458.69
522.009	8522.87
522.376	8482.87
522.743	8500.72
523.11	8472.25
523.477	8581.4
523.843	8519.03
524.21	8592.7
524.577	8646.93
524.943	8610.55
525.31	8602.42
525.676	8643.77
526.043	8705.69
526.409	8644
526.776	8680.38
527.142	8696.65
527.508	8720.38
527.874	8692.36
528.241	8730.55
528.607	8722.64
528.973	8718.57
529.339	8713.37
529.705	8751.56
530.071	8733.71
530.437	8736.2
530.803	8711.11
531.169	8751.34
531.535	8706.59
531.901	8713.6
532.267	8733.03
532.632	8730.55
532.998	8654.39
533.364	8660.72
533.73	8745.91
534.095	8739.36
534.461	8779.81
534.826	8665.92
535.192	8721.06
535.557	8712.47
535.923	8642.64
536.288	8707.5
536.653	8658.68
537.019	8615.75
537.384	8570.55
537.749	8589.08
538.114	8536.88
538.479	8547.73
538.845	8546.82
539.21	8558.8
539.575	8499.37
539.94	8524.23
540.305	8549.99
540.67	8471.57
541.034	8488.29
541.399	8451.68
541.764	8459.82
542.129	8490.1
542.494	8471.35
542.858	8410.1
543.223	8405.36
543.587	8412.36
543.952	8339.37
544.316	8375.75
544.681	8318.81
545.045	8322.2
545.41	8329.65
545.774	8328.75
546.138	8310.9
546.503	8297.34
546.867	8235.87
547.231	8290.56
547.595	8213.05
547.959	8267.28
548.324	8095.76
548.688	8215.98
549.052	8159.04
549.416	8131.47
549.779	8116.33
550.143	8079.72
550.507	8130.11
550.871	8117.23
551.235	8023.45
551.599	8055.54
551.962	8093.95
552.326	8025.71
552.689	8120.85
553.053	8012.37
553.417	7947.29
553.78	8041.75
554.143	7954.52
554.507	7992.26
554.87	7995.88
555.234	7975.76
555.597	7952.04
555.96	7976.44
556.323	7948.19
556.686	7882.89
557.05	7977.8
557.413	7929.21
557.776	7955.65
558.139	7927.63
558.502	7953.62
558.865	7938.7
559.228	7966.95
559.59	7891.25
559.953	7949.78
560.316	7974.41
560.679	7928.53
561.041	7941.64
561.404	7939.83
561.767	7996.56
562.129	7894.86
562.492	7975.99
562.854	7999.95
563.217	8001.53
563.579	8032.26
563.941	8003.79
564.304	8090.56
564.666	8064.35
565.028	8029.1
565.39	8031.81
565.753	8103.22
566.115	8043.56
566.477	8109.55
566.839	8100.28
567.201	8105.93
567.563	8087.85
567.925	8117.46
568.287	8130.11
568.648	8145.03
569.01	8160.62
569.372	8203.78
569.734	8180.73
570.095	8201.52
570.457	8235.19
570.819	8230
571.18	8187.74
571.542	8213.72
571.903	8255.31
572.265	8330.56
572.626	8224.8
572.987	8352.7
573.349	8348.64
573.71	8351.8
574.071	8387.05
574.432	8415.98
574.794	8387.28
575.155	8416.88
575.516	8382.53
575.877	8431.8
576.238	8445.58
576.599	8476.77
576.96	8502.08
577.32	8472.93
577.681	8549.31
578.042	8564
578.403	8549.99
578.763	8554.73
579.124	8584.79
579.485	8556.77
579.845	8626.14
580.206	8629.31
580.566	8602.42
580.927	8575.3
581.287	8663.66
581.648	8636.54
582.008	8726.48
582.368	8694.84
582.728	8679.7
583.089	8725.12
583.449	8754.95
583.809	8747.5
584.169	8807.16
584.529	8742.98
584.889	8761.51
585.249	8773.26
585.609	8745.24
585.969	8769.42
586.329	8829.3
586.688	8833.14
587.048	8844.44
587.408	8843.99
587.768	8832.24
588.127	8894.84
588.487	8837.66
588.846	8885.8
589.206	8881.5
589.565	8858.68
589.925	8879.47
590.284	8937.1
590.643	8959.92
591.003	8870.2
591.362	8974.16
591.721	8906.81
592.08	9034.49
592.44	9065.23
592.799	9028.84
593.158	9027.04
593.517	9073.59
593.876	8997.43
594.235	8992.69
594.593	9050.76
594.952	9040.14
595.311	9086.02
595.67	9140.93
596.029	9172.8
596.387	9108.84
596.746	9114.94
597.104	9119.92
597.463	9086.47
597.822	9137.32
598.18	9099.8
598.538	9065.91
598.897	9076.07
599.255	9106.13
599.613	9236.97
599.972	9205.79
600.33	9144.32
600.688	9136.86
601.046	9168.28
601.404	9275.39
601.762	9185.9
602.12	9215.05
602.478	9228.84
602.836	9233.81
603.194	9232
603.552	9179.58
603.91	9220.25
604.268	9256.41
604.625	9147.94
604.983	9226.35
605.341	9167.37
605.698	9280.36
606.056	9254.15
606.413	9221.16
606.771	9269.52
607.128	9249.86
607.485	9263.19
607.843	9261.61
608.2	9289.85
608.557	9321.94
608.914	9376.41
609.272	9358.33
609.629	9336.41
609.986	9356.29
610.343	9394.48
610.7	9391.32
611.057	9397.87
611.414	9337.09
611.771	9401.72
612.127	9388.16
612.484	9387.71
612.841	9408.27
613.198	9375.95
613.554	9458.21
613.911	9446.23
614.267	9509.28
614.624	9431.09
614.98	9517.65
615.337	9519.68
615.693	9496.85
616.05	9464.77
616.406	9577.08
616.762	9487.14
617.118	9488.72
617.475	9460.47
617.831	9521.26
618.187	9460.02
618.543	9539.34
618.899	9568.94
619.255	9574.82
619.611	9557.19
619.967	9622.95
620.323	9612.33
620.678	9556.51
621.034	9645.33
621.39	9526.91
621.746	9577.98
622.101	9649.39
622.457	9578.89
622.812	9605.1
623.168	9624.99
623.523	9578.66
623.879	9611.88
624.234	9582.95
624.589	9545.67
624.945	9558.55
625.3	9615.95
625.655	9566.01
626.01	9597.64
626.365	9632.9
626.72	9550.19
627.075	9581.15
627.43	9584.08
627.785	9512.22
628.14	9532.33
628.495	9475.61
628.85	9556.97
629.205	9553.12
629.559	9499.57
629.914	9510.19
630.269	9522.39
630.623	9498.89
630.978	9459.57
631.332	9498.21
631.687	9572.11
632.041	9486.23
632.396	9459.57
632.75	9408.04
633.104	9433.81
633.459	9403.52
633.813	9405.11
634.167	9431.32
634.521	9393.13
634.875	9443.07
635.229	9441.49
635.583	9365.56
635.937	9357.88
636.291	9400.81
636.645	9375.95
636.999	9300.02
637.352	9369.63
637.706	9328.72
638.06	9367.37
638.413	9247.82
638.767	9259.35
639.121	9270.42
639.474	9243.98
639.828	9227.71
640.181	9266.35
640.534	9219.57
640.888	9139.12
641.241	9179.35
641.594	9227.94
641.947	9192.68
642.301	9177.99
642.654	9202.85
643.007	9155.17
643.36	9147.71
643.713	9117.2
644.066	9198.78
644.419	9140.03
644.771	9133.7
645.124	8990.88
645.477	8981.16
645.83	8976.42
646.182	8826.14
646.535	8851.9
646.888	8888.96
647.24	8816.19
647.593	8884.67
647.945	8826.82
648.298	8791.56
648.65	8859.36
649.002	8788.17
649.355	8870.43
649.707	8902.97
650.059	8906.81
650.411	8979.81
650.763	9009.41
651.115	9068.62
651.467	9008.28
651.819	9038.56
652.171	9077.2
652.523	9029.52
652.875	9010.77
653.227	9007.38
653.578	9013.03
653.93	9016.42
654.282	8991.33
654.633	8990.2
654.985	9015.29
655.337	9032.69
655.688	8998.34
656.039	9078.33
656.391	8994.95
656.742	8996.98
657.094	9025
657.445	9048.51
657.796	9053.02
658.147	9012.57
658.498	9014.16
658.849	9057.32
659.2	9033.82
659.551	9035.4
659.902	9022.97
660.253	9053.25
660.604	9045.34
660.955	9002.86
661.306	9055.28
661.656	9019.13
662.007	9008.28
662.358	8997.88
662.708	9031.78
663.059	9040.37
663.409	8979.13
663.76	9070.2
664.11	9054.38
664.461	9039.24
664.811	9102.97
665.161	9092.8
665.511	9070.43
665.862	9121.72
666.212	9119.69
666.562	9175.06
666.912	9112.01
667.262	9044.66
667.612	9076.3
667.962	9111.1
668.312	9074.04
668.662	9054.38
669.011	9071.56
669.361	9005.79
669.711	9003.08
670.06	8985
670.41	9054.15
670.76	8980.94
671.109	9075.62
671.459	8992.69
671.808	9027.04
672.157	9042.4
672.507	9000.6
672.856	8966.93
673.205	8975.06
673.554	8964.44
673.904	9010.54
674.253	9008.28
674.602	9001.5
674.951	8866.59
675.3	8830.66
675.649	8989.98
675.998	8914.5
676.346	8968.06
676.695	8961.73
677.044	8937.55
677.393	8912.46
677.741	8884.44
678.09	8895.97
678.438	8865.23
678.787	8884.44
679.135	8896.42
679.484	8753.6
679.832	8902.52
680.181	8799.02
680.529	8811.45
680.877	8758.57
681.225	8784.78
681.573	8824.33
681.922	8730.32
682.27	8688.51
682.618	8683.32
682.966	8721.06
683.314	8633.6
683.661	8636.99
684.009	8639.7
684.357	8619.59
684.705	8586.82
685.053	8596.77
685.4	8595.86
685.748	8472.47
686.095	8488.07
686.443	8457.11
686.79	8508.18
687.138	8466.15
687.485	8483.77
687.832	8413.49
688.18	8459.37
688.527	8394.06
688.874	8335.76
689.221	8425.24
689.568	8280.62
689.915	8318.35
690.262	8241.07
690.609	8269.32
690.956	8289.65
691.303	8189.32
691.65	8214.4
691.997	8131.24
692.344	8112.71
692.69	8112.71
693.037	8086.27
693.383	8022.32
693.73	7994.07
694.077	7997.01
694.423	7967.63
694.769	7970.12
695.116	7939.16
695.462	7905.03
695.808	7863.68
696.155	7911.36
696.501	7857.35
696.847	7822.77
697.193	7750.69
697.539	7736.9
697.885	7691.25
698.231	7656.23
698.577	7596.79
698.923	7692.16
699.269	7571.48
699.614	7599.05
699.96	7546.17
700.306	7522.44
700.651	7457.59
700.997	7443.8
701.342	7447.64
701.688	7425.04
702.033	7390.92
702.379	7406.74
702.724	7302.34
703.069	7346.4
703.415	7296.69
703.76	7301.66
704.105	7272.73
704.45	7231.15
704.795	7227.54
705.14	7081.1
705.485	7185.73
705.83	7142.79
706.175	7079.52
706.52	7122.91
706.865	7103.7
707.209	7021.21
707.554	7037.48
707.899	7020.54
708.243	6997.26
708.588	6981.67
708.932	6942.35
709.277	6911.39
709.621	6959.75
709.966	6887.66
710.31	6872.74
710.654	6821.22
710.998	6848.34
711.342	6794.55
711.687	6793.88
712.031	6807.43
712.375	6757.72
712.719	6784.84
713.063	6788.68
713.407	6740.77
713.75	6749.81
714.094	6698.51
714.438	6708.23
714.782	6708.91
715.125	6652.41
715.469	6618.06
715.812	6656.03
716.156	6583.03
716.499	6627.1
716.843	6603.15
717.186	6615.12
717.53	6656.48
717.873	6597.04
718.216	6585.74
718.559	6568.8
718.902	6541.68
719.246	6510.72
719.589	6499.87
719.932	6497.16
720.275	6473.43
720.617	6447.44
720.96	6476.37
721.303	6487.67
721.646	6453.77
721.989	6468.46
722.331	6460.1
722.674	6446.31
723.016	6486.76
723.359	6462.13
723.701	6405.41
724.044	6416.03
724.386	6432.3
724.729	6430.04
725.071	6418.74
725.413	6457.39
725.755	6369.03
726.097	6338.75
726.439	6302.81
726.782	6346.88
727.124	6416.71
727.465	6381.46
727.807	6383.72
728.149	6298.97
728.491	6314.34
728.833	6351.17
729.175	6318.41
729.516	6312.31
729.858	6308.46
730.199	6345.75
730.541	6302.36
730.882	6325.41
731.224	6303.72
731.565	6339.88
731.906	6312.53
732.248	6346.2
732.589	6322.48
732.93	6254
733.271	6294.91
733.612	6297.62
733.953	6368.58
734.294	6310.27
734.635	6274.34
734.976	6356.37
735.317	6254.91
735.658	6315.47
735.999	6245.41
736.339	6337.39
736.68	6322.02
737.021	6377.39
737.361	6287.45
737.702	6308.69
738.042	6343.72
738.383	6306.43
738.723	6364.06
739.063	6312.53
739.404	6375.58
739.744	6381.23
740.084	6368.8
740.424	6384.62
740.764	6407.22
741.104	6417.84
741.444	6399.08
741.784	6416.03
742.124	6465.97
742.464	6457.61
742.804	6470.04
743.143	6473.88
743.483	6519.31
743.823	6517.05
744.162	6526.99
744.502	6541.68
744.841	6542.81
745.181	6563.15
745.52	6611.05
745.86	6671.84
746.199	6707.78
746.538	6716.14
746.877	6786.64
747.216	6821.9
747.556	6865.96
747.895	6849.92
748.234	6902.57
748.573	6927.88
748.911	7048.33
749.25	7063.47
749.589	7075.22
749.928	7104.15
750.267	7249.68
750.605	7282.22
750.944	7399.73
751.283	7364.71
751.621	7514.08
751.96	7463.91
752.298	7568.54
752.636	7728.09
752.975	7747.3
753.313	7843.56
753.651	7982.54
753.989	8022.09
754.327	8133.5
754.666	8177.57
755.004	8340.28
755.342	8505.92
755.679	8606.03
756.017	8721.06
756.355	8781.17
756.693	8898.23
757.031	9102.97
757.368	9181.83
757.706	9343.86
758.044	9407.14
758.381	9576.17
758.719	9716.06
759.056	9871.31
759.394	10057.07
759.731	10151.53
760.068	10285.99
760.405	10471.07
760.743	10620.44
761.08	10714.68
761.417	10969.13
761.754	11077.83
762.091	11255
762.428	11411.15
762.765	11481.21
763.102	11737.02
763.438	11863.35
763.775	12074.64
764.112	12227.18
764.449	12412.26
764.785	12557.11
765.122	12667.62
765.458	12786.03
765.795	12951.68
766.131	13216.98
766.467	13378.56
766.804	13366.36
767.14	13616.07
767.476	13742.62
767.812	13813.35
768.148	14052.67
768.485	14148.48
768.821	14233.23
