Data from hue_28_FLMS001491_00096.txt Node
Date: Tue Feb 07 17:18:04 GMT 2017
User: dcchb
Spectrometer: FLMS00149
Trigger mode: 0
Integration Time (sec): 2.000000E-2
Scans to average: 10
Electric dark correction enabled: true
Nonlinearity correction enabled: false
Boxcar width: 0
XAxis mode: Wavelengths
Number of Pixels in Spectrum: 2048
>>>>>Begin Spectral Data<<<<<
341.393	-20.34
341.776	-20.34
342.16	-20.34
342.543	-62.82
342.927	-70.28
343.31	-55.14
343.693	-63.73
344.077	-59.89
344.46	-77.51
344.843	-45.87
345.226	-34.58
345.61	-28.93
345.993	-29.38
346.376	13.78
346.759	2.71
347.142	11.3
347.525	47.91
347.908	42.71
348.291	73.44
348.674	87.91
349.057	115.25
349.44	130.39
349.823	146.66
350.206	151.41
350.588	207.23
350.971	211.97
351.354	216.27
351.737	237.96
352.119	244.97
352.502	270.73
352.884	247.9
353.267	280.44
353.65	303.27
354.032	288.13
354.414	305.75
354.797	297.85
355.179	314.12
355.562	340.78
355.944	346.88
356.326	346.88
356.709	341.46
357.091	330.16
357.473	339.65
357.855	367
358.238	318.18
358.62	351.63
359.002	335.81
359.384	327.9
359.766	352.31
360.148	338.52
360.53	325.42
360.912	332.87
361.294	333.55
361.676	340.56
362.057	343.49
362.439	334.91
362.821	336.26
363.203	324.96
363.584	335.58
363.966	314.79
364.348	345.53
364.729	338.75
365.111	315.7
365.493	307.34
365.874	309.6
366.256	310.27
366.637	317.05
367.019	324.74
367.4	337.17
367.781	309.82
368.163	320.22
368.544	306.43
368.925	330.16
369.306	312.31
369.688	333.55
370.069	306.66
370.45	312.08
370.831	305.98
371.212	317.96
371.593	304.62
371.974	328.8
372.355	318.41
372.736	303.95
373.117	315.47
373.498	321.8
373.879	335.13
374.26	327.9
374.641	310.05
375.021	322.03
375.402	314.79
375.783	300.33
376.163	324.96
376.544	346.21
376.925	330.39
377.305	323.16
377.686	312.99
378.066	353.44
378.447	329.93
378.827	327.9
379.208	332.65
379.588	338.97
379.968	333.32
380.349	353.66
380.729	324.96
381.109	335.58
381.489	320.22
381.87	339.2
382.25	312.76
382.63	332.42
383.01	327.67
383.39	340.78
383.77	339.43
384.15	355.47
384.53	322.03
384.91	345.98
385.29	364.96
385.67	346.66
386.049	350.95
386.429	330.84
386.809	362.02
387.189	348.47
387.568	357.05
387.948	362.02
388.328	349.82
388.707	365.41
389.087	356.6
389.466	361.12
389.846	380.55
390.225	352.31
390.605	350.05
390.984	383.72
391.363	363.15
391.743	386.43
392.122	370.39
392.501	362.7
392.881	388.01
393.26	384.4
393.639	365.19
394.018	367.67
394.397	355.7
394.776	384.4
395.155	379.2
395.534	364.51
395.913	386.43
396.292	372.87
396.671	393.21
397.05	362.7
397.429	408.12
397.808	405.41
398.186	383.94
398.565	388.46
398.944	388.01
399.323	377.39
399.701	383.27
400.08	409.25
400.458	380.78
400.837	393.21
401.215	400.22
401.594	399.54
401.972	398.86
402.351	435.24
402.729	409.25
403.107	416.94
403.486	421.01
403.864	423.72
404.242	386.66
404.62	427.11
404.999	427.33
405.377	411.51
405.755	420.33
406.133	429.37
406.511	428.01
406.889	431.85
407.267	435.02
407.645	439.99
408.023	439.99
408.401	435.69
408.779	435.92
409.156	432.98
409.534	454.23
409.912	449.93
410.29	431.85
410.667	460.33
411.045	436.82
411.422	460.55
411.8	449.03
412.178	460.55
412.555	466.88
412.933	463.04
413.31	459.2
413.687	464.62
414.065	468.24
414.442	483.38
414.819	483.38
415.197	486.54
415.574	474.79
415.951	509.14
416.328	479.99
416.705	506.88
417.082	488.57
417.46	492.87
417.837	498.52
418.214	500.33
418.591	525.86
418.967	519.53
419.344	511.62
419.721	512.3
420.098	516.6
420.475	534.9
420.852	522.47
421.228	537.84
421.605	521.12
421.982	535.58
422.358	536.26
422.735	535.35
423.111	541.68
423.488	554.34
423.864	553.66
424.241	567.22
424.617	545.75
424.994	549.59
425.37	576.48
425.746	553.43
426.123	573.77
426.499	568.57
426.875	580.78
427.251	569.25
427.627	598.85
428.003	589.36
428.379	576.48
428.756	595.92
429.132	596.82
429.507	612.41
429.883	623.49
430.259	606.09
430.635	624.84
431.011	608.12
431.387	644.28
431.763	638.63
432.138	651.96
432.514	642.02
432.89	665.29
433.265	671.62
433.641	663.26
434.016	658.06
434.392	647.89
434.767	696.25
435.143	688.12
435.518	660.32
435.894	678.4
436.269	693.32
436.644	699.64
437.02	710.72
437.395	706.65
437.77	728.79
438.145	697.38
438.52	739.64
438.895	730.6
439.271	743.48
439.646	745.52
440.021	751.39
440.395	738.06
440.77	747.55
441.145	776.02
441.52	768.12
441.895	747.1
442.27	748.45
442.645	765.86
443.019	776.02
443.394	775.35
443.769	796.14
444.143	790.26
444.518	794.33
444.892	811.28
445.267	795.23
445.641	806.98
446.016	793.88
446.39	813.31
446.764	798.17
447.139	816.7
447.513	819.41
447.887	836.59
448.262	839.3
448.636	842.01
449.01	846.76
449.384	847.66
449.758	861.67
450.132	889.47
450.506	872.29
450.88	878.17
451.254	883.59
451.628	901.45
452.002	887.66
452.376	908.22
452.75	907.09
453.123	900.99
453.497	934.66
453.871	921.56
454.244	933.53
454.618	943.7
454.992	960.2
455.365	956.59
455.739	983.25
456.112	1004.72
456.486	1005.17
456.859	1016.92
457.232	1024.38
457.606	1044.27
457.979	1001.33
458.352	1043.81
458.725	1056.02
459.099	1068.67
459.472	1049.92
459.845	1103.47
460.218	1092.85
460.591	1104.83
460.964	1120.2
461.337	1159.97
461.71	1135.56
462.083	1163.36
462.456	1159.74
462.829	1158.84
463.201	1197.03
463.574	1202.68
463.947	1215.11
464.32	1236.8
464.692	1239.52
465.065	1228.67
465.438	1267.99
465.81	1274.32
466.183	1273.41
466.555	1313.86
466.928	1290.36
467.3	1339.63
467.672	1350.25
468.045	1399.29
468.417	1361.09
468.789	1391.38
469.161	1411.94
469.534	1441.09
469.906	1450.81
470.278	1445.16
470.65	1488.55
471.022	1497.59
471.394	1553.18
471.766	1562.44
472.138	1568.55
472.51	1603.12
472.882	1653.52
473.253	1659.17
473.625	1678.6
473.997	1750.46
474.369	1748.65
474.74	1719.05
475.112	1795.88
475.484	1834.75
475.855	1849.67
476.227	1866.17
476.598	1921.53
476.97	1923.57
477.341	1977.8
477.713	2008.99
478.084	2069.32
478.455	2114.07
478.827	2149.55
479.198	2197.68
479.569	2205.14
479.94	2302.99
480.311	2319.04
480.682	2375.76
481.053	2421.86
481.424	2464.34
481.795	2501.18
482.166	2550.67
482.537	2582.08
482.908	2637.9
483.279	2662.3
483.65	2755.86
484.021	2815.75
484.391	2853.94
484.762	2875.4
485.133	2942.52
485.503	3011.45
485.874	3063.2
486.244	3086.7
486.615	3177.09
486.985	3185
487.356	3301.16
487.726	3339.35
488.097	3394.94
488.467	3460.47
488.837	3528.72
489.207	3580.92
489.578	3644.88
489.948	3695.95
490.318	3749.96
490.688	3803.06
491.058	3852.78
491.428	3896.39
491.798	3979.78
492.168	4033.57
492.538	4043.28
492.908	4145.2
493.278	4233.79
493.648	4251.41
494.017	4263.16
494.387	4336.16
494.757	4415.03
495.126	4478.3
495.496	4516.27
495.866	4563.95
496.235	4609.37
496.605	4632.42
496.974	4681.91
497.344	4744.51
497.713	4793.09
498.082	4812.08
498.452	4844.62
498.821	4873.09
499.19	4897.05
499.559	4971.62
499.928	5010.49
500.298	5092.75
500.667	5052.97
501.036	5095.46
501.405	5197.15
501.774	5173.88
502.143	5297.49
502.512	5224.5
502.88	5289.8
503.249	5350.37
503.618	5370.03
503.987	5422.46
504.356	5447.54
504.724	5507.2
505.093	5504.49
505.462	5510.82
505.83	5571.6
506.199	5626.97
506.567	5705.84
506.936	5640.08
507.304	5701.55
507.672	5744.93
508.041	5762.11
508.409	5862.9
508.777	5870.13
509.145	5896.79
509.514	5885.49
509.882	5961.2
510.25	5973.18
510.618	6021.76
510.986	6072.38
511.354	6073.06
511.722	6156.67
512.09	6139.73
512.458	6152.15
512.826	6186.28
513.193	6217.01
513.561	6273.28
513.929	6279.83
514.297	6318.93
514.664	6352.6
515.032	6358.48
515.4	6429.21
515.767	6460.62
516.135	6511.02
516.502	6492.03
516.869	6538.59
517.237	6584.69
517.604	6554.4
517.972	6651.8
518.339	6620.84
518.706	6643.67
519.073	6699.48
519.44	6725.7
519.808	6793.72
520.175	6760.95
520.542	6840.05
520.909	6849.76
521.276	6863.55
521.643	6893.38
522.009	6958.46
522.376	6952.36
522.743	7023.77
523.11	7062.41
523.477	7133.37
523.843	7173.14
524.21	7179.25
524.577	7262.63
524.943	7282.75
525.31	7329.07
525.676	7354.38
526.043	7351.45
526.409	7439.35
526.776	7478.9
527.142	7494.27
527.508	7593.92
527.874	7577.2
528.241	7655.84
528.607	7663.08
528.973	7718.22
529.339	7757.08
529.705	7835.73
530.071	7937.19
530.437	7936.29
530.803	7964.31
531.169	7982.16
531.535	7992.78
531.901	7974.71
532.267	8038.43
532.632	8076.62
532.998	8114.81
533.364	8209.73
533.73	8190.07
534.095	8254.25
534.461	8307.13
534.826	8280.23
535.192	8379.89
535.557	8398.42
535.923	8425.77
536.288	8437.97
536.653	8525.43
537.019	8489.72
537.384	8515.03
537.749	8574.69
538.114	8586.21
538.479	8628.25
538.845	8661.69
539.21	8588.47
539.575	8683.16
539.94	8770.39
540.305	8825.76
540.67	8791.41
541.034	8789.83
541.399	8900.1
541.764	8906.43
542.129	8954.57
542.494	9014.23
542.858	9037.28
543.223	9056.49
543.587	9074.11
543.952	9086.77
544.316	9199.08
544.681	9174
545.045	9246.99
545.41	9230.72
545.774	9332.18
546.138	9368.12
546.503	9437.27
546.867	9420.54
547.231	9484.95
547.595	9436.81
547.959	9554.33
548.324	9545.06
548.688	9533.08
549.052	9700.54
549.416	9721.55
549.779	9622.12
550.143	9621.22
550.507	9738.73
550.871	9735.11
551.235	9766.3
551.599	9858.05
551.962	9785.28
552.326	9898.27
552.689	9965.39
553.053	9918.16
553.417	9978.49
553.78	10007.87
554.143	10056.23
554.507	10148.43
554.87	10107.98
555.234	10197.47
555.597	10141.2
555.96	10139.39
556.323	10180.52
556.686	10266.85
557.05	10304.59
557.413	10399.95
557.776	10384.81
558.139	10436.56
558.502	10441.31
558.865	10448.54
559.228	10517.24
559.59	10561.08
559.953	10649.66
560.316	10695.76
560.679	10668.87
561.041	10716.1
561.404	10778.7
561.767	10844.01
562.129	10790.9
562.492	10859.83
562.854	10899.37
563.217	10884.46
563.579	10908.64
563.941	11004.68
564.304	10998.35
564.666	11105.7
565.028	11102.76
565.39	11175.53
565.753	11154.51
566.115	11218.24
566.477	11256.43
566.839	11290.1
567.201	11266.82
567.563	11400.83
567.925	11403.99
568.287	11467.27
568.648	11528.06
569.01	11523.76
569.372	11644.21
569.734	11633.82
570.095	11678.56
570.457	11752.23
570.819	11869.29
571.18	11833.36
571.542	11855.51
571.903	11940.48
572.265	11983.41
572.626	12039.46
572.987	12060.25
573.349	12166.91
573.71	12120.81
574.071	12289.17
574.432	12383.86
574.794	12436.28
575.155	12474.47
575.516	12509.73
575.877	12575.94
576.238	12713.56
576.599	12858.64
576.96	12776.61
577.32	12927.34
577.681	13037.4
578.042	13099.09
578.403	13250.27
578.763	13339.31
579.124	13449.36
579.485	13617.95
579.845	13682.13
580.206	13783.14
580.566	13916.47
580.927	14096.35
581.287	14223.35
581.648	14400.53
582.008	14525.49
582.368	14621.08
582.728	14845.26
583.089	14914.41
583.449	15175.42
583.809	15326.15
584.169	15498.8
584.529	15625.35
584.889	16016.3
585.249	16126.58
585.609	16253.81
585.969	16612.22
586.329	16674.59
586.688	16982.6
587.048	17172.88
587.408	17395.47
587.768	17640.44
588.127	17898.96
588.487	18139.86
588.846	18522.68
589.206	18647.19
589.565	18862.78
589.925	19320.4
590.284	19430
590.643	19716.09
591.003	20062.52
591.362	20290.77
591.721	20614.15
592.08	20808.04
592.44	21160.35
592.799	21327.35
593.158	21588.13
593.517	21953.55
593.876	22364.38
594.235	22522.57
594.593	22919.85
594.952	23149.45
595.311	23424.02
595.67	23775.87
596.029	24129.31
596.387	24468.96
596.746	24675.06
597.104	24809.07
597.463	25186.46
597.822	25498.54
598.18	25727.23
598.538	26007.45
598.897	26487.44
599.255	26574.44
599.613	27221.88
599.972	27186.4
600.33	27599.73
600.688	27813.05
601.046	28199.03
601.404	28535.75
601.762	28790.43
602.12	29189.06
602.478	29323.52
602.836	29513.8
603.194	29711.08
603.552	30114.91
603.91	30230.62
604.268	30694.33
604.625	30858.17
604.983	31186.52
605.341	31271.27
605.698	31726.17
606.056	31885.04
606.413	32208.19
606.771	32527.96
607.128	32738.35
607.485	32715.07
607.843	32895.18
608.2	33319.12
608.557	33716.63
608.914	33656.74
609.272	34130.18
609.629	34238.87
609.986	34562.93
610.343	34661.69
610.7	35122.92
611.057	34984.84
611.414	35153.43
611.771	35463.02
612.127	35804.03
612.484	35909.79
612.841	36267.52
613.198	36233.85
613.554	36407.86
613.911	36760.39
614.267	36822.99
614.624	36841.97
614.98	37307.95
615.337	37460.48
615.693	37465.91
616.05	37580.03
616.406	38070.41
616.762	37952.9
617.118	38045.33
617.475	38247.36
617.831	38531.42
618.187	38673.79
618.543	38612.77
618.899	39018.86
619.255	39047.11
619.611	39049.14
619.967	39324.84
620.323	39488.91
620.678	39382.47
621.034	39440.77
621.39	39622.46
621.746	39567.55
622.101	40220.64
622.457	39936.8
622.812	40018.61
623.168	40176.8
623.523	40315.1
623.879	40455.43
624.234	40319.17
624.589	40669.44
624.945	40658.59
625.3	40789.21
625.655	40771.81
626.01	40955.08
626.365	40995.31
626.72	40980.39
627.075	41084.57
627.43	41214.96
627.785	41123.44
628.14	41211.8
628.495	41197.79
628.85	41346.03
629.205	41222.19
629.559	41434.16
629.914	41350.1
630.269	41454.5
630.623	41322.3
630.978	41320.5
631.332	41540.15
631.687	41648.4
632.041	41573.6
632.396	41644.55
632.75	41599.58
633.104	41611.11
633.459	41455.41
633.813	41558.23
634.167	41591.22
634.521	41661.05
634.875	41677.32
635.229	41621.96
635.583	41595.06
635.937	41571.11
636.291	41487.72
636.645	41660.6
636.999	41610.66
637.352	41764.33
637.706	41545.12
638.06	41685.23
638.413	41621.28
638.767	41440.94
639.121	41646.59
639.474	41468.06
639.828	41488.63
640.181	41546.48
640.534	41697.43
640.888	41448.4
641.241	41461.28
641.594	41340.16
641.947	41585.8
642.301	41532.47
642.654	41612.24
643.007	41481.4
643.36	41511.22
643.713	41512.58
644.066	41518
644.419	41330.89
644.771	41155.75
645.124	40884.8
645.477	40693.85
645.83	40498.82
646.182	40297.92
646.535	40217.47
646.888	40290.69
647.24	40162.11
647.593	40391.48
647.945	40260.41
648.298	40151.49
648.65	40034.2
649.002	40038.95
649.355	40078.72
649.707	40090.25
650.059	40283.01
650.411	40816.1
650.763	40797.57
651.115	41194.4
651.467	41066.72
651.819	41106.26
652.171	41053.38
652.523	40929.32
652.875	40990.56
653.227	40779.27
653.578	41207.73
653.93	41105.13
654.282	40836.89
654.633	40760.28
654.985	40955.08
655.337	40903.78
655.688	40792.6
656.039	40926.61
656.391	40565.49
656.742	40750.57
657.094	40760.51
657.445	41057
657.796	40892.03
658.147	40786.05
658.498	40597.35
658.849	40849.32
659.2	40739.49
659.551	40700.4
659.902	40833.73
660.253	40719.38
660.604	40770.91
660.955	40588.09
661.306	40711.7
661.656	40655.43
662.007	40636.9
662.358	40742.88
662.708	40733.84
663.059	40710.34
663.409	40348.54
663.76	40774.52
664.11	40720.96
664.461	40686.39
664.811	40769.32
665.161	40782.88
665.511	40618.14
665.862	40731.81
666.212	40760.06
666.562	40713.28
666.912	40648.42
667.262	40708.53
667.612	40590.35
667.962	40603.9
668.312	40493.4
668.662	40594.86
669.011	40595.99
669.361	40588.99
669.711	40457.24
670.06	40532.27
670.41	40490.46
670.76	40525.71
671.109	40621.98
671.459	40464.02
671.808	40560.52
672.157	40484.13
672.507	40326.85
672.856	40269.22
673.205	40331.59
673.554	40478.48
673.904	40309.67
674.253	40565.49
674.602	40332.72
674.951	39782
675.3	39689.8
675.649	40236.46
675.998	40100.64
676.346	40260.18
676.695	40477.35
677.044	40107.65
677.393	40205.72
677.741	40349.22
678.09	40150.81
678.438	40040.3
678.787	40116.69
679.135	40162.33
679.484	39932.51
679.832	39979.06
680.181	39778.16
680.529	39949.91
680.877	39718.05
681.225	39848.67
681.573	39986.52
681.922	39744.27
682.27	39674.21
682.618	39723.48
682.966	39457.27
683.314	39546.53
683.661	39542.92
684.009	39300.21
684.357	39297.5
684.705	39176.15
685.053	39293.2
685.4	39220.44
685.748	38987.68
686.095	39004.17
686.443	38848.02
686.79	38758.53
687.138	38822.26
687.485	38816.38
687.832	38677.85
688.18	38772.54
688.527	38537.07
688.874	38572.09
689.221	38377.75
689.568	38360.57
689.915	38310.41
690.262	38227.24
690.609	38196.51
690.956	38101.37
691.303	38022.73
691.65	37874.48
691.997	37941.6
692.344	37561.27
692.69	37710.42
693.037	37722.17
693.383	37349.98
693.73	37675.62
694.077	37296.19
694.423	37268.17
694.769	37128.29
695.116	37211.22
695.462	36972.36
695.808	36981.17
696.155	37050.33
696.501	36855.98
696.847	36684.01
697.193	36441.75
697.539	36725.36
697.885	36352.49
698.231	36316.79
698.577	36291.25
698.923	36323.34
699.269	36008.77
699.614	35818.49
699.96	35759.96
700.306	35806.97
700.651	35608.78
700.997	35571.72
701.342	35654.2
701.688	35463.7
702.033	35310.71
702.379	35340.99
702.724	35324.27
703.069	35339.86
703.415	34945.75
703.76	34959.08
704.105	34980.1
704.45	34876.15
704.795	34726.09
705.14	34638.64
705.485	34492.88
705.83	34409.72
706.175	34480.22
706.52	34458.98
706.865	34214.92
707.209	34235.48
707.554	34065.77
707.899	34086.11
708.243	33921.37
708.588	33903.52
708.932	33700.81
709.277	33657.42
709.621	33813.12
709.966	33350.54
710.31	33585.78
710.654	33228.28
710.998	33425.79
711.342	33370.42
711.687	33148.96
712.031	33160.26
712.375	32970.21
712.719	33157.32
713.063	33007.49
713.407	33139.92
713.75	32915.07
714.094	32848.85
714.438	32781.06
714.782	32766.82
715.125	32605.7
715.469	32556.43
715.812	32421.29
716.156	32314.63
716.499	32327.51
716.843	32314.18
717.186	32203.9
717.53	32476.43
717.873	32479.82
718.216	32227.85
718.559	32046.84
718.902	31840.29
719.246	31909.9
719.589	31729.11
719.932	31716
720.275	31739.5
720.617	31641.65
720.96	31748.09
721.303	31542.22
721.646	31568.89
721.989	31474.43
722.331	31426.07
722.674	31373.19
723.016	31457.7
723.359	31440.76
723.701	31236.24
724.044	31208.44
724.386	31071.73
724.729	31170.25
725.071	31087.77
725.413	30981.11
725.755	31071.73
726.097	30837.38
726.439	30773.88
726.782	30853.2
727.124	30952.86
727.465	30648.69
727.807	30734.56
728.149	30571.17
728.491	30516.26
728.833	30447.79
729.175	30393.33
729.516	30461.8
729.858	30411.4
730.199	30483.72
730.541	30304.74
730.882	30216.83
731.224	30371.63
731.565	30140
731.906	30198.3
732.248	30163.27
732.589	29990.17
732.93	29857.97
733.271	30029.94
733.612	29907.91
733.953	29924.86
734.294	29819.55
734.635	29799.67
734.976	29786.79
735.317	29704.76
735.658	29690.74
735.999	29728.94
736.339	29631.99
736.68	29698.88
737.021	29545.21
737.361	29407.36
737.702	29544.08
738.042	29448.49
738.383	29391.54
738.723	29408.49
739.063	29339.57
739.404	29370.98
739.744	29180.25
740.084	29215.73
740.424	29218.67
740.764	29184.77
741.104	29294.14
741.444	28984.1
741.784	28849.18
742.124	29046.69
742.464	28962.63
742.804	28964.21
743.143	28913.59
743.483	28875.62
743.823	28579.14
744.162	28636.54
744.502	28744.78
744.841	28579.14
745.181	28732.13
745.52	28575.07
745.86	28738.68
746.199	28469.76
746.538	28451.23
746.877	28584.33
747.216	28569.19
747.556	28434.96
747.895	28388.41
748.234	28265.02
748.573	28193.83
748.911	28183.21
749.25	28150.9
749.589	28035.2
749.928	28026.61
750.267	28175.3
750.605	28095.76
750.944	27963.33
751.283	27899.83
751.621	27864.58
751.96	27869.78
752.298	27827.06
752.636	27818.25
752.975	27618.48
753.313	27457.36
753.651	27736.9
753.989	27446.06
754.327	27481.54
754.666	27386.85
755.004	27416.68
755.342	27423.23
755.679	27308.21
756.017	27218.04
756.355	27283.8
756.693	27069.8
757.031	27173.52
757.368	26922.46
757.706	27034.32
758.044	26862.12
758.381	26930.82
758.719	26862.34
759.056	26815.79
759.394	26716.59
