Data from hue_30_FLMS001491_97.txt Node
Date: Mon Feb 06 15:06:25 GMT 2017
User: dcchb
Spectrometer: FLMS00149
Trigger mode: 0
Integration Time (sec): 2.000000E-2
Scans to average: 10
Electric dark correction enabled: true
Nonlinearity correction enabled: false
Boxcar width: 0
XAxis mode: Wavelengths
Number of Pixels in Spectrum: 2048
>>>>>Begin Spectral Data<<<<<
341.393	-16.65
341.776	-16.65
342.16	-16.65
342.543	-66.37
342.927	-67.05
343.31	-59.81
343.693	-82.19
344.077	-48.74
344.46	-51.91
344.843	-64.33
345.226	-53.04
345.61	-30.66
345.993	-44.22
346.376	-2.19
346.759	21.76
347.142	14.99
347.525	57.24
347.908	72.16
348.291	82.1
348.674	90.92
349.057	97.92
349.44	129.56
349.823	129.11
350.206	153.74
350.588	190.57
350.971	203.68
351.354	211.82
351.737	219.05
352.119	227.18
352.502	248.2
352.884	265.37
353.267	281.19
353.65	296.56
354.032	294.53
354.414	310.57
354.797	316.45
355.179	304.47
355.562	313.51
355.944	325.03
356.326	339.5
356.709	330.46
357.091	331.81
357.473	343.79
357.855	351.93
358.238	339.95
358.62	309.22
359.002	326.16
359.384	311.7
359.766	344.02
360.148	348.76
360.53	356.45
360.912	344.47
361.294	321.42
361.676	350.8
362.057	321.19
362.439	336.33
362.821	327.97
363.203	326.16
363.584	331.59
363.966	313.73
364.348	304.47
364.729	313.73
365.111	298.82
365.493	313.06
365.874	331.36
366.256	315.09
366.637	314.86
367.019	296.11
367.4	313.51
367.781	274.87
368.163	317.12
368.544	307.63
368.925	318.03
369.306	301.31
369.688	329.55
370.069	308.31
370.45	297.46
370.831	306.73
371.212	299.72
371.593	313.96
371.974	313.73
372.355	281.65
372.736	304.02
373.117	295.66
373.498	309.89
373.879	312.15
374.26	317.12
374.641	327.07
375.021	315.32
375.402	332.04
375.783	320.97
376.163	299.27
376.544	332.72
376.925	319.84
377.305	313.28
377.686	304.47
378.066	311.93
378.447	325.49
378.827	319.16
379.208	330.46
379.588	319.38
379.968	347.63
380.349	335.43
380.729	335.66
381.109	346.05
381.489	325.26
381.87	334.07
382.25	354.19
382.63	344.92
383.01	323.9
383.39	334.3
383.77	350.12
384.15	339.5
384.53	342.66
384.91	343.56
385.29	362.09
385.67	350.57
386.049	353.96
386.429	342.66
386.809	348.76
387.189	361.64
387.568	355.09
387.948	357.12
388.328	341.53
388.707	348.31
389.087	340.63
389.466	364.81
389.846	359.84
390.225	327.29
390.605	338.82
390.984	330.91
391.363	359.84
391.743	376.78
392.122	376.56
392.501	372.49
392.881	334.07
393.26	360.74
393.639	362.32
394.018	363.9
394.397	371.81
394.776	347.86
395.155	375.43
395.534	374.52
395.913	372.94
396.292	383.34
396.671	370.23
397.05	385.82
397.429	361.64
397.808	388.31
398.186	390.57
398.565	373.85
398.944	390.57
399.323	392.15
399.701	368.2
400.08	379.04
400.458	364.58
400.837	402.09
401.215	387.86
401.594	374.07
401.972	370.23
402.351	376.78
402.729	386.95
403.107	374.07
403.486	387.86
403.864	381.3
404.242	395.54
404.62	388.76
404.999	367.07
405.377	416.78
405.755	393.05
406.133	412.04
406.511	389.66
406.889	415.65
407.267	404.81
407.645	408.65
408.023	412.26
408.401	400.51
408.779	409.33
409.156	434.64
409.534	414.07
409.912	436.44
410.29	430.34
410.667	419.95
411.045	419.49
411.422	438.03
411.8	435.77
412.178	435.77
412.555	434.41
412.933	446.39
413.31	442.09
413.687	454.52
414.065	464.24
414.442	455.2
414.819	437.8
415.197	455.88
415.574	463.11
415.951	477.57
416.328	470.57
416.705	476.44
417.082	459.27
417.46	482.32
417.837	471.24
418.214	446.84
418.591	488.65
418.967	468.53
419.344	466.95
419.721	487.06
420.098	505.59
420.475	474.41
420.852	493.84
421.228	500.85
421.605	495.2
421.982	479.61
422.358	485.48
422.735	521.41
423.111	498.81
423.488	515.76
423.864	527.97
424.241	506.5
424.617	522.54
424.994	500.4
425.37	547.85
425.746	519.15
426.123	517.57
426.499	517.12
426.875	546.27
427.251	549.43
427.627	509.89
428.003	566.38
428.379	552.15
428.756	553.73
429.132	576.1
429.507	570
429.883	565.25
430.259	560.96
430.635	595.54
431.011	578.36
431.387	609.77
431.763	595.08
432.138	607.06
432.514	605.48
432.89	589.66
433.265	606.38
433.641	628.75
434.016	631.01
434.392	612.26
434.767	629.88
435.143	621.75
435.518	631.92
435.894	617.23
436.269	612.94
436.644	630.79
437.02	634.4
437.395	644.12
437.77	650
438.145	668.98
438.52	661.3
438.895	662.65
439.271	678.7
439.646	691.35
440.021	658.81
440.395	692.03
440.77	700.62
441.145	680.5
441.52	726.83
441.895	697.91
442.27	708.75
442.645	714.85
443.019	722.31
443.394	706.04
443.769	726.38
444.143	705.36
444.518	741.29
444.892	715.08
445.267	732.93
445.641	728.41
446.016	727.28
446.39	735.42
446.764	738.81
447.139	716.66
447.513	762.99
447.887	737.23
448.262	749.88
448.636	757.11
449.01	781.52
449.384	764.12
449.758	762.31
450.132	770.9
450.506	796.89
450.88	787.85
451.254	775.42
451.628	805.25
452.002	786.04
452.376	812.7
452.75	806.15
453.123	826.49
453.497	825.59
453.871	863.78
454.244	851.8
454.618	849.31
454.992	837.79
455.365	847.96
455.739	876.21
456.112	855.64
456.486	888.63
456.859	896.09
457.232	905.58
457.606	894.51
457.979	902.65
458.352	911.69
458.725	926.15
459.099	940.16
459.472	966.6
459.845	936.09
460.218	982.42
460.591	969.08
460.964	983.77
461.337	1005.69
461.71	1014.73
462.083	1017.44
462.456	1039.37
462.829	1013.83
463.201	1053.15
463.574	1033.26
463.947	1069.42
464.32	1064.45
464.692	1093.6
465.065	1104
465.438	1107.84
465.81	1118.46
466.183	1162.53
466.555	1131.34
466.928	1155.07
467.3	1168.18
467.672	1162.98
468.045	1212.02
468.417	1212.24
468.789	1221.73
469.161	1213.6
469.534	1251.56
469.906	1283.43
470.278	1313.48
470.65	1301.73
471.022	1319.13
471.394	1379.7
471.766	1357.78
472.138	1370.66
472.51	1392.35
472.882	1454.5
473.253	1449.07
473.625	1489.97
473.997	1511.67
474.369	1521.84
474.74	1552.35
475.112	1537.43
475.484	1597.32
475.855	1628.73
476.227	1618.33
476.598	1685
476.97	1680.7
477.341	1755.96
477.713	1780.59
478.084	1780.81
478.455	1878.21
478.827	1882.73
479.198	1927.93
479.569	1939.91
479.94	2011.54
480.311	2030.98
480.682	2080.69
481.053	2110.52
481.424	2171.76
481.795	2230.75
482.166	2237.75
482.537	2309.84
482.908	2339.22
483.279	2420.57
483.65	2435.49
484.021	2520.46
484.391	2543.05
484.762	2590.96
485.133	2601.36
485.503	2666.22
485.874	2734.01
486.244	2766.55
486.615	2837.06
486.985	2869.83
487.356	2932.87
487.726	2961.8
488.097	3067.79
488.467	3112.08
488.837	3142.13
489.207	3212.87
489.578	3287.67
489.948	3331.73
490.318	3412.86
490.688	3410.6
491.058	3487.66
491.428	3553.42
491.798	3611.5
492.168	3705.96
492.538	3735.79
492.908	3782.8
493.278	3847.43
493.648	3845.85
494.017	3934.43
494.387	3977.37
494.757	3991.15
495.126	4093.07
495.496	4078.83
495.866	4149.34
496.235	4251.94
496.605	4278.83
496.974	4340.97
497.344	4330.58
497.713	4401.31
498.082	4445.6
498.452	4539.16
498.821	4585.94
499.19	4575.54
499.559	4624.36
499.928	4653.96
500.298	4725.6
500.667	4735.31
501.036	4704.81
501.405	4833.16
501.774	4856.89
502.143	4874.52
502.512	4942.77
502.88	4989.77
503.249	5012.59
503.618	5028.19
503.987	5038.36
504.356	5067.96
504.724	5133.95
505.093	5178.47
505.462	5162.19
505.83	5199.26
506.199	5289.42
506.567	5353.15
506.936	5324.68
507.304	5409.19
507.672	5452.13
508.041	5477.44
508.409	5507.5
508.777	5472.02
509.145	5583.65
509.514	5590.66
509.882	5582.07
510.25	5673.59
510.618	5716.98
510.986	5743.42
511.354	5704.78
511.722	5755.63
512.09	5887.83
512.458	5816.41
512.826	5857.32
513.193	5935.51
513.561	5915.4
513.929	5924.89
514.297	5989.52
514.664	6029.74
515.032	6045.11
515.4	6098.67
515.767	6117.65
516.135	6136.63
516.502	6112.45
516.869	6227.93
517.237	6227.48
517.604	6178.21
517.972	6261.15
518.339	6262.28
518.706	6262.96
519.073	6306.57
519.44	6336.85
519.808	6436.06
520.175	6427.02
520.542	6477.41
520.909	6468.38
521.276	6491.2
521.643	6529.84
522.009	6573.01
522.376	6642.61
522.743	6637.41
523.11	6734.58
523.477	6749.27
523.843	6789.5
524.21	6807.12
524.577	6839.21
524.943	6900.45
525.31	6940.68
525.676	6937.74
526.043	6996.5
526.409	6985.88
526.776	7080.56
527.142	7138.87
527.508	7197.4
527.874	7194.23
528.241	7208.02
528.607	7262.93
528.973	7368.92
529.339	7283.72
529.705	7407.11
530.071	7431.29
530.437	7468.57
530.803	7486.65
531.169	7554.67
531.535	7536.37
531.901	7600.77
532.267	7608.91
532.632	7717.61
532.998	7730.04
533.364	7752.18
533.73	7736.14
534.095	7829.47
534.461	7903.37
534.826	7860.43
535.192	7961.67
535.557	7975.23
535.923	7994.89
536.288	8049.35
536.653	8021.33
537.019	8061.33
537.384	8103.36
537.749	8157.82
538.114	8174.54
538.479	8174.09
538.845	8246.41
539.21	8207.09
539.575	8270.81
539.94	8271.04
540.305	8353.52
540.67	8321.89
541.034	8339.96
541.399	8374.31
541.764	8440.75
542.129	8466.97
542.494	8532.73
542.858	8541.54
543.223	8597.36
543.587	8594.42
543.952	8666.06
544.316	8716.9
544.681	8691.59
545.045	8842.55
545.41	8839.61
545.774	8871.93
546.138	8924.13
546.503	8896.11
546.867	8928.88
547.231	8994.41
547.595	8998.03
547.959	8984.69
548.324	9040.51
548.688	9143.11
549.052	9079.15
549.416	9162.54
549.779	9123.67
550.143	9195.54
550.507	9295.19
550.871	9280.05
551.235	9302.42
551.599	9374.29
551.962	9383.78
552.326	9334.51
552.689	9391.69
553.053	9395.98
553.417	9432.14
553.78	9604.56
554.143	9530.22
554.507	9633.49
554.87	9558.01
555.234	9693.38
555.597	9672.13
555.96	9673.94
556.323	9684.11
556.686	9730.21
557.05	9819.25
557.413	9849.98
557.776	9838.23
558.139	9925.69
558.502	9991.22
558.865	9863.54
559.228	9977.66
559.59	10040.71
559.953	10118.22
560.316	10084.1
560.679	10099.24
561.041	10207.94
561.404	10188.5
561.767	10305.56
562.129	10292.46
562.492	10360.02
562.854	10387.37
563.217	10351.21
563.579	10332
563.941	10398.89
564.304	10449.97
564.666	10571.09
565.028	10562.96
565.39	10615.61
565.753	10620.58
566.115	10614.48
566.477	10681.37
566.839	10677.53
567.201	10742.61
567.563	10721.6
567.925	10880.24
568.287	10915.94
568.648	10954.81
569.01	10999.56
569.372	11050.4
569.734	11052.44
570.095	11128.14
570.457	11178.99
570.819	11143.96
571.18	11288.59
571.542	11286.33
571.903	11272.99
572.265	11373.78
572.626	11398.41
572.987	11485.64
573.349	11558.18
573.71	11538.3
574.071	11618.07
574.432	11696.49
574.794	11801.57
575.155	11847.89
575.516	11865.75
575.877	11846.99
576.238	12103.26
576.599	12163.14
576.96	12172.63
577.32	12332.85
577.681	12426.18
578.042	12563.36
578.403	12649.23
578.763	12703.01
579.124	12858.26
579.485	13003.12
579.845	13015.32
580.206	13157.69
580.566	13340.96
580.927	13420.73
581.287	13520.85
581.648	13626.38
582.008	13843.55
582.368	13957.44
582.728	14065.24
583.089	14292.58
583.449	14369.41
583.809	14554.26
584.169	14714.49
584.529	14969.39
584.889	15193.34
585.249	15199.9
585.609	15400.12
585.969	15718.08
586.329	15885.98
586.688	16135.24
587.048	16243.71
587.408	16488.45
587.768	16676.47
588.127	16926.63
588.487	17157.13
588.846	17532.49
589.206	17559.83
589.565	17852.71
589.925	18134.28
590.284	18318.91
590.643	18631.22
591.003	18827.15
591.362	19087.48
591.721	19339
592.08	19666.45
592.44	19830.06
592.799	20183.72
593.158	20313.43
593.517	20665.52
593.876	20977.37
594.235	21137.37
594.593	21425.04
594.952	21775.09
595.311	21897.12
595.67	22121.97
596.029	22575.52
596.387	22709.98
596.746	22956.08
597.104	23246.24
597.463	23451.88
597.822	23741.82
598.18	23996.28
598.538	24163.96
598.897	24484.17
599.255	24559.42
599.613	25229.92
599.972	25275.11
600.33	25450.02
600.688	25611.37
601.046	25972.27
601.404	26294.52
601.762	26429.88
602.12	26735.86
602.478	26985.12
602.836	27319.35
603.194	27202.75
603.552	27666.91
603.91	27669.63
604.268	28031.88
604.625	28039.11
604.983	28506.21
605.341	28520
605.698	28739.65
606.056	29043.83
606.413	29252.63
606.771	29447.43
607.128	29632.51
607.485	29694.21
607.843	29957.93
608.2	30221.2
608.557	30425.26
608.914	30512.71
609.272	30801.97
609.629	30939.14
609.986	31243.09
610.343	31229.76
610.7	31605.34
611.057	31677.2
611.414	31798.56
611.771	31974.15
612.127	32239.22
612.484	32350.86
612.841	32442.38
613.198	32453.68
613.554	32660.68
613.911	32857.06
614.267	33033.55
614.624	33206.66
614.98	33351.51
615.337	33504.5
615.693	33568.45
616.05	33633.08
616.406	34096.8
616.762	33928.67
617.118	33999.85
617.475	34228.1
617.831	34320.3
618.187	34529.33
618.543	34606.84
618.899	34895.42
619.255	34785.6
619.611	34883.9
619.967	35185.59
620.323	35311.91
620.678	35319.59
621.034	35247.05
621.39	35364.56
621.746	35379.48
622.101	35788.28
622.457	35558.68
622.812	35752.12
623.168	35888.17
623.523	35817.89
623.879	36085.22
624.234	35830.09
624.589	35978.56
624.945	36155.96
625.3	36199.8
625.655	36274.82
626.01	36477.3
626.365	36419.68
626.72	36338.1
627.075	36406.12
627.43	36506.91
627.785	36539.45
628.14	36628.26
628.495	36819.67
628.85	36671.42
629.205	36682.04
629.559	36918.42
629.914	36811.76
630.269	36810.85
630.623	36838.88
630.978	36597.75
631.332	36986.22
631.687	36956.16
632.041	36788.71
632.396	36943.73
632.75	36905.77
633.104	36969.27
633.459	36781.93
633.813	36682.72
634.167	36872.77
634.521	36750.97
634.875	36946.44
635.229	36730.18
635.583	36706
635.937	36832.55
636.291	36835.49
636.645	36896.05
636.999	36879.33
637.352	36968.59
637.706	36710.52
638.06	36895.15
638.413	36735.6
638.767	36772.44
639.121	36905.09
639.474	36569.05
639.828	36644.08
640.181	36770.4
640.534	36809.95
640.888	36671.65
641.241	36572.89
641.594	36600.24
641.947	36782.83
642.301	36524.76
642.654	36611.99
643.007	36593.01
643.36	36414.93
643.713	36561.6
644.066	36664.19
644.419	36337.19
644.771	36172.23
645.124	35874.38
645.477	35807.04
645.83	35560.49
646.182	35548.97
646.535	35372.47
646.888	35581.73
647.24	35351.01
647.593	35632.81
647.945	35492.24
648.298	35344.45
648.65	35192.59
649.002	35249.54
649.355	35526.14
649.707	35310.1
650.059	35379.93
650.411	35930.2
650.763	35913.93
651.115	36259.68
651.467	36140.59
651.819	36105.79
652.171	36243.86
652.523	35964.32
652.875	36199.34
653.227	35855.63
653.578	36042.96
653.93	35930.65
654.282	35873.93
654.633	35715.52
654.985	35898.11
655.337	35911.22
655.688	35905.79
656.039	36072.34
656.391	35652.24
656.742	35730.43
657.094	35829.86
657.445	35941.95
657.796	35769.98
658.147	35729.53
658.498	35821.28
658.849	35844.55
659.2	35697.66
659.551	35685.46
659.902	35821.28
660.253	35743.99
660.604	35716.87
660.955	35561.85
661.306	35640.04
661.656	35670.55
662.007	35709.87
662.358	35715.74
662.708	35611.11
663.059	35840.48
663.409	35402.76
663.76	35666.93
664.11	35742.63
664.461	35763.88
664.811	35683.65
665.161	35690.21
665.511	35567.95
665.862	35828.06
666.212	35767.49
666.562	35883.65
666.912	35794.38
667.262	35691.34
667.612	35676.42
667.962	35716.19
668.312	35590.1
668.662	35766.14
669.011	35680.26
669.361	35478.91
669.711	35479.82
670.06	35461.74
670.41	35332.47
670.76	35469.65
671.109	35617.21
671.459	35360.04
671.808	35482.08
672.157	35494.96
672.507	35259.48
672.856	35189.43
673.205	35352.81
673.554	35407.5
673.904	35290.22
674.253	35533.6
674.602	35301.74
674.951	34823.11
675.3	34673.96
675.649	35245.47
675.998	35120.28
676.346	35057.23
676.695	35202.31
677.044	35052.93
677.393	35140.39
677.741	35102.42
678.09	35047.96
678.438	34933.39
678.787	34976.55
679.135	35092.26
679.484	34913.95
679.832	35022.88
680.181	34766.61
680.529	34947.85
680.877	34935.65
681.225	34817.69
681.573	34970.22
681.922	34555.32
682.27	34627.18
682.618	34574.98
682.966	34529.56
683.314	34613.4
683.661	34404.14
684.009	34340.18
684.357	34389.22
684.705	34167.08
685.053	34202.34
685.4	34170.25
685.748	34131.38
686.095	34073.52
686.443	33986.97
686.79	33880.99
687.138	33925.28
687.485	33783.59
687.832	33814.32
688.18	33769.8
688.527	33709.24
688.874	33751.73
689.221	33537.72
689.568	33427.44
689.915	33336.14
690.262	33359.19
690.609	33243.26
690.956	33181.12
691.303	33132.98
691.65	32980.22
691.997	32987.9
692.344	32836.27
692.69	32855.93
693.037	32780.23
693.383	32590.17
693.73	32642.6
694.077	32481.48
694.423	32564.41
694.769	32417.52
695.116	32303.18
695.462	32221.6
695.808	32125.55
696.155	32311.99
696.501	32077.42
696.847	31968.5
697.193	31734.83
697.539	31804.43
697.885	31576.87
698.231	31546.81
698.577	31528.06
698.923	31427.04
699.269	31341.85
699.614	31276.08
699.96	31122.87
700.306	31232.92
700.651	30968.3
700.997	30996.77
701.342	30856.43
701.688	30828.86
702.033	30735.76
702.379	30690.56
702.724	30607.18
703.069	30719.26
703.415	30261.2
703.76	30363.11
704.105	30367.86
704.45	30256.9
704.795	30195.21
705.14	30036.57
705.485	29986.63
705.83	29820.98
706.175	29903.92
706.52	29818.5
706.865	29702.34
707.209	29742.11
707.554	29537.15
707.899	29645.62
708.243	29507.32
708.588	29331.95
708.932	29158.4
709.277	29236.36
709.621	29293.76
709.966	29097.84
710.31	29197.04
710.654	28979.65
710.998	28980.33
711.342	29040.44
711.687	28875.24
712.031	28771.74
712.375	28587.34
712.719	28797.28
713.063	28702.37
713.407	28577.17
713.75	28468.47
714.094	28414.01
714.438	28292.21
714.782	28339.89
715.125	28163.4
715.469	28208.59
715.812	28089.73
716.156	27999.11
716.499	27951.65
716.843	27939.67
717.186	27789.62
717.53	27923.63
717.873	27891.09
718.216	27866.23
718.559	27706.23
718.902	27626.01
719.246	27622.17
719.589	27539.69
719.932	27409.97
720.275	27494.49
720.617	27451.1
720.96	27422.63
721.303	27444.32
721.646	27378.56
721.989	27177.21
722.331	27267.15
722.674	27252.24
723.016	27176.08
723.359	27158.23
723.701	27137.89
724.044	27028.51
724.386	26871.45
724.729	27070.55
725.071	26927.5
725.413	26724.79
725.755	26827.39
726.097	26680.27
726.439	26586.04
726.782	26610.22
727.124	26679.14
727.465	26599.82
727.807	26505.59
728.149	26569.99
728.491	26547.85
728.833	26475.53
729.175	26427.85
729.516	26319.15
729.858	26329.55
730.199	26290.45
730.541	26352.82
730.882	26278.48
731.224	26376.55
731.565	26058.14
731.906	26047.3
732.248	26069.22
732.589	25941.54
732.93	25944.7
733.271	25787.64
733.612	26006.84
733.953	25947.64
734.294	25759.39
734.635	25777.02
734.976	25740.41
735.317	25685.72
735.658	25684.37
735.999	25652.05
736.339	25644.59
736.68	25612.05
737.021	25466.29
737.361	25349.69
737.702	25569.79
738.042	25517.59
738.383	25424.71
738.723	25466.52
739.063	25392.62
739.404	25457.93
739.744	25265.17
740.084	25178.84
740.424	25276.47
740.764	25199.18
741.104	25238.28
741.444	25112.18
741.784	24972.97
742.124	25001
742.464	25001.9
742.804	25009.81
743.143	24846.65
743.483	24911.51
743.823	24800.55
744.162	24784.28
744.502	24821.79
744.841	24760.55
745.181	24744.28
745.52	24661.12
745.86	24773.88
746.199	24662.47
746.538	24441.91
746.877	24632.19
747.216	24667.44
747.556	24632.42
747.895	24551.29
748.234	24433.55
748.573	24340.22
748.911	24414.34
749.25	24399.43
749.589	24252.31
749.928	24351.29
750.267	24210.51
750.605	24214.12
750.944	24125.31
751.283	24058.87
751.621	24123.5
751.96	24009.38
752.298	24104.3
752.636	24066.33
752.975	24019.33
753.313	23933.9
753.651	23945.43
753.989	23816.62
754.327	23719.67
754.666	23646.23
755.004	23694.36
755.342	23760.12
755.679	23655.04
756.017	23527.59
756.355	23544.54
756.693	23426.35
757.031	23386.12
757.368	23314.26
757.706	23320.81
758.044	23237.88
758.381	23301.83
758.719	23174.6
759.056	23217.54
759.394	23174.6
