Data from hue_230_FLMS001491_00014.txt Node
Date: Tue Feb 07 16:36:52 GMT 2017
User: dcchb
Spectrometer: FLMS00149
Trigger mode: 0
Integration Time (sec): 2.000000E-2
Scans to average: 10
Electric dark correction enabled: true
Nonlinearity correction enabled: false
Boxcar width: 0
XAxis mode: Wavelengths
Number of Pixels in Spectrum: 2048
>>>>>Begin Spectral Data<<<<<
341.393	-23.21
341.776	-23.21
342.16	-23.21
342.543	-62.53
342.927	-66.14
343.31	-60.04
343.693	-68.4
344.077	-57.1
344.46	-68.4
344.843	-28.86
345.226	-45.8
345.61	-34.73
345.993	-40.15
346.376	-19.36
346.759	17.02
347.142	19.28
347.525	47.53
347.908	45.27
348.291	76.45
348.674	97.24
349.057	120.07
349.44	121.88
349.823	152.16
350.206	159.39
350.588	186.28
350.971	201.87
351.354	203
351.737	233.06
352.119	252.04
352.502	263.79
352.884	263.57
353.267	269.89
353.65	285.94
354.032	276.67
354.414	299.95
354.797	304.7
355.179	304.7
355.562	310.57
355.944	325.26
356.326	329.1
356.709	326.39
357.091	317.58
357.473	310.12
357.855	332.27
358.238	321.87
358.62	303.57
359.002	328.65
359.384	338.37
359.766	329.55
360.148	316.45
360.53	316.22
360.912	329.1
361.294	315.99
361.676	330.01
362.057	334.75
362.439	298.14
362.821	314.64
363.203	321.42
363.584	316.67
363.966	326.84
364.348	317.35
364.729	307.63
365.111	315.32
365.493	319.84
365.874	294.98
366.256	330.23
366.637	291.59
367.019	303.79
367.4	294.98
367.781	275.32
368.163	294.75
368.544	309.89
368.925	306.28
369.306	296.33
369.688	310.8
370.069	276.67
370.45	300.18
370.831	303.79
371.212	312.15
371.593	312.38
371.974	295.88
372.355	277.35
372.736	298.14
373.117	277.8
373.498	311.47
373.879	301.08
374.26	295.43
374.641	290.01
375.021	314.64
375.402	315.54
375.783	318.93
376.163	310.34
376.544	324.81
376.925	336.11
377.305	332.27
377.686	323.23
378.066	328.88
378.447	307.86
378.827	330.91
379.208	319.61
379.588	300.63
379.968	324.81
380.349	314.64
380.729	321.19
381.109	307.86
381.489	335.2
381.87	323.23
382.25	348.54
382.63	331.14
383.01	342.21
383.39	333.4
383.77	325.03
384.15	314.41
384.53	340.4
384.91	330.46
385.29	335.66
385.67	354.41
386.049	347.63
386.429	348.31
386.809	349.67
387.189	334.3
387.568	348.99
387.948	344.24
388.328	337.69
388.707	362.32
389.087	360.74
389.466	356.67
389.846	350.8
390.225	361.64
390.605	364.13
390.984	364.13
391.363	372.72
391.743	363
392.122	359.38
392.501	358.03
392.881	371.13
393.26	396.67
393.639	364.13
394.018	369.1
394.397	370.91
394.776	370
395.155	386.95
395.534	369.78
395.913	364.81
396.292	389.44
396.671	378.37
397.05	398.25
397.429	386.95
397.808	389.89
398.186	389.21
398.565	369.55
398.944	385.6
399.323	387.41
399.701	405.48
400.08	399.61
400.458	399.16
400.837	424.47
401.215	412.49
401.594	390.12
401.972	413.17
402.351	403.68
402.729	396.67
403.107	415.2
403.486	448.42
403.864	422.66
404.242	401.42
404.62	445.71
404.999	443.22
405.377	431.02
405.755	433.05
406.133	452.94
406.511	452.71
406.889	443.9
407.267	466.05
407.645	476.22
408.023	458.36
408.401	464.47
408.779	478.48
409.156	468.08
409.534	493.62
409.912	501.07
410.29	520.51
410.667	505.82
411.045	503.11
411.422	491.36
411.8	524.12
412.178	536.55
412.555	548.3
412.933	542.66
413.31	541.07
413.687	562.32
414.065	546.27
414.442	564.58
414.819	571.13
415.197	589.21
415.574	601.41
415.951	605.48
416.328	594.63
416.705	602.09
417.082	609.55
417.46	635.08
417.837	629.66
418.214	633.95
418.591	644.35
418.967	660.62
419.344	666.72
419.721	655.87
420.098	664.46
420.475	694.06
420.852	680.05
421.228	709.43
421.605	694.97
421.982	711.69
422.358	741.52
422.735	735.19
423.111	729.09
423.488	783.55
423.864	770.67
424.241	804.8
424.617	741.07
424.994	805.47
425.37	809.31
425.746	806.38
426.123	826.94
426.499	857.22
426.875	813.61
427.251	845.7
427.627	842.08
428.003	892.7
428.379	858.35
428.756	895.41
429.132	911.23
429.507	938.8
429.883	910.56
430.259	949.42
430.635	945.36
431.011	965.69
431.387	988.52
431.763	1001.4
432.138	1001.63
432.514	1002.53
432.89	1028.52
433.265	1031.23
433.641	1043.88
434.016	1090.66
434.392	1097.89
434.767	1116.2
435.143	1118.46
435.518	1145.35
435.894	1147.61
436.269	1141.06
436.644	1207.04
437.02	1199.81
437.395	1200.72
437.77	1216.54
438.145	1260.6
438.52	1275.07
438.895	1286.36
439.271	1293.82
439.646	1330.21
440.021	1332.69
440.395	1363.2
440.77	1335.85
441.145	1346.7
441.52	1428.28
441.895	1407.04
442.27	1398.9
442.645	1439.13
443.019	1434.38
443.394	1427.38
443.769	1468.73
444.143	1479.81
444.518	1512.12
444.892	1511.44
445.267	1505.57
445.641	1532.01
446.016	1526.58
446.39	1537.66
446.764	1550.31
447.139	1551.22
447.513	1564.32
447.887	1579.92
448.262	1568.84
448.636	1586.47
449.01	1618.56
449.384	1635.51
449.758	1658.56
450.132	1659.24
450.506	1680.93
450.88	1663.98
451.254	1677.31
451.628	1704.21
452.002	1708.5
452.376	1711.66
452.75	1741.49
453.123	1764.54
453.497	1778.78
453.871	1801.38
454.244	1802.51
454.618	1838.44
454.992	1861.72
455.365	1870.76
455.739	1903.52
456.112	1941.26
456.486	1993.01
456.859	1960.92
457.232	1984.65
457.606	1996.4
457.979	2016.74
458.352	2063.52
458.725	2069.62
459.099	2075.72
459.472	2114.14
459.845	2111.65
460.218	2147.81
460.591	2119.11
460.964	2200.69
461.337	2227.58
461.71	2254.02
462.083	2252.21
462.456	2268.71
462.829	2298.09
463.201	2310.97
463.574	2343.74
463.947	2346
464.32	2399.33
464.692	2435.71
465.065	2443.62
465.438	2479.33
465.81	2545.54
466.183	2521.13
466.555	2567.69
466.928	2585.54
467.3	2573.11
467.672	2633.9
468.045	2673.22
468.417	2700.11
468.789	2709.83
469.161	2758.19
469.534	2799.55
469.906	2837.51
470.278	2854.46
470.65	2839.09
471.022	2969.48
471.394	2985.53
471.766	2976.04
472.138	3014.91
472.51	3042.25
472.882	3153.43
473.253	3173.09
473.625	3194.79
473.997	3239.08
474.369	3255.58
474.74	3317.95
475.112	3356.37
475.484	3379.64
475.855	3440.88
476.227	3417.61
476.598	3569.92
476.97	3572.63
477.341	3644.04
477.713	3700.99
478.084	3763.59
478.455	3782.8
478.827	3810.14
479.198	3922.45
479.569	3907.99
479.94	4015.56
480.311	4065.5
480.682	4089
481.053	4182.56
481.424	4257.81
481.795	4244.48
482.166	4347.53
482.537	4400.41
482.908	4493.06
483.279	4493.51
483.65	4572.15
484.021	4625.71
484.391	4696.44
484.762	4746.39
485.133	4804.92
485.503	4833.16
485.874	4925.82
486.244	4954.52
486.615	5017.57
486.985	5087.39
487.356	5117.68
487.726	5187.96
488.097	5286.71
488.467	5254.17
488.837	5403.32
489.207	5416.43
489.578	5533.94
489.948	5560.38
490.318	5628.17
490.688	5608.51
491.058	5703.65
491.428	5782.74
491.798	5763.76
492.168	5885.57
492.538	5939.58
492.908	5984.09
493.278	5992.68
493.648	5975.05
494.017	6114.49
494.387	6123.07
494.757	6189.06
495.126	6230.42
495.496	6241.94
495.866	6302.5
496.235	6398.77
496.605	6417.75
496.974	6442.84
497.344	6467.92
497.713	6523.06
498.082	6532.78
498.452	6573.91
498.821	6598.54
499.19	6579.11
499.559	6646.45
499.928	6707.69
500.298	6761.47
500.667	6740.91
501.036	6786.33
501.405	6793.34
501.774	6806.22
502.143	6826.56
502.512	6932.77
502.88	6936.84
503.249	6968.93
503.618	7000.34
503.987	6953.79
504.356	7020.45
504.724	7082.14
505.093	7032.2
505.462	7050.51
505.83	7128.7
506.199	7178.41
506.567	7191.75
506.936	7227.23
507.304	7285.3
507.672	7250.5
508.041	7311.06
508.409	7288.92
508.777	7394.45
509.145	7403.94
509.514	7401.46
509.882	7393.77
510.25	7374.11
510.618	7425.86
510.986	7462.25
511.354	7464.06
511.722	7606.2
512.09	7691.17
512.458	7560.32
512.826	7554.9
513.193	7630.6
513.561	7659.98
513.929	7674.22
514.297	7745.86
514.664	7749.47
515.032	7755.12
515.4	7786.53
515.767	7751.51
516.135	7842.12
516.502	7740.21
516.869	7889.58
517.237	7856.14
517.604	7770.94
517.972	7804.61
518.339	7923.25
518.706	7942.69
519.073	7897.26
519.44	7929.13
519.808	7933.65
520.175	7847.1
520.542	8105.85
520.909	8012.52
521.276	7940.43
521.643	7990.37
522.009	8020.42
522.376	8125.73
522.743	8068.79
523.11	8179.97
523.477	8213.87
523.843	8190.59
524.21	8259.74
524.577	8271.49
524.943	8270.59
525.31	8279.4
525.676	8355.78
526.043	8328.21
526.409	8341.55
526.776	8335.44
527.142	8302
527.508	8419.06
527.874	8400.08
528.241	8462.45
528.607	8368.44
528.973	8407.99
529.339	8444.14
529.705	8492.5
530.071	8518.72
530.437	8515.33
530.803	8539.06
531.169	8499.06
531.535	8472.39
531.901	8459.96
532.267	8487.98
532.632	8495.67
532.998	8532.95
533.364	8539.51
533.73	8544.03
534.095	8604.59
534.461	8600.07
534.826	8574.08
535.192	8543.8
535.557	8552.16
535.923	8537.47
536.288	8557.36
536.653	8587.19
537.019	8526.85
537.384	8518.26
537.749	8558.49
538.114	8442.11
538.479	8514.2
538.845	8474.2
539.21	8431.94
539.575	8473.75
539.94	8504.93
540.305	8441.88
540.67	8461.77
541.034	8504.71
541.399	8473.29
541.764	8417.25
542.129	8461.77
542.494	8403.24
542.858	8467.19
543.223	8414.76
543.587	8415.44
543.952	8422.67
544.316	8365.27
544.681	8364.14
545.045	8395.33
545.41	8440.98
545.774	8357.82
546.138	8363.24
546.503	8314.2
546.867	8301.77
547.231	8317.59
547.595	8343.81
547.959	8324.15
548.324	8229.23
548.688	8252.06
549.052	8277.82
549.416	8256.58
549.779	8250.25
550.143	8229.68
550.507	8253.64
550.871	8305.84
551.235	8192.17
551.599	8177.71
551.962	8174.32
552.326	8131.83
552.689	8196.47
553.053	8199.63
553.417	8182
553.78	8236.46
554.143	8189.91
554.507	8198.27
554.87	8107.65
555.234	8256.35
555.597	8208.67
555.96	8135.9
556.323	8192.85
556.686	8130.25
557.05	8174.77
557.413	8171.61
557.776	8180.87
558.139	8254.77
558.502	8148.1
558.865	8233.3
559.228	8226.07
559.59	8219.74
559.953	8219.29
560.316	8288.67
560.679	8278.72
561.041	8320.53
561.404	8292.51
561.767	8332.05
562.129	8320.3
562.492	8378.83
562.854	8258.16
563.217	8353.07
563.579	8239.63
563.941	8381.77
564.304	8392.62
564.666	8388.55
565.028	8352.62
565.39	8417.25
565.753	8424.48
566.115	8480.07
566.477	8510.81
566.839	8487.76
567.201	8525.04
567.563	8465.84
567.925	8555.55
568.287	8601.43
568.648	8586.51
569.01	8549.68
569.372	8608.21
569.734	8673.97
570.095	8620.86
570.457	8655.89
570.819	8668.32
571.18	8671.03
571.542	8742.67
571.903	8757.35
572.265	8725.72
572.626	8753.74
572.987	8794.42
573.349	8854.53
573.71	8801.65
574.071	8875.54
574.432	8879.61
574.794	8924.36
575.155	8868.99
575.516	8895.2
575.877	8930.23
576.238	8945.15
576.599	9012.49
576.96	8931.14
577.32	8978.14
577.681	9012.71
578.042	9084.13
578.403	9047.06
578.763	9009.1
579.124	9082.54
579.485	9064.01
579.845	9188.3
580.206	9085.26
580.566	9073.28
580.927	9152.15
581.287	9179.26
581.648	9164.35
582.008	9189.43
582.368	9215.2
582.728	9207.06
583.089	9186.72
583.449	9263.1
583.809	9224.46
584.169	9301.07
584.529	9264.46
584.889	9336.55
585.249	9272.37
585.609	9329.09
585.969	9332.25
586.329	9309.66
586.688	9389.88
587.048	9339.03
587.408	9272.14
587.768	9348.07
588.127	9345.59
588.487	9300.62
588.846	9476.66
589.206	9376.77
589.565	9379.71
589.925	9439.82
590.284	9392.82
590.643	9498.58
591.003	9478.47
591.362	9516.88
591.721	9450.22
592.08	9463.1
592.44	9459.48
592.799	9465.81
593.158	9514.4
593.517	9492.48
593.876	9498.13
594.235	9518.46
594.593	9574.96
594.952	9503.32
595.311	9530.89
595.67	9507.17
596.029	9554.17
596.387	9640.27
596.746	9626.48
597.104	9605.92
597.463	9626.26
597.822	9653.6
598.18	9560.05
598.538	9579.71
598.897	9701.51
599.255	9568.63
599.613	9702.64
599.972	9648.4
600.33	9689.99
600.688	9598.01
601.046	9734.5
601.404	9697.22
601.762	9697.44
602.12	9708.06
602.478	9738.12
602.836	9699.25
603.194	9669.87
603.552	9762.75
603.91	9652.7
604.268	9738.8
604.625	9671.91
604.983	9741.74
605.341	9709.42
605.698	9778.12
606.056	9775.63
606.413	9720.72
606.771	9804.33
607.128	9818.34
607.485	9810.21
607.843	9836.2
608.2	9917.1
608.557	9915.29
608.914	9834.39
609.272	9854.95
609.629	9871.22
609.986	9923.43
610.343	9833.03
610.7	9879.81
611.057	9929.75
611.414	9902.18
611.771	9964.78
612.127	9837.1
612.484	9944.89
612.841	9924.56
613.198	9935.4
613.554	9929.53
613.911	9972.01
614.267	9961.62
614.624	10008.17
614.98	9965.01
615.337	10075.51
615.693	10007.49
616.05	9997.1
616.406	10100.14
616.762	10040.71
617.118	10064.89
617.475	10007.04
617.831	10096.75
618.187	10091.56
618.543	10113.48
618.899	10094.95
619.255	10093.14
619.611	10112.12
619.967	10136.08
620.323	10209.07
620.678	10164.55
621.034	10078.45
621.39	10055.17
621.746	10123.87
622.101	10245.45
622.457	10076.87
622.812	10110.54
623.168	10102.63
623.523	10156.64
623.879	10103.99
624.234	10074.83
624.589	10169.75
624.945	10184.89
625.3	10205.68
625.655	10184.44
626.01	10122.52
626.365	10123.65
626.72	10145.57
627.075	10114.61
627.43	10094.04
627.785	10137.88
628.14	10072.57
628.495	10117.09
628.85	10015.17
629.205	10064.44
629.559	10110.77
629.914	10077.55
630.269	10029.41
630.623	10001.16
630.978	10069.64
631.332	10067.6
631.687	10106.02
632.041	10023.31
632.396	9960.71
632.75	9973.37
633.104	9987.6
633.459	9977.66
633.813	9915.52
634.167	9969.53
634.521	9917.32
634.875	9883.65
635.229	9997.55
635.583	9830.09
635.937	9884.33
636.291	9888.4
636.645	9803.65
636.999	9807.04
637.352	9855.86
637.706	9810.66
638.06	9805.91
638.413	9742.19
638.767	9755.29
639.121	9821.28
639.474	9798.46
639.828	9683.88
640.181	9764.33
640.534	9755.29
640.888	9738.35
641.241	9633.26
641.594	9732.92
641.947	9743.32
642.301	9753.49
642.654	9737.67
643.007	9732.02
643.36	9679.14
643.713	9793.26
644.066	9692.47
644.419	9598.91
644.771	9552.59
645.124	9515.98
645.477	9489.99
645.83	9365.25
646.182	9405.47
646.535	9386.49
646.888	9386.72
647.24	9333.16
647.593	9375.87
647.945	9299.49
648.298	9270.79
648.65	9305.59
649.002	9270.56
649.355	9315.98
649.707	9285.02
650.059	9304.46
650.411	9525.7
650.763	9508.3
651.115	9558.69
651.467	9548.07
651.819	9595.75
652.171	9509.43
652.523	9409.09
652.875	9484.57
653.227	9447.28
653.578	9578.12
653.93	9485.02
654.282	9447.28
654.633	9483.66
654.985	9478.92
655.337	9442.08
655.688	9454.96
656.039	9528.18
656.391	9466.94
656.742	9523.21
657.094	9459.03
657.445	9598.91
657.796	9501.06
658.147	9542.19
658.498	9511.91
658.849	9507.62
659.2	9532.93
659.551	9447.51
659.902	9505.13
660.253	9481.4
660.604	9502.42
660.955	9454.29
661.306	9458.58
661.656	9433.72
662.007	9521.85
662.358	9427.85
662.708	9479.6
663.059	9468.75
663.409	9444.79
663.76	9492.93
664.11	9493.38
664.461	9485.7
664.811	9485.24
665.161	9525.92
665.511	9515.98
665.862	9492.48
666.212	9503.1
666.562	9499.03
666.912	9531.57
667.262	9551.01
667.612	9491.35
667.962	9514.17
668.312	9532.48
668.662	9516.2
669.011	9480.05
669.361	9407.96
669.711	9468.75
670.06	9464
670.41	9463.32
670.76	9468.3
671.109	9473.72
671.459	9419.03
671.808	9418.13
672.157	9498.58
672.507	9337
672.856	9379.03
673.205	9353.27
673.554	9405.7
673.904	9319.6
674.253	9396.43
674.602	9422.65
674.951	9244.35
675.3	9171.13
675.649	9372.03
675.998	9376.32
676.346	9341.52
676.695	9383.78
677.044	9301.07
677.393	9329.77
677.741	9316.44
678.09	9300.17
678.438	9275.53
678.787	9282.99
679.135	9315.76
679.484	9161.64
679.832	9188.3
680.181	9180.85
680.529	9188.08
680.877	9218.81
681.225	9163.45
681.573	9164.12
681.922	9085.93
682.27	9110.79
682.618	9083.22
682.966	9082.77
683.314	9106.05
683.661	9121.41
684.009	9030.57
684.357	9000.74
684.705	8986.05
685.053	8997.12
685.4	9009.33
685.748	8978.59
686.095	8927.07
686.443	8929.33
686.79	8842.78
687.138	8959.16
687.485	8839.16
687.832	8875.32
688.18	8872.15
688.527	8883
688.874	8802.55
689.221	8797.35
689.568	8728.65
689.915	8745.15
690.262	8727.75
690.609	8663.12
690.956	8663.35
691.303	8655.21
691.65	8597.36
691.997	8551.94
692.344	8542.67
692.69	8538.38
693.037	8495.44
693.383	8478.04
693.73	8494.08
694.077	8452.05
694.423	8396.23
694.769	8413.63
695.116	8377.7
695.462	8326.41
695.808	8288.67
696.155	8311.04
696.501	8275.33
696.847	8240.31
697.193	8158.95
697.539	8197.14
697.885	8123.02
698.231	8146.98
698.577	8103.13
698.923	8083.47
699.269	8096.13
699.614	8036.02
699.96	7961.67
700.306	7916.7
700.651	7944.49
700.997	7939.52
701.342	7912.4
701.688	7894.33
702.033	7830.6
702.379	7806.19
702.724	7810.03
703.069	7764.39
703.415	7667.67
703.76	7739.08
704.105	7776.36
704.45	7688.68
704.795	7592.64
705.14	7560.78
705.485	7573.66
705.83	7541.57
706.175	7527.78
706.52	7473.77
706.865	7469.25
707.209	7454.34
707.554	7482.36
707.899	7458.63
708.243	7419.54
708.588	7362.81
708.932	7312.42
709.277	7322.59
709.621	7307.68
709.966	7237.17
710.31	7285.75
710.654	7180.9
710.998	7237.85
711.342	7220.9
711.687	7225.19
712.031	7210.73
712.375	7107
712.719	7171.18
713.063	7128.92
713.407	7146.78
713.75	7145.87
714.094	7101.58
714.438	7098.42
714.782	7094.12
715.125	7003.5
715.469	7120.79
715.812	7043.28
716.156	7032.65
716.499	6994.24
716.843	6959.89
717.186	6993.56
717.53	7016.38
717.873	6978.42
718.216	6933.22
718.559	6950.4
718.902	6887.57
719.246	6964.63
719.589	6846.22
719.932	6870.17
720.275	6861.81
720.617	6917.18
720.96	6850.29
721.303	6827.69
721.646	6864.07
721.989	6847.12
722.331	6878.53
722.674	6854.35
723.016	6906.1
723.359	6802.6
723.701	6829.72
724.044	6800.57
724.386	6794.47
724.729	6795.82
725.071	6810.06
725.413	6762.15
725.755	6745.66
726.097	6743.62
726.439	6705.66
726.782	6710.4
727.124	6700.46
727.465	6725.32
727.807	6746.56
728.149	6712.89
728.491	6671.76
728.833	6698.65
729.175	6721.7
729.516	6714.24
729.858	6705.88
730.199	6732.55
730.541	6723.96
730.882	6643.74
731.224	6774.13
731.565	6625.43
731.906	6667.69
732.248	6712.89
732.589	6636.05
732.93	6707.69
733.271	6581.37
733.612	6656.84
733.953	6681.25
734.294	6667.69
734.635	6640.8
734.976	6726.22
735.317	6650.52
735.658	6678.77
735.999	6710.4
736.339	6667.69
736.68	6703.62
737.021	6634.7
737.361	6639.22
737.702	6674.92
738.042	6655.71
738.383	6680.57
738.723	6660.01
739.063	6675.38
739.404	6674.02
739.744	6704.08
740.084	6666.56
740.424	6686
740.764	6662.27
741.104	6716.05
741.444	6680.12
741.784	6753.11
742.124	6728.93
742.464	6742.94
742.804	6784.75
743.143	6747.69
743.483	6793.34
743.823	6787.01
744.162	6756.28
744.502	6784.98
744.841	6824.07
745.181	6875.37
745.52	6860
745.86	6928.25
746.199	6953.33
746.538	6917.4
746.877	7021.81
747.216	7047.57
747.556	7082.82
747.895	7056.61
748.234	7113.56
748.573	7128.92
748.911	7147.68
749.25	7192.42
749.589	7233.33
749.928	7349.71
750.267	7366.43
750.605	7398.75
750.944	7405.98
751.283	7488.01
751.621	7630.38
751.96	7595.35
752.298	7679.64
752.636	7765.29
752.975	7822.92
753.313	7817.72
753.651	7977.26
753.989	7928.68
754.327	8103.13
754.666	8149.46
755.004	8229.23
755.342	8381.09
755.679	8386.06
756.017	8525.27
756.355	8614.08
756.693	8641.65
757.031	8806.39
757.368	8847.07
757.706	8955.54
758.044	9120.06
758.381	9194.86
758.719	9314.4
759.056	9442.53
759.394	9526.83
759.731	9661.96
760.068	9694.28
760.405	9839.36
760.743	9939.7
761.08	10155.96
761.417	10228.28
761.754	10344.66
762.091	10413.13
762.428	10533.8
762.765	10603.86
763.102	10803.4
763.438	10848.82
763.775	10926.79
764.112	11157.74
764.449	11241.58
764.785	11309.15
765.122	11445.19
765.458	11450.84
765.795	11621.46
766.131	11749.14
766.467	11793.66
766.804	11865.07
767.14	11933.99
767.476	12147.32
767.812	12150.71
768.148	12321.1
