Data from hue_350_FLMS001491_88.txt Node
Date: Mon Feb 06 15:38:39 GMT 2017
User: dcchb
Spectrometer: FLMS00149
Trigger mode: 0
Integration Time (sec): 2.000000E-2
Scans to average: 10
Electric dark correction enabled: true
Nonlinearity correction enabled: false
Boxcar width: 0
XAxis mode: Wavelengths
Number of Pixels in Spectrum: 2048
>>>>>Begin Spectral Data<<<<<
341.393	-25.61
341.776	-25.61
342.16	-25.61
342.543	-66.51
342.927	-54.31
343.31	-73.74
343.693	-73.74
344.077	-59.5
344.46	-72.16
344.843	-58.15
345.226	-31.48
345.61	-52.05
345.993	-18.15
346.376	-10.24
346.759	8.29
347.142	25.69
347.525	58.23
347.908	78.35
348.291	79.48
348.674	89.42
349.057	109.76
349.44	120.83
349.823	152.69
350.206	178
350.588	203.99
350.971	198.57
351.354	225.69
351.737	237.66
352.119	262.52
352.502	263.65
352.884	261.39
353.267	275.85
353.65	282.41
354.032	296.64
354.414	293.03
354.797	317.66
355.179	326.47
355.562	336.64
355.944	337.77
356.326	315.4
356.709	332.58
357.091	332.12
357.473	326.47
357.855	341.39
358.238	346.59
358.62	342.07
359.002	371.9
359.384	344.1
359.766	331.45
360.148	335.51
360.53	329.19
360.912	342.97
361.294	331.9
361.676	318.34
362.057	345.91
362.439	322.63
362.821	344.33
363.203	331.67
363.584	325.34
363.966	323.76
364.348	320.15
364.729	319.24
365.111	333.93
365.493	333.25
365.874	314.27
366.256	298.45
366.637	307.72
367.019	322.86
367.4	306.14
367.781	305.68
368.163	297.55
368.544	310.2
368.925	325.8
369.306	328.73
369.688	305.91
370.069	308.17
370.45	300.71
370.831	293.93
371.212	299.81
371.593	312.01
371.974	300.03
372.355	313.82
372.736	321.95
373.117	297.1
373.498	300.26
373.879	311.79
374.26	297.77
374.641	298.9
375.021	309.3
375.402	304.1
375.783	320.37
376.163	320.6
376.544	332.12
376.925	319.47
377.305	300.71
377.686	309.53
378.066	340.94
378.447	324.44
378.827	333.48
379.208	329.19
379.588	329.64
379.968	353.37
380.349	356.76
380.729	330.77
381.109	321.73
381.489	333.25
381.87	322.63
382.25	344.1
382.63	329.64
383.01	347.49
383.39	362.18
383.77	327.6
384.15	345.46
384.53	347.49
384.91	341.62
385.29	345.68
385.67	351.11
386.049	341.62
386.429	347.72
386.809	349.07
387.189	345.68
387.568	374.61
387.948	345.46
388.328	364.67
388.707	368.28
389.087	352.69
389.466	342.52
389.846	360.6
390.225	363.31
390.605	360.82
390.984	363.31
391.363	355.63
391.743	351.56
392.122	379.81
392.501	361.73
392.881	367.6
393.26	351.56
393.639	353.14
394.018	338.45
394.397	373.25
394.776	370.32
395.155	368.51
395.534	362.86
395.913	384.78
396.292	360.6
396.671	375.51
397.05	380.48
397.429	396.76
397.808	367.38
398.186	375.51
398.565	363.08
398.944	358.11
399.323	393.59
399.701	388.62
400.08	389.3
400.458	382.52
400.837	386.13
401.215	407.38
401.594	395.63
401.972	392.24
402.351	410.54
402.729	407.6
403.107	395.85
403.486	407.83
403.864	414.83
404.242	419.81
404.62	399.24
404.999	385.91
405.377	405.57
405.755	409.41
406.133	429.3
406.511	424.78
406.889	420.48
407.267	415.06
407.645	436.53
408.023	429.07
408.401	428.84
408.779	421.84
409.156	429.97
409.534	441.95
409.912	428.39
410.29	439.92
410.667	446.47
411.045	445.34
411.422	446.92
411.8	486.7
412.178	439.24
412.555	441.5
412.933	435.62
413.31	465
413.687	459.35
414.065	472.91
414.442	489.86
414.819	473.82
415.197	472.91
415.574	494.15
415.951	481.72
416.328	485.34
416.705	516.75
417.082	490.54
417.46	502.97
417.837	501.61
418.214	508.62
418.591	507.94
418.967	508.39
419.344	510.42
419.721	531.67
420.098	521.95
420.475	520.82
420.852	505.23
421.228	533.25
421.605	522.85
421.982	523.98
422.358	541.16
422.735	554.04
423.111	554.04
423.488	562.17
423.864	561.95
424.241	561.5
424.617	563.76
424.994	558.11
425.37	552.01
425.746	552.68
426.123	558.33
426.499	576.64
426.875	608.27
427.251	554.94
427.627	584.32
428.003	597.65
428.379	582.96
428.756	579.8
429.132	595.85
429.507	607.37
429.883	631.55
430.259	630.65
430.635	628.84
431.011	628.16
431.387	656.86
431.763	629.74
432.138	658.22
432.514	680.36
432.89	645.56
433.265	666.8
433.641	664.32
434.016	667.71
434.392	693.47
434.767	676.3
435.143	687.37
435.518	683.98
435.894	692.34
436.269	688.95
436.644	719.91
437.02	739.34
437.395	722.17
437.77	731.21
438.145	737.31
438.52	740.7
438.895	731.89
439.271	745.45
439.646	761.04
440.021	750.64
440.395	754.94
440.77	744.77
441.145	768.27
441.52	756.07
441.895	765.78
442.27	778.21
442.645	802.62
443.019	796.07
443.394	780.7
443.769	789.97
444.143	786.58
444.518	796.07
444.892	834.48
445.267	806.69
445.641	829.51
446.016	806.24
446.39	834.94
446.764	817.08
447.139	814.6
447.513	847.82
447.887	816.18
448.262	857.53
448.636	826.57
449.01	837.42
449.384	858.66
449.758	852.56
450.132	868.83
450.506	877.65
450.88	872.22
451.254	864.54
451.628	884.2
452.002	912
452.376	882.17
452.75	897.98
453.123	904.99
453.497	914.48
453.871	922.84
454.244	942.5
454.618	934.37
454.992	935.27
455.365	972.79
455.739	994.03
456.112	980.24
456.486	975.72
456.859	1004.65
457.232	984.76
457.606	984.99
457.979	990.41
458.352	1027.02
458.725	1012.78
459.099	1048.72
459.472	1027.02
459.845	1066.34
460.218	1044.87
460.591	1050.3
460.964	1060.47
461.337	1078.09
461.71	1090.3
462.083	1097.3
462.456	1119.45
462.829	1095.04
463.201	1133.68
463.574	1127.13
463.947	1124.42
464.32	1174.36
464.692	1191.99
465.065	1195.6
465.438	1182.72
465.81	1205.1
466.183	1236.28
466.555	1230.41
466.928	1277.41
467.3	1265.43
467.672	1281.25
468.045	1289.16
468.417	1292.78
468.789	1304.08
469.161	1312.44
469.534	1328.48
469.906	1361.02
470.278	1360.57
470.65	1408.48
471.022	1403.51
471.394	1425.2
471.766	1451.64
472.138	1424.07
472.51	1487.8
472.882	1536.84
473.253	1529.61
473.625	1545.88
473.997	1594.01
474.369	1582.71
474.74	1597.4
475.112	1644.18
475.484	1656.61
475.855	1676.04
476.227	1705.65
476.598	1726.21
476.97	1757.4
477.341	1779.09
477.713	1810.96
478.084	1836.27
478.455	1871.29
478.827	1890.05
479.198	1955.13
479.569	1926.21
479.94	1945.41
480.311	2010.05
480.682	2044.85
481.053	2081.91
481.424	2127.56
481.795	2138.86
482.166	2191.74
482.537	2194.9
482.908	2233.99
483.279	2251.62
483.65	2316.93
484.021	2355.57
484.391	2375.01
484.762	2417.94
485.133	2404.39
485.503	2469.69
485.874	2510.82
486.244	2541.56
486.615	2582.01
486.985	2657.94
487.356	2651.61
487.726	2683.47
488.097	2702.46
488.467	2757.15
488.837	2830.82
489.207	2861.78
489.578	2940.42
489.948	2878.95
490.318	2925.95
490.688	2993.3
491.058	3001.66
491.428	3062.22
491.798	3086.4
492.168	3115.33
492.538	3131.15
492.908	3188.32
493.278	3232.84
493.648	3242.1
494.017	3280.52
494.387	3303.57
494.757	3332.95
495.126	3347.41
495.496	3397.13
495.866	3417.92
496.235	3433.74
496.605	3452.72
496.974	3447.52
497.344	3547.18
497.713	3594.19
498.082	3576.56
498.452	3645.48
498.821	3647.74
499.19	3659.72
499.559	3661.53
499.928	3756.67
500.298	3708.53
500.667	3790.79
501.036	3738.36
501.405	3793.28
501.774	3774.97
502.143	3829.43
502.512	3818.36
502.88	3865.14
503.249	3863.78
503.618	3921.63
503.987	3904.01
504.356	3901.75
504.724	4035.98
505.093	3977.45
505.462	3986.27
505.83	4040.05
506.199	4041.63
506.567	4078.69
506.936	4061.52
507.304	4122.76
507.672	4115.3
508.041	4089.77
508.409	4185.13
508.777	4228.52
509.145	4212.47
509.514	4201.63
509.882	4243.89
510.25	4250.44
510.618	4260.38
510.986	4276.2
511.354	4339.7
511.722	4321.4
512.09	4383.09
512.458	4360.04
512.826	4388.51
513.193	4408.18
513.561	4408.4
513.929	4412.92
514.297	4468.96
514.664	4503.54
515.032	4497.66
515.4	4541.05
515.767	4496.99
516.135	4536.53
516.502	4479.81
516.869	4645.91
517.237	4595.29
517.604	4615.18
517.972	4634.84
518.339	4653.37
518.706	4613.59
519.073	4612.01
519.44	4679.35
519.808	4703.08
520.175	4686.59
520.542	4732.01
520.909	4768.39
521.276	4728.62
521.643	4829.63
522.009	4817.43
522.376	4887.71
522.743	4895.39
523.11	4899.91
523.477	4911.21
523.843	4917.54
524.21	4983.75
524.577	5018.33
524.943	4983.08
525.31	5050.64
525.676	5082.96
526.043	5127.25
526.409	5068.5
526.776	5186.91
527.142	5159.34
527.508	5237.53
527.874	5173.58
528.241	5279.34
528.607	5263.75
528.973	5284.99
529.339	5309.62
529.705	5380.58
530.071	5415.15
530.437	5405.89
530.803	5485.66
531.169	5482.05
531.535	5466.9
531.901	5495.38
532.267	5554.81
532.632	5564.98
532.998	5565.43
533.364	5561.37
533.73	5607.47
534.095	5636.84
534.461	5617.63
534.826	5682.04
535.192	5697.41
535.557	5757.07
535.923	5769.5
536.288	5790.74
536.653	5781.92
537.019	5799.32
537.384	5817.18
537.749	5879.32
538.114	5919.32
538.479	5861.02
538.845	5932.2
539.21	5905.76
539.575	5991.64
539.94	5985.08
540.305	6034.57
540.67	6065.31
541.034	6057.17
541.399	6041.13
541.764	6108.24
542.129	6143.04
542.494	6162.71
542.858	6176.94
543.223	6215.36
543.587	6263.95
543.952	6232.31
544.316	6249.48
544.681	6257.39
545.045	6380.78
545.41	6316.37
545.774	6421.23
546.138	6405.86
546.503	6410.16
546.867	6428.23
547.231	6472.98
547.595	6531.28
547.959	6501.91
548.324	6475.69
548.688	6521.79
549.052	6573.99
549.416	6589.36
549.779	6654.22
550.143	6623.48
550.507	6689.02
550.871	6691.28
551.235	6704.39
551.599	6760.43
551.962	6757.49
552.326	6799.98
552.689	6829.35
553.053	6799.07
553.417	6835.91
553.78	6855.57
554.143	6881.78
554.507	6936.02
554.87	6927.88
555.234	6962.68
555.597	6916.81
555.96	6962.01
556.323	6995.9
556.686	7046.98
557.05	7017.37
557.413	7116.35
557.776	7063.25
558.139	7158.39
558.502	7148.89
558.865	7146.86
559.228	7218.27
559.59	7200.64
559.953	7221.66
560.316	7286.74
560.679	7327.87
561.041	7333.07
561.404	7366.29
561.767	7404.48
562.129	7359.28
562.492	7426.85
562.854	7464.59
563.217	7427.53
563.579	7500.52
563.941	7521.31
564.304	7501.88
564.666	7569.45
565.028	7672.27
565.39	7630.24
565.753	7654.42
566.115	7725.83
566.477	7721.31
566.839	7751.14
567.201	7815.54
567.563	7812.83
567.925	7844.02
568.287	7910.46
568.648	7876.11
569.01	7896.44
569.372	7983.45
569.734	7983.67
570.095	8002.43
570.457	8015.54
570.819	8072.94
571.18	8064.8
571.542	8124.46
571.903	8163.56
572.265	8231.8
572.626	8235.42
572.987	8302.08
573.349	8295.76
573.71	8434.06
574.071	8447.84
574.432	8450.1
574.794	8575.07
575.155	8570.78
575.516	8591.12
575.877	8729.42
576.238	8703.88
576.599	8845.8
576.96	8886.48
577.32	8841.05
577.681	9028.84
578.042	9047.15
578.403	9122.85
578.763	9181.83
579.124	9312.23
579.485	9405.33
579.845	9523.07
580.206	9578.66
580.566	9730.97
580.927	9784.76
581.287	9914.02
581.648	10008.48
582.008	10128.7
582.368	10241.69
582.728	10403.72
583.089	10529.82
583.449	10661.34
583.809	10803.94
584.169	11012.75
584.529	11100.43
584.889	11313.76
585.249	11426.3
585.609	11623.13
585.969	11906.73
586.329	11929.79
586.688	12229.89
587.048	12310.79
587.408	12594.85
587.768	12756.66
588.127	12958.01
588.487	13223.31
588.846	13523.64
589.206	13599.57
589.565	13868.94
589.925	14147.35
590.284	14400
590.643	14637.96
591.003	14894.68
591.362	15192.52
591.721	15382.8
592.08	15778.27
592.44	15960.87
592.799	16305.94
593.158	16556.33
593.517	16719.26
593.876	17114.51
594.235	17325.12
594.593	17590.2
594.952	17910.87
595.311	18221.6
595.67	18549.72
596.029	18844.18
596.387	19059.54
596.746	19503.15
597.104	19642.58
597.463	20022.68
597.822	20346.06
598.18	20573.85
598.538	20837.12
598.897	21277.34
599.255	21335.64
599.613	21879.13
599.972	22038.22
600.33	22316.18
600.688	22444.31
601.046	22865.99
601.404	23217.4
601.762	23462.36
602.12	23867.32
602.478	24080.2
602.836	24360.42
603.194	24469.57
603.552	24707.53
603.91	24898.71
604.268	25402.2
604.625	25516.32
604.983	25901.85
605.341	25987.95
605.698	26329.18
606.056	26729.85
606.413	26830.86
606.771	27217.07
607.128	27372.54
607.485	27445.76
607.843	27655.02
608.2	28106.08
608.557	28398.5
608.914	28500.65
609.272	28821.77
609.629	29095.89
609.986	29385.15
610.343	29464.01
610.7	29898.35
611.057	29982.19
611.414	30083.21
611.771	30259.02
612.127	30685
612.484	30611.78
612.841	30987.36
613.198	31074.82
613.554	31326.79
613.911	31659.21
614.267	31797.06
614.624	31937.85
614.98	32024.4
615.337	32339.19
615.693	32359.3
616.05	32584.84
616.406	32881.78
616.762	32880.87
617.118	33065.05
617.475	33298.94
617.831	33470.24
618.187	33633.85
618.543	33681.53
618.899	33948.42
619.255	34109.32
619.611	34150.9
619.967	34500.27
620.323	34505.01
620.678	34558.79
621.034	34636.98
621.39	34733.03
621.746	34786.59
622.101	35190.42
622.457	35018.22
622.812	35262.28
623.168	35505.21
623.523	35467.25
623.879	35701.14
624.234	35454.14
624.589	35749.05
624.945	35869.95
625.3	35926.67
625.655	35996.72
626.01	36093.22
626.365	36152.88
626.72	36262.48
627.075	36271.52
627.43	36313.32
627.785	36281.46
628.14	36496.37
628.495	36509.48
628.85	36645.52
629.205	36441.23
629.559	36712.18
629.914	36694.78
630.269	36737.04
630.623	36761.67
630.978	36748.12
631.332	36946.53
631.687	37039.41
632.041	36957.6
632.396	36968.67
632.75	36893.2
633.104	37009.35
633.459	36783.59
633.813	36905.63
634.167	36923.93
634.521	37105.39
634.875	37075.79
635.229	37007.77
635.583	36987.43
635.937	37043.25
636.291	36963.03
636.645	37046.86
636.999	36930.03
637.352	37023.81
637.706	36789.92
638.06	37020.2
638.413	37047.32
638.767	36930.94
639.121	37113.3
639.474	36867.43
639.828	36966.42
640.181	36980.65
640.534	37005.28
640.888	36932.97
641.241	36787.44
641.594	36947.43
641.947	37053.42
642.301	37005.06
642.654	36961.9
643.007	36885.97
643.36	36847.32
643.713	36953.08
644.066	36949.92
644.419	36986.3
644.771	36512.19
645.124	36265.42
645.477	36350.39
645.83	35917.4
646.182	35831.76
646.535	35922.15
646.888	35962.83
647.24	35703.4
647.593	35953.11
647.945	35840.12
648.298	35771.64
648.65	35622.95
649.002	35622.27
649.355	35846.22
649.707	35701.36
650.059	35833.79
650.411	36226.32
650.763	36236.49
651.115	36686.42
651.467	36555.13
651.819	36555.58
652.171	36588.57
652.523	36481.91
652.875	36398.29
653.227	36432.42
653.578	36627.21
653.93	36464.28
654.282	36330.5
654.633	36310.61
654.985	36387.67
655.337	36470.16
655.688	36380.22
656.039	36439.65
656.391	36134.35
656.742	36132.76
657.094	36192.42
657.445	36457.95
657.796	36386.32
658.147	36206.89
658.498	36259.77
658.849	36216.6
659.2	36208.92
659.551	36067.68
659.902	36277.62
660.253	36240.78
660.604	36295.92
660.955	36140.22
661.306	36303.38
661.656	36219.54
662.007	36174.12
662.358	36189.03
662.708	36127.12
663.059	36129.6
663.409	35984.52
663.76	36088.47
664.11	36125.99
664.461	36206.66
664.811	36254.8
665.161	36158.07
665.511	36078.53
665.862	36093.9
666.212	36200.33
666.562	36280.33
666.912	36123.95
667.262	36093.9
667.612	36122.82
667.962	36141.58
668.312	36021.58
668.662	36150.84
669.011	36058.87
669.361	36006.21
669.711	35976.38
670.06	36110.17
670.41	35886.22
670.76	36031.75
671.109	36029.94
671.459	35911.98
671.808	35922.15
672.157	35943.62
672.507	35696.17
672.856	35761.25
673.205	35828.37
673.554	35958.31
673.904	35854.58
674.253	36033.11
674.602	35976.61
674.951	35477.19
675.3	35194.26
675.649	35763.96
675.998	35729.61
676.346	35738.2
676.695	35912.21
677.044	35666.79
677.393	35634.7
677.741	35820.68
678.09	35657.52
678.438	35569.84
678.787	35707.69
679.135	35638.31
679.484	35297.76
679.832	35509.05
680.181	35320.81
680.529	35367.14
680.877	35440.35
681.225	35396.06
681.573	35488.49
681.922	35203.07
682.27	35217.76
682.618	35228.38
682.966	35087.82
683.314	35212.34
683.661	34919.01
684.009	34911.78
684.357	34766.02
684.705	34692.35
685.053	34745.23
685.4	34741.39
685.748	34650.09
686.095	34573.71
686.443	34399.48
686.79	34416.43
687.138	34560.83
687.485	34531.68
687.832	34253.27
688.18	34332.36
688.527	34201.97
688.874	34302.08
689.221	34087.39
689.568	33919.94
689.915	33976.66
690.262	33917
690.609	33785.26
690.956	33589.1
691.303	33756.1
691.65	33382.33
691.997	33654.41
692.344	33335.78
692.69	33301.43
693.037	33321.31
693.383	33101.66
693.73	33216.01
694.077	33085.39
694.423	33124.48
694.769	33015.33
695.116	32957.03
695.462	32789.58
695.808	32755
696.155	32779.41
696.501	32590.26
696.847	32557.27
697.193	32383.71
697.539	32503.48
697.885	32245.86
698.231	32201.12
698.577	32077.05
698.923	32047.45
699.269	31880.45
699.614	31775.14
699.96	31764.97
700.306	31841.35
700.651	31553.45
700.997	31506.9
701.342	31440.01
701.688	31398.43
702.033	31307.35
702.379	31196.85
702.724	31162.5
703.069	31200.46
703.415	30839.34
703.76	30892.68
704.105	30971.32
704.45	30779.46
704.795	30625.79
705.14	30503.08
705.485	30551.89
705.83	30430.32
706.175	30451.78
706.52	30284.33
706.865	30171.11
707.209	30299.25
707.554	30124.79
707.899	30215.41
708.243	30040.04
708.588	29950.33
708.932	29780.39
709.277	29836.88
709.621	29838.92
709.966	29518.7
710.31	29746.04
710.654	29394.64
710.998	29566.16
711.342	29473.5
711.687	29479.38
712.031	29322.32
712.375	29217.01
712.719	29145.83
713.063	29161.42
713.407	29139.28
713.75	29050.69
714.094	29053.18
714.438	28871.26
714.782	28894.31
715.125	28814.54
715.469	28769.79
715.812	28734.32
716.156	28591.72
716.499	28506.07
716.843	28542.23
717.186	28346.53
717.53	28422.23
717.873	28415
718.216	28345.85
718.559	28242.8
718.902	28099.08
719.246	28054.56
719.589	28118.29
719.932	27977.27
720.275	27988.35
720.617	27863.15
720.96	27783.61
721.303	27900.44
721.646	27919.42
721.989	27637.62
722.331	27764.17
722.674	27627.23
723.016	27706.55
723.359	27567.57
723.701	27600.11
724.044	27424.52
724.386	27238.99
724.729	27395.59
725.071	27348.14
725.413	27369.83
725.755	27338.19
726.097	27392.2
726.439	27127.8
726.782	27218.42
727.124	27199.44
727.465	27070.18
727.807	27123.06
728.149	26983.85
728.491	26907.02
728.833	26922.39
729.175	26792.22
729.516	26766.23
729.858	26760.13
730.199	26784.99
730.541	26644.88
730.882	26725.55
731.224	26633.35
731.565	26546.58
731.906	26599.91
732.248	26653.01
732.589	26429.97
732.93	26394.04
733.271	26426.35
733.612	26347.49
733.953	26393.13
734.294	26164.67
734.635	26263.87
734.976	26149.98
735.317	26138
735.658	26176.87
735.999	26076.98
736.339	26135.29
736.68	26192.69
737.021	26076.31
737.361	25900.27
737.702	26039.47
738.042	26010.77
738.383	25829.08
738.723	25905.91
739.063	25862.53
739.404	25924.22
739.744	25649.2
740.084	25700.95
740.424	25665.47
740.764	25599.03
741.104	25623.89
741.444	25501.18
741.784	25516.55
742.124	25504.8
742.464	25427.51
742.804	25523.33
743.143	25291.24
743.483	25431.35
743.823	25229.1
744.162	25252.15
744.502	25176.89
744.841	25140.51
745.181	25219.15
745.52	25097.57
745.86	25199.94
746.199	25128.08
746.538	25039.27
746.877	25105.48
747.216	25024.81
747.556	24945.49
747.895	25039.5
748.234	24823.68
748.573	24780.07
748.911	24785.04
749.25	24841.99
749.589	24752.5
749.928	24738.26
750.267	24768.54
750.605	24602.9
750.944	24650.35
751.283	24455.33
751.621	24577.14
751.96	24429.57
752.298	24491.49
752.636	24352.28
752.975	24234.55
753.313	24121.56
753.651	24346.63
753.989	24148.45
754.327	24149.35
754.666	24003.14
755.004	24076.81
755.342	24055.34
755.679	23975.8
756.017	23832.98
756.355	23965.4
756.693	23813.77
757.031	23743.49
757.368	23559.31
757.706	23609.48
758.044	23471.85
758.381	23488.35
758.719	23526.09
759.056	23510.27
759.394	23371.74
759.731	23302.82
760.068	23183.27
760.405	23092.88
760.743	23078.42
