Data from hue_60_FLMS001491_53.txt Node
Date: Mon Feb 06 15:17:35 GMT 2017
User: dcchb
Spectrometer: FLMS00149
Trigger mode: 0
Integration Time (sec): 2.000000E-2
Scans to average: 10
Electric dark correction enabled: true
Nonlinearity correction enabled: false
Boxcar width: 0
XAxis mode: Wavelengths
Number of Pixels in Spectrum: 2048
>>>>>Begin Spectral Data<<<<<
341.393	-20.68
341.776	-20.68
342.16	-20.68
342.543	-72.88
342.927	-57.51
343.31	-58.42
343.693	-57.96
344.077	-49.38
344.46	-61.81
344.843	-65.42
345.226	-55.7
345.61	-8.02
345.993	-36.95
346.376	-22.03
346.759	-3.95
347.142	10.73
347.525	64.29
347.908	61.58
348.291	83.73
348.674	89.15
349.057	110.17
349.44	127.34
349.823	131.18
350.206	165.76
350.588	194.23
350.971	196.27
351.354	210.5
351.737	227.45
352.119	264.74
352.502	249.82
352.884	290.27
353.267	299.77
353.65	280.11
354.032	305.42
354.414	305.42
354.797	308.35
355.179	324.4
355.562	330.05
355.944	337.05
356.326	338.86
356.709	323.27
357.091	346.09
357.473	346.32
357.855	349.48
358.238	341.12
358.62	340.22
359.002	342.48
359.384	330.27
359.766	347.45
360.148	345.41
360.53	320.56
360.912	333.44
361.294	339.77
361.676	318.75
362.057	332.53
362.439	328.24
362.821	343.15
363.203	322.82
363.584	333.44
363.966	318.75
364.348	318.3
364.729	328.92
365.111	315.81
365.493	318.52
365.874	316.94
366.256	326.66
366.637	298.18
367.019	318.3
367.4	316.04
367.781	314.91
368.163	316.71
368.544	333.66
368.925	317.84
369.306	314.91
369.688	308.35
370.069	315.81
370.45	307.68
370.831	318.3
371.212	327.11
371.593	305.19
371.974	327.79
372.355	340.22
372.736	312.65
373.117	298.18
373.498	308.81
373.879	316.04
374.26	327.34
374.641	301.8
375.021	335.7
375.402	324.4
375.783	316.94
376.163	322.59
376.544	326.43
376.925	315.81
377.305	334.57
377.686	334.34
378.066	295.02
378.447	309.71
378.827	323.04
379.208	323.95
379.588	337.96
379.968	322.36
380.349	338.41
380.729	313.55
381.109	339.54
381.489	335.02
381.87	334.57
382.25	335.47
382.63	322.36
383.01	354.91
383.39	330.5
383.77	333.66
384.15	331.86
384.53	349.71
384.91	323.72
385.29	356.26
385.67	352.65
386.049	330.5
386.429	332.99
386.809	332.53
387.189	378.18
387.568	363.27
387.948	360.33
388.328	351.74
388.707	369.14
389.087	346.54
389.466	336.15
389.846	350.84
390.225	378.86
390.605	353.32
390.984	361.01
391.363	354.68
391.743	348.35
392.122	349.71
392.501	364.17
392.881	367.11
393.26	358.75
393.639	395.81
394.018	396.03
394.397	372.76
394.776	363.95
395.155	367.56
395.534	391.52
395.913	380.44
396.292	384.74
396.671	364.85
397.05	381.8
397.429	369.82
397.808	372.98
398.186	354.45
398.565	391.06
398.944	379.99
399.323	379.31
399.701	379.31
400.08	396.26
400.458	387.22
400.837	401.68
401.215	381.57
401.594	387.67
401.972	395.81
402.351	398.07
402.729	378.18
403.107	399.2
403.486	397.62
403.864	410.95
404.242	408.69
404.62	386.32
404.999	378.63
405.377	406.2
405.755	413.44
406.133	418.86
406.511	399.65
406.889	416.15
407.267	406.88
407.645	405.75
408.023	428.8
408.401	410.27
408.779	419.54
409.156	429.03
409.534	405.07
409.912	422.93
410.29	415.7
410.667	448.91
411.045	436.49
411.422	448.01
411.8	432.87
412.178	435.81
412.555	450.5
412.933	427.45
413.31	451.63
413.687	455.24
414.065	437.84
414.442	440.1
414.819	470.16
415.197	469.03
415.574	444.4
415.951	473.32
416.328	465.41
416.705	450.72
417.082	472.42
417.46	485.98
417.837	478.29
418.214	488.69
418.591	481.46
418.967	480.78
419.344	481.68
419.721	489.59
420.098	499.53
420.475	490.5
420.852	498.18
421.228	505.18
421.605	497.95
421.982	526.2
422.358	493.43
422.735	493.21
423.111	494.34
423.488	520.55
423.864	515.81
424.241	548.12
424.617	513.77
424.994	543.6
425.37	530.04
425.746	539.31
426.123	541.34
426.499	542.7
426.875	542.25
427.251	533.88
427.627	552.87
428.003	561.68
428.379	544.28
428.756	569.14
429.132	560.32
429.507	562.81
429.883	588.57
430.259	587.44
430.635	589.7
431.011	577.27
431.387	589.93
431.763	605.97
432.138	593.77
432.514	609.59
432.89	624.05
433.265	628.35
433.641	618.18
434.016	624.28
434.392	624.5
434.767	639.87
435.143	645.52
435.518	645.97
435.894	662.69
436.269	646.2
436.644	663.82
437.02	652.98
437.395	658.85
437.77	651.17
438.145	681
438.52	696.82
438.895	664.05
439.271	691.39
439.646	720.55
440.021	701.79
440.395	691.62
440.77	690.26
441.145	699.98
441.52	731.39
441.895	713.09
442.27	686.2
442.645	703.82
443.019	696.82
443.394	715.8
443.769	766.65
444.143	717.83
444.518	748.12
444.892	730.04
445.267	771.62
445.641	762.8
446.016	737.04
446.39	752.86
446.764	773.65
447.139	773.43
447.513	764.61
447.887	779.75
448.262	765.29
448.636	764.84
449.01	791.28
449.384	782.24
449.758	800.77
450.132	772.07
450.506	794.22
450.88	788.57
451.254	813.88
451.628	831.28
452.002	822.92
452.376	849.81
452.75	852.07
453.123	848.23
453.497	847.77
453.871	853.88
454.244	857.04
454.618	870.15
454.992	876.25
455.365	900.43
455.739	912.41
456.112	902.69
456.486	915.57
456.859	910.82
457.232	935.23
457.606	954.21
457.979	956.47
458.352	962.8
458.725	961.9
459.099	982.46
459.472	992.18
459.845	980.65
460.218	984.27
460.591	1038.28
460.964	1032.18
461.337	1009.58
461.71	1073.53
462.083	1071.95
462.456	1061.78
462.829	1069.01
463.201	1088.9
463.574	1105.85
463.947	1121.89
464.32	1136.35
464.692	1168.9
465.065	1152.63
465.438	1165.96
465.81	1189.69
466.183	1216.58
466.555	1240.98
466.928	1243.24
467.3	1238.95
467.672	1273.98
468.045	1264.26
468.417	1307.42
468.789	1323.24
469.161	1342.68
469.534	1385.16
469.906	1400.08
470.278	1403.24
470.65	1438.27
471.022	1451.6
471.394	1511.49
471.766	1541.77
472.138	1546.51
472.51	1600.75
472.882	1643.46
473.253	1653.18
473.625	1703.57
473.997	1694.76
474.369	1743.34
474.74	1763.46
475.112	1833.29
475.484	1836.45
475.855	1924.81
476.227	1951.25
476.598	2043.45
476.97	2051.81
477.341	2096.78
477.713	2177.91
478.084	2206.83
478.455	2296.78
478.827	2356.66
479.198	2415.19
479.569	2461.07
479.94	2578.35
480.311	2616.32
480.682	2683.88
481.053	2784.45
481.424	2858.12
481.795	2963.2
482.166	3029.19
482.537	3102.86
482.908	3202.29
483.279	3329.74
483.65	3423.07
484.021	3526.12
484.391	3574.03
484.762	3661.71
485.133	3774.7
485.503	3875.49
485.874	3995.94
486.244	4123.17
486.615	4247.68
486.985	4352.99
487.356	4553.44
487.726	4635.02
488.097	4778.74
488.467	4858.52
488.837	4999.53
489.207	5171.73
489.578	5296.47
489.948	5426.19
490.318	5521.32
490.688	5654.2
491.058	5878.6
491.428	5988.88
491.798	6098.94
492.168	6298.25
492.538	6432.03
492.908	6560.62
493.278	6749.09
493.648	6807.84
494.017	6965.35
494.387	7151.79
494.757	7289.41
495.126	7489.86
495.496	7621.83
495.866	7718.55
496.235	7853.69
496.605	8150.63
496.974	8162.16
497.344	8390.85
497.713	8406.9
498.082	8643.28
498.452	8773.22
498.821	8951.29
499.19	9030.16
499.559	9190.83
499.928	9344.73
500.298	9532.07
500.667	9679.41
501.036	9729.12
501.405	9948.78
501.774	10009.34
502.143	10157.13
502.512	10333.63
502.88	10470.8
503.249	10595.99
503.618	10765.71
503.987	10886.61
504.356	10962.31
504.724	11109.2
505.093	11329.53
505.462	11345.8
505.83	11467.16
506.199	11686.13
506.567	11836.41
506.936	11922.06
507.304	12103.98
507.672	12279.79
508.041	12380.8
508.409	12522.27
508.777	12720
509.145	12806.56
509.514	12844.75
509.882	12982.6
510.25	13154.34
510.618	13274.79
510.986	13389.37
511.354	13621.68
511.722	13753.65
512.09	13925.4
512.458	13908
512.826	14159.06
513.193	14236.8
513.561	14292.62
513.929	14493.52
514.297	14634.08
514.664	14770.8
515.032	14851.7
515.4	14887.41
515.767	15197.23
516.135	15219.83
516.502	15206.04
516.869	15599.93
517.237	15597.22
517.604	15643.54
517.972	15839.02
518.339	15975.29
518.706	16142.51
519.073	16147.71
519.44	16345.67
519.808	16518.1
520.175	16523.29
520.542	16766.23
520.909	16791.31
521.276	17005.54
521.643	17108.14
522.009	17255.48
522.376	17489.14
522.743	17464.29
523.11	17787.67
523.477	17948.12
523.843	18041.22
524.21	18264.49
524.577	18315.34
524.943	18500.19
525.31	18596.46
525.676	18865.38
526.043	18934.08
526.409	19068.54
526.776	19225.6
527.142	19333.16
527.508	19434.63
527.874	19603.89
528.241	19722.76
528.607	19814.28
528.973	20035.29
529.339	20068.06
529.705	20141.05
530.071	20457.65
530.437	20360.93
530.803	20619.91
531.169	20668.04
531.535	20766.57
531.901	20808.15
532.267	20903.74
532.632	21085.66
532.998	21218.54
533.364	21309.84
533.73	21252.66
534.095	21592.54
534.461	21608.13
534.826	21749.37
535.192	21826.66
535.557	21968.57
535.923	21979.42
536.288	22092.87
536.653	22230.26
537.019	22204.27
537.384	22401.56
537.749	22348.68
538.114	22515.23
538.479	22534.89
538.845	22691.95
539.21	22697.82
539.575	22874.09
539.94	22860.98
540.305	23005.16
540.67	22933.97
541.034	23070.92
541.399	23253.74
541.764	23265.49
542.129	23354.53
542.494	23455.99
542.858	23464.58
543.223	23463.68
543.587	23720.17
543.952	23595.2
544.316	23775.08
544.681	23805.36
545.045	23969.2
545.41	24034.96
545.774	24133.94
546.138	24137.11
546.503	24088.75
546.867	24267.95
547.231	24469.75
547.595	24504.33
547.959	24570.09
548.324	24559.69
548.688	24638.56
549.052	24834.26
549.416	24844.88
549.779	24848.73
550.143	24938.21
550.507	25096.85
550.871	25239.68
551.235	25216.63
551.599	25358.09
551.962	25431.99
552.326	25568.03
552.689	25715.6
553.053	25616.16
553.417	25738.42
553.78	26015.93
554.143	25861.13
554.507	26014.12
554.87	26116.04
555.234	26398.74
555.597	26218.18
555.96	26365.52
556.323	26570.04
556.686	26577.72
557.05	26750.6
557.413	26953.75
557.776	26911.27
558.139	27109.68
558.502	27084.6
558.865	27212.73
559.228	27508.77
559.59	27519.16
559.953	27648.65
560.316	27800.96
560.679	27813.39
561.041	28014.29
561.404	28235.08
561.767	28265.13
562.129	28170.9
562.492	28608.85
562.854	28518.69
563.217	28601.85
563.579	28817.43
563.941	28908.05
564.304	29079.8
564.666	29147.82
565.028	29233.02
565.39	29441.82
565.753	29512.78
566.115	29565.44
566.477	29763.4
566.839	29838.65
567.201	30036.16
567.563	30018.76
567.925	30340.56
568.287	30209.04
568.648	30420.78
569.01	30550.5
569.372	30780.77
569.734	30632.53
570.095	30817.38
570.457	31086.98
570.819	31096.47
571.18	31049.69
571.542	31328.1
571.903	31392.28
572.265	31457.82
572.626	31584.59
572.987	31625.72
573.349	31703.91
573.71	31858.71
574.071	31853.29
574.432	32018.25
574.794	32141.41
575.155	32191.81
575.516	32248.53
575.877	32297.12
576.238	32335.08
576.599	32529.88
576.96	32435.42
577.32	32597
577.681	32582.31
578.042	32862.53
578.403	32825.92
578.763	32836.76
579.124	32774.17
579.485	32966.48
579.845	33118.34
580.206	32913.82
580.566	32934.39
580.927	33051.45
581.287	33219.58
581.648	33145.46
582.008	33249.41
582.368	33292.8
582.728	33305
583.089	33275.85
583.449	33255.28
583.809	33334.83
584.169	33487.82
584.529	33308.62
584.889	33597.65
585.249	33329.86
585.609	33313.36
585.969	33627.48
586.329	33443.75
586.688	33627.93
587.048	33555.84
587.408	33545.22
587.768	33476.52
588.127	33537.99
588.487	33543.41
588.846	33754.03
589.206	33582.05
589.565	33425.45
589.925	33647.82
590.284	33617.99
590.643	33621.15
591.003	33748.83
591.362	33807.81
591.721	33796.06
592.08	33862.05
592.44	33869.28
592.799	33878.54
593.158	33940.01
593.517	33869.96
593.876	34014.81
594.235	33856.62
594.593	33956.96
594.952	33959.9
595.311	34042.16
595.67	33952.44
596.029	34234.24
596.387	34309.04
596.746	34313.11
597.104	34206.67
597.463	34194.69
597.822	34237.18
598.18	34128.48
598.538	34251.64
598.897	34441.24
599.255	34203.28
599.613	34647.56
599.972	34509.49
600.33	34391.3
600.688	34459.32
601.046	34504.97
601.404	34643.27
601.762	34618.86
602.12	34736.83
602.478	34730.5
602.836	34779.31
603.194	34595.81
603.552	34784.06
603.91	34715.81
604.268	34902.25
604.625	34824.28
604.983	35060.21
605.341	34850.95
605.698	35053.43
606.056	35207.1
606.413	34986.99
606.771	35295
607.128	35284.16
607.485	35080.55
607.843	35254.1
608.2	35373.42
608.557	35555.79
608.914	35364.83
609.272	35539.97
609.629	35652.73
609.986	35698.84
610.343	35642.34
610.7	35874.2
611.057	35934.76
611.414	35854.54
611.771	36000.07
612.127	36116.9
612.484	36148.09
612.841	36204.58
613.198	36145.15
613.554	36099.28
613.911	36403.45
614.267	36384.02
614.624	36287.52
614.98	36471.02
615.337	36558.47
615.693	36432.15
616.05	36397.35
616.406	36684.35
616.762	36534.07
617.118	36624.69
617.475	36776.55
617.831	36725.7
618.187	36818.58
618.543	36793.5
618.899	36986.03
619.255	37105.58
619.611	37023.77
619.967	37107.61
620.323	37241.17
620.678	37112.36
621.034	37048.63
621.39	37093.15
621.746	37058.35
622.101	37551.67
622.457	37201.39
622.812	37318.91
623.168	37441.61
623.523	37465.57
623.879	37453.37
624.234	37298.57
624.589	37536.3
624.945	37513.02
625.3	37551.44
625.655	37583.98
626.01	37546.02
626.365	37562.97
626.72	37474.61
627.075	37533.36
627.43	37604.1
627.785	37498.56
628.14	37590.31
628.495	37588.96
628.85	37691.78
629.205	37556.64
629.559	37688.16
629.914	37624.66
630.269	37664.66
630.623	37527.26
630.978	37496.08
631.332	37689.97
631.687	37660.14
632.041	37552.57
632.396	37563.87
632.75	37488.17
633.104	37578.33
633.459	37410.2
633.813	37404.55
634.167	37359.13
634.521	37357.55
634.875	37470.54
635.229	37306.02
635.583	37348.51
635.937	37241.39
636.291	37258.34
636.645	37323.43
636.999	37084.79
637.352	37228.96
637.706	37066.71
638.06	37191.23
638.413	37216.08
638.767	37011.12
639.121	37164.56
639.474	36905.58
639.828	36972.47
640.181	37099.48
640.534	37074.84
640.888	36933.15
641.241	36752.82
641.594	36734.74
641.947	36967.95
642.301	36902.65
642.654	36750.11
643.007	36907.17
643.36	36824.23
643.713	36908.3
644.066	36781.07
644.419	36626.49
644.771	36381.08
645.124	36064.48
645.477	36092.05
645.83	35815.67
646.182	35748.78
646.535	35659.51
646.888	35582.23
647.24	35414.55
647.593	35759.17
647.945	35656.8
648.298	35365.96
648.65	35438.05
649.002	35316.47
649.355	35600.53
649.707	35330.03
650.059	35563.02
650.411	35921.2
650.763	35855.89
651.115	36379.27
651.467	36150.35
651.819	36219.95
652.171	36192.16
652.523	36061.54
652.875	36105.38
653.227	35978.38
653.578	36041.88
653.93	35973.4
654.282	35846.63
654.633	35827.42
654.985	35902.45
655.337	35907.42
655.688	35852.5
656.039	36094.08
656.391	35664.26
656.742	35871.03
657.094	35846.18
657.445	35944.7
657.796	35768.66
658.147	35806.63
658.498	35720.76
658.849	35850.7
659.2	35781.55
659.551	35700.42
659.902	35825.39
660.253	35755.56
660.604	35751.49
660.955	35734.54
661.306	35722.11
661.656	35672.17
662.007	35777.25
662.358	35614.09
662.708	35614.77
663.059	35472.63
663.409	35372.29
663.76	35631.04
664.11	35540.65
664.461	35550.14
664.811	35593.3
665.161	35691.83
665.511	35554.88
665.862	35490.25
666.212	35743.35
666.562	35643.47
666.912	35659.74
667.262	35481.44
667.612	35653.64
667.962	35527.31
668.312	35492.29
668.662	35607.99
669.011	35503.13
669.361	35345.62
669.711	35359.64
670.06	35395.57
670.41	35406.41
670.76	35308.34
671.109	35462.46
671.459	35396.02
671.808	35318.51
672.157	35420.2
672.507	35151.28
672.856	35135.91
673.205	35277.38
673.554	35408.22
673.904	35204.84
674.253	35471.5
674.602	35259.52
674.951	34846.2
675.3	34681.69
675.649	35120.77
675.998	35248.23
676.346	35142.01
676.695	35139.98
677.044	34882.81
677.393	34982.7
677.741	35052.07
678.09	35005.29
678.438	35017.5
678.787	35081.9
679.135	34937.27
679.484	34759.88
679.832	34864.28
680.181	34716.04
680.529	34749.71
680.877	34648.02
681.225	34575.02
681.573	34876.48
681.922	34519.88
682.27	34505.19
682.618	34469.26
682.966	34466.1
683.314	34361.02
683.661	34342.71
684.009	34334.58
684.357	34282.6
684.705	34192.66
685.053	34188.14
685.4	34145.2
685.748	33924.42
686.095	34046.9
686.443	33829.96
686.79	33782.28
687.138	33960.58
687.485	33756.97
687.832	33679.68
688.18	33855.49
688.527	33499.35
688.874	33514.03
689.221	33531.89
689.568	33325.79
689.915	33210.09
690.262	33313.81
690.609	33142.52
690.956	33034.95
691.303	32962.64
691.65	32895.29
691.997	33018.45
692.344	32627.73
692.69	32681.06
693.037	32753.38
693.383	32340.51
693.73	32464.8
694.077	32410.11
694.423	32331.92
694.769	32218.7
695.116	32235.65
695.462	32220.51
695.808	31954.08
696.155	32139.15
696.501	31906.62
696.847	31816.9
697.193	31505.05
697.539	31676.57
697.885	31441.09
698.231	31440.19
698.577	31367.88
698.923	31453.52
699.269	31151.61
699.614	31027.55
699.96	31035
700.306	31028.68
700.651	30951.62
700.997	30866.65
701.342	30759.53
701.688	30741.45
702.033	30605.18
702.379	30664.62
702.724	30537.39
703.069	30601.34
703.415	30220.79
703.76	30254.68
704.105	30247.91
704.45	30182.37
704.795	29928.14
705.14	29878.42
705.485	29936.5
705.83	29782.38
706.175	29823.74
706.52	29761.59
706.865	29640.01
707.209	29529.05
707.554	29480.24
707.899	29509.17
708.243	29430.98
708.588	29329.06
708.932	29155.5
709.277	29122.74
709.621	29089.52
709.966	28902.63
710.31	29130.19
710.654	28840.94
710.998	28913.93
711.342	28841.84
711.687	28692.47
712.031	28601.17
712.375	28552.58
712.719	28638
713.063	28532.47
713.407	28629.42
713.75	28461.51
714.094	28399.59
714.438	28294.74
714.782	28395.07
715.125	28232.14
715.469	28103.33
715.812	28052.48
716.156	27928.87
716.499	27872.37
716.843	28080.5
717.186	27901.07
717.53	27968.19
717.873	27893.16
718.216	27730.23
718.559	27640.29
718.902	27514.64
719.246	27566.39
719.589	27492.05
719.932	27337.02
720.275	27413.18
720.617	27341.99
720.96	27376.34
721.303	27176.35
721.646	27290.92
721.989	27102.68
722.331	27115.11
722.674	26993.3
723.016	27031.27
723.359	26962.34
723.701	26895.45
724.044	26947.43
724.386	26767.54
724.729	26751.5
725.071	26761.67
725.413	26751.95
725.755	26807.32
726.097	26688.68
726.439	26571.17
726.782	26514.67
727.124	26615.68
727.465	26510.83
727.807	26466.99
728.149	26436.25
728.491	26290.72
728.833	26470.15
729.175	26262.25
729.516	26304.96
729.858	26218.18
730.199	26134.57
730.541	26097.73
730.882	26072.42
731.224	26248.01
731.565	25939.77
731.906	25987.9
732.248	25934.8
732.589	25881.24
732.93	25745.88
733.271	25716.95
733.612	25799.21
733.953	25968.02
734.294	25601.7
734.635	25680.79
734.976	25763.05
735.317	25445.77
735.658	25487.13
735.999	25622.72
736.339	25439.22
736.68	25504.75
737.021	25400.58
737.361	25268.15
737.702	25400.58
738.042	25359.9
738.383	25257.75
738.723	25349.28
739.063	25162.39
739.404	25167.13
739.744	25081.71
740.084	24944.99
740.424	24959.46
740.764	24999
741.104	25025.44
741.444	24863.19
741.784	24788.39
742.124	24888.27
742.464	24786.81
742.804	24831.32
743.143	24688.73
743.483	24739.35
743.823	24651.22
744.162	24535.29
744.502	24657.54
744.841	24490.77
745.181	24607.38
745.52	24504.55
745.86	24525.8
746.199	24386.36
746.538	24568.28
746.877	24412.58
747.216	24432.24
747.556	24403.77
747.895	24350.66
748.234	24232.47
748.573	24258.68
748.911	24161.51
749.25	24135.75
749.589	24109.76
749.928	24089.65
750.267	23989.76
750.605	24058.24
750.944	24009.65
751.283	23890.56
751.621	23938.92
751.96	23752.93
752.298	23746.16
752.636	23788.87
752.975	23626.16
753.313	23504.58
753.651	23663.9
753.989	23437.91
754.327	23389.33
754.666	23323.34
755.004	23376
755.342	23344.36
755.679	23314.53
756.017	23167.64
756.355	23236.56
756.693	23181.2
