Data from hue_70_FLMS001491_99.txt Node
Date: Mon Feb 06 15:21:47 GMT 2017
User: dcchb
Spectrometer: FLMS00149
Trigger mode: 0
Integration Time (sec): 2.000000E-2
Scans to average: 10
Electric dark correction enabled: true
Nonlinearity correction enabled: false
Boxcar width: 0
XAxis mode: Wavelengths
Number of Pixels in Spectrum: 2048
>>>>>Begin Spectral Data<<<<<
341.393	-26.36
341.776	-26.36
342.16	-26.36
342.543	-52.12
342.927	-57.54
343.31	-67.26
343.693	-65.45
344.077	-72.23
344.46	-47.82
344.843	-53.47
345.226	-46.47
345.61	-32.68
345.993	-24.32
346.376	-4.89
346.759	19.07
347.142	15.68
347.525	46.64
347.908	69.01
348.291	57.03
348.674	90.7
349.057	116.47
349.44	142.45
349.823	150.36
350.206	184.26
350.588	186.07
350.971	215.67
351.354	236.46
351.737	220.87
352.119	239.85
352.502	264.26
352.884	259.06
353.267	300.42
353.65	293.41
354.032	307.65
354.414	313.07
354.797	323.69
355.179	310.36
355.562	337.48
355.944	309.68
356.326	347.42
356.709	342
357.091	333.86
357.473	358.04
357.855	325.5
358.238	344.93
358.62	338.15
359.002	332.05
359.384	363.24
359.766	332.05
360.148	325.05
360.53	338.38
360.912	334.31
361.294	326.63
361.676	336.35
362.057	341.09
362.439	323.47
362.821	330.92
363.203	329.57
363.584	333.64
363.966	324.6
364.348	317.82
364.729	336.35
365.111	325.95
365.493	322.56
365.874	312.62
366.256	304.94
366.637	318.95
367.019	312.39
367.4	335.67
367.781	318.95
368.163	291.38
368.544	309.91
368.925	317.82
369.306	322.34
369.688	317.14
370.069	314.88
370.45	305.61
370.831	309.23
371.212	323.69
371.593	326.18
371.974	304.94
372.355	311.49
372.736	320.53
373.117	297.48
373.498	316.46
373.879	304.48
374.26	313.97
374.641	322.11
375.021	312.39
375.402	313.52
375.783	321.43
376.163	326.86
376.544	314.43
376.925	332.73
377.305	313.07
377.686	325.73
378.066	325.95
378.447	331.15
378.827	337.25
379.208	320.75
379.588	325.27
379.968	313.07
380.349	330.25
380.729	327.76
381.109	352.84
381.489	337.03
381.87	333.64
382.25	337.48
382.63	335.22
383.01	342.9
383.39	342.45
383.77	339.96
384.15	339.74
384.53	331.38
384.91	345.84
385.29	321.88
385.67	345.16
386.049	353.52
386.429	340.41
386.809	344.03
387.189	344.71
387.568	350.13
387.948	321.43
388.328	356.91
388.707	358.04
389.087	331.15
389.466	357.14
389.846	368.44
390.225	361.66
390.605	363.47
390.984	352.62
391.363	360.53
391.743	344.93
392.122	366.85
392.501	356.23
392.881	359.17
393.26	365.27
393.639	363.69
394.018	369.11
394.397	380.19
394.776	363.01
395.155	366.85
395.534	363.24
395.913	373.63
396.292	367.08
396.671	396.46
397.05	382.22
397.429	379.06
397.808	396.23
398.186	372.05
398.565	370.92
398.944	378.83
399.323	396.46
399.701	386.29
400.08	398.27
400.458	401.2
400.837	398.94
401.215	403.92
401.594	394.88
401.972	390.81
402.351	391.49
402.729	373.86
403.107	402.56
403.486	389.68
403.864	398.94
404.242	386.29
404.62	408.89
404.999	400.75
405.377	411.37
405.755	389.45
406.133	404.37
406.511	421.99
406.889	432.16
407.267	423.35
407.645	417.25
408.023	410.47
408.401	410.92
408.779	420.19
409.156	431.26
409.534	442.33
409.912	431.71
410.29	415.89
410.667	441.43
411.045	428.32
411.422	431.26
411.8	408.66
412.178	444.59
412.555	441.66
412.933	458.6
413.31	453.86
413.687	427.42
414.065	474.65
414.442	461.99
414.819	472.16
415.197	478.94
415.574	453.86
415.951	459.06
416.328	480.07
416.705	463.58
417.082	470.35
417.46	495.89
417.837	493.86
418.214	482.56
418.591	502.22
418.967	488.21
419.344	511.48
419.721	499.05
420.098	509.22
420.475	529.34
420.852	481.88
421.228	505.61
421.605	521.43
421.982	501.99
422.358	494.76
422.735	505.83
423.111	537.47
423.488	551.71
423.864	521.65
424.241	541.54
424.617	534.99
424.994	546.29
425.37	549.67
425.746	549.22
426.123	562.33
426.499	549.22
426.875	556.91
427.251	573.4
427.627	564.14
428.003	573.63
428.379	572.05
428.756	583.8
429.132	573.18
429.507	583.57
429.883	584.7
430.259	595.1
430.635	576.34
431.011	585.61
431.387	600.52
431.763	609.79
432.138	620.63
432.514	598.94
432.89	619.28
433.265	616.34
433.641	631.03
434.016	610.92
434.392	622.22
434.767	639.16
435.143	642.78
435.518	666.06
435.894	660.41
436.269	663.12
436.644	652.72
437.02	664.7
437.395	692.5
437.77	667.86
438.145	709.22
438.52	713.06
438.895	663.57
439.271	697.92
439.646	693.4
440.021	691.14
440.395	720.29
440.77	726.62
441.145	697.47
441.52	691.82
441.895	729.11
442.27	734.3
442.645	736.79
443.019	755.77
443.394	738.82
443.769	720.07
444.143	740.4
444.518	744.92
444.892	768.65
445.267	755.55
445.641	766.62
446.016	749.67
446.39	777.24
446.764	769.1
447.139	766.39
447.513	783.79
447.887	784.02
448.262	797.35
448.636	776.79
449.01	803.91
449.384	821.31
449.758	829.89
450.132	829.22
450.506	830.57
450.88	815.66
451.254	830.8
451.628	845.26
452.002	860.63
452.376	846.62
452.75	877.12
453.123	857.24
453.497	874.86
453.871	882.32
454.244	905.82
454.618	899.5
454.992	902.89
455.365	899.04
455.739	927.74
456.112	927.52
456.486	939.95
456.859	936.33
457.232	955.09
457.606	948.76
457.979	968.42
458.352	973.62
458.725	991.92
459.099	1005.93
459.472	1035.31
459.845	1007.29
460.218	1030.34
460.591	1029.21
460.964	1063.79
461.337	1082.77
461.71	1059.27
462.083	1106.72
462.456	1104.01
462.829	1111.24
463.201	1131.13
463.574	1129.55
463.947	1112.15
464.32	1155.53
464.692	1196.21
465.065	1209.54
465.438	1205.93
465.81	1212.03
466.183	1229.88
466.555	1261.07
466.928	1284.34
467.3	1279.15
467.672	1305.14
468.045	1353.27
468.417	1351.01
468.789	1385.59
469.161	1381.29
469.534	1398.47
469.906	1467.39
470.278	1458.58
470.65	1470.33
471.022	1520.04
471.394	1539.03
471.766	1581.29
472.138	1605.47
472.51	1632.13
472.882	1690.21
473.253	1708.29
473.625	1734.95
473.997	1796.65
474.369	1777.67
474.74	1830.09
475.112	1924.1
475.484	1939.02
475.855	1986.7
476.227	2009.75
476.598	2058.34
476.97	2134.72
477.341	2158.22
477.713	2246.35
478.084	2253.58
478.455	2336.75
478.827	2428.04
479.198	2456.74
479.569	2555.95
479.94	2584.65
480.311	2700.13
480.682	2747.13
481.053	2879.56
481.424	2923.17
481.795	2986.45
482.166	3082.26
482.537	3141.92
482.908	3272.54
483.279	3317.06
483.65	3419.2
484.021	3549.14
484.391	3629.59
484.762	3723.38
485.133	3830.27
485.503	3913.88
485.874	4042.01
486.244	4128.34
486.615	4261.22
486.985	4362.91
487.356	4464.83
487.726	4611.04
488.097	4766.74
488.467	4862.1
488.837	4995.66
489.207	5137.35
489.578	5248.99
489.948	5405.82
490.318	5553.61
490.688	5571.01
491.058	5759.03
491.428	5946.37
491.798	6030.43
492.168	6209.64
492.538	6336.87
492.908	6507.03
493.278	6651.66
493.648	6723.98
494.017	6920.13
494.387	7037.87
494.757	7224.98
495.126	7288.48
495.496	7420.23
495.866	7559.66
496.235	7780.45
496.605	7878.75
496.974	8007.11
497.344	8150.83
497.713	8206.42
498.082	8419.07
498.452	8493.87
498.821	8650.48
499.19	8758.05
499.559	8933.18
499.928	9084.37
500.298	9197.13
500.667	9305.15
501.036	9398.03
501.405	9556.44
501.774	9645.25
502.143	9842.54
502.512	9949.43
502.88	10067.84
503.249	10151.23
503.618	10312.13
503.987	10385.12
504.356	10480.49
504.724	10587.15
505.093	10664.66
505.462	10819.91
505.83	10940.81
506.199	11076.63
506.567	11271.65
506.936	11301.71
507.304	11549.16
507.672	11546
508.041	11725.43
508.409	11839.55
508.777	11880.9
509.145	11991.18
509.514	12047.23
509.882	12256.71
510.25	12304.62
510.618	12457.84
510.986	12524.95
511.354	12717.04
511.722	12751.16
512.09	12976.01
512.458	12870.03
512.826	13059.4
513.193	13132.17
513.561	13283.8
513.929	13279.51
514.297	13500.52
514.664	13623.46
515.032	13648.77
515.4	13690.35
515.767	13857.8
516.135	14011.24
516.502	13916.33
516.869	14098.7
517.237	14220.73
517.604	14220.95
517.972	14389.54
518.339	14545.92
518.706	14478.57
519.073	14620.04
519.44	14726.25
519.808	14857.1
520.175	14843.54
520.542	15081.04
520.909	15092.12
521.276	15083.76
521.643	15248.72
522.009	15409.4
522.376	15528.26
522.743	15566
523.11	15748.37
523.477	15851.42
523.843	15974.13
524.21	15987.91
524.577	16125.76
524.943	16150.17
525.31	16207.79
525.676	16412.31
526.043	16409.37
526.409	16543.6
526.776	16712.87
527.142	16780.21
527.508	16891.84
527.874	16924.61
528.241	17035.8
528.607	17090.71
528.973	17201.44
529.339	17179.52
529.705	17412.51
530.071	17446.86
530.437	17459.74
530.803	17539.06
531.169	17659.28
531.535	17645.27
531.901	17650.69
532.267	17714.42
532.632	17788.09
532.998	17881.42
533.364	17990.8
533.73	17933.62
534.095	18124.58
534.461	18048.42
534.826	18132.49
535.192	18237.12
535.557	18324.35
535.923	18308.08
536.288	18248.42
536.653	18328.64
537.019	18251.58
537.384	18296.55
537.749	18383.78
538.114	18470.56
538.479	18403.22
538.845	18580.39
539.21	18460.62
539.575	18527.28
539.94	18617.9
540.305	18622.87
540.67	18655.87
541.034	18659.71
541.399	18751.91
541.764	18709.2
542.129	18790.1
542.494	18864
542.858	18859.7
543.223	18813.15
543.587	19016.76
543.952	18820.61
544.316	18876.42
544.681	18858.12
545.045	18911.68
545.41	18946.71
545.774	18973.6
546.138	18972.47
546.503	19012.92
546.867	18976.31
547.231	19057.66
547.595	19071
547.959	19078
548.324	19104.22
548.688	19108.51
549.052	19141.05
549.416	19070.09
549.779	19142.18
550.143	19155.51
550.507	19314.38
550.871	19299.92
551.235	19321.61
551.599	19383.08
551.962	19281.61
552.326	19407.48
552.689	19503.3
553.053	19411.78
553.417	19370.2
553.78	19720.47
554.143	19434.38
554.507	19598.44
554.87	19581.49
555.234	19717.31
555.597	19609.74
555.96	19600.93
556.323	19857.64
556.686	19665.1
557.05	19872.78
557.413	19865.1
557.776	19897.64
558.139	19987.81
558.502	19955.04
558.865	20014.02
559.228	20078.43
559.59	20216.05
559.953	20248.37
560.316	20358.87
560.679	20330.85
561.041	20463.73
561.404	20480.68
561.767	20502.82
562.129	20454.69
562.492	20666.66
562.854	20682.25
563.217	20651.75
563.579	20696.49
563.941	20757.96
564.304	20882.02
564.666	21012.19
565.028	20997.72
565.39	21092.64
565.753	21084.05
566.115	21038.85
566.477	21299.86
566.839	21224.61
567.201	21455.57
567.563	21322.24
567.925	21450.14
568.287	21460.99
568.648	21507.32
569.01	21620.99
569.372	21678.38
569.734	21618.27
570.095	21772.62
570.457	21973.52
570.819	21814.65
571.18	21955.21
571.542	21968.77
571.903	22030.47
572.265	22049
572.626	22157.47
572.987	22064.36
573.349	22183.46
573.71	22299.16
574.071	22326.28
574.432	22337.35
574.794	22480.85
575.155	22409.89
575.516	22418.25
575.877	22480.4
576.238	22513.39
576.599	22563.79
576.96	22556.78
577.32	22597.91
577.681	22711.13
578.042	22707.51
578.403	22761.97
578.763	22711.58
579.124	22736.66
579.485	22726.49
579.845	22928.97
580.206	22745.48
580.566	22793.38
580.927	22815.3
581.287	22868.86
581.648	22829.99
582.008	22969.65
582.368	22877
582.728	22838.81
583.089	22884
583.449	22869.99
583.809	22882.65
584.169	22941.4
584.529	22902.08
584.889	23044
585.249	22861.4
585.609	22818.92
585.969	23046.03
586.329	22991.57
586.688	22884.45
587.048	22933.04
587.408	22983.21
587.768	22941.4
588.127	22904.12
588.487	22865.02
588.846	23082.64
589.206	22786.83
589.565	22888.07
589.925	22939.37
590.284	22967.16
590.643	22976.88
591.003	23010.78
591.362	23093.49
591.721	22902.08
592.08	22990.21
592.44	23099.14
592.799	22896.21
593.158	23003.77
593.517	22971.68
593.876	23060.5
594.235	22973.04
594.593	23002.42
594.952	23053.94
595.311	22890.1
595.67	22974.4
596.029	23130.78
596.387	23220.04
596.746	23140.95
597.104	23038.8
597.463	23002.87
597.822	22948.63
598.18	22921.52
598.538	23024.79
598.897	23168.74
599.255	22930.78
599.613	23311.34
599.972	22993.6
600.33	23109.31
600.688	23194.5
601.046	23186.82
601.404	23320.6
601.762	23164.45
602.12	23380.26
602.478	23223.88
602.836	23261.17
603.194	23107.05
603.552	23186.37
603.91	23163.32
604.268	23318.34
604.625	23124.22
604.983	23268.4
605.341	23111.57
605.698	23311.79
606.056	23404.89
606.413	23344.33
606.771	23536.19
607.128	23410.77
607.485	23513.14
607.843	23413.48
608.2	23458
608.557	23571.22
608.914	23427.94
609.272	23576.19
609.629	23631.33
609.986	23678.11
610.343	23558.79
610.7	23760.36
611.057	23647.15
611.414	23840.36
611.771	23731.21
612.127	23901.6
612.484	23844.66
612.841	23939.12
613.198	23707.26
613.554	23891.43
613.911	24042.84
614.267	23956.52
614.624	24012.33
614.98	23991.32
615.337	24203.06
615.693	24130.3
616.05	24146.57
616.406	24182.27
616.762	24111.99
617.118	24165.55
617.475	24165.33
617.831	24242.39
618.187	24250.52
618.543	24327.35
618.899	24473.34
619.255	24437.41
619.611	24309.28
619.967	24405.77
620.323	24430.4
620.678	24359.22
621.034	24385.88
621.39	24428.14
621.746	24363.51
622.101	24660.45
622.457	24453
622.812	24603.28
623.168	24571.87
623.523	24486.22
623.879	24692.09
624.234	24472.66
624.589	24464.75
624.945	24566.22
625.3	24598.53
625.655	24608.48
626.01	24628.14
626.365	24652.77
626.72	24556.73
627.075	24594.01
627.43	24512.43
627.785	24556.95
628.14	24629.27
628.495	24742.26
628.85	24675.59
629.205	24580.68
629.559	24741.36
629.914	24490.51
630.269	24607.8
630.623	24484.19
630.978	24431.98
631.332	24646.89
631.687	24626.1
632.041	24562.38
632.396	24604.41
632.75	24382.95
633.104	24457.52
633.459	24337.98
633.813	24407.13
634.167	24422.49
634.521	24403.74
634.875	24363.06
635.229	24381.14
635.583	24240.58
635.937	24188.83
636.291	24231.09
636.645	24164.2
636.999	24151.99
637.352	24136.85
637.706	24019.11
638.06	24201.03
638.413	24069.96
638.767	24071.99
639.121	24087.81
639.474	23986.35
639.828	23876.29
640.181	24028.38
640.534	24164.87
640.888	24008.94
641.241	23883.98
641.594	23966.69
641.947	23955.84
642.301	23962.17
642.654	23983.86
643.007	23931.43
643.36	23984.09
643.713	23811.66
644.066	23964.2
644.419	23757.2
644.771	23654.83
645.124	23470.88
645.477	23286.7
645.83	23264.78
646.182	23103.21
646.535	23118.12
646.888	23182.98
647.24	23044.9
647.593	23172.81
647.945	23172.13
648.298	23053.94
648.65	23006.71
649.002	22877.9
649.355	22950.22
649.707	23045.58
650.059	23119.02
650.411	23250.09
650.763	23362.18
651.115	23649.86
651.467	23579.58
651.819	23555.4
652.171	23535.74
652.523	23481.95
652.875	23393.14
653.227	23456.64
653.578	23516.3
653.93	23517.43
654.282	23461.16
654.633	23393.37
654.985	23412.35
655.337	23435.4
655.688	23434.04
656.039	23442.18
656.391	23368.28
656.742	23345.91
657.094	23281.51
657.445	23435.85
657.796	23429.75
658.147	23346.14
658.498	23356.98
658.849	23363.31
659.2	23372.13
659.551	23314.05
659.902	23398.11
660.253	23303.43
660.604	23403.76
660.955	23232.92
661.306	23420.03
661.656	23395.18
662.007	23370.77
662.358	23388.4
662.708	23363.76
663.059	23245.58
663.409	23205.35
663.76	23307.95
664.11	23312.24
664.461	23392.46
664.811	23386.81
665.161	23387.72
665.511	23300.04
665.862	23381.16
666.212	23430.66
666.562	23490.54
666.912	23347.04
667.262	23397.44
667.612	23446.25
667.962	23365.8
668.312	23375.97
668.662	23409.86
669.011	23420.03
669.361	23271.34
669.711	23318.34
670.06	23288.06
670.41	23341.17
670.76	23279.92
671.109	23354.05
671.459	23325.8
671.808	23249.42
672.157	23306.14
672.507	23195.63
672.856	23075.64
673.205	23217.78
673.554	23300.49
673.904	23036.32
674.253	23225.01
674.602	23069.08
674.951	22796.55
675.3	22666.16
675.649	23173.49
675.998	23115.18
676.346	23049.65
676.695	23210.77
677.044	22872.03
677.393	22994.96
677.741	22999.71
678.09	22971.46
678.438	22861.86
678.787	22975.75
679.135	22982.98
679.484	22735.08
679.832	22965.81
680.181	22747.51
680.529	22793.84
680.877	22707.96
681.225	22677.91
681.573	22853.27
681.922	22706.83
682.27	22561.3
682.618	22695.76
682.966	22473.39
683.314	22629.09
683.661	22521.98
684.009	22425.03
684.357	22415.99
684.705	22351.59
685.053	22305.03
685.4	22267.07
685.748	22217.35
686.095	22108.66
686.443	22067.3
686.79	22004.7
687.138	22129.45
687.485	22039.28
687.832	21842.22
688.18	21970.13
688.527	21801.32
688.874	21779.85
689.221	21808.55
689.568	21687.42
689.915	21539.41
690.262	21606.07
690.609	21490.82
690.956	21612.62
691.303	21448.33
691.65	21393.87
691.997	21221.45
692.344	21141.68
692.69	21117.04
693.037	21123.82
693.383	21011.06
693.73	21070.04
694.077	20994.79
694.423	20882.93
694.769	20842.47
695.116	20870.95
695.462	20733.32
695.808	20773.1
696.155	20663.27
696.501	20536.04
696.847	20479.32
697.193	20351.64
697.539	20451.07
697.885	20371.53
698.231	20304.18
698.577	20243.62
698.923	20260.79
699.269	20197.75
699.614	20000.24
699.96	19916.17
700.306	19996.62
700.651	19789.85
700.997	19744.2
701.342	19702.17
701.688	19750.75
702.033	19682.05
702.379	19572.23
702.724	19511.44
703.069	19550.31
703.415	19275.28
703.76	19336.75
704.105	19256.75
704.45	19200.03
704.795	19030.77
705.14	19132.24
705.485	19076.87
705.83	19007.95
706.175	18995.29
706.52	18892.7
706.865	18837.33
707.209	18726.15
707.554	18728.86
707.899	18775.18
708.243	18635.3
708.588	18568.86
708.932	18442.76
709.277	18447.28
709.621	18372.71
709.966	18267.4
710.31	18314.86
710.654	18285.48
710.998	18236.89
711.342	18270.56
711.687	18135.43
712.031	18079.84
712.375	18040.74
712.719	18060.85
713.063	18085.71
713.407	18153.96
713.75	17953.96
714.094	17916.68
714.438	17837.58
714.782	17911.7
715.125	17824.93
715.469	17804.59
715.812	17653.86
716.156	17658.38
716.499	17679.39
716.843	17658.83
717.186	17501.09
717.53	17741.09
717.873	17634.42
718.216	17490.7
718.559	17532.51
718.902	17422
719.246	17392.17
719.589	17363.92
719.932	17230.14
720.275	17262.46
720.617	17401.66
720.96	17266.3
721.303	17324.15
721.646	17302.23
721.989	17198.28
722.331	17155.11
722.674	17171.61
723.016	17162.12
723.359	17070.14
723.701	17076.02
724.044	17019.3
724.386	16918.51
724.729	17003.03
725.071	16919.19
725.413	16902.69
725.755	16881
726.097	16791.28
726.439	16805.52
726.782	16845.74
727.124	16828.57
727.465	16748.8
727.807	16767.55
728.149	16804.84
728.491	16739.98
728.833	16759.64
729.175	16655.92
729.516	16715.8
729.858	16774.33
730.199	16804.61
730.541	16636.94
730.882	16655.92
731.224	16657.05
731.565	16516.71
731.906	16637.61
732.248	16634
732.589	16469.48
732.93	16398.3
733.271	16463.38
733.612	16525.75
733.953	16496.83
734.294	16467.9
734.635	16417.96
734.976	16488.01
735.317	16430.84
735.658	16456.83
735.999	16518.29
736.339	16440.56
736.68	16462.25
737.021	16365.08
737.361	16348.36
737.702	16477.39
738.042	16370.5
738.383	16457.96
738.723	16445.08
739.063	16396.94
739.404	16449.14
739.744	16388.81
740.084	16362.37
740.424	16350.62
740.764	16383.61
741.104	16422.03
741.444	16339.09
741.784	16334.57
742.124	16446.88
742.464	16420.22
742.804	16375.25
743.143	16430.84
743.483	16356.72
743.823	16301.35
744.162	16380.22
744.502	16410.95
744.841	16409.14
745.181	16478.07
745.52	16434.91
745.86	16444.17
746.199	16431.52
746.538	16438.3
746.877	16519.2
747.216	16583.38
747.556	16603.26
747.895	16709.7
748.234	16612.3
748.573	16638.29
748.911	16610.04
749.25	16728.46
749.589	16815.91
749.928	16756.48
750.267	16834.9
750.605	16826.53
750.944	16882.13
751.283	16826.08
751.621	17014.78
751.96	17005.29
752.298	17085.06
752.636	17175
752.975	17142.23
753.313	17130.26
753.651	17297.71
753.989	17229.69
754.327	17304.04
754.666	17375
755.004	17489.79
755.342	17523.47
755.679	17528.21
756.017	17598.94
756.355	17654.08
756.693	17732.5
757.031	17876.68
