Data from hue_310_FLMS001491_28.txt Node
Date: Mon Feb 06 15:49:20 GMT 2017
User: dcchb
Spectrometer: FLMS00149
Trigger mode: 0
Integration Time (sec): 2.000000E-2
Scans to average: 10
Electric dark correction enabled: true
Nonlinearity correction enabled: false
Boxcar width: 0
XAxis mode: Wavelengths
Number of Pixels in Spectrum: 2048
>>>>>Begin Spectral Data<<<<<
341.393	-38.71
341.776	-38.71
342.16	-38.71
342.543	-76
342.927	-62.44
343.31	-68.77
343.693	-56.57
344.077	-69.9
344.46	-59.28
344.843	-30.35
345.226	-57.24
345.61	-26.51
345.993	-27.19
346.376	-21.09
346.759	17.33
347.142	21.17
347.525	45.58
347.908	63.88
348.291	75.63
348.674	84.22
349.057	109.08
349.44	129.19
349.823	128.29
350.206	159.02
350.588	177.55
350.971	213.71
351.354	200.6
351.737	221.39
352.119	245.12
352.502	264.78
352.884	289.87
353.267	282.18
353.65	283.99
354.032	302.75
354.414	319.24
354.797	279.92
355.179	322.86
355.562	330.09
355.944	343.42
356.326	320.15
356.709	331.67
357.091	323.54
357.473	342.75
357.855	323.99
358.238	346.59
358.62	347.04
359.002	340.03
359.384	333.25
359.766	336.87
360.148	354.5
360.53	335.29
360.912	337.32
361.294	338.45
361.676	321.05
362.057	354.27
362.439	327.15
362.821	328.28
363.203	327.38
363.584	323.54
363.966	318.34
364.348	338.9
364.729	329.19
365.111	315.4
365.493	317.44
365.874	316.98
366.256	333.25
366.637	301.62
367.019	324.89
367.4	308.17
367.781	311.33
368.163	320.82
368.544	316.98
368.925	301.84
369.306	307.94
369.688	329.41
370.069	328.51
370.45	322.18
370.831	305.23
371.212	323.76
371.593	294.16
371.974	319.69
372.355	304.78
372.736	298.23
373.117	319.92
373.498	302.29
373.879	314.05
374.26	306.59
374.641	306.81
375.021	303.42
375.402	309.07
375.783	311.33
376.163	307.72
376.544	335.06
376.925	337.1
377.305	338.68
377.686	315.85
378.066	308.62
378.447	325.57
378.827	330.32
379.208	338.9
379.588	329.41
379.968	339.13
380.349	341.39
380.729	352.24
381.109	333.25
381.489	344.33
381.87	334.84
382.25	308.85
382.63	317.21
383.01	328.73
383.39	329.86
383.77	343.88
384.15	343.65
384.53	364.21
384.91	328.96
385.29	331.9
385.67	353.82
386.049	349.75
386.429	344.55
386.809	350.88
387.189	349.52
387.568	353.14
387.948	363.31
388.328	351.11
388.707	358.79
389.087	352.46
389.466	354.04
389.846	341.62
390.225	385.91
390.605	342.75
390.984	372.57
391.363	361.5
391.743	350.65
392.122	387.49
392.501	386.59
392.881	382.97
393.26	363.54
393.639	383.42
394.018	366.7
394.397	374.83
394.776	386.13
395.155	375.51
395.534	366.93
395.913	368.96
396.292	386.36
396.671	378.22
397.05	375.51
397.429	387.04
397.808	363.76
398.186	396.53
398.565	393.37
398.944	388.39
399.323	380.94
399.701	401.95
400.08	400.82
400.458	411.9
400.837	402.63
401.215	368.73
401.594	403.31
401.972	412.8
402.351	411.9
402.729	416.42
403.107	420.48
403.486	407.6
403.864	411.67
404.242	438.56
404.62	419.13
404.999	417.32
405.377	421.16
405.755	457.32
406.133	454.83
406.511	422.52
406.889	446.25
407.267	444.66
407.645	455.06
408.023	458.9
408.401	458.22
408.779	467.71
409.156	483.53
409.534	479.69
409.912	479.69
410.29	509.29
410.667	504.77
411.045	505
411.422	511.33
411.8	507.49
412.178	495.74
412.555	523.08
412.933	526.92
413.31	540.48
413.687	521.5
414.065	540.93
414.442	548.39
414.819	555.17
415.197	565.79
415.574	566.69
415.951	562.85
416.328	597.2
416.705	608.5
417.082	595.39
417.46	611.44
417.837	624.55
418.214	629.97
418.591	623.87
418.967	620.03
419.344	649.63
419.721	643.53
420.098	655.96
420.475	662.96
420.852	669.97
421.228	669.97
421.605	702.06
421.982	700.93
422.358	707.93
422.735	719.01
423.111	717.2
423.488	734.15
423.864	758.78
424.241	744.99
424.617	736.18
424.994	752
425.37	750.87
425.746	776.86
426.123	778.67
426.499	773.69
426.875	792.22
427.251	803.75
427.627	815.28
428.003	833.35
428.379	828.38
428.756	849.17
429.132	879
429.507	855.27
429.883	860.47
430.259	875.84
430.635	876.97
431.011	893.01
431.387	892.34
431.763	901.37
432.138	913.13
432.514	937.31
432.89	956.74
433.265	945.22
433.641	980.02
434.016	985.44
434.392	1003.07
434.767	1000.58
435.143	1010.3
435.518	1014.14
435.894	1027.02
436.269	1040.13
436.644	1044.87
437.02	1041.48
437.395	1074.48
437.77	1066.12
438.145	1113.8
438.52	1078.09
438.895	1122.39
439.271	1108.83
439.646	1130.3
440.021	1129.17
440.395	1136.62
440.77	1114.02
441.145	1143.85
441.52	1170.75
441.895	1194.02
442.27	1151.09
442.645	1192.44
443.019	1156.06
443.394	1179.79
443.769	1193.12
444.143	1198.09
444.518	1227.24
444.892	1209.16
445.267	1195.15
445.641	1208.71
446.016	1209.16
446.39	1224.53
446.764	1208.26
447.139	1220.69
447.513	1268.82
447.887	1227.47
448.262	1251.65
448.636	1239.67
449.01	1270.18
449.384	1252.33
449.758	1269.05
450.132	1303.62
450.506	1298.2
450.88	1325.77
451.254	1312.21
451.628	1309.27
452.002	1304.75
452.376	1312.66
452.75	1345.66
453.123	1334.58
453.497	1338.2
453.871	1369.61
454.244	1387.69
454.618	1361.02
454.992	1405.77
455.365	1383.85
455.739	1411.19
456.112	1425.88
456.486	1410.97
456.859	1411.87
457.232	1455.26
457.606	1442.15
457.979	1454.58
458.352	1455.03
458.725	1483.28
459.099	1523.05
459.472	1527.8
459.845	1537.97
460.218	1536.61
460.591	1524.64
460.964	1536.16
461.337	1571.64
461.71	1566.44
462.083	1608.25
462.456	1592.2
462.829	1593.56
463.201	1624.07
463.574	1597.18
463.947	1643.05
464.32	1665.87
464.692	1689.6
465.065	1657.74
465.438	1693.67
465.81	1705.42
466.183	1716.49
466.555	1753.1
466.928	1756.49
467.3	1731.41
467.672	1763.72
468.045	1810.73
468.417	1803.95
468.789	1826.1
469.161	1846.43
469.534	1849.82
469.906	1849.37
470.278	1867.45
470.65	1901.8
471.022	1894.79
471.394	1923.27
471.766	1965.3
472.138	1985.41
472.51	1999.42
472.882	2019.31
473.253	1999.88
473.625	2047.79
473.997	2071.51
474.369	2064.73
474.74	2101.12
475.112	2119.87
475.484	2147.44
475.855	2112.42
476.227	2195.8
476.598	2244.84
476.97	2221.57
477.341	2252.75
477.713	2285.52
478.084	2308.12
478.455	2355.57
478.827	2346.31
479.198	2418.85
479.569	2397.61
479.94	2426.53
480.311	2448.68
480.682	2486.19
481.053	2533.65
481.424	2567.32
481.795	2613.87
482.166	2609.13
482.537	2612.74
482.908	2677.15
483.279	2692.06
483.65	2775.68
484.021	2763.02
484.391	2800.99
484.762	2785.39
485.133	2835.56
485.503	2849.35
485.874	2895.45
486.244	2900.64
486.615	2960.3
486.985	2916.91
487.356	3026.97
487.726	3034.2
488.097	3042.56
488.467	3089.34
488.837	3080.75
489.207	3131.82
489.578	3164.59
489.948	3201.2
490.318	3240.3
490.688	3262.67
491.058	3243.46
491.428	3319.62
491.798	3326.4
492.168	3370.01
492.538	3423.34
492.908	3421.76
493.278	3436.68
493.648	3418.37
494.017	3474.19
494.387	3564.81
494.757	3540.18
495.126	3546.95
495.496	3564.13
495.866	3571.81
496.235	3570.23
496.605	3642.09
496.974	3663.34
497.344	3684.8
497.713	3668.08
498.082	3684.35
498.452	3726.16
498.821	3726.16
499.19	3716.44
499.559	3737.23
499.928	3796.67
500.298	3789.89
500.667	3859.71
501.036	3790.34
501.405	3877.79
501.774	3872.6
502.143	3906.04
502.512	3913.5
502.88	3924.35
503.249	3925.02
503.618	3917.57
503.987	3935.87
504.356	3971.8
504.724	4009.77
505.093	4004.8
505.462	4007.06
505.83	4027.85
506.199	4035.53
506.567	4061.74
506.936	4095.64
507.304	4106.71
507.672	4080.27
508.041	4099.03
508.409	4157.11
508.777	4143.78
509.145	4161.4
509.514	4161.63
509.882	4180.61
510.25	4193.04
510.618	4202.53
510.986	4222.19
511.354	4250.89
511.722	4262.19
512.09	4295.41
512.458	4300.83
512.826	4317.78
513.193	4317.56
513.561	4302.87
513.929	4303.77
514.297	4368.85
514.664	4379.25
515.032	4430.32
515.4	4430.1
515.767	4363.88
516.135	4433.26
516.502	4385.8
516.869	4456.31
517.237	4484.11
517.604	4408.63
517.972	4515.97
518.339	4508.06
518.706	4511.45
519.073	4489.53
519.44	4523.88
519.808	4585.8
520.175	4581.28
520.542	4592.35
520.909	4587.15
521.276	4601.62
521.643	4627.15
522.009	4578.11
522.376	4658.79
522.743	4655.85
523.11	4680.71
523.477	4705.34
523.843	4785.11
524.21	4778.11
524.577	4851.1
524.943	4820.14
525.31	4809.75
525.676	4864.89
526.043	4847.49
526.409	4893.59
526.776	4951.21
527.142	4918.22
527.508	4962.74
527.874	5045.22
528.241	5007.48
528.607	4977.43
528.973	5072.56
529.339	5092.45
529.705	5134.94
530.071	5118.66
530.437	5134.71
530.803	5118.44
531.169	5161.15
531.535	5149.4
531.901	5212.22
532.267	5239.57
532.632	5270.3
532.998	5348.49
533.364	5303.52
533.73	5331.77
534.095	5386.45
534.461	5360.24
534.826	5402.05
535.192	5441.59
535.557	5468.49
535.923	5426
536.288	5481.82
536.653	5470.97
537.019	5512.55
537.384	5543.96
537.749	5547.81
538.114	5539.9
538.479	5579.9
538.845	5635.04
539.21	5647.92
539.575	5616.05
539.94	5666.22
540.305	5719.1
540.67	5729.04
541.034	5718.2
541.399	5785.09
541.764	5750.51
542.129	5881.58
542.494	5833.45
542.858	5855.14
543.223	5896.05
543.587	5843.39
543.952	5907.8
544.316	5963.84
544.681	5995.25
545.045	5984.4
545.41	6022.37
545.774	6054.23
546.138	6078.87
546.503	6020.56
546.867	6114.34
547.231	6177.62
547.595	6138.75
547.959	6229.6
548.324	6187.34
548.688	6214.68
549.052	6194.34
549.416	6287.9
549.779	6257.84
550.143	6336.03
550.507	6362.93
550.871	6310.27
551.235	6350.27
551.599	6357.5
551.962	6415.58
552.326	6460.55
552.689	6440.66
553.053	6469.36
553.417	6500.55
553.78	6552.98
554.143	6518.4
554.507	6522.92
554.87	6533.77
555.234	6580.55
555.597	6535.8
555.96	6594.33
556.323	6669.58
556.686	6652.18
557.05	6686.08
557.413	6688.12
557.776	6698.06
558.139	6750.03
558.502	6749.36
558.865	6741.22
559.228	6829.58
559.59	6887.21
559.953	6799.52
560.316	6889.47
560.679	6903.48
561.041	6929.24
561.404	6951.61
561.767	6976.47
562.129	6943.93
562.492	7020.76
562.854	6992.29
563.217	7046.98
563.579	7074.55
563.941	7070.25
564.304	7116.8
564.666	7128.33
565.028	7139.4
565.39	7117.26
565.753	7197.93
566.115	7250.36
566.477	7234.09
566.839	7278.38
567.201	7264.15
567.563	7295.78
567.925	7323.8
568.287	7404.48
568.648	7415.55
569.01	7502.78
569.372	7522.44
569.734	7475.89
570.095	7520.64
570.457	7547.98
570.819	7585.94
571.18	7580.97
571.542	7641.99
571.903	7682.44
572.265	7828.88
572.626	7785.26
572.987	7811.93
573.349	7887.41
573.71	7915.43
574.071	7896.67
574.432	7952.26
574.794	8135.53
575.155	8092.82
575.516	8208.08
575.877	8175.08
576.238	8287.17
576.599	8354.74
576.96	8448.75
577.32	8502.08
577.681	8568.29
578.042	8681.74
578.403	8748.17
578.763	8806.03
579.124	8952.01
579.485	8982.52
579.845	9146.81
580.206	9240.36
580.566	9368.04
580.927	9479.91
581.287	9594.71
581.648	9638.77
582.008	9857.3
582.368	9964.41
582.728	10084.86
583.089	10281.92
583.449	10461.8
583.809	10638.75
584.169	10788.12
584.529	10931.62
584.889	11193.76
585.249	11341.55
585.609	11473.53
585.969	11776.79
586.329	11885.72
586.688	12166.62
587.048	12293.62
587.408	12504.46
587.768	12759.14
588.127	12980.61
588.487	13265.8
588.846	13541.49
589.206	13631.89
589.565	13894.48
589.925	14280.46
590.284	14490.62
590.643	14682.71
591.003	14992.53
591.362	15221.68
591.721	15487.43
592.08	15780.08
592.44	16112.95
592.799	16386.62
593.158	16591.13
593.517	16981.86
593.876	17234.5
594.235	17494.84
594.593	17824.55
594.952	18087.59
595.311	18316.51
595.67	18761.24
596.029	19092.53
596.387	19353.09
596.746	19737.49
597.104	19812.97
597.463	20142
597.822	20447.98
598.18	20789.21
598.538	20955.08
598.897	21375.19
599.255	21505.35
599.613	22085.22
599.972	22226.24
600.33	22579.9
600.688	22692.67
601.046	23050.62
601.404	23390.05
601.762	23638.4
602.12	23993.87
602.478	24240.65
602.836	24459.85
603.194	24666.17
603.552	25023.9
603.91	25133.73
604.268	25459.6
604.625	25693.04
604.983	26109.75
605.341	26097.77
605.698	26455.05
606.056	26811.65
606.413	27027.69
606.771	27202.38
607.128	27534.57
607.485	27657.51
607.843	27834
608.2	28126.2
608.557	28569.8
608.914	28667.88
609.272	28923.91
609.629	29282.78
609.986	29359.38
610.343	29503.11
610.7	29828.3
611.057	29920.5
611.414	30246.14
611.771	30352.35
612.127	30680.25
612.484	30877.31
612.841	31051.32
613.198	31068.72
613.554	31248.6
613.911	31623.73
614.267	31807
614.624	31901.01
614.98	32032.99
615.337	32400.43
615.693	32453.31
616.05	32542.12
616.406	32832.51
616.762	32919.52
617.118	32980.98
617.475	33034.99
617.831	33343.01
618.187	33599.05
618.543	33630.91
618.899	33993.16
619.255	34156.55
619.611	34004.91
619.967	34336.43
620.323	34376.88
620.678	34460.04
621.034	34531.9
621.39	34557.21
621.746	34706.36
622.101	35145.22
622.457	34972.57
622.812	35091.89
623.168	35351.09
623.523	35300.92
623.879	35518.09
624.234	35362.39
624.589	35595.38
624.945	35574.81
625.3	35791.76
625.655	35631.31
626.01	35905.88
626.365	35998.98
626.72	36037.4
627.075	36163.05
627.43	36173.89
627.785	36197.85
628.14	36299.99
628.495	36340.44
628.85	36466.32
629.205	36315.13
629.559	36550.61
629.914	36572.75
630.269	36655.91
630.623	36606.65
630.978	36523.26
631.332	36892.97
631.687	36849.36
632.041	36656.82
632.396	36846.87
632.75	36739.75
633.104	36897.26
633.459	36673.32
633.813	36800.77
634.167	36822.01
634.521	36845.97
634.875	36932.97
635.229	36976.81
635.583	36819.07
635.937	36865.17
636.291	36848.23
636.645	36864.72
636.999	36765.52
637.352	37074.43
637.706	36816.14
638.06	36940.65
638.413	36862.46
638.767	36865.85
639.121	36956.7
639.474	36732.75
639.828	36850.94
640.181	36883.71
640.534	36839.19
640.888	36805.52
641.241	36725.52
641.594	36789.7
641.947	36816.59
642.301	36796.02
642.654	36713.09
643.007	36751.05
643.36	36760.09
643.713	36665.86
644.066	36748.79
644.419	36623.37
644.771	36368.69
645.124	36112.88
645.477	36040.56
645.83	35902.26
646.182	35801.7
646.535	35712.66
646.888	35778.88
647.24	35583.85
647.593	35795.37
647.945	35748.14
648.298	35586.79
648.65	35572.78
649.002	35387.7
649.355	35656.39
649.707	35618.88
650.059	35690.97
650.411	36247.11
650.763	36096.38
651.115	36515.58
651.467	36458.63
651.819	36434.9
652.171	36421.57
652.523	36316.71
652.875	36314.23
653.227	36222.25
653.578	36437.62
653.93	36425.64
654.282	36159.43
654.633	36107.68
654.985	36366.66
655.337	36368.92
655.688	36271.74
656.039	36281.46
656.391	36210.5
656.742	36144.97
657.094	36275.81
657.445	36259.54
657.796	36193.1
658.147	36112.65
658.498	36014.35
658.849	36205.53
659.2	36085.53
659.551	36125.31
659.902	36292.53
660.253	36155.59
660.604	36172.76
660.955	35856.39
661.306	36157.17
661.656	35981.36
662.007	36068.81
662.358	36048.47
662.708	35913.11
663.059	36148.58
663.409	35855.94
663.76	36003.05
664.11	36074.46
664.461	36089.38
664.811	36116.04
665.161	35989.94
665.511	35911.75
665.862	35982.03
666.212	36145.42
666.562	36093.44
666.912	35853.22
667.262	35860.68
667.612	35915.37
667.962	36079.21
668.312	35993.79
668.662	36029.94
669.011	35879.66
669.361	35985.42
669.711	35917.86
670.06	36003.95
670.41	35844.64
670.76	35713.79
671.109	35939.1
671.459	35728.03
671.808	35806.22
672.157	35910.4
672.507	35728.48
672.856	35751.98
673.205	35775.03
673.554	35773
673.904	35705.43
674.253	35900.68
674.602	35898.42
674.951	35328.94
675.3	35064.54
675.649	35666.11
675.998	35671.31
676.346	35690.74
676.695	35756.28
677.044	35418.21
677.393	35628.6
677.741	35794.47
678.09	35573.68
678.438	35476.06
678.787	35601.25
679.135	35578.43
679.484	35375.72
679.832	35450.75
680.181	35399.9
680.529	35482.61
680.877	35194.48
681.225	35188.61
681.573	35444.2
681.922	35186.12
682.27	35145.67
682.618	35113.81
682.966	35032.45
683.314	35023.42
683.661	34876.75
684.009	34770.09
684.357	34772.35
684.705	34758.56
685.053	34717.66
685.4	34700.49
685.748	34600.83
686.095	34428.4
686.443	34446.03
686.79	34307.28
687.138	34495.52
687.485	34328.74
687.832	34237.9
688.18	34289.65
688.527	34212.14
688.874	34110.22
689.221	34048.98
689.568	33906.83
689.915	33919.26
690.262	33934.63
690.609	33782.77
690.956	33726.95
691.303	33665.94
691.65	33496.9
691.997	33599.5
692.344	33312.95
692.69	33340.3
693.037	33324.48
693.383	33102.11
693.73	33185.72
694.077	33057.82
694.423	33044.48
694.769	32928.33
695.116	32814.89
695.462	32818.95
695.808	32729.92
696.155	32663.7
696.501	32534.67
696.847	32577.15
697.193	32294.67
697.539	32508.45
697.885	32225.3
698.231	32098.07
698.577	32125.19
698.923	32076.37
699.269	31977.85
699.614	31696.95
699.96	31695.14
700.306	31743.73
700.651	31631.19
700.997	31425.54
701.342	31480.91
701.688	31435.71
702.033	31305.32
702.379	31237.98
702.724	31277.75
703.069	31244.08
703.415	30907.37
703.76	30833.92
704.105	30947.14
704.45	30813.36
704.795	30739.01
705.14	30680.93
705.485	30604.77
705.83	30468.96
706.175	30623.98
706.52	30415.85
706.865	30334.27
707.209	30206.14
707.554	30201.62
707.899	30202.3
708.243	30073.71
708.588	29976.54
708.932	29849.54
709.277	29754.18
709.621	29756.66
709.966	29634.86
710.31	29760.5
710.654	29454.07
710.998	29426.05
711.342	29484.13
711.687	29373.39
712.031	29204.81
712.375	29170.01
712.719	29218.37
713.063	29159.84
713.407	29132.72
713.75	29050.24
714.094	28992.84
714.438	28789.45
714.782	28948.77
715.125	28971.6
715.469	28798.95
715.812	28773.18
716.156	28585.62
716.499	28675.79
716.843	28649.8
717.186	28283.03
717.53	28630.36
717.873	28604.6
718.216	28427.66
718.559	28296.36
718.902	28137.95
719.246	28196.7
719.589	28125.74
719.932	28088
720.275	28096.59
720.617	28052.07
720.96	27978.85
721.303	27904.05
721.646	27905.18
721.989	27664.29
722.331	27860.89
722.674	27807.79
723.016	27684.85
723.359	27626.32
723.701	27631.07
724.044	27507.45
724.386	27457.06
724.729	27510.62
725.071	27438.3
725.413	27449.83
725.755	27382.49
726.097	27239.67
726.439	27156.28
726.782	27238.76
727.124	27202.83
727.465	27079.9
727.807	27127.35
728.149	27012.33
728.491	26917.64
728.833	26950.41
729.175	26947.7
729.516	26792.22
729.858	26772.11
730.199	26820.92
730.541	26805.1
730.882	26689.62
731.224	26749.28
731.565	26638.33
731.906	26687.14
732.248	26608.95
732.589	26502.96
732.93	26414.38
733.271	26511.77
733.612	26467.93
733.953	26381.61
734.294	26502.96
734.635	26348.16
734.976	26295.51
735.317	26126.7
735.658	26125.8
735.999	26092.12
736.339	26058.45
736.68	26125.12
737.021	26122.18
737.361	25970.77
737.702	26030.43
738.042	25980.72
738.383	25936.87
738.723	25955.86
739.063	25881.51
739.404	25850.55
739.744	25773.71
740.084	25754.28
740.424	25785.92
740.764	25641.97
741.104	25802.19
741.444	25569.88
741.784	25526.04
742.124	25585.02
742.464	25442.42
742.804	25404.01
743.143	25347.74
743.483	25399.26
743.823	25312.94
744.162	25225.48
744.502	25186.61
744.841	25190
745.181	25230.9
745.52	25012.83
745.86	25143
746.199	24966.28
746.538	24999.05
746.877	25100.51
747.216	25104.13
747.556	24917.24
747.895	24937.35
748.234	24825.49
748.573	24858.71
748.911	24841.08
749.25	24881.54
749.589	24753.63
749.928	24764.7
750.267	24709.56
750.605	24549.11
750.944	24565.16
751.283	24425.95
751.621	24602.67
751.96	24408.78
752.298	24360.19
752.636	24360.19
752.975	24210.37
753.313	24108
753.651	24260.53
753.989	24136.7
754.327	24126.07
754.666	24021.67
755.004	24055.57
755.342	24002.69
755.679	23840.21
756.017	23760.66
756.355	23868
756.693	23816.93
757.031	23710.94
757.368	23632.08
757.706	23620.55
758.044	23455.13
758.381	23616.48
758.719	23373.78
759.056	23469.14
759.394	23331.52
759.731	23192.09
760.068	23150.51
