Data from hue_32_FLMS001491_00021.txt Node
Date: Tue Feb 07 17:23:05 GMT 2017
User: dcchb
Spectrometer: FLMS00149
Trigger mode: 0
Integration Time (sec): 2.000000E-2
Scans to average: 10
Electric dark correction enabled: true
Nonlinearity correction enabled: false
Boxcar width: 0
XAxis mode: Wavelengths
Number of Pixels in Spectrum: 2048
>>>>>Begin Spectral Data<<<<<
341.393	-5.96
341.776	-5.96
342.16	-5.96
342.543	-75.34
342.927	-56.35
343.31	-69.91
343.693	-96.13
344.077	-66.52
344.46	-73.98
344.843	-69.46
345.226	-46.86
345.61	-27.2
345.993	1.72
346.376	-12.51
346.759	11.21
347.142	29.52
347.525	42.85
347.908	64.77
348.291	82.4
348.674	97.54
349.057	132.57
349.44	128.27
349.823	142.51
350.206	164.43
350.588	201.94
350.971	219.34
351.354	213.69
351.737	228.16
352.119	263.41
352.502	263.19
352.884	267.03
353.267	275.61
353.65	298.89
354.032	300.25
354.414	307.48
354.797	313.58
355.179	336.63
355.562	326.46
355.944	316.97
356.326	319.68
356.709	327.14
357.091	330.3
357.473	355.16
357.855	351.77
358.238	344.54
358.62	349.51
359.002	330.75
359.384	330.3
359.766	327.14
360.148	337.99
360.53	332.34
360.912	350.41
361.294	352
361.676	338.44
362.057	321.26
362.439	313.35
362.821	330.98
363.203	342.73
363.584	344.99
363.966	324.43
364.348	311.55
364.729	324.65
365.111	339.57
365.493	313.81
365.874	309.74
366.256	328.27
366.637	312.45
367.019	316.52
367.4	324.2
367.781	291.66
368.163	317.42
368.544	314.94
368.925	326.01
369.306	329.62
369.688	318.1
370.069	321.94
370.45	308.83
370.831	318.78
371.212	322.84
371.593	327.36
371.974	324.88
372.355	333.69
372.736	322.17
373.117	324.43
373.498	329.17
373.879	323.07
374.26	336.63
374.641	304.09
375.021	314.48
375.402	324.88
375.783	331.21
376.163	333.47
376.544	328.04
376.925	314.26
377.305	325.33
377.686	321.71
378.066	328.49
378.447	324.88
378.827	339.34
379.208	337.76
379.588	343.41
379.968	345.67
380.349	347.7
380.729	352
381.109	324.2
381.489	342.05
381.87	347.48
382.25	319.91
382.63	361.94
383.01	352.22
383.39	330.3
383.77	333.47
384.15	342.96
384.53	340.25
384.91	341.6
385.29	356.29
385.67	353.8
386.049	345.22
386.429	356.74
386.809	352.9
387.189	354.71
387.568	349.06
387.948	367.82
388.328	368.27
388.707	361.94
389.087	373.24
389.466	367.59
389.846	368.95
390.225	361.49
390.605	359
390.984	364.65
391.363	377.53
391.743	372.79
392.122	376.85
392.501	382.96
392.881	387.25
393.26	385.89
393.639	379.79
394.018	391.77
394.397	375.5
394.776	375.95
395.155	382.73
395.534	367.82
395.913	404.88
396.292	372.79
396.671	390.41
397.05	406.01
397.429	405.78
397.808	396.51
398.186	377.98
398.565	403.07
398.944	388.61
399.323	377.08
399.701	418.66
400.08	403.75
400.458	415.72
400.837	408.04
401.215	397.64
401.594	413.46
401.972	413.92
402.351	395.84
402.729	400.81
403.107	410.07
403.486	412.56
403.864	433.8
404.242	415.27
404.62	417.08
404.999	429.73
405.377	418.66
405.755	419.34
406.133	412.79
406.511	428.38
406.889	434.25
407.267	434.03
407.645	443.29
408.023	446.23
408.401	451.2
408.779	457.08
409.156	454.82
409.534	429.51
409.912	444.65
410.29	472.67
410.667	464.08
411.045	472.22
411.422	467.93
411.8	464.54
412.178	482.61
412.555	464.31
412.933	462.73
413.31	496.63
413.687	490.98
414.065	468.15
414.442	504.08
414.819	485.1
415.197	509.73
415.574	497.53
415.951	488.04
416.328	499.56
416.705	491.65
417.082	537.53
417.46	505.66
417.837	503.86
418.214	539.34
418.591	510.41
418.967	530.3
419.344	542.27
419.721	533.91
420.098	533.69
420.475	521.03
420.852	513.35
421.228	560.8
421.605	540.47
421.982	557.64
422.358	532.78
422.735	557.41
423.111	561.26
423.488	571.65
423.864	595.38
424.241	557.87
424.617	561.93
424.994	571.65
425.37	570.07
425.746	590.86
426.123	623.63
426.499	582.95
426.875	615.27
427.251	612.1
427.627	608.94
428.003	605.55
428.379	610.29
428.756	627.24
429.132	614.36
429.507	628.15
429.883	653.91
430.259	632.22
430.635	657.53
431.011	652.33
431.387	643.97
431.763	685.09
432.138	680.58
432.514	667.24
432.89	673.12
433.265	678.09
433.641	710.86
434.016	719.9
434.392	691.42
434.767	716.96
435.143	695.94
435.518	719.67
435.894	716.05
436.269	703.85
436.644	735.72
437.02	747.24
437.395	755.83
437.77	750.4
438.145	761.03
438.52	768.48
438.895	789.95
439.271	773.91
439.646	776.84
440.021	784.08
440.395	790.18
440.77	782.95
441.145	770.29
441.52	783.85
441.895	828.14
442.27	786.56
442.645	809.16
443.019	795.15
443.394	805.32
443.769	824.53
444.143	840.12
444.518	846.67
444.892	837.18
445.267	862.27
445.641	832.44
446.016	866.11
446.39	857.07
446.764	862.27
447.139	866.11
447.513	886.9
447.887	855.71
448.262	895.71
448.636	886.67
449.01	880.12
449.384	903.17
449.758	911.53
450.132	912.43
450.506	915.15
450.88	909.27
451.254	914.69
451.628	923.96
452.002	950.85
452.376	973.22
452.75	960.12
453.123	949.04
453.497	975.71
453.871	974.58
454.244	979.78
454.618	994.92
454.992	1010.51
455.365	991.98
455.739	1041.24
456.112	1035.59
456.486	1025.2
456.859	1066.78
457.232	1086.44
457.606	1047.35
457.979	1064.75
458.352	1091.64
458.725	1118.3
459.099	1115.37
459.472	1151.07
459.845	1133.67
460.218	1161.92
460.591	1166.21
460.964	1163.73
461.337	1195.82
461.71	1218.64
462.083	1237.4
462.456	1219.32
462.829	1250.28
463.201	1272.42
463.574	1260
463.947	1307.23
464.32	1313.1
464.692	1326.21
465.065	1349.71
465.438	1354.68
465.81	1356.72
466.183	1379.54
466.555	1391.29
466.928	1406.43
467.3	1396.94
467.672	1446.88
468.045	1467
468.417	1508.12
468.789	1482.14
469.161	1519.2
469.534	1542.47
469.906	1536.6
470.278	1592.64
470.65	1625.18
471.022	1648.69
471.394	1661.11
471.766	1695.69
472.138	1721
472.51	1760.77
472.882	1783.15
473.253	1827.66
473.625	1818.17
473.997	1886.19
474.369	1909.92
474.74	1927.55
475.112	1975
475.484	2020.88
475.855	2088.9
476.227	2072.18
476.598	2119.63
476.97	2186.07
477.341	2241.89
477.713	2295.45
478.084	2329.57
478.455	2353.07
478.827	2377.71
479.198	2458.16
479.569	2523.46
479.94	2577.93
480.311	2657.02
480.682	2702.44
481.053	2758.03
481.424	2870.35
481.795	2886.17
482.166	2963.91
482.537	3012.72
482.908	3102.21
483.279	3152.15
483.65	3234.86
484.021	3315.08
484.391	3374.29
484.762	3452.25
485.133	3494.51
485.503	3543.1
485.874	3685.24
486.244	3740.16
486.615	3828.06
486.985	3891.34
487.356	3966.14
487.726	4031.45
488.097	4193.7
488.467	4209.07
488.837	4327.03
489.207	4372
489.578	4492
489.948	4578.55
490.318	4678.44
490.688	4718.44
491.058	4829.62
491.428	4927.47
491.798	4985.77
492.168	5089.05
492.538	5140.8
492.908	5237.29
493.278	5380.56
493.648	5398.42
494.017	5518.64
494.387	5602.25
494.757	5636.15
495.126	5773.32
495.496	5855.13
495.866	5905.3
496.235	5998.85
496.605	6029.36
496.974	6071.62
497.344	6227.32
497.713	6315.23
498.082	6324.95
498.452	6375.34
498.821	6480.2
499.19	6490.82
499.559	6649.23
499.928	6668.44
500.298	6740.98
500.667	6797.02
501.036	6806.74
501.405	6925.83
501.774	6976.91
502.143	7092.38
502.512	7070.69
502.88	7183.46
503.249	7181.87
503.618	7239.72
503.987	7312.94
504.356	7386.84
504.724	7451.7
505.093	7504.8
505.462	7532.15
505.83	7594.07
506.199	7676.78
506.567	7823.21
506.936	7779.6
507.304	7835.64
507.672	7939.14
508.041	7966.49
508.409	8091.23
508.777	8120.38
509.145	8088.29
509.514	8165.12
509.882	8243.77
510.25	8254.16
510.618	8315.4
510.986	8317.89
511.354	8497.77
511.722	8564.21
512.09	8620.48
512.458	8619.58
512.826	8646.02
513.193	8746.13
513.561	8738.89
513.929	8817.76
514.297	8913.81
514.664	8981.37
515.032	8984.76
515.4	9067.93
515.767	9137.08
516.135	9153.8
516.502	9030.41
516.869	9340.23
517.237	9307.47
517.604	9220.69
517.972	9356.51
518.339	9418.88
518.706	9482.83
519.073	9446.9
519.44	9580.23
519.808	9609.83
520.175	9621.13
520.542	9664.97
520.909	9831.52
521.276	9791.75
521.643	9850.5
522.009	9939.54
522.376	9992.42
522.743	10078.07
523.11	10177.05
523.477	10237.84
523.843	10293.66
524.21	10270.83
524.577	10342.24
524.943	10488.45
525.31	10416.82
525.676	10570.03
526.043	10561.45
526.409	10664.72
526.776	10843.92
527.142	10821.33
527.508	10907.2
527.874	10994.43
528.241	10996.01
528.607	11022.68
528.973	11136.57
529.339	11143.35
529.705	11203.46
530.071	11264.25
530.437	11404.81
530.803	11422.67
531.169	11453.85
531.535	11419.73
531.901	11485.26
532.267	11611.14
532.632	11674.18
532.998	11697.69
533.364	11767.29
533.73	11799.83
534.095	11866.95
534.461	11888.19
534.826	11986.94
535.192	12038.02
535.557	12145.36
535.923	12107.17
536.288	12144.45
536.653	12236.2
537.019	12214.51
537.384	12261.29
537.749	12403.2
538.114	12363.66
538.479	12414.28
538.845	12478.23
539.21	12496.08
539.575	12593.93
539.94	12609.98
540.305	12792.8
540.67	12660.83
541.034	12823.98
541.399	12777.66
541.764	12886.81
542.129	12914.15
542.494	12982.85
542.858	13075.28
543.223	13084.54
543.587	13106.92
543.952	13162.51
544.316	13210.19
544.681	13201.83
545.045	13265.78
545.41	13422.16
545.774	13436.62
546.138	13494.7
546.503	13521.59
546.867	13518.66
547.231	13525.89
547.595	13673
547.959	13712.78
548.324	13747.58
548.688	13746.45
549.052	13842.04
549.416	13918.42
549.779	13824.64
550.143	13964.97
550.507	13995.03
550.871	14066.89
551.235	14090.84
551.599	14130.39
551.962	14210.62
552.326	14273.89
552.689	14346.2
553.053	14314.34
553.417	14405.41
553.78	14550.27
554.143	14427.78
554.507	14602.47
554.87	14590.49
555.234	14776.02
555.597	14634.11
555.96	14665.52
556.323	14779.87
556.686	14839.98
557.05	14883.59
557.413	14937.38
557.776	14966.3
558.139	14982.57
558.502	15061.89
558.865	15067.09
559.228	15261.21
559.59	15333.52
559.953	15293.52
560.316	15354.99
560.679	15427.08
561.041	15570.35
561.404	15557.47
561.767	15760.18
562.129	15574.2
562.492	15782.1
562.854	15727.86
563.217	15751.59
563.579	15773.96
563.941	16008.99
564.304	15980.29
564.666	16113.16
565.028	16045.82
565.39	16138.93
565.753	16286.27
566.115	16225.93
566.477	16263.22
566.839	16403.55
567.201	16484.68
567.563	16481.74
567.925	16756.54
568.287	16663.66
568.648	16645.35
569.01	16783.88
569.372	16886.25
569.734	16778.68
570.095	16983.2
570.457	17078.34
570.819	17057.32
571.18	17064.1
571.542	17217.99
571.903	17288.05
572.265	17415.5
572.626	17480.81
572.987	17404.88
573.349	17673.12
573.71	17700.24
574.071	17716.74
574.432	17842.61
574.794	18015.94
575.155	18014.13
575.516	18113.56
575.877	18332.09
576.238	18250.28
576.599	18491.63
576.96	18462.48
577.32	18631.06
577.681	18766.88
578.042	18806.65
578.403	18986.53
578.763	19186.53
579.124	19264.95
579.485	19507.65
579.845	19629
580.206	19636.24
580.566	19858.6
580.927	19917.36
581.287	20280.51
581.648	20301.98
582.008	20612.25
582.368	20765.02
582.728	20898.12
583.089	21068.74
583.449	21260.6
583.809	21397.54
584.169	21529.97
584.529	21790.75
584.889	22228.71
585.249	22174.93
585.609	22460.34
585.969	22782.82
586.329	22914.79
586.688	23235.69
587.048	23376.93
587.408	23647.2
587.768	23757.93
588.127	24039.28
588.487	24190.24
588.846	24694.86
589.206	24624.13
589.565	25046.04
589.925	25275.86
590.284	25544.55
590.643	25689.18
591.003	26199.9
591.362	26421.14
591.721	26629.72
592.08	26848.7
592.44	27284.17
592.799	27579.76
593.158	27642.58
593.517	28034.21
593.876	28353.97
594.235	28548.77
594.593	28820.63
594.952	29009.1
595.311	29223.33
595.67	29475.98
596.029	29854.27
596.387	30181.04
596.746	30376.07
597.104	30611.99
597.463	30838.2
597.822	31158.64
598.18	31170.85
598.538	31604.96
598.897	32009.24
599.255	32002.46
599.613	32530.59
599.972	32702.56
600.33	32935.77
600.688	33022.32
601.046	33377.34
601.404	33794.05
601.762	33849.87
602.12	34202.86
602.478	34531.89
602.836	34614.37
603.194	34671.32
603.552	34854.59
603.91	34857.76
604.268	35321.47
604.625	35460.45
604.983	35812.98
605.341	35860.67
605.698	36123.49
606.056	36386.08
606.413	36449.8
606.771	36744.26
607.128	36967.08
607.485	37021.77
607.843	37263.12
608.2	37607.06
608.557	37778.81
608.914	37935.64
609.272	38217.67
609.629	38309.87
609.986	38634.15
610.343	38574.04
610.7	38972.68
611.057	39065.78
611.414	39061.94
611.771	39300.35
612.127	39667.35
612.484	39680.91
612.841	40007.22
613.198	39922.48
613.554	39975.36
613.911	40195.02
614.267	40402.24
614.624	40456.48
614.98	40658.51
615.337	40793.19
615.693	40895.56
616.05	40899.63
616.406	41256.68
616.762	41249
617.118	41356.12
617.475	41486.28
617.831	41726.05
618.187	41702.55
618.543	41747.74
618.899	42111.35
619.255	42122.42
619.611	42116.32
619.967	42459.82
620.323	42617.33
620.678	42559.7
621.034	42355.19
621.39	42491.23
621.746	42676.08
622.101	43232
622.457	42906.13
622.812	43014.6
623.168	43181.6
623.523	43166.92
623.879	43257.31
624.234	43180.02
624.589	43316.29
624.945	43549.05
625.3	43575.72
625.655	43468.38
626.01	43614.36
626.365	43580.92
626.72	43678.09
627.075	43693.68
627.43	43683.96
627.785	43615.94
628.14	43686
628.495	43872.66
628.85	43927.57
629.205	43734.36
629.559	43988.14
629.914	43909.72
630.269	44024.07
630.623	43878.99
630.978	43794.24
631.332	44109.94
631.687	44273.1
632.041	43937.52
632.396	44071.75
632.75	43920.79
633.104	43978.65
633.459	43868.82
633.813	43987.23
634.167	43963.28
634.521	43901.13
634.875	43978.19
635.229	43979.32
635.583	44013.45
635.937	43847.8
636.291	43919.44
636.645	44005.76
636.999	43925.99
637.352	44009.83
637.706	43841.7
638.06	44032.66
638.413	43890.06
638.767	43919.89
639.121	43914.69
639.474	43809.84
639.828	43706.34
640.181	43752.66
640.534	43796.5
640.888	43729.84
641.241	43565.78
641.594	43628.15
641.947	43780.46
642.301	43580.01
642.654	43633.57
643.007	43674.02
643.36	43579.11
643.713	43601.25
644.066	43820.91
644.419	43530.97
644.771	43252.56
645.124	42867.94
645.477	42906.81
645.83	42533.03
646.182	42475.63
646.535	42425.01
646.888	42383.89
647.24	42342.98
647.593	42592.02
647.945	42313.15
648.298	42361.51
648.65	42184.12
649.002	42048.75
649.355	42323.1
649.707	42220.27
650.059	42467.73
650.411	42858.9
650.763	42935.51
651.115	43342.5
651.467	43072
651.819	43180.7
652.171	43103.19
652.523	43056.64
652.875	43090.08
653.227	42852.57
653.578	43077.65
653.93	43088.05
654.282	42870.2
654.633	42897.32
654.985	42893.93
655.337	42985.68
655.688	43039.46
656.039	43034.72
656.391	42723.99
656.742	42864.32
657.094	42941.16
657.445	43110.65
657.796	42840.37
658.147	42824.78
658.498	42814.83
658.849	42973.02
659.2	42833.82
659.551	42863.65
659.902	42896.19
660.253	42671.34
660.604	42830.65
660.955	42688.28
661.306	42784.55
661.656	42697.32
662.007	42664.56
662.358	42742.75
662.708	42776.87
663.059	42535.07
663.409	42422.53
663.76	42532.81
664.11	42721.5
664.461	42659.81
664.811	42722.86
665.161	42729.41
665.511	42532.58
665.862	42640.38
666.212	42700.49
666.562	42672.47
666.912	42606.7
667.262	42607.16
667.612	42669.08
667.962	42570.77
668.312	42458.91
668.662	42846.25
669.011	42568.51
669.361	42588.17
669.711	42511.57
670.06	42522.41
670.41	42452.58
670.76	42372.81
671.109	42670.66
671.459	42551.11
671.808	42540.04
672.157	42679.02
672.507	42164.91
672.856	42322.64
673.205	42328.52
673.554	42471.34
673.904	42372.59
674.253	42484.45
674.602	42410.33
674.951	41783.45
675.3	41597.69
675.649	42159.03
675.998	42232.03
676.346	42343.21
676.695	42255.53
677.044	42129.43
677.393	42173.95
677.741	42217.11
678.09	42138.47
678.438	42053.5
678.787	42057.57
679.135	42058.47
679.484	41909.32
679.832	42004.46
680.181	41709.33
680.529	41853.28
680.877	41701.19
681.225	41743.45
681.573	41816.89
681.922	41568.99
682.27	41513.85
682.618	41537.13
682.966	41383.69
683.314	41568.99
683.661	41325.61
684.009	41325.16
684.357	41201.77
684.705	41178.95
685.053	41143.01
685.4	41183.92
685.748	40947.54
686.095	40873.19
686.443	40638.85
686.79	40606.31
687.138	40789.35
687.485	40743.93
687.832	40614.67
688.18	40780.76
688.527	40390.27
688.874	40650.37
689.221	40273.88
689.568	40150.95
689.915	40078.41
690.262	40141.23
690.609	40057.62
690.956	39881.8
691.303	39960.45
691.65	39599.1
691.997	39854.01
692.344	39499.22
692.69	39499.44
693.037	39618.08
693.383	39170.86
693.73	39307.81
694.077	39182.16
694.423	39109.85
694.769	38928.38
695.116	38815.84
695.462	38806.35
695.808	38746.02
696.155	38802.28
696.501	38506.02
696.847	38508.96
697.193	38349.42
697.539	38350.32
697.885	38218.8
698.231	38235.97
698.577	38300.38
698.923	38063.55
699.269	37775.42
699.614	37662.88
699.96	37751.46
700.306	37693.61
700.651	37522.54
700.997	37386.28
701.342	37274.87
701.688	37347.41
702.033	37199.39
702.379	37138.6
702.724	37020.64
703.069	37173.85
703.415	36626.97
703.76	36740.64
704.105	36704.26
704.45	36637.82
704.795	36340.2
705.14	36323.71
705.485	36271.96
705.83	36097.05
706.175	36273.09
706.52	36051.62
706.865	35882.81
707.209	35812.98
707.554	35761.91
707.899	35737.73
708.243	35516.04
708.588	35646.89
708.932	35328.48
709.277	35318.08
709.621	35475.37
709.966	35271.08
710.31	35175.49
710.654	34911.77
710.998	34970.75
711.342	35045.1
711.687	34820.24
712.031	34702.73
712.375	34700.47
712.719	34672.9
713.063	34643.3
713.407	34740.7
713.75	34582.51
714.094	34363.98
714.438	34254.83
714.782	34299.58
715.125	34229.98
715.469	34269.75
715.812	34102.52
716.156	33946.82
716.499	34035.86
716.843	34044.67
717.186	33675.64
717.53	33960.15
717.873	33948.63
718.216	33710.22
718.559	33634.51
718.902	33274.29
719.246	33350.68
719.589	33411.47
719.932	33380.05
720.275	33275.88
720.617	33272.94
720.96	33155.65
721.303	33266.39
721.646	33174.18
721.989	33030.91
722.331	33104.13
722.674	33010.8
723.016	32940.52
723.359	32801.76
723.701	32920.86
724.044	32737.81
724.386	32476.8
724.729	32742.56
725.071	32632.96
725.413	32605.84
725.755	32551.15
726.097	32391.61
726.439	32216.02
726.782	32210.82
727.124	32388.89
727.465	32267.99
727.807	32187.32
728.149	32185.51
728.491	32103.7
728.833	32218.28
729.175	31969.92
729.516	31914.1
729.858	31798.4
730.199	31895.35
730.541	31772.64
730.882	31753.66
731.224	31754.56
731.565	31618.29
731.906	31628.01
732.248	31664.85
732.589	31510.95
732.93	31447.9
733.271	31436.15
733.612	31441.35
733.953	31399.09
734.294	31363.16
734.635	31345.53
734.976	31304.4
735.317	31203.16
735.658	31112.77
735.999	31184.86
736.339	31069.61
736.68	31057.18
737.021	30945.32
737.361	30904.87
737.702	31025.54
738.042	30909.84
738.383	30825.32
738.723	30912.77
739.063	30738.32
739.404	30885.43
739.744	30732.89
740.084	30588.26
740.424	30714.81
740.764	30659
741.104	30710.52
741.444	30520.24
741.784	30355.05
742.124	30411.77
742.464	30341.49
742.804	30284.32
743.143	30188.5
743.483	30315.28
743.823	30145.79
744.162	30027.6
744.502	30135.62
744.841	29950.99
745.181	30096.75
745.52	29828.06
745.86	29966.13
746.199	29955.51
746.538	29942.86
746.877	29899.69
747.216	29822.41
747.556	29748.29
747.895	29929.75
748.234	29608.85
748.573	29735.4
748.911	29607.05
749.25	29426.71
749.589	29494.28
749.928	29527.95
750.267	29499.93
750.605	29397.56
750.944	29376.77
751.283	29287.96
751.621	29332.93
751.96	29080.05
752.298	29140.39
752.636	29141.75
752.975	28908.31
753.313	28854.98
753.651	29043.9
753.989	28836.22
754.327	28663.12
754.666	28644.36
755.004	28633.51
755.342	28812.04
755.679	28584.7
756.017	28400.75
756.355	28551.03
756.693	28383.35
757.031	28456.79
757.368	28270.36
757.706	28341.77
