Data from hue_00_FLMS001491_56.txt Node
Date: Mon Feb 06 15:29:55 GMT 2017
User: dcchb
Spectrometer: FLMS00149
Trigger mode: 0
Integration Time (sec): 2.000000E-2
Scans to average: 10
Electric dark correction enabled: true
Nonlinearity correction enabled: false
Boxcar width: 0
XAxis mode: Wavelengths
Number of Pixels in Spectrum: 2048
>>>>>Begin Spectral Data<<<<<
341.393	-0.47
341.776	-0.47
342.16	-0.47
342.543	-51.99
342.927	-83.18
343.31	-69.39
343.693	-64.19
344.077	-80.46
344.46	-58.32
344.843	-56.96
345.226	-28.49
345.61	-30.52
345.993	-4.08
346.376	-6.34
346.759	28.23
347.142	13.09
347.525	41.79
347.908	58.97
348.291	58.74
348.674	81.79
349.057	116.14
349.44	140.32
349.823	141.9
350.206	171.05
350.588	181.9
350.971	212.18
351.354	218.29
351.737	229.81
352.119	239.3
352.502	258.28
352.884	273.43
353.267	276.36
353.65	281.33
354.032	271.17
354.414	288.11
354.797	320.2
355.179	303.48
355.562	303.48
355.944	300.99
356.326	319.3
356.709	327.89
357.091	325.85
357.473	329.02
357.855	319.53
358.238	325.18
358.62	328.11
359.002	340.99
359.384	365.63
359.766	341.22
360.148	317.94
360.53	331.5
360.912	327.66
361.294	316.36
361.676	317.94
362.057	338.28
362.439	314.78
362.821	336.47
363.203	340.54
363.584	340.32
363.966	325.63
364.348	332.63
364.729	324.72
365.111	305.74
365.493	318.4
365.874	320.88
366.256	298.74
366.637	325.4
367.019	311.62
367.4	316.36
367.781	314.1
368.163	297.15
368.544	316.14
368.925	326.3
369.306	321.11
369.688	295.12
370.069	336.47
370.45	319.98
370.831	308.68
371.212	317.49
371.593	318.85
371.974	303.71
372.355	295.35
372.736	286.08
373.117	311.39
373.498	317.49
373.879	312.75
374.26	306.42
374.641	300.09
375.021	303.25
375.402	311.39
375.783	322.01
376.163	312.07
376.544	315.68
376.925	331.28
377.305	335.12
377.686	309.36
378.066	320.88
378.447	305.97
378.827	327.21
379.208	326.98
379.588	348.23
379.968	324.05
380.349	326.08
380.729	316.14
381.109	307.77
381.489	331.5
381.87	325.18
382.25	358.17
382.63	316.59
383.01	324.95
383.39	340.54
383.77	326.53
384.15	322.24
384.53	337.15
384.91	332.18
385.29	323.14
385.67	341.9
386.049	340.99
386.429	335.57
386.809	335.34
387.189	342.12
387.568	340.32
387.948	334.89
388.328	334.67
388.707	343.71
389.087	345.97
389.466	348.23
389.846	350.03
390.225	341.9
390.605	340.32
390.984	337.38
391.363	363.82
391.743	349.13
392.122	364.04
392.501	362.69
392.881	359.75
393.26	335.8
393.639	369.92
394.018	358.39
394.397	357.49
394.776	372.86
395.155	371.5
395.534	366.53
395.913	372.41
396.292	357.72
396.671	361.11
397.05	362.01
397.429	378.73
397.808	366.3
398.186	355
398.565	371.73
398.944	378.28
399.323	369.02
399.701	354.33
400.08	366.08
400.458	371.73
400.837	381.9
401.215	408.11
401.594	390.94
401.972	377.15
402.351	393.42
402.729	388.45
403.107	377.38
403.486	382.57
403.864	388
404.242	402.01
404.62	385.96
404.999	375.8
405.377	390.26
405.755	383.7
406.133	397.26
406.511	408.11
406.889	403.14
407.267	408.11
407.645	392.07
408.023	411.73
408.401	397.04
408.779	412.86
409.156	403.82
409.534	402.01
409.912	432.52
410.29	417.6
410.667	414.44
411.045	410.82
411.422	429.81
411.8	438.17
412.178	445.4
412.555	446.08
412.933	428
413.31	436.81
413.687	427.77
414.065	449.01
414.442	440.2
414.819	428.9
415.197	449.92
415.574	465.74
415.951	460.54
416.328	469.35
416.705	468.67
417.082	464.83
417.46	493.08
417.837	479.3
418.214	447.88
418.591	473.65
418.967	471.39
419.344	487.43
419.721	450.37
420.098	484.04
420.475	475
420.852	478.39
421.228	502.57
421.605	518.16
421.982	504.38
422.358	501.22
422.735	513.42
423.111	520.65
423.488	528.56
423.864	517.49
424.241	504.15
424.617	529.01
424.994	538.73
425.37	529.24
425.746	524.27
426.123	531.95
426.499	526.53
426.875	535.34
427.251	540.54
427.627	538.28
428.003	541.44
428.379	565.62
428.756	574.43
429.132	558.84
429.507	569.69
429.883	581.67
430.259	592.06
430.635	575.11
431.011	590.25
431.387	575.11
431.763	583.02
432.138	584.6
432.514	585.73
432.89	613.08
433.265	616.24
433.641	607.43
434.016	613.3
434.392	627.54
434.767	621.66
435.143	630.93
435.518	644.71
435.894	649.23
436.269	633.19
436.644	649.46
437.02	631.61
437.395	648.56
437.77	660.53
438.145	657.82
438.52	685.17
438.895	669.57
439.271	675
439.646	683.36
440.021	702.34
440.395	678.39
440.77	688.33
441.145	697.37
441.52	719.29
441.895	720.19
442.27	725.39
442.645	708.44
443.019	705.96
443.394	697.59
443.769	745.95
444.143	734.2
444.518	713.87
444.892	711.83
445.267	740.08
445.641	767.65
446.016	738.95
446.39	739.63
446.764	720.64
447.139	748.67
447.513	755.45
447.887	753.64
448.262	757.03
448.636	754.32
449.01	765.84
449.384	773.98
449.758	776.91
450.132	774.65
450.506	792.51
450.88	796.12
451.254	809.91
451.628	793.19
452.002	816.01
452.376	829.79
452.75	805.61
453.123	814.43
453.497	824.6
453.871	844.03
454.244	838.16
454.618	828.21
454.992	818.72
455.365	833.86
455.739	879.28
456.112	856.23
456.486	848.78
456.859	874.99
457.232	881.09
457.606	876.35
457.979	899.17
458.352	910.7
458.725	918.61
459.099	921.54
459.472	922.67
459.845	946.4
460.218	946.18
460.591	947.53
460.964	954.54
461.337	989.34
461.71	981.2
462.083	999.51
462.456	1015.1
462.829	992.28
463.201	1017.13
463.574	1026.4
463.947	1053.74
464.32	1055.55
464.692	1052.84
465.065	1065.72
465.438	1068.21
465.81	1095.78
466.183	1089.67
466.555	1097.36
466.928	1136.68
467.3	1136.68
467.672	1161.09
468.045	1145.72
468.417	1179.62
468.789	1178.49
469.161	1189.79
469.534	1189.11
469.906	1229.78
470.278	1246.51
470.65	1251.25
471.022	1265.94
471.394	1305.04
471.766	1303.23
472.138	1300.06
472.51	1318.6
472.882	1353.17
473.253	1361.31
473.625	1369.67
473.997	1399.05
474.369	1422.1
474.74	1448.54
475.112	1483.34
475.484	1484.92
475.855	1464.13
476.227	1531.92
476.598	1558.59
476.97	1563.79
477.341	1606.27
477.713	1611.92
478.084	1620.73
478.455	1689.43
478.827	1684.46
479.198	1743.89
479.569	1757.23
479.94	1778.24
480.311	1856.21
480.682	1827.96
481.053	1863.89
481.424	1922.2
481.795	1923.78
482.166	1951.57
482.537	1969.2
482.908	2035.64
483.279	2052.81
483.65	2087.84
484.021	2107.95
484.391	2191.57
484.762	2202.19
485.133	2246.25
485.503	2226.37
485.874	2278.12
486.244	2299.81
486.615	2379.81
486.985	2391.79
487.356	2428.4
487.726	2484.67
488.097	2489.86
488.467	2523.76
488.837	2580.26
489.207	2612.35
489.578	2644.66
489.948	2694.38
490.318	2742.29
490.688	2710.65
491.058	2788.61
491.428	2767.6
491.798	2841.49
492.168	2915.84
492.538	2908.16
492.908	2922.62
493.278	2967.37
493.648	2991.32
494.017	3059.11
494.387	3053.92
494.757	3108.6
495.126	3137.53
495.496	3138.89
495.866	3154.03
496.235	3193.35
496.605	3236.28
496.974	3241.48
497.344	3273.35
497.713	3297.98
498.082	3349.95
498.452	3355.83
498.821	3379.11
499.19	3384.3
499.559	3434.7
499.928	3450.74
500.298	3486.9
500.667	3516.05
501.036	3531.64
501.405	3545.43
501.774	3544.98
502.143	3593.34
502.512	3598.99
502.88	3617.97
503.249	3637.4
503.618	3664.3
503.987	3691.64
504.356	3722.37
504.724	3723.73
505.093	3719.66
505.462	3728.02
505.83	3708.81
506.199	3794.46
506.567	3800.56
506.936	3821.35
507.304	3886.66
507.672	3851.64
508.041	3925.31
508.409	3901.13
508.777	3910.62
509.145	3944.06
509.514	3910.39
509.882	3974.34
510.25	4017.51
510.618	4013.44
510.986	4033.78
511.354	4056.83
511.722	4049.6
512.09	4172.31
512.458	4092.31
512.826	4137.73
513.193	4101.35
513.561	4143.15
513.929	4126.66
514.297	4165.75
514.664	4225.41
515.032	4185.86
515.4	4227.45
515.767	4292.08
516.135	4295.24
516.502	4246.43
516.869	4309.93
517.237	4317.16
517.604	4315.35
517.972	4354.9
518.339	4389.93
518.706	4380.66
519.073	4360.1
519.44	4433.54
519.808	4430.38
520.175	4468.12
520.542	4486.65
520.909	4485.52
521.276	4480.09
521.643	4535.91
522.009	4528.68
522.376	4564.39
522.743	4554.22
523.11	4622.01
523.477	4604.16
523.843	4633.08
524.21	4694.78
524.577	4706.98
524.943	4754.21
525.31	4731.16
525.676	4764.15
526.043	4770.48
526.409	4864.72
526.776	4855.9
527.142	4840.99
527.508	4883.47
527.874	4885.51
528.241	4921.66
528.607	4938.61
528.973	4961.44
529.339	5001.44
529.705	5046.86
530.071	5043.47
530.437	5082.79
530.803	5122.11
531.169	5150.13
531.535	5106.07
531.901	5156.46
532.267	5185.16
532.632	5170.02
532.998	5235.33
533.364	5292.5
533.73	5236.46
534.095	5315.33
534.461	5296.12
534.826	5345.16
535.192	5300.86
535.557	5396.45
535.923	5430.35
536.288	5408.66
536.653	5411.59
537.019	5452.27
537.384	5447.07
537.749	5487.75
538.114	5525.72
538.479	5525.49
538.845	5523.91
539.21	5555.32
539.575	5579.05
539.94	5567.07
540.305	5635.54
540.67	5603
541.034	5664.02
541.399	5669.44
541.764	5767.29
542.129	5697.24
542.494	5764.13
542.858	5817.23
543.223	5769.1
543.587	5831.92
543.952	5840.28
544.316	5843.45
544.681	5941.07
545.045	5957.8
545.41	5967.06
545.774	5955.99
546.138	5989.88
546.503	6008.87
546.867	6033.95
547.231	6064.46
547.595	6088.87
547.959	6117.79
548.324	6085.7
548.688	6118.92
549.052	6145.36
549.416	6139.71
549.779	6188.75
550.143	6233.95
550.507	6258.8
550.871	6339.71
551.235	6320.05
551.599	6300.61
551.962	6372.47
552.326	6325.24
552.689	6389.87
553.053	6370.67
553.417	6399.37
553.78	6424
554.143	6474.17
554.507	6487.05
554.87	6482.53
555.234	6527.95
555.597	6474.62
555.96	6528.63
556.323	6604.78
556.686	6585.58
557.05	6633.26
557.413	6656.53
557.776	6630.77
558.139	6720.94
558.502	6676.42
558.865	6681.17
559.228	6730.2
559.59	6767.27
559.953	6826.47
560.316	6813.37
560.679	6831.44
561.041	6870.09
561.404	6914.83
561.767	6919.58
562.129	6910.31
562.492	6982.18
562.854	6990.54
563.217	6966.81
563.579	6991.89
563.941	6998.9
564.304	7078.44
564.666	7037.54
565.028	7108.95
565.39	7150.98
565.753	7215.84
566.115	7202.28
566.477	7161.15
566.839	7219.68
567.201	7276.18
567.563	7282.28
567.925	7357.08
568.287	7317.53
568.648	7352.33
569.01	7434.82
569.372	7485.89
569.734	7457.64
570.095	7554.82
570.457	7569.28
570.819	7616.28
571.18	7567.47
571.542	7677.07
571.903	7645.89
572.265	7744.64
572.626	7691.76
572.987	7783.28
573.349	7765.21
573.71	7865.54
574.071	7935.14
574.432	7988.02
574.794	8030.96
575.155	8040.45
575.516	8050.17
575.877	8129.26
576.238	8195.93
576.599	8291.52
576.96	8294.23
577.32	8419.65
577.681	8448.8
578.042	8573.77
578.403	8566.09
578.763	8692.86
579.124	8774.22
579.485	8857.15
579.845	8949.81
580.206	8988.45
580.566	9086.75
580.927	9194.55
581.287	9334.43
581.648	9436.12
582.008	9556.57
582.368	9619.39
582.728	9819.61
583.089	9943
583.449	10044.02
583.809	10227.06
584.169	10300.96
584.529	10480.84
584.889	10701.85
585.249	10789.98
585.609	11022.75
585.969	11240.37
586.329	11372.12
586.688	11483.3
587.048	11758.32
587.408	11837.64
587.768	12070.63
588.127	12398.98
588.487	12531.86
588.846	12865.18
589.206	12881.46
589.565	13147.44
589.925	13507.65
590.284	13633.53
590.643	13889.79
591.003	14109.67
591.362	14495.42
591.721	14551.92
592.08	14915.98
592.44	15106.48
592.799	15457.21
593.158	15695.62
593.517	15821.26
593.876	16242.27
594.235	16434.13
594.593	16766.32
594.952	17041.57
595.311	17245.86
595.67	17513.65
596.029	17937.59
596.387	18245.61
596.746	18582.32
597.104	18683.34
597.463	19022.08
597.822	19235.19
598.18	19481.28
598.538	19758.56
598.897	20232.9
599.255	20279
599.613	20856.16
599.972	20917.18
600.33	21254.34
600.688	21402.13
601.046	21833.31
601.404	22090.7
601.762	22354.43
602.12	22728.2
602.478	22961.42
602.836	23136.1
603.194	23303.1
603.552	23725.01
603.91	23833.94
604.268	24126.58
604.625	24341.04
604.983	24760.69
605.341	24725.89
605.698	25049.27
606.056	25378.75
606.413	25618.75
606.771	25826.65
607.128	26230.93
607.485	26292.18
607.843	26502.11
608.2	26856.91
608.557	27100.52
608.914	27149.33
609.272	27499.83
609.629	27787.5
609.986	28195.63
610.343	28170.54
610.7	28451.67
611.057	28696.86
611.414	28785.22
611.771	28986.57
612.127	29192.21
612.484	29423.17
612.841	29659.32
613.198	29695.25
613.554	29959.65
613.911	30187.67
614.267	30369.36
614.624	30482.57
614.98	30544.72
615.337	31017.7
615.693	31046.85
616.05	31146.06
616.406	31488.42
616.762	31513.51
617.118	31586.5
617.475	31685.71
617.831	31937.9
618.187	32036.43
618.543	32235.52
618.899	32447.72
619.255	32459.02
619.611	32589.86
619.967	32646.13
620.323	33015.61
620.678	32918.89
621.034	33010.42
621.39	33103.07
621.746	33202.95
622.101	33605.43
622.457	33417.64
622.812	33735.82
623.168	33734.24
623.523	33763.62
623.879	34166.32
624.234	33851.3
624.589	33996.38
624.945	34179.43
625.3	34310.95
625.655	34307.11
626.01	34462.81
626.365	34528.34
626.72	34551.17
627.075	34543.94
627.43	34597.27
627.785	34535.8
628.14	34810.82
628.495	34864.38
628.85	34850.37
629.205	34840.65
629.559	35064.83
629.914	34928.78
630.269	35098.5
630.623	34976.92
630.978	34907.32
631.332	35192.28
631.687	35232.96
632.041	35131.49
632.396	35154.54
632.75	35068.22
633.104	35253.07
633.459	35078.39
633.813	35011.72
634.167	35175.33
634.521	35214.65
634.875	35256.01
635.229	35395.67
635.583	35135.11
635.937	35218.49
636.291	35201.55
636.645	35261.21
636.999	35202
637.352	35289.91
637.706	35120.87
638.06	35200.42
638.413	35245.61
638.767	35195.44
639.121	35124.49
639.474	35129.01
639.828	35140.08
640.181	35258.27
640.534	35184.6
640.888	35228.21
641.241	35085.62
641.594	35219.17
641.947	35358.83
642.301	35065.73
642.654	35162
643.007	35129.46
643.36	35106.18
643.713	35083.58
644.066	35242.45
644.419	35033.41
644.771	34823.03
645.124	34479.98
645.477	34465.97
645.83	34337.61
646.182	34088.81
646.535	34163.38
646.888	34148.47
647.24	34091.52
647.593	34166.77
647.945	34126.32
648.298	33885.42
648.65	33907.12
649.002	33756.16
649.355	33971.52
649.707	33833.45
650.059	34068.02
650.411	34605.63
650.763	34455.58
651.115	34884.04
651.467	34706.42
651.819	34717.94
652.171	34665.52
652.523	34673.42
652.875	34612.18
653.227	34437.05
653.578	34782.12
653.93	34717.27
654.282	34469.14
654.633	34410.38
654.985	34613.99
655.337	34538.29
655.688	34574.67
656.039	34647.44
656.391	34433.43
656.742	34507.78
657.094	34446.09
657.445	34777.6
657.796	34445.41
658.147	34504.16
658.498	34454.67
658.849	34584.84
659.2	34359.08
659.551	34413.09
659.902	34531.51
660.253	34444.96
660.604	34422.81
660.955	34272.98
661.306	34538.74
661.656	34282.47
662.007	34316.15
662.358	34327.67
662.708	34401.79
663.059	34286.77
663.409	34132.87
663.76	34336.48
664.11	34341.91
664.461	34371.74
664.811	34338.52
665.161	34277.5
665.511	34237.05
665.862	34337.16
666.212	34297.84
666.562	34342.59
666.912	34290.84
667.262	34251.51
667.612	34090.61
667.962	34243.83
668.312	34219.65
668.662	34313.43
669.011	34165.87
669.361	34162.7
669.711	34073.21
670.06	34185.98
670.41	34112.31
670.76	33992.54
671.109	34161.12
671.459	34204.28
671.808	34153.89
672.157	34270.27
672.507	33960.67
672.856	34009.04
673.205	34000.67
673.554	34128.13
673.904	34046.77
674.253	34216.94
674.602	34001.8
674.951	33495.6
675.3	33381.71
675.649	33896.27
675.998	33883.39
676.346	33890.39
676.695	34017.62
677.044	33699.21
677.393	33820.11
677.741	33952.09
678.09	33840.45
678.438	33670.06
678.787	33687.01
679.135	33656.5
679.484	33383.29
679.832	33758.19
680.181	33431.65
680.529	33523.17
680.877	33575.15
681.225	33465.77
681.573	33651.08
681.922	33411.54
682.27	33249.28
682.618	33391.2
682.966	33211.99
683.314	33226.23
683.661	33261.26
684.009	33044.54
684.357	32974.03
684.705	32864.21
685.053	33106.91
685.4	32835.51
685.748	32758.45
686.095	32788.5
686.443	32687.94
686.79	32737.88
687.138	32691.56
687.485	32691.1
687.832	32562.29
688.18	32597.55
688.527	32429.19
688.874	32498.57
689.221	32182.87
689.568	32287.27
689.915	32156.2
690.262	32125.47
690.609	32169.08
690.956	31897.23
691.303	31889.77
691.65	31777.68
691.997	31819.04
692.344	31596.9
692.69	31700.62
693.037	31661.07
693.383	31408.65
693.73	31521.42
694.077	31227.19
694.423	31242.1
694.769	31168.88
695.116	31152.84
695.462	31175.66
695.808	30963.47
696.155	31030.13
696.501	30938.61
696.847	30827.2
697.193	30577.49
697.539	30808.22
697.885	30530.03
698.231	30459.3
698.577	30359.64
698.923	30310.6
699.269	30186.08
699.614	30105.18
699.96	29986.32
700.306	30083.26
700.651	29790.84
700.997	29803.95
701.342	29683.27
701.688	29645.08
702.033	29689.6
702.379	29594.91
702.724	29470.85
703.069	29383.85
703.415	29226.34
703.76	29197.86
704.105	29238.99
704.45	29064.98
704.795	28990.41
705.14	28798.78
705.485	28873.35
705.83	28874.71
706.175	28846.69
706.52	28700.7
706.865	28705.67
707.209	28535.96
707.554	28555.17
707.899	28660.02
708.243	28379.8
708.588	28365.34
708.932	28203.31
709.277	28169.64
709.621	28328.51
709.966	27899.37
710.31	28065.24
710.654	27693.27
710.998	27925.58
711.342	27948.86
711.687	27855.98
712.031	27679.48
712.375	27630.67
712.719	27600.39
713.063	27615.76
713.407	27661.86
713.75	27441.75
714.094	27571.92
714.438	27468.87
714.782	27341.64
715.125	27180.51
715.469	27241.08
715.812	27099.84
716.156	26998.37
716.499	27028.88
716.843	27065.26
717.186	26975.55
717.53	26907.3
717.873	26928.32
718.216	26802.44
718.559	26663.47
718.902	26587.31
719.246	26677.48
719.589	26541.21
719.932	26495.79
720.275	26467.99
720.617	26270.71
720.96	26330.82
721.303	26277.94
721.646	26429.8
721.989	26210.14
722.331	26340.54
722.674	26280.65
723.016	26235.45
723.359	26157.72
723.701	26115.68
724.044	25955.46
724.386	25865.52
724.729	25965.4
725.071	25926.76
725.413	25959.3
725.755	25862.58
726.097	25785.52
726.439	25662.59
726.782	25676.6
727.124	25640.44
727.465	25551.86
727.807	25456.49
728.149	25434.35
728.491	25426.89
728.833	25406.32
729.175	25398.41
729.516	25352.77
729.858	25243.16
730.199	25281.36
730.541	25246.1
730.882	25206.55
731.224	25327.91
731.565	25158.19
731.906	25162.26
732.248	24991.42
732.589	25107.57
732.93	24822.38
733.271	24911.42
733.612	24901.03
733.953	24915.04
734.294	24832.78
734.635	24767.02
734.976	24888.6
735.317	24727.25
735.658	24774.7
735.999	24585.55
736.339	24564.99
736.68	24745.1
737.021	24572.22
737.361	24541.04
737.702	24701.03
738.042	24516.63
738.383	24414.03
738.723	24454.26
739.063	24404.32
739.404	24454.26
739.744	24275.05
740.084	24310.53
740.424	24354.83
740.764	24162.74
741.104	24290.19
741.444	24112.12
741.784	24099.01
742.124	24142.18
742.464	24111.44
742.804	24054.04
743.143	24021.28
743.483	24049.97
743.823	23793.03
744.162	23887.72
744.502	23805.46
744.841	23770.89
745.181	23903.54
745.52	23759.59
745.86	23826.03
746.199	23685.92
746.538	23576.32
746.877	23825.57
747.216	23696.09
747.556	23610.21
747.895	23610.89
748.234	23616.09
748.573	23482.53
748.911	23415.64
749.25	23518.24
749.589	23313.72
749.928	23347.17
750.267	23351.24
750.605	23185.82
750.944	23239.37
751.283	23168.19
751.621	23185.36
751.96	23103.33
752.298	23087.51
752.636	23000.29
752.975	22968.42
753.313	22953.73
753.651	23068.76
753.989	22955.31
754.327	22805.94
754.666	22752.38
755.004	22744.92
755.342	22817.69
755.679	22726.85
756.017	22525.5
756.355	22712.38
756.693	22485.72
757.031	22497.02
757.368	22346.97
757.706	22360.53
758.044	22354.43
758.381	22308.1
758.719	22189.46
759.056	22230.59
759.394	22101.78
759.731	21977.26
760.068	21982.68
760.405	21888.68
760.743	21941.33
761.08	21910.82
