Data from hue_22_FLMS001491_00012.txt Node
Date: Tue Feb 07 17:09:40 GMT 2017
User: dcchb
Spectrometer: FLMS00149
Trigger mode: 0
Integration Time (sec): 2.000000E-2
Scans to average: 10
Electric dark correction enabled: true
Nonlinearity correction enabled: false
Boxcar width: 0
XAxis mode: Wavelengths
Number of Pixels in Spectrum: 2048
>>>>>Begin Spectral Data<<<<<
341.393	-3.55
341.776	-3.55
342.16	-3.55
342.543	-67.05
342.927	-68.18
343.31	-50.32
343.693	-62.75
344.077	-59.81
344.46	-75.18
344.843	-59.36
345.226	-37.67
345.61	-39.02
345.993	-17.1
346.376	5.27
346.759	4.82
347.142	23.8
347.525	58.15
347.908	63.57
348.291	52.27
348.674	83.46
349.057	109.9
349.44	131.82
349.823	153.29
350.206	165.94
350.588	208.43
350.971	203.91
351.354	245.94
351.737	251.14
352.119	253.62
352.502	262.66
352.884	273.28
353.267	290.23
353.65	304.92
354.032	303.11
354.414	306.96
354.797	318.03
355.179	332.94
355.562	315.99
355.944	322.1
356.326	327.97
356.709	342.89
357.091	352.83
357.473	339.95
357.855	333.4
358.238	347.18
358.62	363.22
359.002	346.73
359.384	336.11
359.766	363.22
360.148	330.46
360.53	351.47
360.912	352.83
361.294	329.78
361.676	346.5
362.057	339.95
362.439	344.69
362.821	326.16
363.203	353.28
363.584	329.33
363.966	336.11
364.348	328.42
364.729	327.52
365.111	297.01
365.493	335.66
365.874	326.39
366.256	316.67
366.637	324.13
367.019	324.58
367.4	316.9
367.781	318.25
368.163	327.07
368.544	312.6
368.925	309.44
369.306	327.52
369.688	317.35
370.069	328.42
370.45	308.31
370.831	334.75
371.212	322.1
371.593	324.13
371.974	318.03
372.355	331.59
372.736	334.3
373.117	318.03
373.498	318.25
373.879	317.12
374.26	321.42
374.641	300.18
375.021	332.27
375.402	323.45
375.783	297.92
376.163	346.5
376.544	342.21
376.925	319.61
377.305	328.65
377.686	327.97
378.066	336.33
378.447	340.17
378.827	349.44
379.208	338.59
379.588	346.95
379.968	328.88
380.349	342.43
380.729	343.79
381.109	348.54
381.489	337.01
381.87	327.29
382.25	330.23
382.63	360.74
383.01	341.08
383.39	359.84
383.77	375.65
384.15	364.13
384.53	339.5
384.91	358.48
385.29	370
385.67	345.82
386.049	345.82
386.429	361.42
386.809	363.9
387.189	362.09
387.568	361.42
387.948	366.39
388.328	372.04
388.707	376.11
389.087	358.71
389.466	377.91
389.846	358.71
390.225	393.28
390.605	373.85
390.984	393.73
391.363	362.09
391.743	385.15
392.122	381.3
392.501	371.81
392.881	380.4
393.26	384.02
393.639	382.21
394.018	384.47
394.397	374.98
394.776	413.39
395.155	393.51
395.534	400.74
395.913	392.6
396.292	406.84
396.671	407.97
397.05	378.37
397.429	396.67
397.808	403.9
398.186	393.28
398.565	414.07
398.944	405.26
399.323	401.42
399.701	418.82
400.08	414.3
400.458	408.2
400.837	422.66
401.215	411.36
401.594	430.57
401.972	424.24
402.351	410.23
402.729	408.42
403.107	422.88
403.486	435.99
403.864	440.51
404.242	424.69
404.62	447.52
404.999	438.25
405.377	454.75
405.755	454.75
406.133	441.87
406.511	452.71
406.889	459.27
407.267	447.29
407.645	462.66
408.023	455.65
408.401	467.63
408.779	448.65
409.156	472.37
409.534	465.6
409.912	468.76
410.29	486.84
410.667	484.13
411.045	484.35
411.422	462.21
411.8	498.36
412.178	474.86
412.555	511.47
412.933	481.41
413.31	498.36
413.687	474.63
414.065	497.01
414.442	497.01
414.819	498.59
415.197	530
415.574	526.84
415.951	530
416.328	517.8
416.705	499.72
417.082	525.03
417.46	539.04
417.837	538.36
418.214	542.43
418.591	537.23
418.967	549.89
419.344	539.27
419.721	535.65
420.098	546.95
420.475	550.34
420.852	556.21
421.228	561.86
421.605	557.57
421.982	590.34
422.358	569.55
422.735	570.68
423.111	572.94
423.488	575.65
423.864	572.48
424.241	605.7
424.617	590.56
424.994	591.02
425.37	598.25
425.746	589.66
426.123	607.06
426.499	615.65
426.875	625.36
427.251	614.74
427.627	626.72
428.003	632.37
428.379	617
428.756	626.95
429.132	644.57
429.507	649.77
429.883	646.61
430.259	682.99
430.635	650.22
431.011	673.73
431.387	671.24
431.763	688.87
432.138	680.96
432.514	693.39
432.89	690
433.265	699.04
433.641	709.66
434.016	706.72
434.392	724.57
434.767	734.51
435.143	734.29
435.518	757.79
435.894	731.35
436.269	760.73
436.644	759.15
437.02	730.45
437.395	766.38
437.77	758.47
438.145	764.8
438.52	779.03
438.895	784
439.271	776.32
439.646	796.21
440.021	790.56
440.395	794.85
440.77	817
441.145	800.5
441.52	826.94
441.895	850.44
442.27	845.47
442.645	846.15
443.019	869.43
443.394	843.66
443.769	855.64
444.143	848.64
444.518	868.3
444.892	842.76
445.267	880.73
445.641	877.79
446.016	852.93
446.39	855.87
446.764	863.55
447.139	890.89
447.513	889.09
447.887	878.47
448.262	919.82
448.636	907.84
449.01	924.57
449.384	922.76
449.758	931.8
450.132	928.18
450.506	938.8
450.88	950.1
451.254	960.27
451.628	940.38
452.002	986.94
452.376	976.99
452.75	974.96
453.123	998.91
453.497	1007.28
453.871	996.88
454.244	1002.98
454.618	1016.77
454.992	1022.42
455.365	1034.39
455.739	1073.04
456.112	1080.49
456.486	1075.07
456.859	1077.1
457.232	1098.12
457.606	1116.88
457.979	1110.78
458.352	1136.54
458.725	1128.63
459.099	1155.29
459.472	1166.82
459.845	1186.48
460.218	1180.6
460.591	1190.32
460.964	1193.71
461.337	1227.16
461.71	1249.53
462.083	1267.38
462.456	1272.58
462.829	1265.8
463.201	1317.1
463.574	1296.76
463.947	1313.03
464.32	1333.37
464.692	1366.14
465.065	1343.99
465.438	1375.18
465.81	1377.21
466.183	1397.55
466.555	1447.94
466.928	1453.82
467.3	1458.56
467.672	1460.15
468.045	1501.27
468.417	1518
468.789	1519.35
469.161	1526.13
469.534	1554.61
469.906	1610.2
470.278	1605.23
470.65	1590.09
471.022	1635.06
471.394	1673.47
471.766	1698.56
472.138	1689.97
472.51	1741.72
472.882	1785.79
473.253	1802.06
473.625	1794.83
473.997	1841.38
474.369	1835.5
474.74	1899.91
475.112	1952.11
475.484	1953.24
475.855	2002.96
476.227	1987.14
476.598	2059.23
476.97	2077.08
477.341	2163.86
477.713	2153.01
478.084	2173.8
478.455	2239.79
478.827	2252.21
479.198	2289.5
479.569	2307.58
479.94	2407.92
480.311	2420.35
480.682	2468.93
481.053	2550.29
481.424	2565.2
481.795	2623.73
482.166	2658.31
482.537	2698.98
482.908	2753.9
483.279	2792.09
483.65	2834.35
484.021	2891.97
484.391	2938.3
484.762	2959.54
485.133	3026.66
485.503	3083.61
485.874	3131.29
486.244	3159.99
486.615	3258.52
486.985	3280.89
487.356	3373.77
487.726	3368.34
488.097	3416.48
488.467	3468.91
488.837	3532.41
489.207	3578.06
489.578	3643.82
489.948	3710.71
490.318	3749.35
490.688	3747.09
491.058	3814.43
491.428	3890.36
491.798	3926.3
492.168	3998.61
492.538	4051.94
492.908	4091.49
493.278	4185.05
493.648	4203.8
494.017	4222.56
494.387	4289.9
494.757	4306.17
495.126	4392.05
495.496	4348.66
495.866	4404.7
496.235	4433.17
496.605	4497.13
496.974	4517.24
497.344	4592.04
497.713	4625.26
498.082	4688.31
498.452	4688.08
498.821	4735.31
499.19	4749.32
499.559	4812.37
499.928	4819.38
500.298	4824.35
500.667	4872.26
501.036	4895.31
501.405	4924.69
501.774	4976.89
502.143	5012.59
502.512	5041.97
502.88	5075.19
503.249	5041.52
503.618	5149.09
503.987	5173.95
504.356	5224.11
504.724	5248.29
505.093	5250.33
505.462	5221.18
505.83	5270.89
506.199	5331.91
506.567	5403.77
506.936	5399.25
507.304	5470.89
507.672	5468.18
508.041	5522.86
508.409	5590.21
508.777	5575.07
509.145	5644.89
509.514	5591.56
509.882	5619.81
510.25	5685.34
510.618	5690.77
510.986	5724.67
511.354	5726.25
511.722	5721.73
512.09	5791.56
512.458	5794.49
512.826	5847.6
513.193	5940.93
513.561	5901.38
513.929	5944.1
514.297	5962.4
514.664	6010.53
515.032	6024.54
515.4	6090.31
515.767	5990.42
516.135	6112.9
516.502	6087.82
516.869	6215.5
517.237	6183.64
517.604	6235.61
517.972	6213.92
518.339	6259.34
518.706	6293.69
519.073	6297.08
519.44	6313.58
519.808	6353.35
520.175	6388.38
520.542	6418.21
520.909	6524.19
521.276	6484.87
521.643	6529.62
522.009	6580.24
522.376	6604.19
522.743	6612.33
523.11	6664.98
523.477	6752.21
523.843	6734.36
524.21	6845.54
524.577	6824.3
524.943	6893.22
525.31	6955.37
525.676	7049.6
526.043	7012.77
526.409	7034.91
526.776	7137.51
527.142	7097.96
527.508	7152.2
527.874	7201.92
528.241	7278.3
528.607	7271.74
528.973	7316.71
529.339	7310.61
529.705	7409.59
530.071	7465.41
530.437	7431.97
530.803	7533.66
531.169	7573.2
531.535	7507.67
531.901	7602.36
532.267	7619.76
532.632	7618.85
532.998	7740.43
533.364	7675.58
533.73	7777.04
534.095	7823.14
534.461	7824.27
534.826	7917.6
535.192	7951.5
535.557	7981.78
535.923	8018.39
536.288	8014.55
536.653	8070.82
537.019	8109.91
537.384	8072.17
537.749	8163.7
538.114	8151.95
538.479	8176.58
538.845	8131.83
539.21	8213.19
539.575	8270.14
539.94	8367.53
540.305	8387.42
540.67	8361.21
541.034	8378.61
541.399	8486.63
541.764	8481.43
542.129	8442.11
542.494	8551.03
542.858	8601.65
543.223	8575.89
543.587	8583.8
543.952	8654.53
544.316	8718.49
544.681	8717.36
545.045	8826.96
545.41	8787.18
545.774	8918.71
546.138	8851.59
546.503	8879.16
546.867	8923.68
547.231	8996.9
547.595	8981.3
547.959	8970.23
548.324	9002.32
548.688	9072.37
549.052	9067.85
549.416	9090
549.779	9132.26
550.143	9167.74
550.507	9243.67
550.871	9299.49
551.235	9260.17
551.599	9327.28
551.962	9337.9
552.326	9378.36
552.689	9393.72
553.053	9391.01
553.417	9404.34
553.78	9561.85
554.143	9545.13
554.507	9593.04
554.87	9611.34
555.234	9625.58
555.597	9638.01
555.96	9687.73
556.323	9745.13
556.686	9830.32
557.05	9765.01
557.413	9809.76
557.776	9926.14
558.139	9953.48
558.502	9953.48
558.865	9963.88
559.228	10035.96
559.59	9991.45
559.953	10044.78
560.316	10208.62
560.679	10191.22
561.041	10199.12
561.404	10191.89
561.767	10315.51
562.129	10267.6
562.492	10408.84
562.854	10376.75
563.217	10378.78
563.579	10442.73
563.941	10536.97
564.304	10575.61
564.666	10623.07
565.028	10686.57
565.39	10618.32
565.753	10737.64
566.115	10778.32
566.477	10796.85
566.839	10816.51
567.201	10919.56
567.563	10875.94
567.925	10949.16
568.287	10965.88
568.648	11011.98
569.01	11042.94
569.372	11092.89
569.734	11029.16
570.095	11178.99
570.457	11225.76
570.819	11261.7
571.18	11313.9
571.542	11331.07
571.903	11372.88
572.265	11510.73
572.626	11523.16
572.987	11524.51
573.349	11543.27
573.71	11707.33
574.071	11649.71
574.432	11712.08
574.794	11911.17
575.155	11906.65
575.516	11889.25
575.877	12005.63
576.238	12069.36
576.599	12144.16
576.96	12249.24
577.32	12261.67
577.681	12365.17
578.042	12519.29
578.403	12560.87
578.763	12591.38
579.124	12693.52
579.485	12889.9
579.845	12973.97
580.206	13015.77
580.566	13085.15
580.927	13211.02
581.287	13420.96
581.648	13513.84
582.008	13644.68
582.368	13752.48
582.728	13937.56
583.089	14012.81
583.449	14302.29
583.809	14473.14
584.169	14609.18
584.529	14734.37
584.889	15017.75
585.249	15024.31
585.609	15207.58
585.969	15650.28
586.329	15747.68
586.688	16027.67
587.048	16115.35
587.408	16286.87
587.768	16563.7
588.127	16724.38
588.487	17093.63
588.846	17523.68
589.206	17486.16
589.565	17727.06
589.925	18146.03
590.284	18286.14
590.643	18530.66
591.003	19033.24
591.362	19291.31
591.721	19515.72
592.08	19750.06
592.44	20209.03
592.799	20392.98
593.158	20650.38
593.517	21023.02
593.876	21344.14
594.235	21523.12
594.593	21831.81
594.952	22222.99
595.311	22498.24
595.67	22813.71
596.029	23260.02
596.387	23556.29
596.746	24101.36
597.104	24167.57
597.463	24445.08
597.822	24928.91
598.18	25143.59
598.538	25475.78
598.897	25956.68
599.255	25950.8
599.613	26671.01
599.972	26752.14
600.33	27158.23
600.688	27446.35
601.046	27821.03
601.404	28164.98
601.762	28372.21
602.12	28894
602.478	29178.51
602.836	29387.32
603.194	29620.53
603.552	29926.52
603.91	30171.93
604.268	30582.09
604.625	30960.84
604.983	31186.37
605.341	31345.69
605.698	31866.58
606.056	32029.51
606.413	32368.49
606.771	32770.96
607.128	33014.57
607.485	33065.87
607.843	33423.6
608.2	33861.33
608.557	34194.43
608.914	34257.93
609.272	34645.49
609.629	34951.02
609.986	35280.72
610.343	35359.14
610.7	35739.02
611.057	35939.01
611.414	36177.88
611.771	36277.76
612.127	36619.67
612.484	37002.04
612.841	37163.39
613.198	37149.38
613.554	37491.74
613.911	37844.5
614.267	37925.63
614.624	38181.89
614.98	38445.61
615.337	38637.92
615.693	38675.89
616.05	39004.69
616.406	39327.17
616.762	39272.48
617.118	39470.45
617.475	39556.32
617.831	39954.5
618.187	40099.58
618.543	40253.48
618.899	40665.22
619.255	40529.63
619.611	40797.87
619.967	40965.1
620.323	41208.48
620.678	41121.7
621.034	41195.15
621.39	41362.15
621.746	41496.61
622.101	41964.62
622.457	41685.98
622.812	41905.64
623.168	42098.62
623.523	42066.08
623.879	42349.47
624.234	42187.21
624.589	42476.02
624.945	42737.48
625.3	42650.02
625.655	42858.83
626.01	42873.75
626.365	42978.83
626.72	42963.01
627.075	43097.69
627.43	43070.58
627.785	43021.31
628.14	43334.75
628.495	43404.58
628.85	43381.3
629.205	43220.86
629.559	43636.89
629.914	43339.95
630.269	43577.68
630.623	43480.28
630.978	43396.44
631.332	43685.02
631.687	43806.15
632.041	43707.17
632.396	43744.68
632.75	43814.51
633.104	43843.21
633.459	43724.8
633.813	43762.54
634.167	43857.45
634.521	43854.74
634.875	43876.88
635.229	43848.64
635.583	43874.85
635.937	43863.78
636.291	43846.38
636.645	44019.25
636.999	43986.48
637.352	44026.26
637.706	43846.6
638.06	43982.64
638.413	43765.25
638.767	43734.29
639.121	43720.95
639.474	43753.27
639.828	43834.4
640.181	43800.27
640.534	43735.87
640.888	43755.53
641.241	43539.49
641.594	43704.46
641.947	43900.84
642.301	43709.2
642.654	43763.21
643.007	43756.66
643.36	43850.67
643.713	43797.11
644.066	43967.5
644.419	43625.59
644.771	43474.63
645.124	43010.69
645.477	42975.89
645.83	42774.99
646.182	42591.49
646.535	42567.54
646.888	42785.61
647.24	42602.79
647.593	42684.6
647.945	42628.55
648.298	42506.52
648.65	42435.56
649.002	42332.74
649.355	42519.63
649.707	42485.28
650.059	42621.32
650.411	43224.02
650.763	43111.48
651.115	43580.62
651.467	43313.96
651.819	43292.04
652.171	43294.98
652.523	43280.29
652.875	43247.52
653.227	43135.21
653.578	43360.06
653.93	43300.63
654.282	43153.74
654.633	43083.68
654.985	43269.67
655.337	43169.33
655.688	43137.47
656.039	43384.92
656.391	42954.2
656.742	42959.39
657.094	43104.7
657.445	43231.7
657.796	43137.02
658.147	43080.97
658.498	43129.33
658.849	43204.36
659.2	43010.69
659.551	42855.44
659.902	43045.49
660.253	43170.46
660.604	43033.06
660.955	42820.19
661.306	43118.94
661.656	42954.42
662.007	43108.77
662.358	43094.53
662.708	43057.47
663.059	42926.85
663.409	42748.55
663.76	43064.93
664.11	42986.28
664.461	43058.6
664.811	43044.59
665.161	42915.78
665.511	42851.15
665.862	42944.03
666.212	43097.69
666.562	42940.64
666.912	42867.19
667.262	42829.9
667.612	42912.39
667.962	43057.47
668.312	42961.88
668.662	43085.94
669.011	42943.35
669.361	42857.47
669.711	42812.5
670.06	42696.58
670.41	42696.12
670.76	42725.27
671.109	42822
671.459	42692.73
671.808	42721.66
672.157	42823.13
672.507	42522.57
672.856	42623.36
673.205	42626.97
673.554	42849.11
673.904	42712.62
674.253	42875.1
674.602	42623.36
674.951	42163.03
675.3	42015.24
675.649	42543.36
675.998	42415.9
676.346	42572.74
676.695	42615
677.044	42371.61
677.393	42424.49
677.741	42531.16
678.09	42467.43
678.438	42391.05
678.787	42341.56
679.135	42433.31
679.484	42133.88
679.832	42388.11
680.181	42182.01
680.529	42202.8
680.877	42036.71
681.225	42001.68
681.573	42284.61
681.922	41966.2
682.27	41983.15
682.618	41912.87
682.966	41782.47
683.314	41807.11
683.661	41723.72
684.009	41546.55
684.357	41482.37
684.705	41448.7
685.053	41483.5
685.4	41437.63
685.748	41281.92
686.095	41326.22
686.443	41306.56
686.79	41137.97
687.138	41156.28
687.485	41256.16
687.832	41118.31
688.18	41057.52
688.527	40944.08
688.874	40891.88
689.221	40742.73
689.568	40693.46
689.915	40487.82
690.262	40620.02
690.609	40367.37
690.956	40351.55
691.303	40432
691.65	39982.97
691.997	40098
692.344	39810.1
692.69	39761.74
693.037	39774.17
693.383	39474.06
693.73	39582.08
694.077	39383.67
694.423	39352.71
694.769	39285.59
695.116	39181.87
695.462	39241.98
695.808	39058.93
696.155	39199.04
696.501	38914.53
696.847	38818.03
697.193	38592.05
697.539	38749.11
697.885	38465.5
698.231	38366.52
698.577	38537.81
698.923	38331.49
699.269	38225.96
699.614	38004.72
699.96	37819.87
700.306	37937.15
700.651	37811.05
700.997	37645.18
701.342	37717.04
701.688	37534.22
702.033	37468.01
702.379	37365.64
702.724	37256.94
703.069	37218.3
703.415	37022.37
703.76	36894.69
704.105	37082.03
704.45	36937.18
704.795	36794.36
705.14	36583.29
705.485	36645.21
705.83	36571.54
706.175	36483.63
706.52	36369.74
706.865	36361.37
707.209	36259.91
707.554	36038.22
707.899	36082.51
708.243	35878
708.588	35886.13
708.932	35607.95
709.277	35776.31
709.621	35805
709.966	35501.06
710.31	35588.74
710.654	35247.05
710.998	35391.68
711.342	35343.77
711.687	35223.55
712.031	35027.4
712.375	34900.62
712.719	35054.06
713.063	34911.92
713.407	35073.72
713.75	34725.03
714.094	34770.23
714.438	34619.05
714.782	34680.97
715.125	34454.76
715.469	34662.89
715.812	34334.76
716.156	34117.59
716.499	34108.78
716.843	34282.79
717.186	34013.64
717.53	34238.72
717.873	34185.16
718.216	34063.81
718.559	33918.5
718.902	33770.26
719.246	33842.12
719.589	33633.31
719.932	33711.73
720.275	33479.64
720.617	33570.71
720.96	33540.21
721.303	33411.4
721.646	33457.72
721.989	33258.18
722.331	33297.73
722.674	33267.67
723.016	33224.28
723.359	33140.67
723.701	33196.26
724.044	32931.86
724.386	32745.65
724.729	33067.9
725.071	32979.99
725.413	32855.93
725.755	32857.29
726.097	32678.08
726.439	32488.48
726.782	32637.4
727.124	32696.39
727.465	32520.35
727.807	32428.37
728.149	32375.26
728.491	32307.92
728.833	32401.7
729.175	32302.72
729.516	32197.87
729.858	32186.34
730.199	32239.22
730.541	32178.89
730.882	32107.7
731.224	32046.46
731.565	31850.76
731.906	31859.35
732.248	31886.46
732.589	31697.32
732.93	31712.01
733.271	31688.95
733.612	31665.9
733.953	31790.65
734.294	31649.86
734.635	31441.96
734.976	31692.8
735.317	31367.38
735.658	31320.83
735.999	31420.49
736.339	31375.74
736.68	31410.77
737.021	31321.28
737.361	30992.7
737.702	31320.83
738.042	31184.56
738.383	31044.45
738.723	31253.94
739.063	31053.04
739.404	31064.56
739.744	30980.72
740.084	30847.62
740.424	30879.03
740.764	30870.9
741.104	30877.9
741.444	30655.31
741.784	30643.78
742.124	30791.13
742.464	30659.15
742.804	30540.06
743.143	30620.96
743.483	30527.63
743.823	30307.52
744.162	30382.77
744.502	30423.68
744.841	30212.16
745.181	30296.9
745.52	30299.84
745.86	30267.3
746.199	30238.6
746.538	30037.92
746.877	30195.43
747.216	30201.31
747.556	30106.4
747.895	30168.32
748.234	29897.36
748.573	29782.56
748.911	29804.71
749.25	29848.33
749.589	29801.09
749.928	29753.86
750.267	29768.33
750.605	29587.99
750.944	29647.88
751.283	29497.6
751.621	29651.49
751.96	29404.27
752.298	29364.04
752.636	29458.05
752.975	29365.85
753.313	29178.29
753.651	29247.44
753.989	29138.29
754.327	29140.77
754.666	28957.95
755.004	29018.06
755.342	28929.25
755.679	28910.95
756.017	28651.97
756.355	29028.46
756.693	28670.05
757.031	28764.74
757.368	28522.26
757.706	28432.09
758.044	28496.5
758.381	28382.15
758.719	28288.82
759.056	28280.91
759.394	28284.3
759.731	28072.1
760.068	28105.77
