Data from hue_32_FLMS001491_00020.txt Node
Date: Tue Feb 07 17:22:59 GMT 2017
User: dcchb
Spectrometer: FLMS00149
Trigger mode: 0
Integration Time (sec): 2.000000E-2
Scans to average: 10
Electric dark correction enabled: true
Nonlinearity correction enabled: false
Boxcar width: 0
XAxis mode: Wavelengths
Number of Pixels in Spectrum: 2048
>>>>>Begin Spectral Data<<<<<
341.393	-24.75
341.776	-24.75
342.16	-24.75
342.543	-48.47
342.927	-63.61
343.31	-84.63
343.693	-83.73
344.077	-62.03
344.46	-60.22
344.843	-63.61
345.226	-45.08
345.61	-37.4
345.993	-9.38
346.376	-13.67
346.759	18.42
347.142	42.82
347.525	38.53
347.908	59.32
348.291	62.03
348.674	105.87
349.057	132.76
349.44	123.5
349.823	156.49
350.206	161.24
350.588	207.57
350.971	229.26
351.354	238.07
351.737	242.37
352.119	274.23
352.502	271.29
352.884	304.51
353.267	289.37
353.65	309.26
354.032	311.97
354.414	314.46
354.797	336.38
355.179	322.82
355.562	328.69
355.944	317.39
356.326	334.57
356.709	349.93
357.091	347.9
357.473	353.1
357.855	352.87
358.238	361.91
358.62	367.33
359.002	344.28
359.384	329.82
359.766	347.9
360.148	349.26
360.53	343.15
360.912	349.48
361.294	326.88
361.676	334.57
362.057	319.43
362.439	334.57
362.821	361.69
363.203	318.52
363.584	322.14
363.966	329.6
364.348	337.51
364.729	351.06
365.111	341.57
365.493	347.67
365.874	322.59
366.256	318.75
366.637	299.54
367.019	317.84
367.4	334.34
367.781	317.62
368.163	328.92
368.544	311.74
368.925	348.13
369.306	335.92
369.688	322.82
370.069	331.63
370.45	313.33
370.831	345.64
371.212	310.39
371.593	320.33
371.974	307.9
372.355	337.96
372.736	338.86
373.117	322.59
373.498	319.65
373.879	333.21
374.26	309.48
374.641	297.05
375.021	332.76
375.402	309.26
375.783	340.89
376.163	330.73
376.544	341.8
376.925	321.69
377.305	324.17
377.686	321.46
378.066	330.95
378.447	335.47
378.827	324.4
379.208	337.28
379.588	334.34
379.968	339.09
380.349	331.4
380.729	341.12
381.109	339.77
381.489	348.58
381.87	333.66
382.25	358.97
382.63	347
383.01	341.57
383.39	357.39
383.77	365.3
384.15	353.32
384.53	355.81
384.91	358.75
385.29	354.45
385.67	353.55
386.049	367.79
386.429	352.65
386.809	367.79
387.189	365.75
387.568	367.33
387.948	366.21
388.328	355.81
388.707	374.11
389.087	375.47
389.466	370.72
389.846	392.65
390.225	389.26
390.605	373.89
390.984	365.3
391.363	366.21
391.743	377.96
392.122	385.19
392.501	389.48
392.881	395.58
393.26	392.42
393.639	376.15
394.018	384.51
394.397	409.37
394.776	398.07
395.155	392.87
395.534	362.14
395.913	399.2
396.292	411.4
396.671	392.19
397.05	401.23
397.429	388.35
397.808	399.88
398.186	389.48
398.565	384.28
398.944	426.99
399.323	405.98
399.701	410.72
400.08	403.49
400.458	398.07
400.837	408.24
401.215	415.24
401.594	417.05
401.972	400.1
402.351	418.18
402.729	397.84
403.107	438.97
403.486	421.8
403.864	416.37
404.242	418.63
404.62	463.15
404.999	422.7
405.377	443.04
405.755	425.19
406.133	420.21
406.511	426.09
406.889	437.39
407.267	444.17
407.645	453.43
408.023	446.65
408.401	449.59
408.779	445.3
409.156	432.19
409.534	444.62
409.912	478.07
410.29	481.23
410.667	446.65
411.045	487.78
411.422	461.34
411.8	460.44
412.178	471.74
412.555	500.66
412.933	467.45
413.31	489.37
413.687	477.61
414.065	483.04
414.442	479.2
414.819	491.4
415.197	486.65
415.574	495.69
415.951	497.28
416.328	517.16
416.705	517.39
417.082	507.44
417.46	523.72
417.837	506.09
418.214	526.65
418.591	520.78
418.967	518.07
419.344	543.38
419.721	530.95
420.098	528.91
420.475	555.13
420.852	546.31
421.228	532.53
421.605	561.68
421.982	563.94
422.358	546.09
422.735	554.22
423.111	564.62
423.488	553.54
423.864	570.04
424.241	578.85
424.617	583.6
424.994	558.52
425.37	568.69
425.746	583.15
426.123	589.25
426.499	565.52
426.875	591.74
427.251	594.45
427.627	585.18
428.003	591.28
428.379	610.04
428.756	632.19
429.132	628.57
429.507	618.18
429.883	615.24
430.259	627.22
430.635	645.29
431.011	633.32
431.387	629.7
431.763	636.03
432.138	667.89
432.514	667.21
432.89	659.53
433.265	689.81
433.641	672.19
434.016	680.1
434.392	709.02
434.767	695.01
435.143	692.75
435.518	714.22
435.894	692.07
436.269	723.48
436.644	711.51
437.02	733.43
437.395	721.45
437.77	716.7
438.145	750.38
438.52	751.51
438.895	754.22
439.271	761.45
439.646	769.36
440.021	762.13
440.395	782.01
440.77	785.4
441.145	777.72
441.52	772.97
441.895	791.28
442.27	809.58
442.645	796.48
443.019	797.38
443.394	817.04
443.769	818.62
444.143	819.07
444.518	820.2
444.892	797.15
445.267	843.93
445.641	822.69
446.016	818.17
446.39	848.45
446.764	855.23
447.139	836.93
447.513	836.7
447.887	870.6
448.262	852.52
448.636	866.98
449.01	871.05
449.384	881.45
449.758	892.52
450.132	902.46
450.506	902.24
450.88	900.65
451.254	903.59
451.628	920.77
452.002	906.08
452.376	928.68
452.75	929.13
453.123	947.43
453.497	949.47
453.871	968.22
454.244	982.23
454.618	968.45
454.992	952.18
455.365	986.75
455.739	982.46
456.112	1006.87
456.486	1002.57
456.859	1028.56
457.232	1041.22
457.606	1038.05
457.979	1050.48
458.352	1078.95
458.725	1072.85
459.099	1102.23
459.472	1096.58
459.845	1113.98
460.218	1117.6
460.591	1129.12
460.964	1150.82
461.337	1133.19
461.71	1164.6
462.083	1209.57
462.456	1206.18
462.829	1189.46
463.201	1202.79
463.574	1220.19
463.947	1236.92
464.32	1255.9
464.692	1267.2
465.065	1282.11
465.438	1272.62
465.81	1297.25
466.183	1337.48
466.555	1361.43
466.928	1362.11
467.3	1362.79
467.672	1388.33
468.045	1426.29
468.417	1424.48
468.789	1429.91
469.161	1456.8
469.534	1501.09
469.906	1512.39
470.278	1529.34
470.65	1540.86
471.022	1567.3
471.394	1567.76
471.766	1616.57
472.138	1634.65
472.51	1686.4
472.882	1713.29
473.253	1728.2
473.625	1748.54
473.997	1812.49
474.369	1817.92
474.74	1835.54
475.112	1878.03
475.484	1936.11
475.855	1975.65
476.227	1983.11
476.598	2048.87
476.97	2040.06
477.341	2150.11
477.713	2175.42
478.084	2210.22
478.455	2265.36
478.827	2305.36
479.198	2361.18
479.569	2395.3
479.94	2461.52
480.311	2497
480.682	2584
481.053	2623.09
481.424	2724.79
481.795	2745.35
482.166	2797.78
482.537	2852.02
482.908	2928.4
483.279	2981.5
483.65	3063.99
484.021	3165.45
484.391	3242.06
484.762	3256.98
485.133	3306.69
485.503	3386.69
485.874	3494.94
486.244	3590.53
486.615	3619.68
486.985	3724.76
487.356	3836.17
487.726	3871.2
488.097	3939.44
488.467	4061.02
488.837	4160.91
489.207	4274.8
489.578	4258.76
489.948	4383.95
490.318	4432.54
490.688	4563.61
491.058	4613.55
491.428	4720.89
491.798	4755.02
492.168	4900.78
492.538	4972.64
492.908	5055.12
493.278	5160.2
493.648	5202.46
494.017	5300.31
494.387	5311.39
494.757	5453.08
495.126	5498.73
495.496	5557.48
495.866	5639.29
496.235	5729
496.605	5841.77
496.974	5826.17
497.344	5920.18
497.713	6011.25
498.082	6039.73
498.452	6156.11
498.821	6203.34
499.19	6226.62
499.559	6308.87
499.928	6360.62
500.298	6470.9
500.667	6514.52
501.036	6559.71
501.405	6613.95
501.774	6682.42
502.143	6805.81
502.512	6860.05
502.88	6896.65
503.249	6923.09
503.618	7000.15
503.987	7072.7
504.356	7116.31
504.724	7166.25
505.093	7199.02
505.462	7235.4
505.83	7294.16
506.199	7399.69
506.567	7472.23
506.936	7474.94
507.304	7648.73
507.672	7634.04
508.041	7653.47
508.409	7697.09
508.777	7772.34
509.145	7845.33
509.514	7831.32
509.882	7953.8
510.25	7996.74
510.618	8041.48
510.986	8078.77
511.354	8191.99
511.722	8255.94
512.09	8303.17
512.458	8257.52
512.826	8394.47
513.193	8394.92
513.561	8357.41
513.929	8533.45
514.297	8590.4
514.664	8587.23
515.032	8687.12
515.4	8746.78
515.767	8762.59
516.135	8800.11
516.502	8762.14
516.869	8894.12
517.237	8944.06
517.604	8945.19
517.972	8995.58
518.339	9070.38
518.706	9019.31
519.073	9115.81
519.44	9196.93
519.808	9250.49
520.175	9294.78
520.542	9327.55
520.909	9393.76
521.276	9425.18
521.643	9466.3
522.009	9598.05
522.376	9526.64
522.743	9657.26
523.11	9687.77
523.477	9785.84
523.843	9858.61
524.21	9920.08
524.577	9945.39
524.943	10045.72
525.31	10007.53
525.676	10084.14
526.043	10231.26
526.409	10233.97
526.776	10358.94
527.142	10335.89
527.508	10466.05
527.874	10552.6
528.241	10581.3
528.607	10560.97
528.973	10705.59
529.339	10688.19
529.705	10808.19
530.071	10931.13
530.437	10951.24
530.803	10990.56
531.169	11076.43
531.535	11064.68
531.901	11082.76
532.267	11041.86
532.632	11249.76
532.998	11224.45
533.364	11310.1
533.73	11358.68
534.095	11438.46
534.461	11467.16
534.826	11575.63
535.192	11629.64
535.557	11624.67
535.923	11679.81
536.288	11705.34
536.653	11711.22
537.019	11721.39
537.384	11826.69
537.749	11809.75
538.114	11923.19
538.479	11933.58
538.845	11924.77
539.21	11948.27
539.575	12130.19
539.94	12137.42
540.305	12267.36
540.67	12174.26
541.034	12338.32
541.399	12318.43
541.764	12316.85
542.129	12373.12
542.494	12436.85
542.858	12480.01
543.223	12575.83
543.587	12670.51
543.952	12693.56
544.316	12709.38
544.681	12685.88
545.045	12802.26
545.41	12796.16
545.774	12857.4
546.138	12932.2
546.503	12943.95
546.867	13107.11
547.231	13121.12
547.595	13148.47
547.959	13134.23
548.324	13152.54
548.688	13214.23
549.052	13296.49
549.416	13303.04
549.779	13451.06
550.143	13356.37
550.507	13449.02
550.871	13491.96
551.235	13528.34
551.599	13609.02
551.962	13700.54
552.326	13709.13
552.689	13807.89
553.053	13809.02
553.417	13816.02
553.78	14028.67
554.143	13927.88
554.507	13948.9
554.87	14009.24
555.234	14155.9
555.597	14122.23
555.96	14118.39
556.323	14211.26
556.686	14170.14
557.05	14272.05
557.413	14301.88
557.776	14328.1
558.139	14452.61
558.502	14503.91
558.865	14521.77
559.228	14560.63
559.59	14587.53
559.953	14577.36
560.316	14747.52
560.679	14804.47
561.041	14841.08
561.404	15011.24
561.767	15044.69
562.129	14923.79
562.492	15111.81
562.854	15112.71
563.217	15105.7
563.579	15244.01
563.941	15324
564.304	15309.54
564.666	15387.51
565.028	15438.13
565.39	15458.69
565.753	15610.55
566.115	15611
566.477	15751.79
566.839	15711.34
567.201	15821.84
567.563	15820.49
567.925	15866.59
568.287	15915.63
568.648	15998.11
569.01	16063.87
569.372	16168.73
569.734	16075.17
570.095	16247.6
570.457	16275.39
570.819	16395.61
571.18	16434.03
571.542	16585.44
571.903	16567.81
572.265	16664.76
572.626	16758.99
572.987	16852.55
573.349	16852.33
573.71	16968.25
574.071	17037.86
574.432	17135.93
574.794	17434
575.155	17268.36
575.516	17339.09
575.877	17408.92
576.238	17497.51
576.599	17695.69
576.96	17762.81
577.32	17892.3
577.681	17960.32
578.042	18128.9
578.403	18191.95
578.763	18433.75
579.124	18458.38
579.485	18676.01
579.845	18751.48
580.206	18941.08
580.566	18953.06
580.927	19308.76
581.287	19384.69
581.648	19491.35
582.008	19808.63
582.368	20006.37
582.728	20163.2
583.089	20175.63
583.449	20558.67
583.809	20664.43
584.169	20871.2
584.529	20951.65
584.889	21481.36
585.249	21469.38
585.609	21626.66
585.969	21936.03
586.329	22015.58
586.688	22329.92
587.048	22546.19
587.408	22716.13
587.768	22953.41
588.127	23196.57
588.487	23464.58
588.846	23889.43
589.206	23982.31
589.565	24153.83
589.925	24669.07
590.284	24747.48
590.643	25069.74
591.003	25316.28
591.362	25777.29
591.721	25951.75
592.08	26208.92
592.44	26611.39
592.799	26842.35
593.158	27119.4
593.517	27393.74
593.876	27653.85
594.235	27852.49
594.593	28174.06
594.952	28538.8
595.311	28618.34
595.67	29057.88
596.029	29376.29
596.387	29640.24
596.746	29923.17
597.104	30007.01
597.463	30305.98
597.822	30676.14
598.18	30699.64
598.538	31098.96
598.897	31430.47
599.255	31533.75
599.613	32057.12
599.972	32129.21
600.33	32397
600.688	32535.3
601.046	32887.38
601.404	33219.8
601.762	33432.45
602.12	33638.32
602.478	33852.78
602.836	34141.81
603.194	34170.51
603.552	34438.98
603.91	34440.11
604.268	35019.53
604.625	35045.97
604.983	35424.72
605.341	35358.05
605.698	35785.61
606.056	36054.76
606.413	36143.8
606.771	36556.21
607.128	36716.89
607.485	36704.46
607.843	36942.19
608.2	37286.59
608.557	37466.47
608.914	37592.34
609.272	37808.38
609.629	38070.75
609.986	38285.66
610.343	38209.73
610.7	38687.91
611.057	38720.45
611.414	38863.95
611.771	38983.72
612.127	39286.76
612.484	39378.29
612.841	39643.36
613.198	39623.25
613.554	39708.45
613.911	40040.42
614.267	40158.15
614.624	40240.64
614.98	40352.72
615.337	40647.18
615.693	40732.83
616.05	40792.71
616.406	41159.03
616.762	41079.71
617.118	41186.83
617.475	41352.02
617.831	41595.18
618.187	41559.92
618.543	41730.54
618.899	41958.11
619.255	42074.49
619.611	41959.24
619.967	42324.2
620.323	42416.4
620.678	42403.97
621.034	42462.73
621.39	42416.62
621.746	42475.38
622.101	43128.02
622.457	42831.98
622.812	43033.33
623.168	43055.03
623.523	43056.83
623.879	43257.73
624.234	43148.36
624.589	43346.77
624.945	43385.86
625.3	43465.41
625.655	43400.1
626.01	43582.7
626.365	43634.22
626.72	43731.17
627.075	43733.2
627.43	43737.04
627.785	43543.6
628.14	43772.97
628.495	43906.98
628.85	43993.08
629.205	43862.01
629.559	43969.35
629.914	43904.72
630.269	44045.73
630.623	43805.06
630.978	43815.01
631.332	44163.02
631.687	44167.54
632.041	43980.88
632.396	44176.13
632.75	44008.9
633.104	44112.4
633.459	44006.87
633.813	43885.96
634.167	44059.52
634.521	44120.08
634.875	44165.96
635.229	44039.63
635.583	43958.05
635.937	43947.66
636.291	43918.28
636.645	43942.46
636.999	43897.49
637.352	43950.37
637.706	43903.14
638.06	44086.64
638.413	43952.86
638.767	43927.55
639.121	43918.05
639.474	43733.88
639.828	43941.33
640.181	43978.84
640.534	43864.95
640.888	43864.04
641.241	43494.11
641.594	43805.29
641.947	43755.12
642.301	43751.73
642.654	43778.85
643.007	43754.22
643.36	43711.51
643.713	43638.97
644.066	43843.48
644.419	43557.39
644.771	43339.31
645.124	43028.36
645.477	43012.99
645.83	42615.04
646.182	42507.92
646.535	42540.69
646.888	42679.89
647.24	42293.24
647.593	42426.12
647.945	42520.12
648.298	42318.77
648.65	42330.07
649.002	42032.45
649.355	42324.65
649.707	42305.22
650.059	42436.74
650.411	42989.27
650.763	42918.53
651.115	43401.68
651.467	43226.1
651.819	43221.12
652.171	43197.4
652.523	43018.42
652.875	43100.45
653.227	42984.29
653.578	43183.61
653.93	43114.01
654.282	42872.43
654.633	42882.15
654.985	43045.08
655.337	43075.14
655.688	42950.85
656.039	43159.2
656.391	42785.88
656.742	43019.77
657.094	42940.23
657.445	42934.8
657.796	42871.75
658.147	42980.23
658.498	42836.27
658.849	42920.34
659.2	42900
659.551	42711.31
659.902	43012.54
660.253	42703.17
660.604	42904.97
660.955	42671.08
661.306	42808.03
661.656	42731.87
662.007	42827.01
662.358	42853
662.708	42761.93
663.059	42786.33
663.409	42428.6
663.76	42783.62
664.11	42741.36
664.461	42822.49
664.811	42758.31
665.161	42707.69
665.511	42590.18
665.862	42676.05
666.212	42800.12
666.562	42820.23
666.912	42590.18
667.262	42569.84
667.612	42733.23
667.962	42591.54
668.312	42559.9
668.662	42778.65
669.011	42665.88
669.361	42428.6
669.711	42454.36
670.06	42460.92
670.41	42505.21
670.76	42286.23
671.109	42430.41
671.459	42594.47
671.808	42445.1
672.157	42564.42
672.507	42273.13
672.856	42292.79
673.205	42330.98
673.554	42431.77
673.904	42354.71
674.253	42486.45
674.602	42376.63
674.951	41870.65
675.3	41602.63
675.649	42280.81
675.998	42255.05
676.346	42218.66
676.695	42493.91
677.044	42038.33
677.393	42204.2
677.741	42314.48
678.09	42093.02
678.438	42065.67
678.787	42026.58
679.135	42034.26
679.484	41921.72
679.832	41905.45
680.181	41755.63
680.529	42013.25
680.877	41678.57
681.225	41845.57
681.573	41769.18
681.922	41602.86
682.27	41592.47
682.618	41432.02
682.966	41260.5
683.314	41503.88
683.661	41363.55
684.009	41301.85
684.357	41205.81
684.705	41208.97
685.053	41135.98
685.4	41139.6
685.748	40953.84
686.095	40920.62
686.443	40865.25
686.79	40810.11
687.138	40820.73
687.485	40834.52
687.832	40696.9
688.18	40808.53
688.527	40508.2
688.874	40534.41
689.221	40403.8
689.568	40265.27
689.915	40232.95
690.262	40172.84
690.609	40074.54
690.956	39879.06
691.303	40017.14
691.65	39849.01
691.997	39803.36
692.344	39690.59
692.69	39517.94
693.037	39619.41
693.383	39302.58
693.73	39425.97
694.077	39206.54
694.423	39053.78
694.769	38980.11
695.116	38870.73
695.462	38948.24
695.808	38773.56
696.155	39009.48
696.501	38630.51
696.847	38547.35
697.193	38249.95
697.539	38369.05
697.885	38168.83
698.231	38078.89
698.577	38078.89
698.923	37997.76
699.269	37833.47
699.614	37664.66
699.96	37563.87
700.306	37727.93
700.651	37524.78
700.997	37403.88
701.342	37317.1
701.688	37221.28
702.033	37176.99
702.379	37213.6
702.724	37108.52
703.069	37139.93
703.415	36695.87
703.76	36755.98
704.105	36831.91
704.45	36465.14
704.795	36495.88
705.14	36277.58
705.485	36224.25
705.83	36102.21
706.175	36159.39
706.52	36202.1
706.865	36057.7
707.209	35848.66
707.554	35770.7
707.899	35872.62
708.243	35589.69
708.588	35475.56
708.932	35423.14
709.277	35311.73
709.621	35401.89
709.966	35104.5
710.31	35153.09
710.654	34970.72
710.998	34997.61
711.342	35072.86
711.687	34791.06
712.031	34780.22
712.375	34589.94
712.719	34707.9
713.063	34658.86
713.407	34807.11
713.75	34365.76
714.094	34431.98
714.438	34358.53
714.782	34434.46
715.125	34250.51
715.469	34351.3
715.812	33999.9
716.156	34007.58
716.499	34101.82
716.843	34133.23
717.186	33749.96
717.53	33910.41
717.873	34017.52
718.216	33682.17
718.559	33629.51
718.902	33360.59
719.246	33605.56
719.589	33367.6
719.932	33170.31
720.275	33368.5
720.617	33175.29
720.96	33255.28
721.303	33157.43
721.646	33164.21
721.989	32949.76
722.331	33072.46
722.674	33038.79
723.016	33073.82
723.359	32907.72
723.701	33007.15
724.044	32694.17
724.386	32500.73
724.729	32831.11
725.071	32546.6
725.413	32563.55
725.755	32540.05
726.097	32350.9
726.439	32156.1
726.782	32260.06
727.124	32424.57
727.465	32140.06
727.807	32159.72
728.149	32077.46
728.491	32031.59
728.833	32105.26
729.175	31968.54
729.516	32071.36
729.858	31962.89
730.199	31921.08
730.541	31756.11
730.882	31723.57
731.224	31848.09
731.565	31559.28
731.906	31744.82
732.248	31690.58
732.589	31448.78
732.93	31460.3
733.271	31344.6
733.612	31496.01
733.953	31543.69
734.294	31396.35
734.635	31225.73
734.976	31354.32
735.317	31142.57
735.658	31124.94
735.999	31136.24
736.339	31057.38
736.68	31073.87
737.021	31016.47
737.361	30826.65
737.702	31007.89
738.042	30995
738.383	30825.52
738.723	30873.43
739.063	30774.9
739.404	30727.21
739.744	30806.53
740.084	30576.48
740.424	30647.89
740.764	30593.21
741.104	30529.93
741.444	30355.02
741.784	30380.78
742.124	30393.21
742.464	30429.82
742.804	30340.56
743.143	30203.84
743.483	30324.74
743.823	30058.53
744.162	30123.84
744.502	30103.95
744.841	29997.06
745.181	30053.33
745.52	29845.66
745.86	30088.36
746.199	29984.41
746.538	29812.89
746.877	29941.92
747.216	29856.28
747.556	29727.01
747.895	29792.78
748.234	29566.12
748.573	29575.15
748.911	29638.88
749.25	29454.03
749.589	29437.53
749.928	29466.91
750.267	29461.71
750.605	29492.9
750.944	29348.04
751.283	29267.37
751.621	29350.98
751.96	29134.26
752.298	29096.07
752.636	29150.31
752.975	29000.03
753.313	28919.8
753.651	29007.26
753.989	28825.12
754.327	28805.46
754.666	28670.09
755.004	28625.12
755.342	28721.39
755.679	28607.04
756.017	28501.28
756.355	28544.45
756.693	28453.83
757.031	28405.24
757.368	28214.06
757.706	28302.87
