Data from hue_190_FLMS001491_00095.txt Node
Date: Tue Feb 07 16:46:02 GMT 2017
User: dcchb
Spectrometer: FLMS00149
Trigger mode: 0
Integration Time (sec): 2.000000E-2
Scans to average: 10
Electric dark correction enabled: true
Nonlinearity correction enabled: false
Boxcar width: 0
XAxis mode: Wavelengths
Number of Pixels in Spectrum: 2048
>>>>>Begin Spectral Data<<<<<
341.393	-2.46
341.776	-2.46
342.16	-2.46
342.543	-49.46
342.927	-66.18
343.31	-65.73
343.693	-64.83
344.077	-68.22
344.46	-49.01
344.843	-78.39
345.226	-34.32
345.61	-57.6
345.993	-18.73
346.376	2.51
346.759	13.14
347.142	30.08
347.525	49.52
347.908	67.82
348.291	85.22
348.674	85.45
349.057	103.08
349.44	137.88
349.823	146.24
350.206	173.81
350.588	215.16
350.971	200.7
351.354	209.74
351.737	219.68
352.119	250.87
352.502	251.1
352.884	260.36
353.267	274.82
353.65	272.56
354.032	292.9
354.414	289.74
354.797	303.07
355.179	308.95
355.562	299.23
355.944	307.36
356.326	329.51
356.709	328.16
357.091	335.61
357.473	334.93
357.855	332.45
358.238	335.16
358.62	338.32
359.002	326.35
359.384	359.11
359.766	330.64
360.148	336.74
360.53	359.79
360.912	322.05
361.294	332.22
361.676	318.66
362.057	323.41
362.439	316.86
362.821	347.14
363.203	318.44
363.584	314.37
363.966	313.69
364.348	313.92
364.729	324.31
365.111	342.17
365.493	310.3
365.874	315.5
366.256	303.98
366.637	310.53
367.019	302.17
367.4	319.79
367.781	303.3
368.163	313.69
368.544	324.54
368.925	278.66
369.306	310.08
369.688	312.79
370.069	319.12
370.45	300.13
370.831	294.26
371.212	310.08
371.593	315.05
371.974	299.46
372.355	295.16
372.736	310.08
373.117	305.1
373.498	299.23
373.879	301.04
374.26	291.77
374.641	314.37
375.021	308.04
375.402	306.23
375.783	307.36
376.163	320.92
376.544	315.73
376.925	307.59
377.305	313.92
377.686	322.73
378.066	320.02
378.447	315.27
378.827	318.66
379.208	329.06
379.588	313.24
379.968	319.57
380.349	316.18
380.729	328.16
381.109	335.39
381.489	314.82
381.87	316.4
382.25	334.93
382.63	326.12
383.01	346.01
383.39	314.37
383.77	325.9
384.15	339.23
384.53	325.67
384.91	332.22
385.29	333.35
385.67	339.68
386.049	347.82
386.429	335.61
386.809	348.04
387.189	344.43
387.568	350.75
387.948	347.36
388.328	359.34
388.707	355.95
389.087	360.24
389.466	340.36
389.846	342.17
390.225	319.12
390.605	357.08
390.984	348.95
391.363	353.24
391.743	342.84
392.122	347.82
392.501	352.56
392.881	353.01
393.26	366.12
393.639	360.7
394.018	387.81
394.397	380.36
394.776	364.31
395.155	384.88
395.534	368.15
395.913	384.88
396.292	361.37
396.671	376.06
397.05	415.16
397.429	380.36
397.808	374.71
398.186	389.85
398.565	391.88
398.944	387.81
399.323	414.03
399.701	390.75
400.08	416.06
400.458	390.3
400.837	405.22
401.215	417.42
401.594	395.72
401.972	404.99
402.351	402.73
402.729	411.99
403.107	398.21
403.486	415.16
403.864	396.85
404.242	402.96
404.62	419.9
404.999	424.65
405.377	414.03
405.755	433.92
406.133	436.17
406.511	437.08
406.889	457.64
407.267	460.58
407.645	461.26
408.023	460.36
408.401	449.06
408.779	459.9
409.156	473.24
409.534	495.83
409.912	491.31
410.29	503.74
410.667	493.35
411.045	490.86
411.422	526.57
411.8	517.75
412.178	540.35
412.555	520.47
412.933	549.84
413.31	570.18
413.687	585.1
414.065	585.78
414.442	574.7
414.819	575.38
415.197	595.04
415.574	605.21
415.951	610.86
416.328	605.21
416.705	629.39
417.082	635.49
417.46	611.76
417.837	664.64
418.214	637.53
418.591	656.96
418.967	671.42
419.344	663.51
419.721	680.01
420.098	689.28
420.475	715.26
420.852	709.39
421.228	711.87
421.605	725.43
421.982	759.33
422.358	756.84
422.735	778.76
423.111	784.41
423.488	804.3
423.864	798.43
424.241	826.45
424.617	834.13
424.994	841.81
425.37	864.86
425.746	863.51
426.123	860.57
426.499	905.09
426.875	915.71
427.251	910.74
427.627	940.79
428.003	955.94
428.379	946.67
428.756	948.48
429.132	979.89
429.507	966.78
429.883	983.28
430.259	1005.88
430.635	1009.49
431.011	1021.92
431.387	1056.95
431.763	1054.01
432.138	1059.21
432.514	1090.17
432.89	1103.73
433.265	1128.59
433.641	1151.64
434.016	1177.85
434.392	1190.28
434.767	1229.37
435.143	1235.02
435.518	1211.3
435.894	1260.11
436.269	1261.01
436.644	1320.45
437.02	1320.22
437.395	1346.43
437.77	1392.31
438.145	1410.61
438.52	1416.26
438.895	1465.07
439.271	1455.58
439.646	1454
440.021	1515.24
440.395	1542.36
440.77	1512.98
441.145	1531.74
441.52	1581.23
441.895	1587.33
442.27	1622.13
442.645	1612.42
443.019	1646.09
443.394	1656.71
443.769	1681.11
444.143	1690.38
444.518	1710.04
444.892	1725.41
445.267	1745.97
445.641	1736.48
446.016	1749.13
446.39	1802.47
446.764	1807.66
447.139	1817.38
447.513	1847.44
447.887	1860.09
448.262	1868.45
448.636	1880.66
449.01	1914.78
449.384	1908
449.758	1926.31
450.132	1948.68
450.506	1957.04
450.88	1999.07
451.254	1990.94
451.628	2011.95
452.002	2030.71
452.376	2081.78
452.75	2102.57
453.123	2121.1
453.497	2149.58
453.871	2144.83
454.244	2185.96
454.618	2230.48
454.992	2215.34
455.365	2237.26
455.739	2299.4
456.112	2284.71
456.486	2330.36
456.859	2359.97
457.232	2380.98
457.606	2387.54
457.979	2421.21
458.352	2480.87
458.725	2476.12
459.099	2520.64
459.472	2552.96
459.845	2618.94
460.218	2598.38
460.591	2623.69
460.964	2627.98
461.337	2719.96
461.71	2774.19
462.083	2832.72
462.456	2789.33
462.829	2818.49
463.201	2875.88
463.574	2886.51
463.947	2932.15
464.32	2998.59
464.692	3001.53
465.065	3048.08
465.438	3105.48
465.81	3149.1
466.183	3164.01
466.555	3260.51
466.928	3265.48
467.3	3208.98
467.672	3344.35
468.045	3412.82
468.417	3417.34
468.789	3449.2
469.161	3449.88
469.534	3562.42
469.906	3584.57
470.278	3629.31
470.65	3701.4
471.022	3778.01
471.394	3827.5
471.766	3863.88
472.138	3919.7
472.51	3996.99
472.882	4062.97
473.253	4108.62
473.625	4186.36
473.997	4262.29
474.369	4293.47
474.74	4334.38
475.112	4397.43
475.484	4462.06
475.855	4634.26
476.227	4594.71
476.598	4710.86
476.97	4760.58
477.341	4897.53
477.713	4949.5
478.084	5020.69
478.455	5102.27
478.827	5151.31
479.198	5313.33
479.569	5249.38
479.94	5501.13
480.311	5509.71
480.682	5666.77
481.053	5748.35
481.424	5850.72
481.795	5908.57
482.166	6015.69
482.537	6072.64
482.908	6223.82
483.279	6273.31
483.65	6395.34
484.021	6499.07
484.391	6557.37
484.762	6617.03
485.133	6739.06
485.503	6807.98
485.874	6978.38
486.244	7001.2
486.615	7208.88
486.985	7246.17
487.356	7325.26
487.726	7448.65
488.097	7563.67
488.467	7595.99
488.837	7723.44
489.207	7791.91
489.578	7936.32
489.948	7981.29
490.318	8129.31
490.688	8201.39
491.058	8312.35
491.428	8377.66
491.798	8499.24
492.168	8647.94
492.538	8649.52
492.908	8760.25
493.278	8864.43
493.648	8810.87
494.017	9017.87
494.387	9044.76
494.757	9103.97
495.126	9153.46
495.496	9211.99
495.866	9291.76
496.235	9307.13
496.605	9349.39
496.974	9413.11
497.344	9560
497.713	9552.77
498.082	9671.86
498.452	9717.06
498.821	9725.65
499.19	9722.03
499.559	9837.74
499.928	9843.39
500.298	9849.03
500.667	9987.79
501.036	9979.2
501.405	10010.61
501.774	10019.65
502.143	10122.7
502.512	10212.19
502.88	10211.06
503.249	10215.8
503.618	10303.94
503.987	10308.23
504.356	10343.26
504.724	10381.22
505.093	10419.42
505.462	10420.32
505.83	10478.4
506.199	10534.67
506.567	10585.74
506.936	10601.56
507.304	10643.82
507.672	10696.24
508.041	10668
508.409	10752.74
508.777	10752.29
509.145	10776.02
509.514	10763.36
509.882	10807.65
510.25	10823.02
510.618	10877.93
510.986	10851.49
511.354	10876.58
511.722	10999.51
512.09	11027.99
512.458	10903.24
512.826	11009.46
513.193	11071.83
513.561	10981.66
513.929	11051.94
514.297	11088.1
514.664	11140.53
515.032	11122.22
515.4	11152.96
515.767	11180.53
516.135	11180.3
516.502	11080.41
516.869	11218.72
517.237	11240.86
517.604	11160.64
517.972	11194.54
518.339	11224.14
518.706	11153.86
519.073	11238.6
519.44	11229.34
519.808	11215.55
520.175	11291.71
520.542	11375.55
520.909	11290.13
521.276	11287.42
521.643	11364.93
522.009	11320.86
522.376	11336.23
522.743	11353.63
523.11	11363.57
523.477	11416.9
523.843	11419.16
524.21	11454.42
524.577	11528.09
524.943	11478.82
525.31	11417.13
525.676	11512.27
526.043	11516.79
526.409	11497.58
526.776	11492.16
527.142	11539.39
527.508	11495.55
527.874	11517.69
528.241	11497.35
528.607	11466.62
528.973	11517.92
529.339	11430.01
529.705	11516.34
530.071	11402.21
530.437	11420.74
530.803	11404.93
531.169	11385.72
531.535	11284.03
531.901	11259.85
532.267	11272.5
532.632	11227.3
532.998	11286.06
533.364	11182.79
533.73	11214.65
534.095	11253.97
534.461	11228.21
534.826	11133.97
535.192	11104.82
535.557	11150.7
535.923	11002.45
536.288	11004.03
536.653	10928.1
537.019	10893.98
537.384	10856.24
537.749	10863.02
538.114	10687.66
538.479	10682.46
538.845	10669.35
539.21	10602.91
539.575	10557.72
539.94	10516.81
540.305	10522.92
540.67	10428.45
541.034	10448.12
541.399	10324.05
541.764	10281.34
542.129	10332.41
542.494	10263.49
542.858	10169.03
543.223	10142.13
543.587	10171.29
543.952	10008.8
544.316	9964.51
544.681	9892.42
545.045	9912.99
545.41	9936.49
545.774	9804.52
546.138	9786.21
546.503	9759.09
546.867	9653.33
547.231	9670.96
547.595	9593
547.959	9543.96
548.324	9536.05
548.688	9407.69
549.052	9367.92
549.416	9291.54
549.779	9316.62
550.143	9230.07
550.507	9240.92
550.871	9167.02
551.235	9171.76
551.599	9089.96
551.962	9074.37
552.326	9022.16
552.689	8968.83
553.053	8931.32
553.417	8844.09
553.78	8928.38
554.143	8812.23
554.507	8823.98
554.87	8794.6
555.234	8768.61
555.597	8620.59
555.96	8667.82
556.323	8649.07
556.686	8623.08
557.05	8579.46
557.413	8605.45
557.776	8492.69
558.139	8510.99
558.502	8534.49
558.865	8449.07
559.228	8535.85
559.59	8428.73
559.953	8322.07
560.316	8499.24
560.679	8379.92
561.041	8444.78
561.404	8355.06
561.767	8336.76
562.129	8291.11
562.492	8336.76
562.854	8234.84
563.217	8234.16
563.579	8246.14
563.941	8264.44
564.304	8210.21
564.666	8245.01
565.028	8217.89
565.39	8197.1
565.753	8178.57
566.115	8219.7
566.477	8193.26
566.839	8183.99
567.201	8173.37
567.563	8117.78
567.925	8139.48
568.287	8135.41
568.648	8198.23
569.01	8163.66
569.372	8225.8
569.734	8156.88
570.095	8219.47
570.457	8203.43
570.819	8141.51
571.18	8131.79
571.542	8223.31
571.903	8163.66
572.265	8160.72
572.626	8178.57
572.987	8155.29
573.349	8150.77
573.71	8182.86
574.071	8175.63
574.432	8136.54
574.794	8151.68
575.155	8183.54
575.516	8085.69
575.877	8201.17
576.238	8101.51
576.599	8142.19
576.96	8168.18
577.32	8123.2
577.681	8162.75
578.042	8078.69
578.403	8162.75
578.763	8134.5
579.124	8096.99
579.485	8169.76
579.845	8158.01
580.206	8110.55
580.566	8072.58
580.927	8118.01
581.287	8137.67
581.648	8021.29
582.008	8040.49
582.368	8053.38
582.728	8073.04
583.089	8080.95
583.449	8046.6
583.809	8052.92
584.169	8019.48
584.529	8012.02
584.889	8079.82
585.249	7989.42
585.609	8023.55
585.969	8002.53
586.329	7950.33
586.688	7991.91
587.048	7940.84
587.408	7970.67
587.768	7965.02
588.127	7856.54
588.487	7822.65
588.846	7973.83
589.206	7900.39
589.565	7902.42
589.925	7938.58
590.284	7845.47
590.643	7882.08
591.003	7844.12
591.362	7889.54
591.721	7898.35
592.08	7872.36
592.44	7879.82
592.799	7867.62
593.158	7813.83
593.517	7803.44
593.876	7817.22
594.235	7807.05
594.593	7763.89
594.952	7747.4
595.311	7744.46
595.67	7732.93
596.029	7770.9
596.387	7793.5
596.746	7844.12
597.104	7714.18
597.463	7651.13
597.822	7756.66
598.18	7675.08
598.538	7741.29
598.897	7749.88
599.255	7684.12
599.613	7740.39
599.972	7624.01
600.33	7687.74
600.688	7732.71
601.046	7697.23
601.404	7760.28
601.762	7639.38
602.12	7786.94
602.478	7712.14
602.836	7647.51
603.194	7653.84
603.552	7619.04
603.91	7674.4
604.268	7711.24
604.625	7689.77
604.983	7631.69
605.341	7659.04
605.698	7611.81
606.056	7652.03
606.413	7616.78
606.771	7703.33
607.128	7650.45
607.485	7630.56
607.843	7671.46
608.2	7678.02
608.557	7742.65
608.914	7704.68
609.272	7718.47
609.629	7694.97
609.986	7739.26
610.343	7697.23
610.7	7745.36
611.057	7677.79
611.414	7660.39
611.771	7770.9
612.127	7720.05
612.484	7747.4
612.841	7700.84
613.198	7763.21
613.554	7728.86
613.911	7796.43
614.267	7709.88
614.624	7678.24
614.98	7713.5
615.337	7768.19
615.693	7727.06
616.05	7725.93
616.406	7785.13
616.762	7734.74
617.118	7798.92
617.475	7800.73
617.831	7765.47
618.187	7735.42
618.543	7736.1
618.899	7816.32
619.255	7779.48
619.611	7825.13
619.967	7825.59
620.323	7816.55
620.678	7847.05
621.034	7771.35
621.39	7797.34
621.746	7808.86
622.101	7838.01
622.457	7768.86
622.812	7806.6
623.168	7823.1
623.523	7788.3
623.879	7827.85
624.234	7719.37
624.589	7841.18
624.945	7822.87
625.3	7794.4
625.655	7831.69
626.01	7789.43
626.365	7828.52
626.72	7786.26
627.075	7816.55
627.43	7668.98
627.785	7794.85
628.14	7764.34
628.495	7794.4
628.85	7744.01
629.205	7705.81
629.559	7804.79
629.914	7706.72
630.269	7753.5
630.623	7634.18
630.978	7702.42
631.332	7714.63
631.687	7654.06
632.041	7685.02
632.396	7644.57
632.75	7632.37
633.104	7665.82
633.459	7574.52
633.813	7638.25
634.167	7633.5
634.521	7553.05
634.875	7588.98
635.229	7578.59
635.583	7541.52
635.937	7504.69
636.291	7600.05
636.645	7563.9
636.999	7583.33
637.352	7554.63
637.706	7490.68
638.06	7520.06
638.413	7507.85
638.767	7492.94
639.121	7523.9
639.474	7416.33
639.828	7478.93
640.181	7489.55
640.534	7426.27
640.888	7472.6
641.241	7387.86
641.594	7393.73
641.947	7447.29
642.301	7459.95
642.654	7391.02
643.007	7385.82
643.36	7401.19
643.713	7392.6
644.066	7351.02
644.419	7382.21
644.771	7308.76
645.124	7220.86
645.477	7273.96
645.83	7182.21
646.182	7221.76
646.535	7157.35
646.888	7167.07
647.24	7183.79
647.593	7164.13
647.945	7176.79
648.298	7123.91
648.65	7154.19
649.002	7084.59
649.355	7133.85
649.707	7177.24
650.059	7220.86
650.411	7260.4
650.763	7317.8
651.115	7334.52
651.467	7324.36
651.819	7330.91
652.171	7326.84
652.523	7267.41
652.875	7306.95
653.227	7253.4
653.578	7339.95
653.93	7245.94
654.282	7265.83
654.633	7247.07
654.985	7289.33
655.337	7351.25
655.688	7339.72
656.039	7327.07
656.391	7297.92
656.742	7319.61
657.094	7398.25
657.445	7411.36
657.796	7357.8
658.147	7343.56
658.498	7293.85
658.849	7393.51
659.2	7331.59
659.551	7383.79
659.902	7425.37
660.253	7356.67
660.604	7339.95
660.955	7287.75
661.306	7374.52
661.656	7404.58
662.007	7336.56
662.358	7350.12
662.708	7337.69
663.059	7397.35
663.409	7325.49
663.76	7379.04
664.11	7397.35
664.461	7350.12
664.811	7406.16
665.161	7419.95
665.511	7358.7
665.862	7402.77
666.212	7417.69
666.562	7408.2
666.912	7379.95
667.262	7413.17
667.612	7347.41
667.962	7419.72
668.312	7395.09
668.662	7457.69
669.011	7405.26
669.361	7394.18
669.711	7433.51
670.06	7321.87
670.41	7365.26
670.76	7387.18
671.109	7374.07
671.459	7379.04
671.808	7313.73
672.157	7399.38
672.507	7367.97
672.856	7377.01
673.205	7306.05
673.554	7385.82
673.904	7291.59
674.253	7279.16
674.602	7399.38
674.951	7205.26
675.3	7225.83
675.649	7345.37
675.998	7326.39
676.346	7290.68
676.695	7343.11
677.044	7279.38
677.393	7261.08
677.741	7300.85
678.09	7240.52
678.438	7287.75
678.787	7249.33
679.135	7266.05
679.484	7216.34
679.832	7149.67
680.181	7125.94
680.529	7180.86
680.877	7141.76
681.225	7148.99
681.573	7184.92
681.922	7126.85
682.27	7137.92
682.618	7064.25
682.966	7047.07
683.314	7091.59
683.661	7006.85
684.009	7036
684.357	7009.56
684.705	6959.39
685.053	6980.86
685.4	6997.13
685.748	6929.11
686.095	6980.18
686.443	6956.23
686.79	6931.15
687.138	6896.12
687.485	6896.8
687.832	6916
688.18	6903.58
688.527	6852.96
688.874	6822.45
689.221	6782.67
689.568	6745.16
689.915	6807.31
690.262	6722.11
690.609	6704.71
690.956	6723.69
691.303	6738.83
691.65	6673.53
691.997	6623.81
692.344	6652.96
692.69	6648.44
693.037	6602.57
693.383	6554.43
693.73	6544.71
694.077	6480.54
694.423	6528.44
694.769	6464.49
695.116	6461.1
695.462	6425.85
695.808	6427.66
696.155	6436.47
696.501	6366.87
696.847	6344.95
697.193	6244.16
697.539	6270.37
697.885	6273.76
698.231	6297.94
698.577	6204.16
698.923	6196.02
699.269	6153.54
699.614	6162.13
699.96	6148.12
700.306	6175.91
700.651	6091.17
700.997	6086.2
701.342	6048.91
701.688	6074.44
702.033	6017.27
702.379	6019.08
702.724	5952.41
703.069	5961
703.415	5901.57
703.76	5871.74
704.105	5916.03
704.45	5889.59
704.795	5830.16
705.14	5823.83
705.485	5826.99
705.83	5783.38
706.175	5823.38
706.52	5749.48
706.865	5702.25
707.209	5714.68
707.554	5707.45
707.899	5723.95
708.243	5692.53
708.588	5633.33
708.932	5593.1
709.277	5625.64
709.621	5635.36
709.966	5575.02
710.31	5594.01
710.654	5559.43
710.998	5529.37
711.342	5564.4
711.687	5529.15
712.031	5535.02
712.375	5496.83
712.719	5493.22
713.063	5466.33
713.407	5511.07
713.75	5481.01
714.094	5454.57
714.438	5444.18
714.782	5433.33
715.125	5373.9
715.469	5366.67
715.812	5366.21
716.156	5338.19
716.499	5351.53
716.843	5358.98
717.186	5356.5
717.53	5373.45
717.873	5329.61
718.216	5367.57
718.559	5326.89
718.902	5255.71
719.246	5345.42
719.589	5308.14
719.932	5290.96
720.275	5259.32
720.617	5307.46
720.96	5201.93
721.303	5260.91
721.646	5282.6
721.989	5260.45
722.331	5289.15
722.674	5212.32
723.016	5238.99
723.359	5192.89
723.701	5189.5
724.044	5202.38
724.386	5220.68
724.729	5247.57
725.071	5180.68
725.413	5159.21
725.755	5214.58
726.097	5238.31
726.439	5194.69
726.782	5146.56
727.124	5190.63
727.465	5160.57
727.807	5149.95
728.149	5099.33
728.491	5134.81
728.833	5164.86
729.175	5175.03
729.516	5140.46
729.858	5155.82
730.199	5202.83
730.541	5158.54
730.882	5159.67
731.224	5187.91
731.565	5125.32
731.906	5169.38
732.248	5187.01
732.589	5190.4
732.93	5133.45
733.271	5171.42
733.612	5172.1
733.953	5175.71
734.294	5170.74
734.635	5182.04
734.976	5139.55
735.317	5159.89
735.658	5177.75
735.999	5191.3
736.339	5152.44
736.68	5265.2
737.021	5220.46
737.361	5152.89
737.702	5178.88
738.042	5225.2
738.383	5233.11
738.723	5295.26
739.063	5229.04
739.404	5218.2
739.744	5238.76
740.084	5234.24
740.424	5262.04
740.764	5272.43
741.104	5314.01
741.444	5285.54
741.784	5328.02
742.124	5320.11
742.464	5358.08
742.804	5382.03
743.143	5418.42
743.483	5438.76
743.823	5387.68
744.162	5437.85
744.502	5485.76
744.841	5482.82
745.181	5492.77
745.52	5566.21
745.86	5589.26
746.199	5591.07
746.538	5620.9
746.877	5659.54
747.216	5731.4
747.556	5742.48
747.895	5848.01
748.234	5842.81
748.573	5848.69
748.911	5909.93
749.25	5996.25
749.589	6058.85
749.928	6081.45
750.267	6185.4
750.605	6226.98
750.944	6288.9
751.283	6356.25
751.621	6425.62
751.96	6503.81
752.298	6598.05
752.636	6653.64
752.975	6807.98
753.313	6792.39
753.651	6955.55
753.989	7043.46
754.327	7158.48
754.666	7219.5
755.004	7408.2
755.342	7498.59
755.679	7611.35
756.017	7754.4
756.355	7964.56
756.693	8049.31
757.031	8187.38
757.368	8292.47
757.706	8484.1
758.044	8608.62
758.381	8777.65
758.719	8910.98
759.056	9073.01
759.394	9210.41
759.731	9291.08
760.068	9527.69
760.405	9645.88
760.743	9821.24
761.08	9991.63
761.417	10093.32
761.754	10345.52
762.091	10485.18
762.428	10650.6
762.765	10790.48
763.102	11057.36
763.438	11129.68
763.775	11274.76
764.112	11554.07
764.449	11652.6
764.785	11792.94
765.122	11910.68
765.458	12114.06
765.795	12318.12
766.131	12469.53
766.467	12586.14
