Data from hue_60_FLMS001491_55.txt Node
Date: Mon Feb 06 15:17:35 GMT 2017
User: dcchb
Spectrometer: FLMS00149
Trigger mode: 0
Integration Time (sec): 2.000000E-2
Scans to average: 10
Electric dark correction enabled: true
Nonlinearity correction enabled: false
Boxcar width: 0
XAxis mode: Wavelengths
Number of Pixels in Spectrum: 2048
>>>>>Begin Spectral Data<<<<<
341.393	-0.37
341.776	-0.37
342.16	-0.37
342.543	-72
342.927	-74.49
343.31	-62.74
343.693	-82.85
344.077	-60.48
344.46	-53.02
344.843	-68.16
345.226	-29.74
345.61	-36.52
345.993	-15.73
346.376	10.03
346.759	10.25
347.142	15.45
347.525	36.47
347.908	60.87
348.291	77.14
348.674	81.66
349.057	117.37
349.44	142.23
349.823	144.26
350.206	179.29
350.588	208.89
350.971	236.24
351.354	214.09
351.737	218.16
352.119	227.88
352.502	255.9
352.884	268.33
353.267	283.69
353.65	269.46
354.032	314.43
354.414	322.79
354.797	320.98
355.179	325.73
355.562	334.09
355.944	361.88
356.326	345.84
356.709	342.45
357.091	358.95
357.473	350.81
357.855	353.52
358.238	358.72
358.62	348.1
359.002	361.43
359.384	328.44
359.766	366.63
360.148	344.71
360.53	342
360.912	310.81
361.294	356.69
361.676	335.22
362.057	332.73
362.439	325.95
362.821	339.74
363.203	332.28
363.584	338.61
363.966	328.21
364.348	330.25
364.729	336.57
365.111	326.18
365.493	332.05
365.874	334.54
366.256	320.75
366.637	325.27
367.019	322.34
367.4	316.69
367.781	301.55
368.163	313.75
368.544	327.31
368.925	318.72
369.306	342
369.688	329.79
370.069	320.98
370.45	328.44
370.831	318.27
371.212	319.17
371.593	316.46
371.974	313.3
372.355	328.44
372.736	322.11
373.117	323.92
373.498	319.4
373.879	328.66
374.26	324.82
374.641	318.72
375.021	321.88
375.402	342.67
375.783	331.83
376.163	335.67
376.544	320.98
376.925	341.54
377.305	329.57
377.686	322.56
378.066	304.48
378.447	337.7
378.827	318.72
379.208	337.03
379.588	336.35
379.968	328.44
380.349	338.61
380.729	346.97
381.109	327.99
381.489	322.56
381.87	340.87
382.25	323.01
382.63	337.7
383.01	320.3
383.39	348.55
383.77	356.91
384.15	335.9
384.53	352.39
384.91	349.91
385.29	351.04
385.67	364.59
386.049	350.13
386.429	353.97
386.809	343.13
387.189	351.49
387.568	359.4
387.948	355.33
388.328	340.19
388.707	370.47
389.087	363.24
389.466	342.22
389.846	359.17
390.225	349.68
390.605	357.59
390.984	340.64
391.363	361.88
391.743	391.26
392.122	365.05
392.501	364.59
392.881	379.06
393.26	361.43
393.639	389.45
394.018	378.83
394.397	367.76
394.776	387.65
395.155	374.09
395.534	391.49
395.913	378.83
396.292	374.31
396.671	374.76
397.05	370.92
397.429	374.99
397.808	377.7
398.186	399.17
398.565	392.84
398.944	400.53
399.323	391.03
399.701	397.36
400.08	391.71
400.458	389.68
400.837	385.16
401.215	402.33
401.594	394.2
401.972	399.62
402.351	424.71
402.729	408.66
403.107	396.91
403.486	407.53
403.864	401.66
404.242	398.04
404.62	387.65
404.999	407.76
405.377	425.61
405.755	404.82
406.133	429.68
406.511	418.38
406.889	409.79
407.267	412.96
407.645	395.1
408.023	402.33
408.401	419.73
408.779	438.94
409.156	434.88
409.534	454.08
409.912	447.98
410.29	432.16
410.667	440.07
411.045	436.23
411.422	444.37
411.8	422.67
412.178	453.63
412.555	455.44
412.933	473.74
413.31	456.34
413.687	461.09
414.065	448.89
414.442	472.61
414.819	475.55
415.197	476.46
415.574	458.83
415.951	491.6
416.328	483.46
416.705	475.1
417.082	480.07
417.46	491.37
417.837	493.18
418.214	483.69
418.591	497.25
418.967	477.36
419.344	491.82
419.721	505.38
420.098	508.77
420.475	501.09
420.852	482.11
421.228	511.71
421.605	508.09
421.982	519.62
422.358	518.49
422.735	521.2
423.111	514.87
423.488	516.68
423.864	530.01
424.241	529.56
424.617	538.6
424.994	532.95
425.37	530.01
425.746	541.31
426.123	552.39
426.499	548.32
426.875	541.99
427.251	562.33
427.627	550.58
428.003	578.15
428.379	584.7
428.756	575.21
429.132	581.54
429.507	568.43
429.883	587.87
430.259	581.31
430.635	589.9
431.011	575.89
431.387	589.22
431.763	606.17
432.138	625.83
432.514	597.36
432.89	609.11
433.265	647.98
433.641	635.55
434.016	634.64
434.392	641.42
434.767	629.9
435.143	650.69
435.518	665.38
435.894	660.86
436.269	654.08
436.644	643.01
437.02	667.86
437.395	680.07
437.77	683.91
438.145	689.33
438.52	678.71
438.895	684.13
439.271	680.52
439.646	703.57
440.021	692.04
440.395	703.12
440.77	710.12
441.145	689.56
441.52	716.45
441.895	706.73
442.27	734.3
442.645	742.89
443.019	720.29
443.394	722.1
443.769	731.82
444.143	738.37
444.518	743.79
444.892	752.38
445.267	732.04
445.641	787.18
446.016	747.86
446.39	769.1
446.764	745.83
447.139	785.37
447.513	790.35
447.887	749.44
448.262	754.64
448.636	785.6
449.01	791.25
449.384	781.31
449.758	794.41
450.132	802.1
450.506	814.98
450.88	812.94
451.254	794.64
451.628	807.75
452.002	830.57
452.376	826.28
452.75	844.81
453.123	834.64
453.497	857.01
453.871	858.37
454.244	881.87
454.618	888.65
454.992	874.86
455.365	883.68
455.739	899.95
456.112	918.03
456.486	927.07
456.859	905.6
457.232	936.33
457.606	946.5
457.979	947.63
458.352	953.73
458.725	957.57
459.099	993.96
459.472	994.63
459.845	982.21
460.218	1009.78
460.591	1038.25
460.964	1008.42
461.337	1066.72
461.71	1047.74
462.083	1072.6
462.456	1088.19
462.829	1095.65
463.201	1113.05
463.574	1125.48
463.947	1109.66
464.32	1138.36
464.692	1145.37
465.065	1138.36
465.438	1165.93
465.81	1215.42
466.183	1219.04
466.555	1252.26
466.928	1264.01
467.3	1269.88
467.672	1296.55
468.045	1324.57
468.417	1312.59
468.789	1336.32
469.161	1354.63
469.534	1366.83
469.906	1437.79
470.278	1420.61
470.65	1432.14
471.022	1470.78
471.394	1511.68
471.766	1546.03
472.138	1577.44
472.51	1600.95
472.882	1619.03
473.253	1654.96
473.625	1698.57
473.997	1704.45
474.369	1746.71
474.74	1788.96
475.112	1825.35
475.484	1878.68
475.855	1915.06
476.227	1963.87
476.598	2028.28
476.97	2080.03
477.341	2138.11
477.713	2197.99
478.084	2230.76
478.455	2301.04
478.827	2350.53
479.198	2464.2
479.569	2482.96
479.94	2612.9
480.311	2614.25
480.682	2697.64
481.053	2821.48
481.424	2896.51
481.795	2952.78
482.166	3023.28
482.537	3116.84
482.908	3198.64
483.279	3312.77
483.65	3391.18
484.021	3482.48
484.391	3649.93
484.762	3680.89
485.133	3774
485.503	3865.52
485.874	4011.5
486.244	4114.1
486.615	4234.32
486.985	4358.16
487.356	4486.07
487.726	4614.88
488.097	4734.2
488.467	4874.98
488.837	4997.47
489.207	5103
489.578	5322.66
489.948	5347.97
490.318	5576.66
490.688	5670.67
491.058	5837.67
491.428	5964.45
491.798	6092.58
492.168	6280.6
492.538	6426.58
492.908	6558.56
493.278	6755.61
493.648	6775.95
494.017	6988.6
494.387	7118.77
494.757	7278.54
495.126	7418.19
495.496	7583.16
495.866	7770.73
496.235	7921.68
496.605	8124.39
496.974	8204.39
497.344	8342.01
497.713	8470.6
498.082	8587.66
498.452	8798.05
498.821	8944.03
499.19	9016.57
499.559	9226.06
499.928	9342.44
500.298	9514.41
500.667	9691.81
501.036	9748.98
501.405	9904.91
501.774	9954.17
502.143	10130.67
502.512	10306.03
502.88	10489.75
503.249	10575.4
503.618	10720.03
503.987	10849.07
504.356	10969.29
504.724	11114.14
505.093	11237.08
505.462	11383.74
505.83	11512.55
506.199	11696.05
506.567	11871.86
506.936	11955.7
507.304	12156.6
507.672	12143.49
508.041	12423.94
508.409	12491.73
508.777	12737.15
509.145	12746.64
509.514	12840.88
509.882	13117.25
510.25	13086.52
510.618	13277.25
510.986	13389.11
511.354	13560.41
511.722	13769.67
512.09	13911.58
512.458	14000.39
512.826	14143.44
513.193	14211.91
513.561	14269.09
513.929	14468.18
514.297	14754.73
514.664	14788.85
515.032	14732.58
515.4	15008.96
515.767	15091.67
516.135	15323.52
516.502	15228.38
516.869	15589.05
517.237	15683.74
517.604	15637.41
517.972	15875.83
518.339	16020.45
518.706	16038.31
519.073	16103.84
519.44	16303.16
519.808	16437.84
520.175	16530.72
520.542	16779.98
520.909	16781.56
521.276	16919.64
521.643	17142.46
522.009	17262.23
522.376	17474.43
522.743	17579.74
523.11	17770.92
523.477	17958.71
523.843	18150.12
524.21	18205.93
524.577	18373.16
524.943	18435.98
525.31	18613.83
525.676	18823.54
526.043	18940.38
526.409	19041.84
526.776	19327.94
527.142	19334.94
527.508	19401.38
527.874	19701.71
528.241	19767.93
528.607	19824.2
528.973	20054.47
529.339	20075.72
529.705	20209.27
530.071	20468.93
530.437	20454.46
530.803	20637.96
531.169	20757.28
531.535	20803.83
531.901	20770.16
532.267	20945.3
532.632	21117.27
532.998	21075.91
533.364	21281.11
533.73	21313.2
534.095	21515.9
534.461	21589.12
534.826	21704.82
535.192	21919.51
535.557	22031.82
535.923	21942.56
536.288	22187.98
536.653	22298.48
537.019	22222.1
537.384	22331.25
537.749	22360.63
538.114	22529.66
538.479	22610.56
538.845	22661.41
539.21	22650.79
539.575	22804
539.94	22898.24
540.305	22991.57
540.67	22952.02
541.034	23039.7
541.399	23209.87
541.764	23340.71
542.129	23443.31
542.494	23498
542.858	23530.54
543.223	23559.69
543.587	23791.32
543.952	23716.52
544.316	23749.52
544.681	23814.15
545.045	23924.65
545.41	24055.95
545.774	24161.03
546.138	24135.27
546.503	24248.03
546.867	24296.17
547.231	24440.57
547.595	24597.4
547.959	24511.98
548.324	24583.39
548.688	24639.66
549.052	24770.05
549.416	24860.9
549.779	24891.63
550.143	25017.28
550.507	25116.03
550.871	25173.21
551.235	25231.29
551.599	25457.49
551.962	25498.4
552.326	25510.83
552.689	25710.37
553.053	25695.91
553.417	25756.24
553.78	26003.24
554.143	25880.53
554.507	26116.01
554.87	26100.19
555.234	26411.37
555.597	26204.59
555.96	26422.21
556.323	26585.15
556.686	26586.28
557.05	26727.52
557.413	26960.28
557.776	26985.36
558.139	27230.1
558.502	27157.56
558.865	27245.02
559.228	27448.63
559.59	27498.8
559.953	27543.99
560.316	27870.31
560.679	27783.54
561.041	28035.96
561.404	28250.64
561.767	28412.9
562.129	28179.91
562.492	28513.69
562.854	28600.69
563.217	28589.84
563.579	28834.58
563.941	29028.25
564.304	28975.82
564.666	29223.95
565.028	29296.26
565.39	29399.09
565.753	29543.71
566.115	29577.61
566.477	29646.99
566.839	29823.71
567.201	30058.28
567.563	30146.18
567.925	30323.13
568.287	30301.66
568.648	30266.41
569.01	30597.02
569.372	30874.98
569.734	30743.91
570.095	31001.08
570.457	31154.97
570.819	31206.72
571.18	31145.93
571.542	31469.99
571.903	31330.79
572.265	31446.49
572.626	31526.26
572.987	31546.37
573.349	31674.05
573.71	31802.86
574.071	31971.9
574.432	31929.87
574.794	32285.11
575.155	32257.09
575.516	32092.57
575.877	32251.44
576.238	32359.69
576.599	32470.64
576.96	32599.45
577.32	32623.63
577.681	32723.52
578.042	32749.96
578.403	32691.88
578.763	32747.25
579.124	32901.59
579.485	33060.46
579.845	33097.75
580.206	32979.56
580.566	32973
580.927	33088.48
581.287	33284.41
581.648	33131.87
582.008	33313.33
582.368	33324.41
582.728	33405.76
583.089	33312.66
583.449	33288.25
583.809	33389.26
584.169	33450.05
584.529	33387.91
584.889	33462.26
585.249	33419.77
585.609	33342.26
585.969	33601.46
586.329	33452.76
586.688	33586.32
587.048	33679.43
587.408	33601.69
587.768	33499.99
588.127	33477.4
588.487	33491.41
588.846	33659.09
589.206	33537.06
589.565	33760.33
589.925	33738.63
590.284	33703.38
590.643	33800.78
591.003	33875.13
591.362	33925.97
591.721	33814.56
592.08	33760.55
592.44	33894.56
592.799	33952.86
593.158	33853.21
593.517	33812.08
593.876	33878.06
594.235	33951.28
594.593	34058.85
594.952	34034.22
595.311	33951.06
595.67	34121.67
596.029	34267.66
596.387	34209.35
596.746	34323.7
597.104	34195.34
597.463	34169.13
597.822	34220.2
598.18	34313.76
598.538	34234.44
598.897	34482.34
599.255	34191.05
599.613	34702.68
599.972	34368.67
600.33	34582.9
600.688	34477.82
601.046	34627.42
601.404	34590.14
601.762	34539.97
602.12	34777.02
602.478	34721.43
602.836	34884.82
603.194	34620.42
603.552	34786.51
603.91	34790.36
604.268	34935.44
604.625	34841.2
604.983	34963.23
605.341	34826.29
605.698	35044.59
606.056	35089.33
606.413	35144.7
606.771	35367.74
607.128	35374.3
607.485	35150.8
607.843	35152.83
608.2	35464.91
608.557	35474.63
608.914	35506.27
609.272	35626.27
609.629	35637.34
609.986	35887.5
610.343	35657.23
610.7	35987.39
611.057	35905.81
611.414	35901.97
611.771	35995.07
612.127	36102.19
612.484	36114.84
612.841	36247.95
613.198	36133.6
613.554	36218.79
613.911	36348.51
614.267	36417.88
614.624	36400.94
614.98	36497.43
615.337	36628.05
615.693	36555.73
616.05	36535.4
616.406	36779.91
616.762	36630.08
617.118	36744.88
617.475	36842.51
617.831	36797.08
618.187	36818.33
618.543	36849.96
618.899	37075.95
619.255	37030.3
619.611	37046.79
619.967	37282.04
620.323	37187.36
620.678	37103.52
621.034	37015.83
621.39	37049.51
621.746	37097.64
622.101	37654.69
622.457	37189.62
622.812	37348.03
623.168	37426.9
623.523	37465.99
623.879	37673.22
624.234	37258.31
624.589	37522.94
624.945	37620.11
625.3	37513.9
625.655	37490.4
626.01	37503.05
626.365	37640
626.72	37559.78
627.075	37636.16
627.43	37610.17
627.785	37508.25
628.14	37597.97
628.495	37694.23
628.85	37718.87
629.205	37616.27
629.559	37774.46
629.914	37596.16
630.269	37550.28
630.623	37496.05
630.978	37478.87
631.332	37710.51
631.687	37764.74
632.041	37442.26
632.396	37668.7
632.75	37540.11
633.104	37582.6
633.459	37426.9
633.813	37421.02
634.167	37396.16
634.521	37355.71
634.875	37514.35
635.229	37458.53
635.583	37245.66
635.937	37347.58
636.291	37250.63
636.645	37275.49
636.999	37082.27
637.352	37291.99
637.706	37145.1
638.06	37219.9
638.413	37162.5
638.767	37133.35
639.121	37147.81
639.474	37006.34
639.828	36988.49
640.181	36928.61
640.534	37062.61
640.888	36792.11
641.241	36836.18
641.594	36910.98
641.947	37061.03
642.301	36809.29
642.654	36941.26
643.007	36899.45
643.36	36759.57
643.713	36668.95
644.066	36864.65
644.419	36591.21
644.771	36476.87
645.124	36054.05
645.477	36016.09
645.83	35743.55
646.182	35643.67
646.535	35642.99
646.888	35634.18
647.24	35535.2
647.593	35576.32
647.945	35443.22
648.298	35393.73
648.65	35353.51
649.002	35276.67
649.355	35446.61
649.707	35404.8
650.059	35554.63
650.411	35917.78
650.763	35921.63
651.115	36374.27
651.467	36141.28
651.819	36230.54
652.171	36200.49
652.523	36076.42
652.875	36077.1
653.227	35969.99
653.578	36239.81
653.93	36075.97
654.282	35968.18
654.633	35793.49
654.985	35914.62
655.337	35948.74
655.688	35914.85
656.039	36080.94
656.391	35695.87
656.742	35832.59
657.094	35850.89
657.445	35937.44
657.796	35826.94
658.147	35829.43
658.498	35723.67
658.849	35814.96
659.2	35806.83
659.551	35585.36
659.902	35758.01
660.253	35745.36
660.604	35697.9
660.955	35575.19
661.306	35748.07
661.656	35710.56
662.007	35686.83
662.358	35659.94
662.708	35577.45
663.059	35721.63
663.409	35466.95
663.76	35656.1
664.11	35629.2
664.461	35572.03
664.811	35645.7
665.161	35609.32
665.511	35459.27
665.862	35610.22
666.212	35657.45
666.562	35618.36
666.912	35628.53
667.262	35507.4
667.612	35510.56
667.962	35535.87
668.312	35391.24
668.662	35659.49
669.011	35599.6
669.361	35447.74
669.711	35426.95
670.06	35428.76
670.41	35405.03
670.76	35263.79
671.109	35409.78
671.459	35351.92
671.808	35212.04
672.157	35454.75
672.507	35175.21
672.856	35341.98
673.205	35249.55
673.554	35386.05
673.904	35284.35
674.253	35440.06
674.602	35349.89
674.951	34726.86
675.3	34649.8
675.649	35135.43
675.998	35124.58
676.346	35106.28
676.695	35078.94
677.044	34985.38
677.393	35032.61
677.741	35060.86
678.09	34982.89
678.438	34919.84
678.787	34971.37
679.135	34957.58
679.484	34734.76
679.832	34861.77
680.181	34606.18
680.529	34680.53
680.877	34700.64
681.225	34647.99
681.573	34899.28
681.922	34671.49
682.27	34477.37
682.618	34527.76
682.966	34476.24
683.314	34535
683.661	34262.69
684.009	34240.09
684.357	34157.83
684.705	34047.1
685.053	34237.83
685.4	34194.44
685.748	33952.41
686.095	34007.1
686.443	33873.54
686.79	33813.88
687.138	33862.02
687.485	33871.96
687.832	33598.98
688.18	33699.54
688.527	33562.37
688.874	33656.37
689.221	33516.04
689.568	33340.9
689.915	33318.3
690.262	33391.75
690.609	33212.77
690.956	33081.93
691.303	33041.25
691.65	32927.81
691.997	33006.45
692.344	32717.87
692.69	32689.39
693.037	32686.23
693.383	32425.67
693.73	32569.85
694.077	32407.82
694.423	32416.63
694.769	32137.54
695.116	32223.19
695.462	32225.45
695.808	32075.85
696.155	32102.29
696.501	31870.43
696.847	31826.14
697.193	31684.22
697.539	31689.65
697.885	31571.23
698.231	31413.27
698.577	31468.18
698.923	31434.06
699.269	31181.86
699.614	31106.16
699.96	31085.6
700.306	31047.18
700.651	30888.99
700.997	30862.78
701.342	30819.84
701.688	30827.75
702.033	30636.57
702.379	30533.29
702.724	30523.35
703.069	30641.99
703.415	30250.81
703.76	30258.95
704.105	30153.64
704.45	30124.72
704.795	29992.97
705.14	29891.73
705.485	30033.65
705.83	29748.68
706.175	29800.88
706.52	29656.03
706.865	29645.41
707.209	29482.25
707.554	29462.81
707.899	29532.42
708.243	29378.52
708.588	29305.98
708.932	29115.25
709.277	29129.04
709.621	29138.53
709.966	29015.37
710.31	29023.73
710.654	28796.62
710.998	28935.82
711.342	28885.65
711.687	28772.89
712.031	28682.72
712.375	28527.02
712.719	28530.18
713.063	28550.97
713.407	28581.71
713.75	28430.98
714.094	28466.45
714.438	28306.91
714.782	28307.14
715.125	28208.83
715.469	28156.63
715.812	27994.15
716.156	27988.95
716.499	27888.62
716.843	28000.25
717.186	27710.77
717.53	27936.53
717.873	27886.36
718.216	27819.69
718.559	27709.19
718.902	27555.74
719.246	27524.56
719.589	27504.9
719.932	27401.62
720.275	27357.11
720.617	27374.96
720.96	27203.44
721.303	27144.46
721.646	27365.24
721.989	27166.83
722.331	27109.43
722.674	27118.47
723.016	27032.37
723.359	26995.76
723.701	27051.8
724.044	26834.63
724.386	26782.43
724.729	26885.93
725.071	26887.06
725.413	26806.61
725.755	26879.83
726.097	26728.87
726.439	26441.2
726.782	26528.65
727.124	26645.71
727.465	26563.91
727.807	26388.32
728.149	26419.96
728.491	26345.83
728.833	26420.41
729.175	26337.7
729.516	26182
729.858	26081.43
730.199	26182.45
730.541	26079.63
730.882	26132.05
731.224	26138.83
731.565	25944.04
731.906	25898.16
732.248	26000.76
732.589	25802.8
732.93	25702.69
733.271	25818.84
733.612	25748.11
733.953	25798.05
734.294	25624.72
734.635	25722.8
734.976	25610.94
735.317	25572.97
735.658	25497.49
735.999	25529.58
736.339	25403.71
736.68	25511.28
737.021	25404.84
737.361	25372.52
737.702	25492.07
738.042	25382.69
738.383	25253.21
738.723	25372.3
739.063	25215.69
739.404	25281.45
739.744	25180.67
740.084	25032.42
740.424	25047.79
740.764	25041.46
741.104	25056.6
741.444	24859.54
741.784	24850.28
742.124	24902.48
742.464	24856.38
742.804	24813.22
743.143	24726.44
743.483	24813.9
743.823	24556.05
744.162	24612.54
744.502	24639.89
744.841	24494.36
745.181	24696.61
745.52	24547.24
745.86	24458.65
746.199	24404.41
746.538	24485.54
746.877	24481.47
747.216	24436.05
747.556	24291.65
747.895	24402.61
748.234	24293.23
748.573	24245.1
748.911	24180.01
749.25	24150.86
749.589	24022.5
749.928	24050.98
750.267	24085.78
750.605	23974.37
750.944	23914.03
751.283	23821.38
751.621	23885.56
751.96	23707.48
752.298	23836.97
752.636	23706.13
752.975	23596.75
753.313	23643.76
753.651	23706.35
753.989	23499.35
754.327	23493.93
754.666	23406.02
755.004	23335.52
755.342	23408.51
755.679	23404.22
756.017	23145.24
756.355	23238.12
756.693	23183.66
