Data from hue_32_FLMS001491_00079.txt Node
Date: Tue Feb 07 17:23:54 GMT 2017
User: dcchb
Spectrometer: FLMS00149
Trigger mode: 0
Integration Time (sec): 2.000000E-2
Scans to average: 10
Electric dark correction enabled: true
Nonlinearity correction enabled: false
Boxcar width: 0
XAxis mode: Wavelengths
Number of Pixels in Spectrum: 2048
>>>>>Begin Spectral Data<<<<<
341.393	-37.81
341.776	-37.81
342.16	-37.81
342.543	-61.99
342.927	-61.31
343.31	-64.48
343.693	-69.22
344.077	-52.95
344.46	-67.87
344.843	-64.25
345.226	-46.85
345.61	-44.82
345.993	-34.87
346.376	2.64
346.759	-7.3
347.142	22.53
347.525	64.79
347.908	57.1
348.291	86.93
348.674	106.82
349.057	111.79
349.44	132.58
349.823	135.97
350.206	155.63
350.588	201.05
350.971	231.34
351.354	223.65
351.737	241.05
352.119	248.74
352.502	242.63
352.884	277.44
353.267	298
353.65	292.35
354.032	300.26
354.414	303.88
354.797	315.85
355.179	325.57
355.562	316.98
355.944	320.37
356.326	345.68
356.709	338
357.091	343.2
357.473	352.24
357.855	330.54
358.238	328.96
358.62	326.93
359.002	335.29
359.384	339.13
359.766	351.11
360.148	336.64
360.53	344.78
360.912	331.9
361.294	329.86
361.676	337.32
362.057	328.28
362.439	350.2
362.821	329.19
363.203	326.47
363.584	326.47
363.966	353.14
364.348	318.79
364.729	319.02
365.111	324.44
365.493	320.82
365.874	314.95
366.256	323.08
366.637	301.84
367.019	303.42
367.4	316.76
367.781	312.24
368.163	314.05
368.544	325.12
368.925	312.69
369.306	323.54
369.688	314.27
370.069	328.06
370.45	315.18
370.831	307.94
371.212	304.78
371.593	332.8
371.974	322.63
372.355	318.79
372.736	309.75
373.117	319.02
373.498	319.92
373.879	314.05
374.26	306.14
374.641	314.27
375.021	319.69
375.402	319.92
375.783	333.25
376.163	321.05
376.544	313.14
376.925	342.07
377.305	345.46
377.686	323.76
378.066	316.53
378.447	347.72
378.827	333.93
379.208	322.41
379.588	319.92
379.968	350.88
380.349	331.22
380.729	312.46
381.109	331.9
381.489	314.27
381.87	344.78
382.25	361.5
382.63	344.78
383.01	353.82
383.39	345.23
383.77	333.03
384.15	344.1
384.53	360.82
384.91	347.72
385.29	335.29
385.67	356.76
386.049	338.45
386.429	344.33
386.809	359.92
387.189	330.77
387.568	360.37
387.948	361.95
388.328	362.86
388.707	339.81
389.087	371.9
389.466	357.66
389.846	358.79
390.225	352.46
390.605	370.09
390.984	362.86
391.363	374.83
391.743	374.38
392.122	368.96
392.501	384.1
392.881	350.65
393.26	366.47
393.639	355.63
394.018	377.09
394.397	370.99
394.776	372.57
395.155	381.16
395.534	383.87
395.913	387.72
396.292	396.76
396.671	384.33
397.05	384.1
397.429	383.42
397.808	401.73
398.186	381.61
398.565	381.61
398.944	388.62
399.323	405.57
399.701	410.77
400.08	395.4
400.458	375.96
400.837	403.08
401.215	415.29
401.594	408.96
401.972	400.14
402.351	408.96
402.729	413.7
403.107	396.76
403.486	411.9
403.864	394.5
404.242	400.82
404.62	417.09
404.999	424.55
405.377	394.72
405.755	429.3
406.133	398.56
406.511	431.1
406.889	424.1
407.267	411.9
407.645	436.3
408.023	427.04
408.401	427.71
408.779	434.72
409.156	438.56
409.534	420.94
409.912	451.67
410.29	463.19
410.667	444.44
411.045	451.44
411.422	446.02
411.8	473.59
412.178	450.09
412.555	484.66
412.933	439.69
413.31	461.39
413.687	461.84
414.065	471.1
414.442	478.56
414.819	456.41
415.197	470.88
415.574	479.92
415.951	468.17
416.328	475.85
416.705	493.7
417.082	501.16
417.46	512.91
417.837	499.13
418.214	497.09
418.591	497.54
418.967	515.4
419.344	530.54
419.721	520.37
420.098	532.34
420.475	509.52
420.852	507.49
421.228	543.87
421.605	547.49
421.982	517.43
422.358	533.25
422.735	538.45
423.111	566.47
423.488	553.59
423.864	539.8
424.241	528.05
424.617	569.18
424.994	553.14
425.37	576.86
425.746	553.36
426.123	555.17
426.499	570.99
426.875	579.58
427.251	593.13
427.627	574.15
428.003	571.21
428.379	590.65
428.756	582.96
429.132	606.02
429.507	616.41
429.883	607.6
430.259	611.21
430.635	604.21
431.011	627.94
431.387	631.78
431.763	635.17
432.138	628.84
432.514	644.66
432.89	629.97
433.265	677.88
433.641	641.49
434.016	682.17
434.392	667.48
434.767	676.3
435.143	676.75
435.518	685.34
435.894	704.77
436.269	702.28
436.644	705.45
437.02	681.04
437.395	717.42
437.77	718.78
438.145	742.06
438.52	739.34
438.895	732.34
439.271	738.22
439.646	748.84
440.021	748.38
440.395	745.45
440.77	740.25
441.145	767.82
441.52	744.77
441.895	766.69
442.27	747.48
442.645	779.34
443.019	769.85
443.394	759.01
443.769	775.95
444.143	811.89
444.518	808.04
444.892	798.55
445.267	804.43
445.641	813.47
446.016	803.98
446.39	806.91
446.764	825.22
447.139	806.46
447.513	804.43
447.887	815.95
448.262	811.66
448.636	844.88
449.01	856.63
449.384	865.67
449.758	852.34
450.132	864.54
450.506	846.23
450.88	875.39
451.254	890.98
451.628	871.77
452.002	884.43
452.376	903.63
452.75	910.19
453.123	911.32
453.497	912
453.871	923.07
454.244	950.64
454.618	942.28
454.992	956.97
455.365	953.12
455.739	971.2
456.112	965.78
456.486	978.43
456.859	1002.84
457.232	1037.87
457.606	1016.4
457.979	1010.07
458.352	1022.28
458.725	1049.17
459.099	1054.14
459.472	1077.87
459.845	1087.81
460.218	1077.19
460.591	1111.09
460.964	1104.76
461.337	1114.48
461.71	1129.84
462.083	1172.33
462.456	1146.79
462.829	1158.54
463.201	1176.17
463.574	1180.92
463.947	1191.08
464.32	1238.31
464.692	1232.67
465.065	1236.28
465.438	1289.84
465.81	1278.77
466.183	1257.52
466.555	1319.67
466.928	1347.24
467.3	1320.57
467.672	1350.18
468.045	1388.37
468.417	1380.01
468.789	1390.63
469.161	1403.73
469.534	1416.39
469.906	1487.35
470.278	1503.17
470.65	1515.82
471.022	1542.94
471.394	1579.1
471.766	1568.25
472.138	1641.69
472.51	1645.08
472.882	1658.19
473.253	1665.2
473.625	1705.42
473.997	1755.14
474.369	1771.86
474.74	1821.12
475.112	1831.29
475.484	1877.85
475.855	1885.53
476.227	1955.36
476.598	2006.2
476.97	2044.62
477.341	2078.29
477.713	2128.69
478.084	2145.64
478.455	2214.33
478.827	2265.41
479.198	2321.9
479.569	2331.39
479.94	2453.42
480.311	2431.96
480.682	2520.32
481.053	2585.4
481.424	2634.21
481.795	2709.01
482.166	2758.27
482.537	2813.64
482.908	2876.92
483.279	2944.94
483.65	2987.42
484.021	3104.03
484.391	3135.67
484.762	3189.22
485.133	3243.01
485.503	3354.19
485.874	3439.16
486.244	3473.74
486.615	3566.16
486.985	3669.89
487.356	3693.62
487.726	3798.02
488.097	3897.91
488.467	3930.22
488.837	4056.09
489.207	4130.22
489.578	4233.49
489.948	4298.12
490.318	4371.79
490.688	4442.98
491.058	4550.77
491.428	4598.45
491.798	4686.36
492.168	4782.63
492.538	4882.74
492.908	4937.2
493.278	5068.27
493.648	5049.74
494.017	5137.65
494.387	5186.23
494.757	5292.22
495.126	5404.99
495.496	5460.12
495.866	5519.11
496.235	5598.43
496.605	5675.71
496.974	5695.37
497.344	5833.22
497.713	5858.53
498.082	5941.02
498.452	6037.28
498.821	6081.13
499.19	6153.67
499.559	6197.28
499.928	6270.95
500.298	6323.6
500.667	6410.38
501.036	6457.39
501.405	6547.78
501.774	6537.16
502.143	6670.94
502.512	6651.28
502.88	6797.04
503.249	6771.73
503.618	6907.09
503.987	6936.92
504.356	6983.47
504.724	6997.49
505.093	7072.06
505.462	7106.64
505.83	7238.16
506.199	7206.52
506.567	7345.72
506.936	7330.36
507.304	7423.01
507.672	7422.79
508.041	7533.06
508.409	7618.94
508.777	7648.99
509.145	7720.86
509.514	7716.56
509.882	7797.24
510.25	7850.57
510.618	7918.14
510.986	7868.42
511.354	7997.69
511.722	8034.29
512.09	8154.74
512.458	8097.8
512.826	8171.69
513.193	8254.85
513.561	8243.78
513.929	8355.87
514.297	8379.37
514.664	8469.99
515.032	8442.87
515.4	8525.13
515.767	8618.01
516.135	8629.76
516.502	8504.56
516.869	8740.94
517.237	8790.21
517.604	8796.76
517.972	8830.66
518.339	8875.85
518.706	8911.56
519.073	8932.58
519.44	8992.69
519.808	9001.95
520.175	9003.53
520.542	9139.58
520.909	9159.69
521.276	9166.69
521.643	9316.97
522.009	9305.9
522.376	9413.02
522.743	9487.59
523.11	9478.1
523.477	9619.56
523.843	9578.43
524.21	9815.26
524.577	9789.05
524.943	9819.56
525.31	9867.47
525.676	9943.17
526.043	9962.15
526.409	10017.29
526.776	10107.91
527.142	10126.22
527.508	10222.49
527.874	10252.99
528.241	10360.11
528.607	10361.92
528.973	10395.36
529.339	10477.62
529.705	10526.21
530.071	10659.08
530.437	10629.93
530.803	10703.38
531.169	10740.21
531.535	10827.89
531.901	10812.98
532.267	10878.06
532.632	10943.14
532.998	10959.19
533.364	11037.38
533.73	11137.94
534.095	11186.08
534.461	11185.17
534.826	11247.54
535.192	11238.73
535.557	11431.27
535.923	11418.16
536.288	11339.29
536.653	11457.26
537.019	11479.63
537.384	11565.5
537.749	11623.58
538.114	11690.02
538.479	11705.61
538.845	11718.72
539.21	11750.13
539.575	11776.57
539.94	11889.33
540.305	11961.42
540.67	11923.91
541.034	12009.11
541.399	12071.02
541.764	12024.7
542.129	12133.17
542.494	12237.12
542.858	12265.82
543.223	12245.48
543.587	12269.44
543.952	12355.76
544.316	12454.29
544.681	12333.62
545.045	12506.04
545.41	12500.39
545.774	12551.69
546.138	12612.93
546.503	12685.47
546.867	12671.69
547.231	12843.66
547.595	12801.17
547.959	12885.47
548.324	12866.03
548.688	12984.67
549.052	12967.95
549.416	13080.26
549.779	13061.96
550.143	13132.24
550.507	13167.04
550.871	13230.77
551.235	13250.2
551.599	13368.62
551.962	13388.28
552.326	13379.24
552.689	13544.21
553.053	13425.11
553.417	13472.8
553.78	13600.48
554.143	13563.87
554.507	13697.65
554.87	13702.62
555.234	13815.61
555.597	13755.27
555.96	13862.84
556.323	13856.74
556.686	13837.53
557.05	14021.71
557.413	14095.6
557.776	14087.92
558.139	14222.38
558.502	14177.86
558.865	14221.48
559.228	14283.62
559.59	14279.1
559.953	14421.25
560.316	14475.48
560.679	14467.35
561.041	14563.16
561.404	14640.67
561.767	14631.86
562.129	14661.01
562.492	14788.69
562.854	14763.16
563.217	14787.56
563.579	14820.33
563.941	14875.47
564.304	14999.08
564.666	15031.62
565.028	15122.24
565.39	15129.48
565.753	15187.55
566.115	15321.79
566.477	15361.11
566.839	15319.3
567.201	15470.71
567.563	15469.13
567.925	15626.41
568.287	15560.2
568.648	15648.78
569.01	15774.2
569.372	15776.69
569.734	15783.24
570.095	15899.62
570.457	16026.63
570.819	16034.31
571.18	16095.1
571.542	16138.94
571.903	16150.01
572.265	16231.14
572.626	16336.67
572.987	16476.11
573.349	16505.26
573.71	16640.62
574.071	16691.02
574.432	16780.96
574.794	16941.4
575.155	16936.89
575.516	16890.56
575.877	17195.86
576.238	17268.4
576.599	17342.3
576.96	17425.23
577.32	17508.85
577.681	17702.06
578.042	17847.6
578.403	17907.93
578.763	18050.98
579.124	18217.76
579.485	18312.67
579.845	18522.61
580.206	18604.86
580.566	18742.04
580.927	18886.21
581.287	19087.79
581.648	19216.15
582.008	19441.68
582.368	19557.16
582.728	19779.75
583.089	19900.65
583.449	20044.6
583.809	20295.67
584.169	20526.4
584.529	20653.4
584.889	21085.48
585.249	21061.75
585.609	21318.46
585.969	21722.75
586.329	21751.45
586.688	22114.38
587.048	22186.69
587.408	22561.14
587.768	22723.4
588.127	22977.4
588.487	23151.19
588.846	23529.71
589.206	23785.07
589.565	23904.61
589.925	24263.47
590.284	24569.68
590.643	24632.73
591.003	25190.68
591.362	25391.8
591.721	25590.67
592.08	25887.16
592.44	26176.19
592.799	26356.75
593.158	26751.32
593.517	26919
593.876	27226.56
594.235	27504.06
594.593	27707.45
594.952	28040.32
595.311	28292.97
595.67	28516.69
596.029	28942.9
596.387	29104.7
596.746	29403.22
597.104	29570.45
597.463	29817.22
597.822	30168.18
598.18	30304.44
598.538	30596.86
598.897	31101.48
599.255	30975.61
599.613	31618.53
599.972	31576.73
600.33	32077.73
600.688	32097.84
601.046	32557.04
601.404	32792.74
601.762	32895.79
602.12	33153.86
602.478	33523.12
602.836	33658.25
603.194	33784.8
603.552	33942.09
603.91	34077.9
604.268	34523.09
604.625	34671.11
604.983	34892.57
605.341	35041.27
605.698	35269.06
606.056	35568.03
606.413	35630.4
606.771	35855.94
607.128	36189.03
607.485	36118.75
607.843	36262.93
608.2	36611.85
608.557	36915.57
608.914	36888.22
609.272	37132.29
609.629	37401.43
609.986	37664.93
610.343	37641.2
610.7	38108.08
611.057	38130.23
611.414	38266.27
611.771	38379.03
612.127	38581.51
612.484	38682.08
612.841	39050.65
613.198	39051.11
613.554	39139.47
613.911	39457.42
614.267	39623.29
614.624	39605.22
614.98	39736.06
615.337	40037.29
615.693	39991.65
616.05	40185.99
616.406	40545.98
616.762	40446.78
617.118	40545.76
617.475	40643.15
617.831	40781.68
618.187	40879.98
618.543	40979.64
618.899	41273.42
619.255	41294.44
619.611	41326.3
619.967	41507.99
620.323	41651.49
620.678	41622.11
621.034	41471.16
621.39	41742.79
621.746	41737.81
622.101	42227.29
622.457	41922.89
622.812	42087.41
623.168	42253.06
623.523	42292.38
623.879	42456.67
624.234	42389.78
624.589	42365.6
624.945	42546.38
625.3	42674.74
625.655	42684.23
626.01	42727.39
626.365	42796.09
626.72	42803.1
627.075	42790.44
627.43	42924.68
627.785	42914.73
628.14	42935.52
628.495	43062.75
628.85	43054.16
629.205	42898.91
629.559	43095.07
629.914	42966.71
630.269	43287.83
630.623	43163.09
630.978	42907.05
631.332	43137.78
631.687	43313.82
632.041	43103.43
632.396	43323.31
632.75	43112.92
633.104	43115.18
633.459	43047.61
633.813	43069.53
634.167	43113.82
634.521	43054.39
634.875	43136.42
635.229	43168.06
635.583	42911.57
635.937	43034.96
636.291	42981.85
636.645	43197.89
636.999	43066.59
637.352	43155.4
637.706	43070.89
638.06	43167.16
638.413	42982.3
638.767	42892.59
639.121	43147.5
639.474	42770.78
639.828	42928.52
640.181	42920.83
640.534	42941.63
640.888	42919.25
641.241	42662.99
641.594	42874.06
641.947	43008.29
642.301	42909.76
642.654	42724.91
643.007	42792.7
643.36	42876.77
643.713	42710.22
644.066	42998.35
644.419	42632.93
644.771	42396.33
645.124	42032.95
645.477	41911.37
645.83	41676.12
646.182	41546.63
646.535	41560.87
646.888	41623.24
647.24	41353.19
647.593	41527.88
647.945	41493.53
648.298	41332.4
648.65	41326.75
649.002	41276.58
649.355	41370.14
649.707	41412.85
650.059	41550.7
650.411	41872.5
650.763	41971.03
651.115	42284.24
651.467	42265.48
651.819	42250.8
652.171	42100.07
652.523	42140.74
652.875	42124.25
653.227	41965.83
653.578	42243.34
653.93	42279.72
654.282	41908.88
654.633	41942.56
654.985	41878.83
655.337	41935.78
655.688	41949.79
656.039	42071.82
656.391	41735.1
656.742	41714.76
657.094	41929.67
657.445	42034.53
657.796	41875.44
658.147	41840.64
658.498	41789.79
658.849	41833.18
659.2	41843.35
659.551	41650.59
659.902	41841.09
660.253	41727.87
660.604	41806.97
660.955	41661.88
661.306	41836.8
661.656	41720.19
662.007	41750.92
662.358	41830.69
662.708	41686.74
663.059	41658.5
663.409	41448.11
663.76	41769.9
664.11	41704.82
664.461	41726.97
664.811	41860.07
665.161	41737.14
665.511	41682.45
665.862	41724.71
666.212	41708.66
666.562	41622.34
666.912	41609.91
667.262	41632.06
667.612	41467.77
667.962	41605.16
668.312	41576.46
668.662	41604.71
669.011	41583.24
669.361	41444.94
669.711	41486.97
670.06	41531.49
670.41	41407.88
670.76	41414.89
671.109	41520.19
671.459	41417.37
671.808	41380.54
672.157	41496.47
672.507	41160.43
672.856	41300.09
673.205	41303.7
673.554	41432.06
673.904	41147.1
674.253	41418.73
674.602	41294.44
674.951	40784.39
675.3	40532.87
675.649	41216.47
675.998	41186.42
676.346	41200.88
676.695	41205.63
677.044	41077.49
677.393	41141.9
677.741	41244.04
678.09	41192.74
678.438	40938.97
678.787	41116.36
679.135	41044.5
679.484	40762.93
679.832	40884.73
680.181	40854.9
680.529	40857.84
680.877	40721.12
681.225	40762.47
681.573	41028.46
681.922	40587.34
682.27	40585.98
682.618	40534
682.966	40477.28
683.314	40558.41
683.661	40578.75
684.009	40265.31
684.357	40137.41
684.705	40150.96
685.053	40110.06
685.4	40085.43
685.748	39888.37
686.095	39914.13
686.443	39799.11
686.79	39741.94
687.138	39889.95
687.485	39752.1
687.832	39496.29
688.18	39514.14
688.527	39410.19
688.874	39444.77
689.221	39249.52
689.568	39175.17
689.915	39091.78
690.262	39202.29
690.609	39033.93
690.956	38941.05
691.303	38814.05
691.65	38607.95
691.997	38625.35
692.344	38439.14
692.69	38431.01
693.037	38438.01
693.383	38104.46
693.73	38474.4
694.077	38089.32
694.423	38019.95
694.769	37960.97
695.116	37946.73
695.462	37941.53
695.808	37695.66
696.155	37814.98
696.501	37444.59
696.847	37475.1
697.193	37244.37
697.539	37457.25
697.885	37207.09
698.231	36951.27
698.577	36927.32
698.923	37046.41
699.269	36770.49
699.614	36601.9
699.96	36577.05
700.306	36513.32
700.651	36389.48
700.997	36386.32
701.342	36215.7
701.688	36142.26
702.033	36053.9
702.379	36165.98
702.724	36001.69
703.069	36039.66
703.415	35766.45
703.76	35659.56
704.105	35619.78
704.45	35539.11
704.795	35338.66
705.14	35291.43
705.485	35246.23
705.83	35108.61
706.175	35125.33
706.52	35103.64
706.865	34928.5
707.209	34826.81
707.554	34855.96
707.899	34866.58
708.243	34692.58
708.588	34572.81
708.932	34404.45
709.277	34317.45
709.621	34363.77
709.966	34170.56
710.31	34165.58
710.654	33888.3
710.998	34030.45
711.342	34138.47
711.687	33872.71
712.031	33695.09
712.375	33801.3
712.719	33695.77
713.063	33615.09
713.407	33714.98
713.75	33532.16
714.094	33483.79
714.438	33331.93
714.782	33416.9
715.125	33181.66
715.469	33284.25
715.812	33171.26
716.156	32992.51
716.499	33016.91
716.843	32998.16
717.186	32834.32
717.53	32931.04
717.873	32892.4
718.216	32668.67
718.559	32592.74
718.902	32491.96
719.246	32506.65
719.589	32408.34
719.932	32375.8
720.275	32442.92
720.617	32250.15
720.96	32254.67
721.303	32137.16
721.646	32248.12
721.989	31999.99
722.331	32182.81
722.674	32121.57
723.016	32034.79
723.359	31947.56
723.701	31966.55
724.044	31739.21
724.386	31562.26
724.729	31642.71
725.071	31642.71
725.413	31724.07
725.755	31526.33
726.097	31291.31
726.439	31347.58
726.782	31295.38
727.124	31455.6
727.465	31295.6
727.807	31302.38
728.149	31191.2
728.491	31072.78
728.833	31258.77
729.175	31126.79
729.516	30981.71
729.858	30855.84
730.199	30849.97
730.541	30852.68
730.882	30865.56
731.224	30995.05
731.565	30678.67
731.906	30658.11
732.248	30738.56
732.589	30565.45
732.93	30526.81
733.271	30501.27
733.612	30476.87
733.953	30552.12
734.294	30391.67
734.635	30272.13
734.976	30325.69
735.317	30201.17
735.658	30189.64
735.999	30170.66
736.339	30039.37
736.68	30192.13
737.021	30021.74
737.361	29956.2
737.702	30149.65
738.042	29895.19
738.383	29892.02
738.723	29947.39
739.063	29836.21
739.404	29877.79
739.744	29751.92
740.084	29666.04
740.424	29751.46
740.764	29650.9
741.104	29709.66
741.444	29530.68
741.784	29492.94
742.124	29565.48
742.464	29389.67
742.804	29460.85
743.143	29268.76
743.483	29322.77
743.823	29232.83
744.162	29325.71
744.502	29195.09
744.841	29117.13
745.181	29135.21
745.52	28994.2
745.86	29157.81
746.199	29060.41
746.538	29027.41
746.877	28989
747.216	29002.1
747.556	28864.71
747.895	28877.81
748.234	28723.69
748.573	28696.12
748.911	28574.55
749.25	28692.96
749.589	28525.96
749.928	28566.18
750.267	28612.74
750.605	28501.33
750.944	28447.32
751.283	28239.64
751.621	28432.4
751.96	28147.44
752.298	28083.03
752.636	28269.92
752.975	28027.67
753.313	27951.96
753.651	28095.01
753.989	27939.99
754.327	27934.11
754.666	27876.94
755.004	27909.48
755.342	27893.66
755.679	27734.12
756.017	27529.83
756.355	27756.71
756.693	27529.38
757.031	27652.54
757.368	27422.49
757.706	27427.91
