Data from hue_26_FLMS001491_00028.txt Node
Date: Tue Feb 07 17:13:46 GMT 2017
User: dcchb
Spectrometer: FLMS00149
Trigger mode: 0
Integration Time (sec): 2.000000E-2
Scans to average: 10
Electric dark correction enabled: true
Nonlinearity correction enabled: false
Boxcar width: 0
XAxis mode: Wavelengths
Number of Pixels in Spectrum: 2048
>>>>>Begin Spectral Data<<<<<
341.393	-9.28
341.776	-9.28
342.16	-9.28
342.543	-75.72
342.927	-80.46
343.31	-75.49
343.693	-49.73
344.077	-66.23
344.46	-74.14
344.843	-39.56
345.226	-34.59
345.61	-21.93
345.993	-15.15
346.376	-14.93
346.759	-7.25
347.142	17.84
347.525	52.64
347.908	49.25
348.291	70.27
348.674	88.12
349.057	120.89
349.44	130.15
349.823	136.93
350.206	162.24
350.588	208.34
350.971	202.24
351.354	210.6
351.737	236.82
352.119	257.15
352.502	277.94
352.884	261
353.267	274.78
353.65	315.23
354.032	314.1
354.414	303.93
354.797	330.37
355.179	330.37
355.562	311.62
355.944	343.93
356.326	323.37
356.709	340.99
357.091	352.07
357.473	343.93
357.855	336.25
358.238	360.88
358.62	333.54
359.002	324.27
359.384	346.64
359.766	327.89
360.148	324.27
360.53	329.47
360.912	359.98
361.294	325.85
361.676	339.64
362.057	346.64
362.439	345.29
362.821	340.77
363.203	322.24
363.584	323.82
363.966	324.72
364.348	339.19
364.729	312.75
365.111	314.78
365.493	337.38
365.874	318.17
366.256	318.17
366.637	324.5
367.019	313.42
367.4	332.63
367.781	324.5
368.163	326.76
368.544	321.56
368.925	337.83
369.306	313.42
369.688	313.65
370.069	304.61
370.45	304.61
370.831	304.38
371.212	303.71
371.593	309.81
371.974	313.65
372.355	324.95
372.736	293.31
373.117	324.95
373.498	316.59
373.879	331.95
374.26	307.1
374.641	315.46
375.021	297.83
375.402	328.56
375.783	334.21
376.163	334.21
376.544	333.99
376.925	322.24
377.305	333.54
377.686	309.58
378.066	340.77
378.447	324.95
378.827	326.3
379.208	337.15
379.588	327.89
379.968	323.14
380.349	344.38
380.729	328.79
381.109	340.77
381.489	333.31
381.87	324.95
382.25	350.26
382.63	356.59
383.01	361.56
383.39	344.38
383.77	339.86
384.15	328.56
384.53	363.37
384.91	344.61
385.29	368.34
385.67	367.43
386.049	366.76
386.429	349.58
386.809	345.06
387.189	345.51
387.568	351.84
387.948	353.87
388.328	358.17
388.707	370.37
389.087	361.78
389.466	338.28
389.846	343.03
390.225	360.65
390.605	363.59
390.984	363.82
391.363	380.31
391.743	362.69
392.122	380.31
392.501	364.04
392.881	399.75
393.26	373.76
393.639	383.48
394.018	373.08
394.397	374.44
394.776	380.99
395.155	383.7
395.534	375.34
395.913	374.44
396.292	386.87
396.671	382.12
397.05	378.96
397.429	382.35
397.808	392.97
398.186	380.99
398.565	383.25
398.944	402.46
399.323	393.87
399.701	393.2
400.08	377.6
400.458	403.14
400.837	405.62
401.215	400.65
401.594	413.08
401.972	404.72
402.351	399.75
402.729	398.62
403.107	400.88
403.486	416.7
403.864	401.56
404.242	416.7
404.62	405.17
404.999	406.98
405.377	416.02
405.755	417.38
406.133	414.66
406.511	429.81
406.889	411.5
407.267	453.99
407.645	424.83
408.023	415.12
408.401	430.93
408.779	428.45
409.156	432.06
409.534	441.33
409.912	430.93
410.29	461.67
410.667	439.52
411.045	450.37
411.422	458.28
411.8	447.43
412.178	455.12
412.555	461.67
412.933	465.06
413.31	469.35
413.687	461.44
414.065	478.39
414.442	479.75
414.819	449.24
415.197	485.62
415.574	525.4
415.951	499.63
416.328	462.57
416.705	486.98
417.082	509.13
417.46	509.8
417.837	522.23
418.214	492.63
418.591	487.66
418.967	515.9
419.344	508.67
419.721	524.72
420.098	507.54
420.475	508.45
420.852	526.07
421.228	519.07
421.605	534.21
421.982	535.11
422.358	530.14
422.735	526.3
423.111	555.23
423.488	538.95
423.864	544.83
424.241	545.06
424.617	558.39
424.994	543.47
425.37	549.35
425.746	566.3
426.123	565.62
426.499	540.08
426.875	582.8
427.251	558.84
427.627	592.96
428.003	569.24
428.379	580.76
428.756	573.08
429.132	588.67
429.507	604.72
429.883	599.07
430.259	604.49
430.635	587.99
431.011	608.33
431.387	629.12
431.763	629.12
432.138	604.04
432.514	609.24
432.89	614.88
433.265	637.48
433.641	621.89
434.016	686.52
434.392	665.96
434.767	663.02
435.143	678.84
435.518	676.8
435.894	689.91
436.269	668.67
436.644	665.73
437.02	684.49
437.395	697.59
437.77	689.01
438.145	694.2
438.52	717.48
438.895	707.99
439.271	710.48
439.646	709.12
440.021	744.6
440.395	736.69
440.77	728.78
441.145	725.84
441.52	759.06
441.895	749.12
442.27	744.83
442.645	750.93
443.019	753.19
443.394	758.61
443.769	765.84
444.143	754.77
444.518	764.71
444.892	742.11
445.267	765.84
445.641	787.54
446.016	787.31
446.39	804.48
446.764	787.99
447.139	764.03
447.513	805.16
447.887	787.76
448.262	790.7
448.636	800.19
449.01	792.73
449.384	828.89
449.758	835.67
450.132	840.42
450.506	835.44
450.88	842.22
451.254	850.36
451.628	857.36
452.002	865.27
452.376	897.14
452.75	860.53
453.123	863.69
453.497	904.82
453.871	887.65
454.244	917.7
454.618	903.92
454.992	910.02
455.365	923.8
455.739	909.34
456.112	931.49
456.486	953.41
456.859	976.91
457.232	977.36
457.606	983.91
457.979	966.74
458.352	1003.35
458.725	987.98
459.099	1004.25
459.472	1003.58
459.845	1034.53
460.218	1049.22
460.591	1064.36
460.964	1029.79
461.337	1097.81
461.71	1071.37
462.083	1098.49
462.456	1119.05
462.829	1097.13
463.201	1123.12
463.574	1142.55
463.947	1153.63
464.32	1174.64
464.692	1155.21
465.065	1169.67
465.438	1176.45
465.81	1237.02
466.183	1251.03
466.555	1245.15
466.928	1248.54
467.3	1249.44
467.672	1289.44
468.045	1277.01
468.417	1312.49
468.789	1327.41
469.161	1339.16
469.534	1354.53
469.906	1372.61
470.278	1391.36
470.65	1380.97
471.022	1417.58
471.394	1449.44
471.766	1479.49
472.138	1472.72
472.51	1528.31
472.882	1529.66
473.253	1563.33
473.625	1575.76
473.997	1615.08
474.369	1641.3
474.74	1653.95
475.112	1684.46
475.484	1728.3
475.855	1778.24
476.227	1771.46
476.598	1806.94
476.97	1848.75
477.341	1822.76
477.713	1905.25
478.084	1929.65
478.455	1975.53
478.827	1999.03
479.198	2103.43
479.569	2071.8
479.94	2119.93
480.311	2167.39
480.682	2173.49
481.053	2260.94
481.424	2289.19
481.795	2344.11
482.166	2376.19
482.537	2402.18
482.908	2457.55
483.279	2457.32
483.65	2543.2
484.021	2580.93
484.391	2618.22
484.762	2653.25
485.133	2720.14
485.503	2745.22
485.874	2836.52
486.244	2862.96
486.615	2940.7
486.985	2927.82
487.356	2959.46
487.726	3041.49
488.097	3108.15
488.467	3150.19
488.837	3221.82
489.207	3249.84
489.578	3266.79
489.948	3331.42
490.318	3406.22
490.688	3438.31
491.058	3463.62
491.428	3547.92
491.798	3574.81
492.168	3659.32
492.538	3659.32
492.908	3754.46
493.278	3789.94
493.648	3798.53
494.017	3838.08
494.387	3863.61
494.757	3925.76
495.126	3986.55
495.496	4044.63
495.866	3997.39
496.235	4110.39
496.605	4147
496.974	4139.76
497.344	4181.57
497.713	4247.78
498.082	4219.99
498.452	4301.57
498.821	4327.1
499.19	4361
499.559	4400.77
499.928	4469.25
500.298	4480.09
500.667	4560.77
501.036	4502.92
501.405	4610.71
501.774	4572.3
502.143	4593.09
502.512	4650.03
502.88	4671.5
503.249	4711.73
503.618	4771.84
503.987	4756.92
504.356	4805.51
504.724	4852.74
505.093	4843.02
505.462	4859.52
505.83	4871.5
506.199	4906.98
506.567	4968.44
506.936	4965.28
507.304	5034.66
507.672	5036.24
508.041	5029.91
508.409	5133.86
508.777	5171.15
509.145	5207.53
509.514	5168.89
509.882	5231.03
510.25	5226.52
510.618	5260.19
510.986	5258.6
511.354	5287.53
511.722	5311.94
512.09	5352.39
512.458	5351.71
512.826	5408.43
513.193	5443.01
513.561	5427.19
513.929	5450.24
514.297	5529.78
514.664	5524.59
515.032	5543.34
515.4	5574.53
515.767	5630.35
516.135	5645.71
516.502	5605.26
516.869	5708.31
517.237	5712.6
517.604	5676.67
517.972	5738.14
518.339	5785.82
518.706	5722.55
519.073	5817.91
519.44	5779.49
519.808	5840.28
520.175	5840.28
520.542	5914.18
520.909	5932.94
521.276	5955.54
521.643	6026.72
522.009	6023.78
522.376	6005.93
522.743	6098.81
523.11	6147.85
523.477	6136.1
523.843	6193.5
524.21	6267.84
524.577	6319.59
524.943	6301.74
525.31	6335.86
525.676	6438.46
526.043	6426.26
526.409	6412.7
526.776	6468.06
527.142	6503.77
527.508	6544.67
527.874	6539.02
528.241	6610.43
528.607	6589.42
528.973	6672.13
529.339	6673.93
529.705	6762.97
530.071	6776.98
530.437	6845.46
530.803	6863.53
531.169	6815.17
531.535	6910.31
531.901	6896.08
532.267	6917.77
532.632	6983.53
532.998	6990.99
533.364	7066.92
533.73	7041.38
534.095	7160.02
534.461	7173.36
534.826	7205.67
535.192	7201.6
535.557	7218.1
535.923	7250.19
536.288	7274.6
536.653	7267.37
537.019	7227.82
537.384	7362.5
537.749	7394.82
538.114	7404.76
538.479	7431.2
538.845	7457.42
539.21	7420.81
539.575	7418.1
539.94	7525.89
540.305	7586
540.67	7555.27
541.034	7625.77
541.399	7622.61
541.764	7698.99
542.129	7721.14
542.494	7753.91
542.858	7780.12
543.223	7814.24
543.587	7814.7
543.952	7875.03
544.316	7868.25
544.681	7895.6
545.045	7985.31
545.41	8003.39
545.774	8076.38
546.138	8050.85
546.503	8066.44
546.867	8059.43
547.231	8114.12
547.595	8109.83
547.959	8258.75
548.324	8220.33
548.688	8326.09
549.052	8279.77
549.416	8257.62
549.779	8324.96
550.143	8360.22
550.507	8447.22
550.871	8468.01
551.235	8424.85
551.599	8543.49
551.962	8492.19
552.326	8517.28
552.689	8607.44
553.053	8537.84
553.417	8555.02
553.78	8707.78
554.143	8636.37
554.507	8665.97
554.87	8715.24
555.234	8745.29
555.597	8742.13
555.96	8795.46
556.323	8779.19
556.686	8779.42
557.05	8855.8
557.413	8886.53
557.776	8922.24
558.139	8994.78
558.502	9018.05
558.865	9000.43
559.228	9101.44
559.59	9108.22
559.953	9052.4
560.316	9122.01
560.679	9196.58
561.041	9214.43
561.404	9291.94
561.767	9304.83
562.129	9272.74
562.492	9423.92
562.854	9367.88
563.217	9448.55
563.579	9435.67
563.941	9428.44
564.304	9500.53
564.666	9527.87
565.028	9511.15
565.39	9626.4
565.753	9691.71
566.115	9661.2
566.477	9731.48
566.839	9707.53
567.201	9768.99
567.563	9824.36
567.925	9874.3
568.287	9904.81
568.648	9870.01
569.01	9985.26
569.372	10018.03
569.734	9983.45
570.095	10070
570.457	10119.27
570.819	10157.01
571.18	10251.69
571.542	10247.17
571.903	10376.44
572.265	10298.7
572.626	10409.88
572.987	10397.23
573.349	10458.02
573.71	10561.06
574.071	10659.37
574.432	10657.78
574.794	10794.5
575.155	10775.75
575.516	10786.59
575.877	10914.28
576.238	10937.1
576.599	11024.55
576.96	11152.24
577.32	11148.17
577.681	11299.8
578.042	11423.41
578.403	11437.2
578.763	11577.31
579.124	11657.31
579.485	11794.25
579.845	11937.3
580.206	11906.34
580.566	12065.88
580.927	12126.9
581.287	12396.04
581.648	12417.74
582.008	12628.58
582.368	12669.26
582.728	12876.94
583.089	12980.89
583.449	13206.19
583.809	13350.82
584.169	13523.47
584.529	13730.25
584.889	13884.37
585.249	14054.08
585.609	14238.93
585.969	14421.98
586.329	14596.66
586.688	14946.26
587.048	15003.89
587.408	15317.78
587.768	15533.59
588.127	15777.42
588.487	15918.89
588.846	16174.02
589.206	16460.12
589.565	16648.14
589.925	17029.37
590.284	17217.16
590.643	17480.88
591.003	17855.34
591.362	18143.46
591.721	18299.62
592.08	18568.09
592.44	18898.92
592.799	19228.41
593.158	19471.34
593.517	19655.06
593.876	20077.2
594.235	20359.68
594.593	20589.05
594.952	20915.14
595.311	21114.01
595.67	21437.61
596.029	21843.48
596.387	22250.93
596.746	22540.64
597.104	22560.3
597.463	22997.8
597.822	23409.09
598.18	23631.23
598.538	23929.3
598.897	24239.35
599.255	24374.94
599.613	25006.33
599.972	25114.13
600.33	25513.44
600.688	25594.57
601.046	25961.79
601.404	26342.57
601.762	26560.42
602.12	26957.92
602.478	27165.83
602.836	27618.92
603.194	27645.59
603.552	28000.61
603.91	28102.98
604.268	28519.46
604.625	28800.13
604.983	29131.65
605.341	29137.75
605.698	29651.64
606.056	30054.34
606.413	30158.97
606.771	30362.8
607.128	30590.82
607.485	30742.45
607.843	31043.69
608.2	31419.05
608.557	31752.82
608.914	31868.98
609.272	32058.35
609.629	32403.88
609.986	32629.41
610.343	32769.75
610.7	33211.99
611.057	33177.87
611.414	33369.28
611.771	33683.39
612.127	33981.01
612.484	34080.67
612.841	34527.21
613.198	34427.78
613.554	34768.11
613.911	34970.37
614.267	35174.2
614.624	35260.98
614.98	35515.21
615.337	35801.3
615.693	35735.09
616.05	35884.69
616.406	36227.28
616.762	36231.12
617.118	36400.38
617.475	36520.16
617.831	36861.39
618.187	36919.92
618.543	37098.9
618.899	37315.16
619.255	37387.48
619.611	37549.96
619.967	37721.25
620.323	37927.35
620.678	37849.61
621.034	37936.62
621.39	38067.46
621.746	37989.5
622.101	38645.3
622.457	38483.95
622.812	38568.46
623.168	38849.59
623.523	38819.53
623.879	38980.2
624.234	38937.27
624.589	39070.15
624.945	39240.31
625.3	39289.12
625.655	39316.01
626.01	39337.26
626.365	39473.75
626.72	39503.81
627.075	39584.93
627.43	39680.52
627.785	39645.05
628.14	39943.79
628.495	39966.17
628.85	40058.59
629.205	39873.06
629.559	40057.24
629.914	39906.51
630.269	39978.6
630.623	40065.6
630.978	39958.03
631.332	40145.37
631.687	40276.21
632.041	40104.47
632.396	40289.1
632.75	40113.73
633.104	40398.92
633.459	40082.77
633.813	40201.87
634.167	40278.7
634.521	40268.31
634.875	40341.75
635.229	40404.35
635.583	40264.69
635.937	40265.37
636.291	40337.23
636.645	40225.59
636.999	40324.35
637.352	40439.15
637.706	40294.97
638.06	40399.83
638.413	40284.58
638.767	40152.83
639.121	40336.78
639.474	40235.54
639.828	40329.09
640.181	40245.93
640.534	40418.36
640.888	40028.31
641.241	40064.47
641.594	40067.41
641.947	40121.19
642.301	40158.93
642.654	40268.76
643.007	40280.73
643.36	40111.25
643.713	40039.39
644.066	40238.93
644.419	40068.08
644.771	39823.57
645.124	39478.27
645.477	39288.9
645.83	39126.87
646.182	39177.94
646.535	38988.34
646.888	39201.67
647.24	38872.18
647.593	39066.76
647.945	39073.99
648.298	38902.47
648.65	38855.01
649.002	38756.03
649.355	38858.17
649.707	38821.11
650.059	39088
650.411	39461.55
650.763	39514.2
651.115	39977.69
651.467	39917.13
651.819	39859.28
652.171	39823.57
652.523	39711.48
652.875	39648.89
653.227	39552.17
653.578	39826.74
653.93	39689.34
654.282	39567.99
654.633	39527.53
654.985	39612.5
655.337	39660.86
655.688	39623.8
656.039	39692.28
656.391	39393.75
656.742	39584.03
657.094	39477.59
657.445	39635.78
657.796	39460.64
658.147	39525.05
658.498	39555.56
658.849	39459.74
659.2	39433.75
659.551	39311.95
659.902	39435.56
660.253	39460.87
660.604	39390.59
660.955	39317.82
661.306	39445.95
661.656	39462.9
662.007	39478.5
662.358	39337.48
662.708	39384.49
663.059	39379.74
663.409	39346.97
663.76	39439.4
664.11	39469.91
664.461	39445.05
664.811	39312.62
665.161	39486.86
665.511	39330.7
665.862	39295.9
666.212	39488.67
666.562	39386.75
666.912	39419.29
667.262	39389.46
667.612	39359.85
667.962	39357.82
668.312	39329.35
668.662	39551.04
669.011	39300.87
669.361	39208.22
669.711	39240.54
670.06	39107.88
670.41	39120.31
670.76	39212.97
671.109	39192.85
671.459	38954.44
671.808	39097.26
672.157	39161.67
672.507	38993.76
672.856	38942.69
673.205	38989.47
673.554	39081.22
673.904	39062.69
674.253	39171.61
674.602	39162.57
674.951	38502.93
675.3	38230.39
675.649	38952.41
675.998	38979.98
676.346	38885.52
676.695	38994.89
677.044	38797.38
677.393	38872.41
677.741	38898.17
678.09	38721.68
678.438	38638.74
678.787	38806.42
679.135	38880.55
679.484	38537.05
679.832	38730.49
680.181	38370.73
680.529	38530.27
680.877	38452.53
681.225	38453.66
681.573	38676.48
681.922	38353.1
682.27	38319.2
682.618	38366.43
682.966	38244.86
683.314	38349.03
683.661	38103.39
684.009	37954.24
684.357	38045.77
684.705	37835.15
685.053	37905.2
685.4	37918.31
685.748	37796.51
686.095	37748.37
686.443	37605.55
686.79	37584.99
687.138	37562.16
687.485	37695.94
687.832	37433.35
688.18	37455.95
688.527	37246.24
688.874	37287.59
689.221	37204.43
689.568	37150.87
689.915	36984.78
690.262	36916.3
690.609	36934.61
690.956	36820.03
691.303	36771.22
691.65	36636.54
691.997	36691.22
692.344	36355.64
692.69	36370.1
693.037	36374.85
693.383	36055.08
693.73	36327.84
694.077	35976.22
694.423	35932.37
694.769	35880.85
695.116	35745.71
695.462	35841.76
695.808	35719.5
696.155	35716.79
696.501	35396.57
696.847	35374.42
697.193	35264.82
697.539	35317.7
697.885	35066.18
698.231	34942.34
698.577	35036.8
698.923	34994.55
699.269	34788.22
699.614	34641.56
699.96	34604.27
700.306	34588
700.651	34461.23
700.997	34409.25
701.342	34285.19
701.688	34248.8
702.033	34195.24
702.379	34182.36
702.724	33952.77
703.069	34013.1
703.415	33771.98
703.76	33826.67
704.105	33603.4
704.45	33713.45
704.795	33488.6
705.14	33355.49
705.485	33288.38
705.83	33240.24
706.175	33391.65
706.52	33207.25
706.865	33065.56
707.209	33024.65
707.554	32890.42
707.899	32906.92
708.243	32695.85
708.588	32726.81
708.932	32527.27
709.277	32547.15
709.621	32532.01
709.966	32289.76
710.31	32286.37
710.654	32074.4
710.998	32084.79
711.342	32139.03
711.687	32083.21
712.031	32033.04
712.375	31838.02
712.719	31886.15
713.063	31771.81
713.407	31867.17
713.75	31718.25
714.094	31698.14
714.438	31574.75
714.782	31568.65
715.125	31523.9
715.469	31562.32
715.812	31379.95
716.156	31081.88
716.499	31265.83
716.843	31316.45
717.186	30996.91
717.53	31168.88
717.873	31162.78
718.216	30968.21
718.559	30935.67
718.902	30777.71
719.246	30754.88
719.589	30678.95
719.932	30504.72
720.275	30657.03
720.617	30527.32
720.96	30521.67
721.303	30417.27
721.646	30452.74
721.989	30290.04
722.331	30427.89
722.674	30267.21
723.016	30241
723.359	30227.44
723.701	30268.34
724.044	30055.92
724.386	30052.53
724.729	30097.5
725.071	29979.76
725.413	29965.98
725.755	29951.74
726.097	29764.85
726.439	29542.03
726.782	29752.65
727.124	29766.66
727.465	29586.78
727.807	29568.93
728.149	29390.85
728.491	29507.01
728.833	29410.29
729.175	29398.76
729.516	29308.14
729.858	29252.55
730.199	29355.6
730.541	29186.11
730.882	29186.11
731.224	29306.79
731.565	29055.49
731.906	28995.61
732.248	29184.08
732.589	28867.02
732.93	28808.72
733.271	28866.12
733.612	28837.19
733.953	28950.86
734.294	28792.45
734.635	28625.9
734.976	28681.49
735.317	28550.2
735.658	28541.16
735.999	28548.39
736.339	28596.07
736.68	28523.53
737.021	28472.23
737.361	28265.23
737.702	28477.88
738.042	28447.83
738.383	28381.84
738.723	28405.34
739.063	28269.3
739.404	28369.41
739.744	28182.3
740.084	28224.1
740.424	28203.54
740.764	28070.66
741.104	28247.15
741.444	28029.53
741.784	27906.37
742.124	27957.67
742.464	27929.87
742.804	27762.19
743.143	27842.87
743.483	27842.87
743.823	27659.37
744.162	27692.14
744.502	27780.05
744.841	27597.23
745.181	27704.34
745.52	27651.01
745.86	27592.25
746.199	27529.21
746.538	27426.38
746.877	27412.15
747.216	27498.47
747.556	27449.43
747.895	27448.53
748.234	27276.33
748.573	27247.86
748.911	27142.55
749.25	27174.86
749.589	27025.72
749.928	27190.23
750.267	27168.31
750.605	26987.52
750.944	26900.97
751.283	26920.86
751.621	26976.9
751.96	26785.95
752.298	26836.34
752.636	26835.21
752.975	26683.58
753.313	26554.09
753.651	26663.69
753.989	26571.26
754.327	26591.38
754.666	26303.7
755.004	26429.8
755.342	26439.06
755.679	26364.94
756.017	26136.47
756.355	26391.83
756.693	26151.61
757.031	26206.3
757.368	26068
757.706	26007.44
758.044	25896.25
758.381	25905.07
758.719	25869.14
759.056	25845.18
759.394	25689.71
759.731	25648.35
760.068	25580.33
