Data from hue_80_FLMS001491_31.txt Node
Date: Mon Feb 06 15:22:54 GMT 2017
User: dcchb
Spectrometer: FLMS00149
Trigger mode: 0
Integration Time (sec): 2.000000E-2
Scans to average: 10
Electric dark correction enabled: true
Nonlinearity correction enabled: false
Boxcar width: 0
XAxis mode: Wavelengths
Number of Pixels in Spectrum: 2048
>>>>>Begin Spectral Data<<<<<
341.393	-30.06
341.776	-30.06
342.16	-30.06
342.543	-63.95
342.927	-76.83
343.31	-80.45
343.693	-76.38
344.077	-61.92
344.46	-62.6
344.843	-59.21
345.226	-52.43
345.61	-30.06
345.993	-9.04
346.376	-14.91
346.759	15.14
347.142	22.37
347.525	51.07
347.908	68.02
348.291	68.25
348.674	115.93
349.057	106.21
349.44	126.78
349.823	152.99
350.206	182.59
350.588	201.35
350.971	196.83
351.354	207.68
351.737	228.69
352.119	254
352.502	247
352.884	251.74
353.267	260.56
353.65	300.33
354.032	278.64
354.414	310.73
354.797	303.04
355.179	329.71
355.562	324.06
355.944	328.8
356.326	334.23
356.709	329.93
357.091	344.4
357.473	345.75
357.855	338.52
358.238	331.52
358.62	315.7
359.002	335.58
359.384	351.4
359.766	338.07
360.148	338.97
360.53	314.12
360.912	329.26
361.294	331.97
361.676	334.45
362.057	335.13
362.439	327.68
362.821	345.53
363.203	320.22
363.584	333.32
363.966	304.17
364.348	339.2
364.729	307.56
365.111	315.7
365.493	313.66
365.874	311.86
366.256	314.79
366.637	321.35
367.019	308.69
367.4	305.53
367.781	327.45
368.163	311.86
368.544	279.77
368.925	311.4
369.306	311.86
369.688	335.81
370.069	309.82
370.45	301.69
370.831	314.12
371.212	292.87
371.593	291.29
371.974	316.38
372.355	300.11
372.736	322.48
373.117	316.6
373.498	324.96
373.879	294.68
374.26	293.33
374.641	308.01
375.021	333.32
375.402	319.77
375.783	304.62
376.163	318.64
376.544	321.57
376.925	321.12
377.305	324.06
377.686	317.96
378.066	311.63
378.447	315.92
378.827	315.02
379.208	305.3
379.588	326.77
379.968	313.89
380.349	326.55
380.729	328.8
381.109	323.38
381.489	329.93
381.87	317.05
382.25	328.58
382.63	353.44
383.01	335.36
383.39	330.39
383.77	351.18
384.15	338.07
384.53	347.11
384.91	348.69
385.29	351.18
385.67	338.75
386.049	348.69
386.429	314.34
386.809	347.34
387.189	344.4
387.568	341.91
387.948	359.54
388.328	347.11
388.707	364.51
389.087	365.64
389.466	364.96
389.846	354.79
390.225	360.89
390.605	342.59
390.984	370.84
391.363	351.63
391.743	378.97
392.122	360.89
392.501	368.13
392.881	365.41
393.26	366.09
393.639	364.96
394.018	369.26
394.397	365.41
394.776	357.96
395.155	359.09
395.534	378.3
395.913	358.63
396.292	382.14
396.671	382.14
397.05	381.68
397.429	383.72
397.808	376.04
398.186	363.83
398.565	399.99
398.944	379.2
399.323	382.36
399.701	381.46
400.08	377.84
400.458	374.45
400.837	389.14
401.215	397.96
401.594	386.43
401.972	405.19
402.351	397.28
402.729	396.83
403.107	392.31
403.486	389.59
403.864	409.48
404.242	389.14
404.62	402.48
404.999	413.55
405.377	396.15
405.755	394.57
406.133	428.46
406.511	433.89
406.889	406.54
407.267	431.85
407.645	406.99
408.023	423.27
408.401	428.24
408.779	420.78
409.156	425.07
409.534	433.43
409.912	431.18
410.29	443.83
410.667	445.64
411.045	460.78
411.422	424.4
411.8	447.67
412.178	440.89
412.555	458.97
412.933	450.16
413.31	449.03
413.687	448.8
414.065	475.92
414.442	435.92
414.819	455.58
415.197	472.76
415.574	461.46
415.951	471.4
416.328	464.85
416.705	497.84
417.082	489.93
417.46	459.42
417.837	485.86
418.214	477.05
418.591	495.35
418.967	480.21
419.344	493.09
419.721	492.87
420.098	507.56
420.475	517.27
420.852	494.45
421.228	513.43
421.605	514.56
421.982	535.13
422.358	522.25
422.735	531.74
423.111	535.81
423.488	515.47
423.864	522.02
424.241	533.55
424.617	552.3
424.994	533.32
425.37	542.13
425.746	557.05
426.123	551.85
426.499	531.06
426.875	540.1
427.251	532.42
427.627	568.57
428.003	581.23
428.379	590.27
428.756	583.94
429.132	597.05
429.507	598.63
429.883	585.52
430.259	591.4
430.635	599.76
431.011	594.11
431.387	604.28
431.763	604.96
432.138	638.63
432.514	624.39
432.89	647.21
433.265	633.43
433.641	655.58
434.016	643.15
434.392	664.16
434.767	671.62
435.143	660.32
435.518	686.76
435.894	664.16
436.269	676.37
436.644	679.98
437.02	680.89
437.395	670.94
437.77	675.24
438.145	692.41
438.52	707.33
438.895	740.32
439.271	716.14
439.646	731.73
440.021	738.06
440.395	720.89
440.77	728.12
441.145	718.17
441.52	741.22
441.895	750.49
442.27	729.7
442.645	756.82
443.019	785.97
443.394	754.1
443.769	755.46
444.143	746.2
444.518	777.83
444.892	759.98
445.267	796.14
445.641	788.45
446.016	786.42
446.39	783.26
446.764	791.39
447.139	790.71
447.513	805.4
447.887	809.7
448.262	828.68
448.636	790.04
449.01	827.77
449.384	831.39
449.758	842.69
450.132	860.54
450.506	831.16
450.88	821.67
451.254	882.24
451.628	865.29
452.002	872.97
452.376	860.77
452.75	888.56
453.123	894.21
453.497	903.93
453.871	905.29
454.244	925.63
454.618	913.42
454.992	939.64
455.365	941.9
455.739	953.42
456.112	964.95
456.486	981.9
456.859	969.24
457.232	970.6
457.606	992.74
457.979	1012.4
458.352	1038.62
458.725	1018.73
459.099	1050.82
459.472	1031.16
459.845	1055.79
460.218	1091.5
460.591	1095.56
460.964	1089.69
461.337	1089.91
461.71	1100.99
462.083	1165.85
462.456	1146.18
462.829	1177.6
463.201	1171.27
463.574	1170.82
463.947	1193.64
464.32	1238.16
464.692	1224.83
465.065	1235
465.438	1234.77
465.81	1293.75
466.183	1311.15
466.555	1311.6
466.928	1338.27
467.3	1356.57
467.672	1372.62
468.045	1374.2
468.417	1413.97
468.789	1414.2
469.161	1434.31
469.534	1477.48
469.906	1509.34
470.278	1524.48
470.65	1562.9
471.022	1576.46
471.394	1636.34
471.766	1628.88
472.138	1658.26
472.51	1707.75
472.882	1707.07
473.253	1732.38
473.625	1796.11
473.997	1858.93
474.369	1905.49
474.74	1907.97
475.112	1933.51
475.484	2007.63
475.855	2039.95
476.227	2072.71
476.598	2127.63
476.97	2173.28
477.341	2237.46
477.713	2270.22
478.084	2327.62
478.455	2402.2
478.827	2476.09
479.198	2547.28
479.569	2587.95
479.94	2621.17
480.311	2725.58
480.682	2806.93
481.053	2901.84
481.424	3003.99
481.795	3045.8
482.166	3134.61
482.537	3169.86
482.908	3312
483.279	3379.12
483.65	3491.21
484.021	3570.3
484.391	3655.27
484.762	3737.3
485.133	3892.55
485.503	3916.73
485.874	4068.59
486.244	4158.53
486.615	4238.08
486.985	4396.27
487.356	4509.94
487.726	4625.64
488.097	4724.17
488.467	4840.55
488.837	4997.83
489.207	5105.18
489.578	5238.96
489.948	5365.28
490.318	5458.61
490.688	5531.38
491.058	5677.36
491.428	5896.12
491.798	5942.22
492.168	6149.44
492.538	6221.98
492.908	6357.35
493.278	6517.12
493.648	6619.49
494.017	6767.51
494.387	6940.38
494.757	6985.35
495.126	7096.54
495.496	7219.25
495.866	7388.73
496.235	7520.71
496.605	7625.56
496.974	7732.68
497.344	7942.16
497.713	8033.69
498.082	8140.58
498.452	8294.25
498.821	8322.27
499.19	8449.95
499.559	8560.45
499.928	8756.61
500.298	8844.06
500.667	9008.35
501.036	8964.74
501.405	9169.48
501.774	9225.97
502.143	9365.18
502.512	9417.61
502.88	9585.74
503.249	9672.74
503.618	9747.31
503.987	9818.5
504.356	9959.06
504.724	10093.07
505.093	10156.8
505.462	10251.48
505.83	10361.08
506.199	10474.3
506.567	10559.5
506.936	10573.73
507.304	10721.98
507.672	10770.56
508.041	10905.25
508.409	10992.48
508.777	11128.97
509.145	11241.74
509.514	11235.64
509.882	11373.26
510.25	11405.58
510.618	11548.4
510.986	11603.08
511.354	11765.57
511.722	11831.55
512.09	11977.31
512.458	11866.35
512.826	12021.15
513.193	12068.38
513.561	12095.28
513.929	12261.6
514.297	12355.83
514.664	12335.95
515.032	12433.12
515.4	12584.75
515.767	12535.94
516.135	12681.7
516.502	12653.23
516.869	12802.15
517.237	12857.97
517.604	12888.47
517.972	12932.09
518.339	13122.82
518.706	13066.1
519.073	13065.42
519.44	13163.5
519.808	13279.2
520.175	13350.84
520.542	13437.16
520.909	13506.99
521.276	13491.62
521.643	13643.03
522.009	13661.34
522.376	13752.63
522.743	13786.3
523.11	13955.34
523.477	14027.65
523.843	14056.58
524.21	14184.71
524.577	14230.59
524.943	14283.69
525.31	14303.13
525.676	14493.63
526.043	14461.09
526.409	14588.77
526.776	14644.36
527.142	14566.17
527.508	14591.03
527.874	14796.9
528.241	14789.22
528.607	14764.36
528.973	14889.78
529.339	14904.01
529.705	14934.3
530.071	14970.91
530.437	15005.71
530.803	15101.3
531.169	15206.83
531.535	15099.72
531.901	15122.54
532.267	15171.58
532.632	15294.74
532.998	15218.13
533.364	15283.89
533.73	15304.23
534.095	15365.47
534.461	15368.86
534.826	15452.25
535.192	15415.64
535.557	15447.96
535.923	15356.43
536.288	15376.32
536.653	15530.44
537.019	15413.83
537.384	15369.77
537.749	15462.87
538.114	15525.92
538.479	15387.84
538.845	15548.07
539.21	15352.14
539.575	15593.04
539.94	15467.39
540.305	15555.07
540.67	15512.81
541.034	15517.33
541.399	15530.89
541.764	15530.67
542.129	15610.21
542.494	15483.21
542.858	15520.95
543.223	15400.05
543.587	15522.53
543.952	15498.58
544.316	15485.92
544.681	15421.97
545.045	15499.93
545.41	15472.14
545.774	15476.66
546.138	15423.55
546.503	15440.27
546.867	15393.04
547.231	15502.42
547.595	15479.59
547.959	15455.41
548.324	15456.09
548.688	15449.09
549.052	15500.61
549.416	15448.63
549.779	15411.57
550.143	15490.21
550.507	15509.65
550.871	15511.46
551.235	15475.07
551.599	15503.1
551.962	15483.43
552.326	15518.46
552.689	15573.38
553.053	15460.16
553.417	15425.58
553.78	15627.84
554.143	15461.97
554.507	15524.11
554.87	15503.55
555.234	15617.22
555.597	15474.62
555.96	15432.59
556.323	15572.47
556.686	15550.33
557.05	15636.88
557.413	15535.41
557.776	15574.05
558.139	15659.02
558.502	15607.95
558.865	15655.86
559.228	15717.55
559.59	15689.53
559.953	15763.88
560.316	15828.96
560.679	15713.94
561.041	15846.36
561.404	15873.03
561.767	15933.14
562.129	15748.51
562.492	15936.98
562.854	15932.46
563.217	15944.44
563.579	15924.1
563.941	16098.33
564.304	16047.71
564.666	16190.76
565.028	16205.9
565.39	16140.37
565.753	16208.39
566.115	16232.57
566.477	16296.52
566.839	16305.79
567.201	16362.96
567.563	16253.58
567.925	16441.83
568.287	16383.75
568.648	16409.74
569.01	16555.95
569.372	16497.19
569.734	16435.95
570.095	16524.76
570.457	16589.39
570.819	16615.16
571.18	16564.08
571.542	16791.87
571.903	16659.22
572.265	16738.99
572.626	16869.39
572.987	16867.13
573.349	16858.09
573.71	16826.9
574.071	16876.17
574.432	16902.61
574.794	17030.51
575.155	16927.46
575.516	16955.71
575.877	16944.41
576.238	16964.3
576.599	17064.41
576.96	16968.59
577.32	17025.77
577.681	17074.13
578.042	17022.6
578.403	17040.23
578.763	17112.77
579.124	17125.2
579.485	17046.11
579.845	17094.69
580.206	17166.33
580.566	17148.93
580.927	17115.26
581.287	17202.71
581.648	17147.8
582.008	17202.49
582.368	17142.15
582.728	17165.2
583.089	17150.28
583.449	17136.72
583.809	17210.85
584.169	17199.1
584.529	17108.7
584.889	17210.85
585.249	17091.3
585.609	16974.92
585.969	17159.32
586.329	17062.83
586.688	17216.27
587.048	17094.47
587.408	17045.2
587.768	17043.85
588.127	17142.37
588.487	17025.54
588.846	17095.14
589.206	17049.95
589.565	17090.62
589.925	17150.96
590.284	17033
590.643	17162.94
591.003	17163.39
591.362	17081.81
591.721	17118.87
592.08	17078.65
592.44	17163.16
592.799	17089.04
593.158	17003.85
593.517	17062.38
593.876	17040.68
594.235	17031.64
594.593	16986.45
594.952	17048.14
595.311	17026.67
595.67	17060.34
596.029	17088.14
596.387	17042.72
596.746	17102.38
597.104	17023.28
597.463	16970.63
597.822	17058.08
598.18	17020.57
598.538	17004.07
598.897	17185.54
599.255	16847.24
599.613	17090.17
599.972	17007.46
600.33	17113
600.688	17035.71
601.046	17047.24
601.404	17130.62
601.762	17034.81
602.12	17101.47
602.478	17126.1
602.836	17084.3
603.194	17098.99
603.552	17032.77
603.91	17040
604.268	17173.33
604.625	17003.17
604.983	17156.61
605.341	17120.91
605.698	17162.71
606.056	17184.41
606.413	17124.75
606.771	17207.91
607.128	17284.52
607.485	17113.67
607.843	17232.32
608.2	17261.24
608.557	17257.4
608.914	17207.01
609.272	17279.32
609.629	17294.69
609.986	17311.41
610.343	17200.23
610.7	17370.84
611.057	17388.47
611.414	17359.54
611.771	17482.25
612.127	17386.21
612.484	17401.12
612.841	17541.01
613.198	17299.66
613.554	17422.14
613.911	17570.16
614.267	17517.28
614.624	17536.94
614.98	17576.94
615.337	17708.91
615.693	17618.75
616.05	17514.57
616.406	17660.78
616.762	17533.78
617.118	17649.03
617.475	17686.77
617.831	17623.27
618.187	17682.02
618.543	17673.66
618.899	17798.4
619.255	17714.34
619.611	17669.14
619.967	17822.58
620.323	17760.66
620.678	17811.28
621.034	17813.32
621.39	17761.79
621.746	17836.37
622.101	17807.44
622.457	17828.01
622.812	17787.78
623.168	17905.74
623.523	17849.7
623.879	17848.8
624.234	17806.09
624.589	17835.69
624.945	17929.47
625.3	17911.39
625.655	17914.78
626.01	17880.43
626.365	17893.99
626.72	17837.72
627.075	17826.88
627.43	17813.99
627.785	17796.14
628.14	17844.5
628.495	17889.25
628.85	17880.66
629.205	17771.74
629.559	17831.85
629.914	17765.18
630.269	17789.36
630.623	17736.03
630.978	17725.64
631.332	17724.96
631.687	17792.75
632.041	17800.66
632.396	17847.89
632.75	17646.99
633.104	17697.84
633.459	17713.66
633.813	17579.65
634.167	17624.85
634.521	17664.62
634.875	17631.63
635.229	17651.29
635.583	17590.72
635.937	17571.74
636.291	17596.37
636.645	17540.1
636.999	17449.26
637.352	17541.46
637.706	17505.08
638.06	17579.42
638.413	17401.35
638.767	17337.4
639.121	17428.69
639.474	17294.01
639.828	17324.06
640.181	17370.62
640.534	17406.55
640.888	17294.91
641.241	17240.45
641.594	17302.82
641.947	17401.12
642.301	17265.99
642.654	17234.58
643.007	17339.21
643.36	17328.36
643.713	17238.42
644.066	17283.16
644.419	17136.95
644.771	17002.26
645.124	16864.64
645.477	16871.42
645.83	16747.36
646.182	16637.98
646.535	16585.55
646.888	16686.11
647.24	16645.44
647.593	16593.46
647.945	16683.4
648.298	16567.02
648.65	16477.76
649.002	16477.08
649.355	16521.6
649.707	16533.58
650.059	16578.1
650.411	16901.93
650.763	16830.52
651.115	17077.74
651.467	16897.63
651.819	16979.67
652.171	16957.75
652.523	16899.44
652.875	16953.9
653.227	16840.69
653.578	17018.08
653.93	16984.86
654.282	16948.71
654.633	16925.2
654.985	16911.65
655.337	16923.4
655.688	16881.59
656.039	16992.55
656.391	16836.85
656.742	16900.8
657.094	16813.57
657.445	16957.29
657.796	16928.37
658.147	16883.17
658.498	16908.26
658.849	16975.37
659.2	16949.61
659.551	16844.08
659.902	16857.86
660.253	16876.62
660.604	16884.3
660.955	16850.4
661.306	16986.22
661.656	17019.21
662.007	16967.92
662.358	16949.61
662.708	16974.24
663.059	16956.62
663.409	16794.13
663.76	16946.67
664.11	16903.51
664.461	16917.52
664.811	16976.95
665.161	17068.93
665.511	16940.8
665.862	16967.01
666.212	17021.47
666.562	17097.63
666.912	16975.15
667.262	16927.69
667.612	16932.21
667.962	16972.21
668.312	16893.34
668.662	16984.41
669.011	16988.48
669.361	16898.99
669.711	16847.24
670.06	16841.82
670.41	16890.86
670.76	16874.36
671.109	16892.89
671.459	16859.9
671.808	16854.25
672.157	16835.04
672.507	16747.36
672.856	16724.76
673.205	16858.77
673.554	16834.59
673.904	16749.16
674.253	16880.23
674.602	16778.09
674.951	16562.73
675.3	16435.95
675.649	16837.07
675.998	16670.07
676.346	16675.72
676.695	16777.19
677.044	16666.68
677.393	16696.51
677.741	16642.73
678.09	16665.1
678.438	16663.74
678.787	16609.05
679.135	16558.21
679.484	16504.88
679.832	16593.69
680.181	16424.2
680.529	16528.83
680.877	16458.78
681.225	16381.72
681.573	16502.84
681.922	16388.72
682.27	16326.58
682.618	16404.09
682.966	16267.82
683.314	16277.09
683.661	16245.9
684.009	16148.73
684.357	16264.88
684.705	16120.71
685.053	16208.16
685.4	16115.73
685.748	16118.45
686.095	15987.38
686.443	15998.22
686.79	15927.72
687.138	15955.74
687.485	15978.56
687.832	15879.81
688.18	15990.77
688.527	15889.3
688.874	15743.09
689.221	15802.07
689.568	15640.94
689.915	15671.23
690.262	15530.89
690.609	15493.83
690.956	15540.38
691.303	15505.81
691.65	15422.87
691.997	15436.66
692.344	15382.42
692.69	15249.77
693.037	15211.13
693.383	15157.34
693.73	15170.67
694.077	15137
694.423	15044.35
694.769	14993.28
695.116	14980.85
695.462	15004.58
695.808	14873.28
696.155	14906.73
696.501	14773.4
696.847	14764.81
697.193	14631.48
697.539	14707.18
697.885	14541.31
698.231	14570.92
698.577	14571.37
698.923	14505.83
699.269	14429.23
699.614	14361.2
699.96	14329.34
700.306	14311.26
700.651	14210.93
700.997	14151.72
701.342	14154.88
701.688	14116.01
702.033	14014.32
702.379	14005.06
702.724	13980.2
703.069	14043.25
703.415	13839.64
703.76	13861.1
704.105	13788.56
704.45	13782.01
704.795	13693.88
705.14	13619.08
705.485	13601.9
705.83	13586.31
706.175	13621.79
706.52	13513.77
706.865	13441.91
707.209	13499.98
707.554	13410.27
707.899	13392.87
708.243	13333.89
708.588	13249.6
708.932	13257.73
709.277	13172.76
709.621	13199.88
709.966	13099.32
710.31	13019.32
710.654	12938.64
710.998	13076.04
711.342	13084.4
711.687	12977.29
712.031	12874.69
712.375	12885.76
712.719	12880.79
713.063	12805.99
713.407	12988.81
713.75	12807.57
714.094	12778.65
714.438	12726.45
714.782	12825.43
715.125	12727.12
715.469	12650.06
715.812	12650.06
716.156	12569.16
716.499	12631.31
716.843	12551.08
717.186	12493.46
717.53	12553.79
717.873	12553.34
718.216	12516.51
718.559	12397.41
718.902	12340.24
719.246	12382.95
719.589	12440.8
719.932	12412.33
720.275	12367.58
720.617	12319.9
720.96	12275.16
721.303	12277.87
721.646	12257.76
721.989	12297.53
722.331	12256.4
722.674	12230.41
723.016	12257.53
723.359	12140.92
723.701	12215.72
724.044	12146.12
724.386	12107.93
724.729	12106.35
725.071	12072
725.413	12079.46
725.755	12122.85
726.097	12048.27
726.439	12017.76
726.782	11990.65
727.124	12059.57
727.465	11998.78
727.807	12074.48
728.149	12005.56
728.491	12055.73
728.833	12037.2
729.175	11982.96
729.516	11967.59
729.858	12023.19
730.199	11958.1
730.541	11969.85
730.882	11917.88
731.224	11946.35
731.565	11982.51
731.906	11888.73
732.248	11916.75
732.589	11833.59
732.93	11754.04
733.271	11813.02
733.612	11896.18
733.953	11880.82
734.294	11825.23
734.635	11832.68
734.976	11894.6
735.317	11845.11
735.658	11868.16
735.999	11845.79
736.339	11880.37
736.68	11854.38
737.021	11812.8
737.361	11860.71
737.702	11856.19
738.042	11761.72
738.383	11857.09
738.723	11893.25
739.063	11876.07
739.404	11846.92
739.744	11848.73
740.084	11849.63
740.424	11983.64
740.764	11885.34
741.104	11858.67
741.444	11814.83
741.784	11868.39
742.124	11868.61
742.464	11961.27
742.804	11929.4
743.143	11885.79
743.483	11971.44
743.823	11911.33
744.162	11999.68
744.502	11967.82
744.841	12001.04
745.181	12066.35
745.52	12095.28
745.86	12072.68
746.199	12150.87
746.538	12154.03
746.877	12269.06
747.216	12243.75
747.556	12319.68
747.895	12315.61
748.234	12307.25
748.573	12371.88
748.911	12441.71
749.25	12481.93
749.589	12542.27
749.928	12558.99
750.267	12591.53
750.605	12671.08
750.944	12722.83
751.283	12708.14
751.621	12873.56
751.96	12925.08
752.298	12992.65
752.636	13006.21
752.975	13124.85
753.313	13168.02
753.651	13316.49
753.989	13344.96
754.327	13454.56
754.666	13469.02
755.004	13702.24
755.342	13810.03
755.679	13835.12
756.017	13905.17
756.355	14012.51
756.693	14137.03
