Data from hue_160_FLMS001491_00062.txt Node
Date: Tue Feb 07 16:51:30 GMT 2017
User: dcchb
Spectrometer: FLMS00149
Trigger mode: 0
Integration Time (sec): 2.000000E-2
Scans to average: 10
Electric dark correction enabled: true
Nonlinearity correction enabled: false
Boxcar width: 0
XAxis mode: Wavelengths
Number of Pixels in Spectrum: 2048
>>>>>Begin Spectral Data<<<<<
341.393	-8.73
341.776	-8.73
342.16	-8.73
342.543	-60.48
342.927	-61.16
343.31	-62.29
343.693	-85.79
344.077	-50.54
344.46	-68.61
344.843	-43.76
345.226	-25.9
345.61	-27.71
345.993	-30.2
346.376	-11.89
346.759	3.25
347.142	29.01
347.525	36.69
347.908	68.11
348.291	83.25
348.674	86.86
349.057	99.52
349.44	143.36
349.823	148.1
350.206	167.31
350.588	190.59
350.971	203.24
351.354	222.9
351.737	250.47
352.119	249.12
352.502	261.09
352.884	278.5
353.267	285.27
353.65	281.43
354.032	296.35
354.414	296.12
354.797	320.08
355.179	321.21
355.562	306.97
355.944	325.73
356.326	339.28
356.709	326.4
357.091	329.12
357.473	336.57
357.855	347.65
358.238	354.65
358.62	338.15
359.002	334.77
359.384	338.61
359.766	326.86
360.148	356.91
360.53	327.99
360.912	325.73
361.294	334.99
361.676	316.46
362.057	334.09
362.439	336.12
362.821	344.48
363.203	330.25
363.584	297.48
363.966	316.01
364.348	339.28
364.729	335.44
365.111	316.91
365.493	317.59
365.874	304.71
366.256	304.71
366.637	320.75
367.019	320.75
367.4	318.49
367.781	304.94
368.163	322.79
368.544	321.43
368.925	319.4
369.306	315.33
369.688	318.49
370.069	313.52
370.45	308.1
370.831	293.64
371.212	302
371.593	304.94
371.974	307.65
372.355	314.65
372.736	316.01
373.117	302
373.498	306.07
373.879	303.35
374.26	306.97
374.641	330.92
375.021	316.01
375.402	344.26
375.783	324.82
376.163	333.18
376.544	325.73
376.925	324.37
377.305	332.28
377.686	305.39
378.066	316.23
378.447	337.25
378.827	345.84
379.208	327.76
379.588	344.71
379.968	318.27
380.349	330.47
380.729	348.1
381.109	344.71
381.489	349.68
381.87	341.77
382.25	327.76
382.63	337.7
383.01	334.99
383.39	329.57
383.77	340.64
384.15	356.46
384.53	344.48
384.91	350.36
385.29	340.87
385.67	341.32
386.049	367.98
386.429	344.93
386.809	353.07
387.189	356.46
387.568	375.44
387.948	346.52
388.328	365.27
388.707	358.49
389.087	366.4
389.466	370.92
389.846	362.79
390.225	363.92
390.605	369.57
390.984	359.17
391.363	379.28
391.743	378.38
392.122	370.02
392.501	381.32
392.881	384.71
393.26	358.27
393.639	367.76
394.018	389.23
394.397	389.23
394.776	374.31
395.155	367.08
395.534	370.92
395.913	380.41
396.292	383.13
396.671	363.69
397.05	390.81
397.429	370.7
397.808	396.68
398.186	392.62
398.565	391.71
398.944	414.09
399.323	377.48
399.701	398.27
400.08	391.26
400.458	392.39
400.837	400.75
401.215	397.81
401.594	394.2
401.972	391.03
402.351	405.5
402.729	433.29
403.107	375.44
403.486	404.14
403.864	393.07
404.242	411.6
404.62	421.99
404.999	414.54
405.377	415.89
405.755	419.73
406.133	433.97
406.511	433.97
406.889	426.97
407.267	426.97
407.645	427.42
408.023	451.37
408.401	451.37
408.779	440.3
409.156	463.58
409.534	467.19
409.912	460.64
410.29	462.67
410.667	471.94
411.045	468.55
411.422	455.89
411.8	461.54
412.178	478.72
412.555	494.08
412.933	483.91
413.31	478.94
413.687	490.24
414.065	490.02
414.442	486.4
414.819	488.21
415.197	487.76
415.574	510.13
415.951	500.64
416.328	518.94
416.705	521.2
417.082	511.94
417.46	527.08
417.837	554.19
418.214	522.1
418.591	530.69
418.967	529.56
419.344	548.09
419.721	553.29
420.098	531.6
420.475	558.49
420.852	548.54
421.228	565.72
421.605	572.95
421.982	570.69
422.358	564.36
422.735	572.5
423.111	556.68
423.488	595.78
423.864	593.29
424.241	589.22
424.617	589
424.994	596.91
425.37	597.58
425.746	585.38
426.123	623.8
426.499	615.44
426.875	619.28
427.251	623.57
427.627	633.51
428.003	622.89
428.379	642.1
428.756	657.69
429.132	649.79
429.507	647.98
429.883	683.91
430.259	668.09
430.635	677.13
431.011	670.35
431.387	704.7
431.763	696.79
432.138	701.54
432.514	704.25
432.89	704.7
433.265	720.97
433.641	727.98
434.016	724.13
434.392	742.44
434.767	763.23
435.143	730.46
435.518	753.74
435.894	765.26
436.269	795.09
436.644	793.28
437.02	783.12
437.395	801.65
437.77	814.07
438.145	827.18
438.52	814.75
438.895	801.19
439.271	824.02
439.646	849.78
440.021	860.4
440.395	852.04
440.77	853.85
441.145	874.86
441.52	880.06
441.895	864.92
442.27	882.77
442.645	859.5
443.019	914.41
443.394	891.36
443.769	910.8
444.143	907.41
444.518	901.3
444.892	911.02
445.267	933.17
445.641	951.25
446.016	940.62
446.39	937.24
446.764	942.43
447.139	937.24
447.513	958.25
447.887	968.42
448.262	965.03
448.636	984.01
449.01	980.85
449.384	1008.87
449.758	1005.71
450.132	1030.34
450.506	1014.97
450.88	1005.93
451.254	1048.42
451.628	1018.36
452.002	1059.27
452.376	1080.51
452.75	1086.16
453.123	1099.04
453.497	1076.21
453.871	1094.97
454.244	1116.21
454.618	1100.17
454.992	1116.21
455.365	1141.98
455.739	1150.56
456.112	1198.47
456.486	1148.3
456.859	1198.7
457.232	1210.22
457.606	1215.87
457.979	1236.66
458.352	1236.89
458.725	1288.86
459.099	1317.34
459.472	1298.13
459.845	1318.24
460.218	1315.76
460.591	1356.89
460.964	1376.32
461.337	1385.36
461.71	1406.38
462.083	1425.81
462.456	1439.14
462.829	1463.55
463.201	1453.61
463.574	1492.93
463.947	1500.84
464.32	1550.33
464.692	1532.7
465.065	1576.77
465.438	1623.54
465.81	1635.07
466.183	1647.95
466.555	1653.83
466.928	1680.27
467.3	1708.74
467.672	1724.11
468.045	1754.61
468.417	1806.82
468.789	1827.38
469.161	1847.95
469.534	1907.83
469.906	1927.04
470.278	1899.47
470.65	1967.49
471.022	2000.26
471.394	2043.19
471.766	2106.24
472.138	2097.43
472.51	2162.74
472.882	2199.35
473.253	2250.42
473.625	2329.06
473.997	2362.73
474.369	2397.54
474.74	2434.37
475.112	2493.13
475.484	2545.33
475.855	2603.18
476.227	2662.84
476.598	2740.8
476.97	2762.27
477.341	2868.94
477.713	2934.47
478.084	3033.9
478.455	3079.33
478.827	3105.09
479.198	3254.24
479.569	3284.97
479.94	3407.45
480.311	3461.24
480.682	3550.5
481.053	3700.78
481.424	3748.91
481.795	3846.31
482.166	3931.96
482.537	4018.28
482.908	4128.79
483.279	4212.63
483.65	4354.32
484.021	4438.16
484.391	4599.06
484.762	4661.43
485.133	4768.77
485.503	4837.47
485.874	5041.08
486.244	5066.17
486.615	5226.39
486.985	5362.43
487.356	5453.73
487.726	5608.52
488.097	5745.02
488.467	5851.23
488.837	6056.65
489.207	6113.82
489.578	6245.12
489.948	6414.15
490.318	6518.11
490.688	6533.7
491.058	6759.68
491.428	6968.49
491.798	7051.42
492.168	7214.13
492.538	7243.74
492.908	7437.86
493.278	7651.63
493.648	7641.69
494.017	7823.61
494.387	7948.8
494.757	8035.35
495.126	8191.51
495.496	8280.32
495.866	8369.81
496.235	8496.36
496.605	8616.58
496.974	8685.28
497.344	8810.25
497.713	8910.36
498.082	9109
498.452	9188.77
498.821	9298.6
499.19	9332.49
499.559	9515.09
499.928	9529.1
500.298	9666.05
500.667	9706.95
501.036	9762.99
501.405	9922.08
501.774	9922.76
502.143	10088.63
502.512	10152.81
502.88	10261.51
503.249	10227.16
503.618	10362.98
503.987	10390.77
504.356	10554.61
504.724	10539.92
505.093	10687.71
505.462	10697.43
505.83	10756.86
506.199	10849.29
506.567	11008.83
506.936	11009.96
507.304	11134.93
507.672	11186.68
508.041	11196.63
508.409	11243.63
508.777	11335.61
509.145	11458.09
509.514	11435.94
509.882	11522.72
510.25	11544.87
510.618	11620.8
510.986	11567.46
511.354	11793.9
511.722	11896.27
512.09	11886.78
512.458	11886.55
512.826	11945.76
513.193	11920.22
513.561	11975.82
513.929	12061.69
514.297	12185.3
514.664	12207.22
515.032	12214
515.4	12291.74
515.767	12305.52
516.135	12349.59
516.502	12367.44
516.869	12436.14
517.237	12426.65
517.604	12425.75
517.972	12547.55
518.339	12526.31
518.706	12564.27
519.073	12528.12
519.44	12637.49
519.808	12654.89
520.175	12600.21
520.542	12727.89
520.909	12750.26
521.276	12761.78
521.643	12803.14
522.009	12861.44
522.376	12890.82
522.743	12954.32
523.11	13009.91
523.477	13052.62
523.843	13047.65
524.21	13171.26
524.577	13128.1
524.943	13147.76
525.31	13165.61
525.676	13273.41
526.043	13336.46
526.409	13331.94
526.776	13368.55
527.142	13364.25
527.508	13275.22
527.874	13394.76
528.241	13425.95
528.607	13389.11
528.973	13418.49
529.339	13363.58
529.705	13477.92
530.071	13467.3
530.437	13522.67
530.803	13465.72
531.169	13447.64
531.535	13451.03
531.901	13364.48
532.267	13362.9
532.632	13450.13
532.998	13466.17
533.364	13460.3
533.73	13420.07
534.095	13454.42
534.461	13423.01
534.826	13490.13
535.192	13427.75
535.557	13430.92
535.923	13328.1
536.288	13371.26
536.653	13380.98
537.019	13173.75
537.384	13292.84
537.749	13206.74
538.114	13240.41
538.479	13253.97
538.845	13184.82
539.21	13206.74
539.575	13083.36
539.94	13070.93
540.305	13111.38
540.67	13008.1
541.034	13075
541.399	13058.05
541.764	13044.04
542.129	12975.11
542.494	12921.1
542.858	12924.04
543.223	12861.22
543.587	12887.66
543.952	12885.4
544.316	12848.11
544.681	12731.73
545.045	12730.37
545.41	12722.69
545.774	12709.58
546.138	12658.51
546.503	12682.69
546.867	12644.5
547.231	12601.56
547.595	12562.69
547.959	12553.88
548.324	12454.9
548.688	12384.62
549.052	12484.28
549.416	12406.54
549.779	12290.16
550.143	12309.82
550.507	12429.14
550.871	12343.49
551.235	12300.78
551.599	12307.56
551.962	12225.53
552.326	12174.23
552.689	12222.59
553.053	12193.21
553.417	12152.31
553.78	12231.18
554.143	12162.48
554.507	12094.46
554.87	12126.32
555.234	12139.43
555.597	12044.29
555.96	12085.87
556.323	12098.52
556.686	12002.03
557.05	12119.09
557.413	12035.02
557.776	12002.03
558.139	12040.45
558.502	12015.14
558.865	11928.36
559.228	11990.73
559.59	11940.11
559.953	11973.56
560.316	12064.4
560.679	11959.54
561.041	12051.07
561.404	11992.76
561.767	12130.84
562.129	11890.85
562.492	12059.88
562.854	12022.37
563.217	12068.47
563.579	12043.16
563.941	12115.7
564.304	12085.87
564.666	12157.73
565.028	12164.06
565.39	12145.98
565.753	12187.33
566.115	12143.04
566.477	12255.58
566.839	12159.31
567.201	12261.46
567.563	12218.07
567.925	12240.67
568.287	12232.98
568.648	12271.85
569.01	12270.72
569.372	12238.63
569.734	12192.76
570.095	12367.9
570.457	12344.39
570.819	12301.68
571.18	12388.91
571.542	12351.85
571.903	12353.43
572.265	12369.25
572.626	12442.47
572.987	12422.36
573.349	12449.47
573.71	12481.34
574.071	12442.02
574.432	12479.98
574.794	12528.12
575.155	12516.82
575.516	12483.37
575.877	12562.47
576.238	12486.54
576.599	12580.09
576.96	12502.58
577.32	12485.86
577.681	12524.5
578.042	12501
578.403	12592.3
578.763	12542.13
579.124	12606.98
579.485	12640.43
579.845	12565.4
580.206	12517.04
580.566	12553.2
580.927	12559.53
581.287	12586.65
581.648	12501.9
582.008	12599.75
582.368	12474.11
582.728	12551.39
583.089	12561.34
583.449	12499.87
583.809	12444.96
584.169	12502.81
584.529	12520.89
584.889	12530.6
585.249	12447.44
585.609	12473.43
585.969	12536.03
586.329	12502.13
586.688	12541.22
587.048	12430.72
587.408	12448.35
587.768	12401.34
588.127	12396.59
588.487	12337.84
588.846	12387.1
589.206	12359.08
589.565	12404.96
589.925	12380.78
590.284	12347.33
590.643	12362.92
591.003	12484.28
591.362	12477.5
591.721	12369.25
592.08	12338.97
592.44	12519.76
592.799	12418.06
593.158	12352.08
593.517	12419.19
593.876	12425.97
594.235	12350.04
594.593	12431.4
594.952	12403.37
595.311	12279.54
595.67	12356.6
596.029	12445.18
596.387	12381.45
596.746	12342.59
597.104	12287.67
597.463	12327.67
597.822	12345.52
598.18	12335.13
598.538	12350.49
598.897	12322.92
599.255	12195.92
599.613	12424.62
599.972	12273.43
600.33	12307.33
600.688	12310.27
601.046	12301.23
601.404	12423.03
601.762	12328.57
602.12	12406.76
602.478	12364.05
602.836	12317.5
603.194	12222.14
603.552	12254
603.91	12232.31
604.268	12297.39
604.625	12321.57
604.983	12441.11
605.341	12259.65
605.698	12369.25
606.056	12380.78
606.413	12342.59
606.771	12355.92
607.128	12444.5
607.485	12322.02
607.843	12379.19
608.2	12429.36
608.557	12369.48
608.914	12376.48
609.272	12430.49
609.629	12452.86
609.986	12474.11
610.343	12401.79
610.7	12578.51
611.057	12468.68
611.414	12477.27
611.771	12488.57
612.127	12522.02
612.484	12556.36
612.841	12537.16
613.198	12423.94
613.554	12442.47
613.911	12569.47
614.267	12493.54
614.624	12446.99
614.98	12545.74
615.337	12610.15
615.693	12536.03
616.05	12575.8
616.406	12605.4
616.762	12576.03
617.118	12585.29
617.475	12565.4
617.831	12710.26
618.187	12659.86
618.543	12624.39
618.899	12618.06
619.255	12714.78
619.611	12683.14
619.967	12683.59
620.323	12684.05
620.678	12671.62
621.034	12680.88
621.39	12622.13
621.746	12636.81
622.101	12769.92
622.457	12722.46
622.812	12706.87
623.168	12754.55
623.523	12752.74
623.879	12685.17
624.234	12651.73
624.589	12682.01
624.945	12668.68
625.3	12773.31
625.655	12728.34
626.01	12687.66
626.365	12724.5
626.72	12608.57
627.075	12680.66
627.43	12704.84
627.785	12666.87
628.14	12679.53
628.495	12730.37
628.85	12794.32
629.205	12713.87
629.559	12726.08
629.914	12639.3
630.269	12650.6
630.623	12618.06
630.978	12558.85
631.332	12608.11
631.687	12625.29
632.041	12537.38
632.396	12585.74
632.75	12573.99
633.104	12573.77
633.459	12540.09
633.813	12570.6
634.167	12515.46
634.521	12474.33
634.875	12522.02
635.229	12417.16
635.583	12423.26
635.937	12434.33
636.291	12479.98
636.645	12413.32
636.999	12338.29
637.352	12386.43
637.706	12346.88
638.06	12422.36
638.413	12313.89
638.767	12309.37
639.121	12297.16
639.474	12312.53
639.828	12207
640.181	12311.4
640.534	12294.68
640.888	12208.8
641.241	12135.81
641.594	12198.41
641.947	12247.45
642.301	12170.84
642.654	12260.33
643.007	12153.66
643.36	12198.18
643.713	12149.82
644.066	12180.56
644.419	12124.96
644.771	12028.47
645.124	11984.4
645.477	11935.59
645.83	11831.64
646.182	11864.41
646.535	11822.15
646.888	11804.07
647.24	11685.65
647.593	11808.81
647.945	11698.08
648.298	11646.56
648.65	11666.67
649.002	11656.95
649.355	11665.77
649.707	11689.95
650.059	11703.51
650.411	11911.18
650.763	11945.31
651.115	12023.95
651.467	12036.6
651.819	11918.19
652.171	11969.49
652.523	11960.22
652.875	11908.47
653.227	11868.7
653.578	11990.5
653.93	11904.63
654.282	11828.93
654.633	11873.67
654.985	11909.6
655.337	11925.42
655.688	11977.4
656.039	11938.08
656.391	11910.51
656.742	11928.81
657.094	12002.71
657.445	11924.07
657.796	11947.34
658.147	11950.5
658.498	11998.87
658.849	12051.29
659.2	12015.81
659.551	11926.1
659.902	11945.76
660.253	11926.55
660.604	11976.94
660.955	11885.87
661.306	11984.85
661.656	11993.22
662.007	11915.25
662.358	11993.22
662.708	11942.82
663.059	11942.6
663.409	11984.63
663.76	12006.55
664.11	11970.84
664.461	11994.57
664.811	11993.44
665.161	11989.83
665.511	11973.56
665.862	11975.59
666.212	12082.25
666.562	12050.39
666.912	12028.92
667.262	12018.75
667.612	11966.55
667.962	11990.5
668.312	12041.12
668.662	11956.61
669.011	11981.24
669.361	11978.07
669.711	11888.13
670.06	11886.55
670.41	11878.42
670.76	11811.53
671.109	11927.91
671.459	11894.01
671.808	11897.85
672.157	11872.31
672.507	11885.42
672.856	11814.46
673.205	11869.83
673.554	11869.38
673.904	11858.08
674.253	11901.69
674.602	11871.41
674.951	11696.73
675.3	11624.41
675.649	11851.07
675.998	11823.28
676.346	11779.66
676.695	11908.7
677.044	11770.85
677.393	11804.29
677.741	11764.97
678.09	11765.88
678.438	11781.24
678.787	11724.3
679.135	11745.99
679.484	11624.64
679.832	11754.35
680.181	11680.68
680.529	11670.06
680.877	11635.71
681.225	11644.75
681.573	11607.69
681.922	11523.62
682.27	11528.14
682.618	11518.43
682.966	11505.54
683.314	11458.77
683.661	11485.43
684.009	11456.28
684.357	11426.45
684.705	11403.17
685.053	11393.46
685.4	11345.32
685.748	11246.34
686.095	11266.23
686.443	11202.95
686.79	11246.34
687.138	11264.2
687.485	11290.41
687.832	11185.55
688.18	11170.64
688.527	11182.84
688.874	11095.16
689.221	11054.71
689.568	11088.61
689.915	11006.35
690.262	11005.67
690.609	11003.19
690.956	10873.25
691.303	10948.95
691.65	10854.49
691.997	10805.9
692.344	10786.69
692.69	10753.25
693.037	10683.87
693.383	10648.39
693.73	10734.49
694.077	10626.25
694.423	10656.08
694.769	10529.3
695.116	10599.81
695.462	10529.3
695.808	10442.75
696.155	10539.47
696.501	10377.21
696.847	10341.28
697.193	10299.7
697.539	10317.33
697.885	10228.29
698.231	10214.96
698.577	10174.51
698.923	10143.77
699.269	10196.88
699.614	10071.68
699.96	10075.3
700.306	10089.76
700.651	9991.23
700.997	9933.83
701.342	9902.88
701.688	9903.33
702.033	9834.85
702.379	9870.56
702.724	9806.15
703.069	9827.85
703.415	9674.63
703.76	9708.98
704.105	9690.45
704.45	9696.78
704.795	9623.11
705.14	9582.43
705.485	9524.35
705.83	9557.12
706.175	9513.05
706.52	9503.11
706.865	9443.9
707.209	9417.46
707.554	9365.94
707.899	9365.26
708.243	9374.3
708.588	9264.47
708.932	9223.57
709.277	9239.39
709.621	9231.48
709.966	9228.99
710.31	9202.1
710.654	9112.84
710.998	9134.53
711.342	9121.2
711.687	9076.46
712.031	9099.05
712.375	9055.67
712.719	9041.2
713.063	9012.05
713.407	8999.62
713.75	8953.3
714.094	9005.5
714.438	8944.71
714.782	8982.22
715.125	8949.68
715.469	8960.75
715.812	8890.92
716.156	8850.25
716.499	8787.42
716.843	8852.06
717.186	8779.97
717.53	8820.64
717.873	8800.53
718.216	8705.62
718.559	8790.36
718.902	8727.99
719.246	8726.41
719.589	8725.51
719.932	8638.95
720.275	8677.37
720.617	8690.7
720.96	8735.22
721.303	8611.16
721.646	8643.7
721.989	8539.75
722.331	8641.21
722.674	8604.83
723.016	8655.45
723.359	8612.29
723.701	8622.23
724.044	8580.42
724.386	8525.51
724.729	8576.36
725.071	8595.79
725.413	8519.63
725.755	8528.9
726.097	8488
726.439	8501.78
726.782	8472.63
727.124	8501.33
727.465	8506.98
727.807	8517.15
728.149	8435.57
728.491	8403.93
728.833	8554.21
729.175	8458.62
729.516	8470.6
729.858	8466.08
730.199	8441.44
730.541	8478.96
730.882	8454.1
731.224	8448.45
731.565	8363.25
731.906	8389.92
732.248	8449.35
732.589	8409.81
732.93	8367.32
733.271	8376.81
733.612	8383.82
733.953	8428.56
734.294	8359.41
734.635	8354.89
734.976	8403.25
735.317	8387.89
735.658	8331.84
735.999	8378.17
736.339	8356.02
736.68	8386.76
737.021	8355.8
737.361	8402.12
737.702	8403.03
738.042	8379.3
738.383	8382.46
738.723	8433.54
739.063	8394.44
739.404	8516.02
739.744	8421.11
740.084	8409.36
740.424	8474.89
740.764	8405.97
741.104	8518.5
741.444	8443.48
741.784	8444.83
742.124	8534.55
742.464	8488
742.804	8543.14
743.143	8563.93
743.483	8579.97
743.823	8558.73
744.162	8599.86
744.502	8595.79
744.841	8622.23
745.181	8680.99
745.52	8674.66
745.86	8753.53
746.199	8755.33
746.538	8743.13
746.877	8805.5
747.216	8844.37
747.556	8939.51
747.895	8963.46
748.234	8913.52
748.573	9010.7
748.911	9006.63
749.25	9069.68
749.589	9162.56
749.928	9227.19
750.267	9281.42
750.605	9280.29
750.944	9406.62
751.283	9451.36
751.621	9626.27
751.96	9579.95
752.298	9652.49
752.636	9766.38
752.975	9891.58
753.313	9895.19
753.651	10049.76
753.989	10114.85
754.327	10230.78
754.666	10310.32
755.004	10432.58
755.342	10604.33
755.679	10722.51
756.017	10781.04
756.355	10975.84
756.693	10999.34
757.031	11228.72
757.368	11285.21
757.706	11510.52
758.044	11496.05
758.381	11706.44
758.719	11808.14
759.056	12020.79
759.394	12151.4
