Data from hue_28_FLMS001491_00032.txt Node
Date: Tue Feb 07 17:17:11 GMT 2017
User: dcchb
Spectrometer: FLMS00149
Trigger mode: 0
Integration Time (sec): 2.000000E-2
Scans to average: 10
Electric dark correction enabled: true
Nonlinearity correction enabled: false
Boxcar width: 0
XAxis mode: Wavelengths
Number of Pixels in Spectrum: 2048
>>>>>Begin Spectral Data<<<<<
341.393	-23.29
341.776	-23.29
342.16	-23.29
342.543	-78.88
342.927	-85.21
343.31	-78.2
343.693	-48.37
344.077	-79.11
344.46	-57.19
344.843	-59
345.226	-24.87
345.61	-26.68
345.993	-23.52
346.376	-8.15
346.759	7.44
347.142	19.65
347.525	49.7
347.908	73.43
348.291	55.35
348.674	93.99
349.057	105.52
349.44	107.1
349.823	148.68
350.206	169.25
350.588	209.92
350.971	213.54
351.354	234.78
351.737	251.96
352.119	271.17
352.502	244.05
352.884	290.15
353.267	292.86
353.65	310.26
354.032	291.05
354.414	300.54
354.797	308
355.179	311.84
355.562	340.32
355.944	331.05
356.326	323.82
356.709	328.79
357.091	339.19
357.473	339.19
357.855	355.23
358.238	326.98
358.62	336.47
359.002	341.67
359.384	326.76
359.766	335.12
360.148	341.9
360.53	340.32
360.912	340.77
361.294	349.36
361.676	344.61
362.057	335.34
362.439	333.31
362.821	345.06
363.203	322.92
363.584	339.64
363.966	309.81
364.348	324.27
364.729	333.54
365.111	317.72
365.493	336.02
365.874	320.66
366.256	308.68
366.637	324.27
367.019	328.34
367.4	312.52
367.781	317.72
368.163	311.62
368.544	318.62
368.925	334.21
369.306	329.92
369.688	312.29
370.069	319.07
370.45	336.02
370.831	308.23
371.212	309.81
371.593	314.55
371.974	310.26
372.355	336.02
372.736	325.18
373.117	320.43
373.498	313.2
373.879	321.56
374.26	308.68
374.641	305.29
375.021	325.63
375.402	310.26
375.783	325.4
376.163	345.74
376.544	322.01
376.925	319.53
377.305	325.85
377.686	353.42
378.066	337.83
378.447	335.8
378.827	338.06
379.208	333.31
379.588	321.79
379.968	329.92
380.349	355.68
380.729	335.12
381.109	321.33
381.489	331.28
381.87	344.84
382.25	344.61
382.63	342.35
383.01	337.15
383.39	337.38
383.77	343.93
384.15	343.48
384.53	345.74
384.91	321.56
385.29	345.06
385.67	337.38
386.049	332.63
386.429	356.13
386.809	345.06
387.189	359.07
387.568	356.36
387.948	341.45
388.328	340.09
388.707	355.68
389.087	380.09
389.466	369.02
389.846	346.87
390.225	358.85
390.605	364.72
390.984	363.37
391.363	342.35
391.743	356.36
392.122	371.5
392.501	362.69
392.881	352.97
393.26	379.64
393.639	365.63
394.018	381.44
394.397	364.72
394.776	385.51
395.155	394.33
395.534	365.63
395.913	381.44
396.292	362.69
396.671	382.12
397.05	393.65
397.429	398.62
397.808	372.18
398.186	386.42
398.565	372.18
398.944	389.58
399.323	393.65
399.701	384.16
400.08	391.84
400.458	402.46
400.837	403.37
401.215	413.08
401.594	398.85
401.972	404.5
402.351	406.98
402.729	419.64
403.107	425.06
403.486	392.29
403.864	400.2
404.242	411.95
404.62	421.9
404.999	407.66
405.377	425.06
405.755	411.73
406.133	417.83
406.511	415.57
406.889	418.96
407.267	427.55
407.645	461.67
408.023	429.35
408.401	453.99
408.779	433.42
409.156	440.2
409.534	441.78
409.912	451.73
410.29	446.08
410.667	445.17
411.045	463.48
411.422	462.35
411.8	465.51
412.178	470.71
412.555	461.67
412.933	461.89
413.31	486.75
413.687	453.99
414.065	475.45
414.442	470.03
414.819	481.56
415.197	477.49
415.574	481.78
415.951	491.5
416.328	496.92
416.705	475.45
417.082	494.44
417.46	493.76
417.837	500.54
418.214	501.22
418.591	506.87
418.967	489.46
419.344	510.03
419.721	510.93
420.098	487.43
420.475	520.88
420.852	522.91
421.228	524.04
421.605	530.14
421.982	520.88
422.358	514.55
422.735	540.76
423.111	520.88
423.488	526.07
423.864	533.98
424.241	550.71
424.617	553.87
424.994	536.24
425.37	561.78
425.746	562.46
426.123	563.59
426.499	548.9
426.875	562.91
427.251	580.76
427.627	566.75
428.003	551.16
428.379	586.19
428.756	581.44
429.132	605.17
429.507	587.32
429.883	602
430.259	611.5
430.635	609.01
431.011	598.84
431.387	626.18
431.763	646.75
432.138	617.6
432.514	628.9
432.89	635.45
433.265	639.74
433.641	645.84
434.016	651.04
434.392	651.27
434.767	646.75
435.143	650.59
435.518	660.53
435.894	661.21
436.269	701.66
436.644	687.2
437.02	690.59
437.395	661.66
437.77	705.05
438.145	704.15
438.52	696.69
438.895	713.41
439.271	718.84
439.646	731.27
440.021	715.45
440.395	763.81
440.77	723.36
441.145	723.36
441.52	739.18
441.895	747.08
442.27	747.99
442.645	757.03
443.019	741.89
443.394	769.46
443.769	751.15
444.143	772.62
444.518	769.91
444.892	746.41
445.267	762.23
445.641	775.56
446.016	809.91
446.39	786.63
446.764	778.72
447.139	778.27
447.513	812.17
447.887	817.14
448.262	785.95
448.636	814.43
449.01	826.63
449.384	837.03
449.758	814.43
450.132	844.26
450.506	849.68
450.88	852.84
451.254	823.02
451.628	857.36
452.002	866.18
452.376	858.04
452.75	868.44
453.123	879.51
453.497	870.7
453.871	879.51
454.244	919.74
454.618	907.31
454.992	912.28
455.365	933.52
455.739	924.71
456.112	939.4
456.486	957.93
456.859	965.16
457.232	948.89
457.606	975.55
457.979	965.16
458.352	989.56
458.725	989.11
459.099	1015.33
459.472	1009.9
459.845	1013.07
460.218	1049
460.591	1023.69
460.964	1037.25
461.337	1077.02
461.71	1056
462.083	1091.93
462.456	1076.34
462.829	1080.86
463.201	1115.89
463.574	1132.61
463.947	1127.19
464.32	1172.61
464.692	1174.87
465.065	1188.66
465.438	1176.23
465.81	1193.85
466.183	1203.8
466.555	1237.24
466.928	1248.99
467.3	1243.12
467.672	1288.77
468.045	1321.31
468.417	1295.32
468.789	1301.19
469.161	1328.76
469.534	1334.87
469.906	1361.31
470.278	1387.29
470.65	1373.96
471.022	1428.87
471.394	1451.02
471.766	1472.49
472.138	1492.83
472.51	1521.3
472.882	1518.14
473.253	1557.23
473.625	1579.38
473.997	1599.72
474.369	1630.23
474.74	1625.03
475.112	1682.43
475.484	1697.34
475.855	1731.69
476.227	1771.01
476.598	1770.79
476.97	1789.77
477.341	1837.23
477.713	1884.23
478.084	1908.41
478.455	1987.28
478.827	1979.59
479.198	2048.29
479.569	2046.71
479.94	2115.41
480.311	2152.7
480.682	2192.92
481.053	2233.83
481.424	2323.09
481.795	2294.61
482.166	2360.15
482.537	2391.34
482.908	2420.94
483.279	2486.47
483.65	2526.02
484.021	2564.66
484.391	2661.84
484.762	2668.84
485.133	2723.08
485.503	2749.74
485.874	2807.82
486.244	2881.72
486.615	2917.65
486.985	2964.2
487.356	3038.1
487.726	3099.11
488.097	3139.79
488.467	3151.32
488.837	3217.53
489.207	3289.62
489.578	3339.33
489.948	3371.42
490.318	3484.19
490.688	3483.06
491.058	3555.15
491.428	3568.71
491.798	3629.49
492.168	3708.59
492.538	3741.58
492.908	3768.25
493.278	3851.64
493.648	3831.75
494.017	3891.41
494.387	3973.89
494.757	4001.24
495.126	4067.9
495.496	4067
495.866	4135.47
496.235	4188.35
496.605	4222.7
496.974	4259.53
497.344	4335.24
497.713	4357.16
498.082	4428.8
498.452	4459.98
498.821	4460.21
499.19	4476.25
499.559	4524.39
499.928	4556.02
500.298	4610.03
500.667	4656.59
501.036	4640.09
501.405	4728.9
501.774	4685.51
502.143	4785.85
502.512	4829.69
502.88	4874.66
503.249	4850.48
503.618	4949.23
503.987	4946.07
504.356	4920.08
504.724	4987.43
505.093	4995.56
505.462	5020.64
505.83	5039.85
506.199	5086.86
506.567	5161.21
506.936	5130.02
507.304	5256.57
507.672	5263.12
508.041	5289.56
508.409	5276.46
508.777	5342.67
509.145	5391.71
509.514	5375.89
509.882	5445.04
510.25	5452.05
510.618	5479.39
510.986	5450.69
511.354	5524.13
511.722	5517.13
512.09	5572.95
512.458	5570.69
512.826	5607.07
513.193	5615.66
513.561	5596.67
513.929	5749.21
514.297	5754.64
514.664	5825.14
515.032	5829.89
515.4	5843
515.767	5875.54
516.135	5901.07
516.502	5860.85
516.869	5974.29
517.237	5966.61
517.604	5985.14
517.972	5952.37
518.339	6028.75
518.706	6035.31
519.073	6044.12
519.44	6021.52
519.808	6168.41
520.175	6114.18
520.542	6165.02
520.909	6219.71
521.276	6233.95
521.643	6270.1
522.009	6247.51
522.376	6331.57
522.743	6373.6
523.11	6402.98
523.477	6477.1
523.843	6503.32
524.21	6557.1
524.577	6521.4
524.943	6561.17
525.31	6603.88
525.676	6551
526.043	6649.75
526.409	6718.91
526.776	6725.46
527.142	6819.92
527.508	6807.26
527.874	6851.78
528.241	6900.82
528.607	6966.58
528.973	7036.64
529.339	7013.81
529.705	7057.88
530.071	7117.99
530.437	7145.33
530.803	7159.8
531.169	7207.25
531.535	7200.47
531.901	7261.04
532.267	7271.89
532.632	7267.82
532.998	7315.73
533.364	7330.41
533.73	7357.98
534.095	7482.5
534.461	7437.08
534.826	7553.91
535.192	7534.7
535.557	7590.75
535.923	7573.12
536.288	7616.28
536.653	7630.07
537.019	7611.76
537.384	7663.29
537.749	7725.21
538.114	7808.37
538.479	7754.58
538.845	7837.07
539.21	7791.42
539.575	7854.47
539.94	7891.98
540.305	7998.65
540.67	7993.22
541.034	7960.68
541.399	7996.16
541.764	8084.29
542.129	8055.14
542.494	8125.2
542.858	8138.98
543.223	8199.09
543.587	8225.53
543.952	8196.38
544.316	8308.47
544.681	8299.65
545.045	8325.19
545.41	8385.08
545.774	8494.23
546.138	8483.15
546.503	8431.18
546.867	8527.22
547.231	8524.06
547.595	8539.2
547.959	8619.87
548.324	8585.07
548.688	8576.26
549.052	8725.86
549.416	8703.94
549.779	8674.56
550.143	8723.6
550.507	8784.39
550.871	8854.67
551.235	8841.79
551.599	8939.19
551.962	8931.5
552.326	8929.24
552.689	8930.6
553.053	8901.67
553.417	8972.41
553.78	9098.05
554.143	9155.9
554.507	9087.88
554.87	9115.45
555.234	9230.03
555.597	9171.04
555.96	9211.72
556.323	9239.74
556.686	9245.62
557.05	9338.95
557.413	9342.79
557.776	9363.81
558.139	9419.17
558.502	9405.61
558.865	9467.31
559.228	9522.9
559.59	9546.85
559.953	9532.16
560.316	9625.95
560.679	9658.71
561.041	9678.6
561.404	9650.81
561.767	9771.93
562.129	9747.53
562.492	9870.91
562.854	9763.34
563.217	9879.73
563.579	9905.04
563.941	9893.29
564.304	10053.96
564.666	10074.52
565.028	10069.78
565.39	10090.34
565.753	10105.93
566.115	10146.61
566.477	10168.08
566.839	10258.02
567.201	10241.07
567.563	10302.54
567.925	10360.39
568.287	10361.52
568.648	10454.4
569.01	10501.18
569.372	10582.98
569.734	10453.95
570.095	10587.28
570.457	10651.68
570.819	10705.92
571.18	10643.77
571.542	10786.59
571.903	10775.75
572.265	10833.15
572.626	10901.62
572.987	10947.95
573.349	10983.2
573.71	11064.1
574.071	11143.87
574.432	11186.36
574.794	11319.01
575.155	11315.62
575.516	11318.56
575.877	11468.16
576.238	11498.89
576.599	11597.65
576.96	11601.04
577.32	11733.24
577.681	11824.99
578.042	11937.75
578.403	12042.83
578.763	12100.01
579.124	12241.25
579.485	12307.91
579.845	12499.54
580.206	12556.27
580.566	12654.57
580.927	12732.98
581.287	12933.66
581.648	13128.23
582.008	13199.19
582.368	13399.86
582.728	13581.78
583.089	13673.98
583.449	13811.15
583.809	13953.29
584.169	14196.22
584.529	14277.12
584.889	14589.66
585.249	14669.43
585.609	14800.27
585.969	15154.62
586.329	15195.74
586.688	15451.33
587.048	15782.17
587.408	15895.61
587.768	16228.49
588.127	16456.73
588.487	16661.47
588.846	17041.35
589.206	17167.67
589.565	17423.93
589.925	17698.96
590.284	17930.81
590.643	18240.41
591.003	18531.48
591.362	18840.85
591.721	19031.12
592.08	19250.55
592.44	19638.57
592.799	19996.07
593.158	20174.14
593.517	20399
593.876	20797.86
594.235	21047.12
594.593	21258.18
594.952	21713.31
595.311	21786.53
595.67	22298.61
596.029	22734.3
596.387	22958.03
596.746	23364.8
597.104	23489.31
597.463	23821.05
597.822	24171.33
598.18	24348.27
598.538	24666
598.897	25088.82
599.255	25113.45
599.613	25781
599.972	25821.91
600.33	26154.1
600.688	26458.73
601.046	26745.05
601.404	27194.75
601.762	27422.77
602.12	27852.81
602.478	28114.73
602.836	28240.15
603.194	28274.27
603.552	28691.89
603.91	28907.47
604.268	29233.34
604.625	29486.89
604.983	29725.31
605.341	29846.88
605.698	30318.74
606.056	30607.54
606.413	30829.01
606.771	31049.34
607.128	31464.24
607.485	31501.76
607.843	31653.16
608.2	32108.52
608.557	32382.41
608.914	32645.91
609.272	32798.67
609.629	33226.91
609.986	33412.21
610.343	33471.2
610.7	33876.61
611.057	33975.59
611.414	34254.23
611.771	34326.31
612.127	34600.88
612.484	34737.38
612.841	34972.17
613.198	35156.58
613.554	35279.51
613.911	35626.39
614.267	35771.47
614.624	35904.13
614.98	36184.8
615.337	36420.27
615.693	36518.12
616.05	36565.8
616.406	36999.24
616.762	36964.89
617.118	37020.26
617.475	37260.93
617.831	37421.83
618.187	37597.42
618.543	37776.62
618.899	38030.62
619.255	38051.87
619.611	38157.85
619.967	38474
620.323	38584.96
620.678	38551.51
621.034	38576.15
621.39	38705.41
621.746	38797.16
622.101	39249.58
622.457	38951.05
622.812	39267.65
623.168	39334.54
623.523	39522.56
623.879	39629.9
624.234	39497.48
624.589	39665.84
624.945	39696.12
625.3	39845.49
625.655	39963
626.01	40070.57
626.365	40121.64
626.72	40119.83
627.075	40141.3
627.43	40142.66
627.785	40186.27
628.14	40262.88
628.495	40369.32
628.85	40449.77
629.205	40341.52
629.559	40635.3
629.914	40424.91
630.269	40720.27
630.623	40658.13
630.978	40655.41
631.332	40754.17
631.687	40971.56
632.041	40814.28
632.396	41001.62
632.75	40750.1
633.104	40867.39
633.459	40787.16
633.813	40833.26
634.167	40820.83
634.521	40857.89
634.875	41037.1
635.229	40872.58
635.583	40781.51
635.937	40862.87
636.291	40870.78
636.645	40944.22
636.999	40852.47
637.352	40882.53
637.706	40786.48
638.06	40982.64
638.413	40845.92
638.767	40809.99
639.121	40855.18
639.474	40691.35
639.828	40700.84
640.181	40812.02
640.534	40774.73
640.888	40635.75
641.241	40624
641.594	40701.06
641.947	40871.45
642.301	40724.34
642.654	40761.63
643.007	40736.54
643.36	40698.35
643.713	40680.95
644.066	40907.16
644.419	40465.14
644.771	40307.85
645.124	40152.83
645.477	39989.22
645.83	39658.83
646.182	39678.72
646.535	39480.3
646.888	39648.43
647.24	39445.95
647.593	39567.76
647.945	39666.29
648.298	39389.68
648.65	39368.67
649.002	39279.63
649.355	39423.81
649.707	39433.98
650.059	39506.97
650.411	40007.3
650.763	40040.51
651.115	40349.21
651.467	40316.67
651.819	40550.33
652.171	40146.05
652.523	40190.12
652.875	40187.18
653.227	39992.83
653.578	40297.46
653.93	40336.33
654.282	40135.65
654.633	39996.45
654.985	40313.28
655.337	40018.37
655.688	40058.14
656.039	40241.64
656.391	39899.95
656.742	40124.13
657.094	40047.75
657.445	40268.31
657.796	40104.02
658.147	39967.52
658.498	40041.64
658.849	40106.95
659.2	39907.64
659.551	40002.32
659.902	40078.03
660.253	39942.66
660.604	40134.52
660.955	39855.44
661.306	40005.26
661.656	39969.33
662.007	39953.06
662.358	39954.42
662.708	39950.8
663.059	39767.08
663.409	39556.01
663.76	39862.44
664.11	39975.66
664.461	39905.15
664.811	39942.66
665.161	39990.12
665.511	39763.46
665.862	39881.88
666.212	40014.75
666.562	39790.13
666.912	39991.25
667.262	39788.09
667.612	39811.14
667.962	40014.3
668.312	39763.01
668.662	39999.39
669.011	39934.76
669.361	39959.61
669.711	39728.88
670.06	39755.78
670.41	39683.24
670.76	39673.07
671.109	39828.54
671.459	39865.15
671.808	39644.14
672.157	39712.84
672.507	39584.48
672.856	39553.07
673.205	39546.97
673.554	39648.66
673.904	39504.48
674.253	39849.11
674.602	39578.38
674.951	38986.98
675.3	38824.73
675.649	39469.46
675.998	39409.12
676.346	39531.15
676.695	39554.43
677.044	39208.67
677.393	39348.1
677.741	39600.07
678.09	39375.67
678.438	39273.53
678.787	39281.89
679.135	39408.22
679.484	39094.33
679.832	39193.76
680.181	39086.19
680.529	39163.25
680.877	39058.62
681.225	38867.44
681.573	39173.65
681.922	38883.03
682.27	38713.54
682.618	38853.43
682.966	38714
683.314	38807.78
683.661	38697.95
684.009	38611.63
684.357	38415.92
684.705	38422.93
685.053	38440.33
685.4	38440.33
685.748	38381.35
686.095	38260.9
686.443	38086.89
686.79	38057.97
687.138	38136.38
687.485	38148.36
687.832	37981.36
688.18	38035.6
688.527	37685.1
688.874	37694.59
689.221	37672.89
689.568	37595.38
689.915	37463.41
690.262	37533.01
690.609	37332.11
690.956	37335.5
691.303	37389.96
691.65	37085.11
691.997	36997.66
692.344	36892.58
692.69	36966.02
693.037	36934.83
693.383	36622.07
693.73	36818.23
694.077	36698
694.423	36533.71
694.769	36567.61
695.116	36396.99
695.462	36317.68
695.808	36355.41
696.155	36253.27
696.501	35955.65
696.847	36000.4
697.193	35788.88
697.539	36055.99
697.885	35618.03
698.231	35460.75
698.577	35515.66
698.923	35466.17
699.269	35402.9
699.614	35165.16
699.96	35041.78
700.306	35100.98
700.651	34966.07
700.997	34846.08
701.342	34792.07
701.688	34758.17
702.033	34655.35
702.379	34662.13
702.724	34429.59
703.069	34506.88
703.415	34094.91
703.76	34257.84
704.105	34291.29
704.45	34108.47
704.795	34030.73
705.14	33841.58
705.485	33870.96
705.83	33796.39
706.175	33788.48
706.52	33638.65
706.865	33579.89
707.209	33509.16
707.554	33426.68
707.899	33518.43
708.243	33180.13
708.588	33123.41
708.932	33058.55
709.277	32951.66
709.621	33022.62
709.966	32788.73
710.31	32956.63
710.654	32541.5
710.998	32743.31
711.342	32613.14
711.687	32578.34
712.031	32390.77
712.375	32234.17
712.719	32382.64
713.063	32287.5
713.407	32349.42
713.75	32224.22
714.094	32206.82
714.438	32069.43
714.782	32063.1
715.125	31883.67
715.469	31931.58
715.812	31819.04
716.156	31708.3
716.499	31649.78
716.843	31783.56
717.186	31487.29
717.53	31621.53
717.873	31659.49
718.216	31490.68
718.559	31290.01
718.902	31189
719.246	31164.36
719.589	31196.23
719.932	31042.79
720.275	31033.52
720.617	30979.51
720.96	31000.53
721.303	30929.79
721.646	30916.69
721.989	30767.99
722.331	30870.59
722.674	30852.28
723.016	30713.98
723.359	30618.62
723.701	30708.56
724.044	30549.24
724.386	30520.31
724.729	30563.93
725.071	30483.25
725.413	30254.56
725.755	30212.07
726.097	30146.09
726.439	30082.13
726.782	30079.87
727.124	30286.65
727.465	29985.19
727.807	30065.18
728.149	29869.03
728.491	29994.23
728.833	29996.03
729.175	29815.02
729.516	29903.38
729.858	29766.21
730.199	29808.02
730.541	29689.6
730.882	29677.4
731.224	29754.01
731.565	29547.23
731.906	29684.63
732.248	29585.87
732.589	29427.23
732.93	29279.44
733.271	29387.69
733.612	29363.06
733.953	29385.88
734.294	29283.28
734.635	29114.47
734.976	29213.68
735.317	29072.22
735.658	28944.08
735.999	28987.92
736.339	29010.52
736.68	29052.33
737.021	28863.18
737.361	28743.64
737.702	28918.1
738.042	28760.13
738.383	28792.45
738.723	28827.7
739.063	28597.43
739.404	28762.85
739.744	28650.76
740.084	28519.91
740.424	28491.89
740.764	28490.08
741.104	28655.73
741.444	28418.22
741.784	28342.52
742.124	28456.86
742.464	28436.98
742.804	28385.45
743.143	28315.4
743.483	28241.05
743.823	28128.06
744.162	28017.78
744.502	28169.41
744.841	28085.12
745.181	28199.24
745.52	27974.17
745.86	28017.55
746.199	27891
746.538	27934.84
746.877	27884.9
747.216	27864.56
747.556	27832.93
747.895	27846.94
748.234	27697.34
748.573	27730.78
748.911	27643.33
749.25	27638.13
749.589	27528.08
749.928	27546.38
750.267	27554.74
750.605	27406.5
750.944	27380.06
751.283	27307.29
751.621	27497.12
751.96	27262.55
752.298	27335.09
752.636	27305.48
752.975	27017.81
753.313	27071.36
753.651	27141.19
753.989	27063.46
754.327	26850.81
754.666	26770.81
755.004	26709.79
755.342	26837.47
755.679	26707.76
756.017	26548.21
756.355	26726.06
756.693	26475.45
757.031	26647.42
757.368	26491.49
757.706	26466.18
758.044	26365.17
758.381	26263.02
758.719	26172.41
759.056	26275.91
759.394	26178.51
759.731	26021
760.068	26090.37
