Data from hue_240_FLMS001491_00092.txt Node
Date: Tue Feb 07 16:36:11 GMT 2017
User: dcchb
Spectrometer: FLMS00149
Trigger mode: 0
Integration Time (sec): 2.000000E-2
Scans to average: 10
Electric dark correction enabled: true
Nonlinearity correction enabled: false
Boxcar width: 0
XAxis mode: Wavelengths
Number of Pixels in Spectrum: 2048
>>>>>Begin Spectral Data<<<<<
341.393	-21.76
341.776	-21.76
342.16	-21.76
342.543	-38.26
342.927	-61.54
343.31	-66.96
343.693	-68.32
344.077	-82.1
344.46	-57.24
344.843	-62.67
345.226	-45.49
345.61	-24.48
345.993	-8.88
346.376	16.2
346.759	-4.36
347.142	37.67
347.525	46.93
347.908	57.1
348.291	89.64
348.674	68.18
349.057	104.79
349.44	116.31
349.823	167.38
350.206	172.58
350.588	178.91
350.971	191.56
351.354	207.83
351.737	235.4
352.119	229.53
352.502	260.26
352.884	276.08
353.267	270.66
353.65	286.7
354.032	291
354.414	293.03
354.797	300.94
355.179	324.44
355.562	312.01
355.944	306.14
356.326	326.47
356.709	316.98
357.091	321.95
357.473	336.64
357.855	347.72
358.238	336.19
358.62	321.95
359.002	311.79
359.384	341.16
359.766	331.9
360.148	335.51
360.53	313.82
360.912	350.88
361.294	342.29
361.676	332.8
362.057	340.71
362.439	320.6
362.821	334.84
363.203	332.58
363.584	311.11
363.966	314.27
364.348	300.94
364.729	308.17
365.111	321.5
365.493	314.27
365.874	311.79
366.256	304.78
366.637	301.84
367.019	305.01
367.4	319.92
367.781	318.79
368.163	314.27
368.544	323.54
368.925	310.88
369.306	319.24
369.688	316.08
370.069	311.11
370.45	320.37
370.831	316.53
371.212	308.62
371.593	312.01
371.974	309.75
372.355	314.5
372.736	311.11
373.117	308.62
373.498	325.12
373.879	309.53
374.26	310.66
374.641	307.04
375.021	312.69
375.402	330.09
375.783	319.47
376.163	311.79
376.544	330.77
376.925	325.12
377.305	298.23
377.686	317.44
378.066	319.92
378.447	333.03
378.827	321.73
379.208	332.8
379.588	333.03
379.968	314.95
380.349	331.45
380.729	304.33
381.109	323.31
381.489	318.11
381.87	323.99
382.25	323.99
382.63	312.69
383.01	330.09
383.39	340.49
383.77	348.62
384.15	323.99
384.53	344.1
384.91	326.25
385.29	326.25
385.67	335.06
386.049	360.15
386.429	341.62
386.809	369.86
387.189	340.26
387.568	341.16
387.948	346.36
388.328	332.35
388.707	349.52
389.087	359.69
389.466	340.71
389.846	339.81
390.225	382.74
390.605	356.08
390.984	361.28
391.363	354.72
391.743	377.77
392.122	376.42
392.501	392.24
392.881	366.7
393.26	379.58
393.639	382.97
394.018	378.9
394.397	363.08
394.776	382.07
395.155	384.78
395.534	388.39
395.913	376.64
396.292	392.46
396.671	389.07
397.05	384.1
397.429	395.4
397.808	382.29
398.186	395.85
398.565	406.92
398.944	405.12
399.323	400.82
399.701	416.87
400.08	411.44
400.458	405.34
400.837	420.94
401.215	429.3
401.594	421.39
401.972	422.52
402.351	408.73
402.729	430.65
403.107	443.99
403.486	430.88
403.864	442.63
404.242	433.59
404.62	441.73
404.999	460.93
405.377	442.86
405.755	451.89
406.133	446.7
406.511	442.63
406.889	441.05
407.267	469.52
407.645	477.88
408.023	476.53
408.401	470.65
408.779	477.88
409.156	487.37
409.534	494.83
409.912	477.2
410.29	502.97
410.667	493.93
411.045	508.84
411.422	503.42
411.8	523.53
412.178	503.87
412.555	543.87
412.933	545.68
413.31	559.91
413.687	556.75
414.065	560.82
414.442	568.05
414.819	593.36
415.197	586.81
415.574	591.55
415.951	577.32
416.328	593.81
416.705	602.85
417.082	599.01
417.46	603.53
417.837	617.31
418.214	605.11
418.591	639.91
418.967	632.91
419.344	649.18
419.721	630.65
420.098	649.4
420.475	647.37
420.852	661.61
421.228	660.93
421.605	682.62
421.982	699.12
422.358	668.39
422.735	697.99
423.111	742.28
423.488	751.1
423.864	723.75
424.241	764.2
424.617	774.15
424.994	771.66
425.37	766.69
425.746	808.5
426.123	795.16
426.499	815.28
426.875	812.56
427.251	815.28
427.627	846.01
428.003	844.2
428.379	847.36
428.756	853.47
429.132	860.92
429.507	877.19
429.883	899.11
430.259	918.1
430.635	916.97
431.011	913.58
431.387	936.4
431.763	930.3
432.138	942.5
432.514	967.14
432.89	966.46
433.265	1015.72
433.641	1021.37
434.016	1024.76
434.392	1029.73
434.767	1059.34
435.143	1068.15
435.518	1084.65
435.894	1080.8
436.269	1121.93
436.644	1109.28
437.02	1135.27
437.395	1140.46
437.77	1153.12
438.145	1155.83
438.52	1180.92
438.895	1191.99
439.271	1185.66
439.646	1240.12
440.021	1240.57
440.395	1271.99
440.77	1242.61
441.145	1270.18
441.52	1296.84
441.895	1305.88
442.27	1308.14
442.645	1324.87
443.019	1346.11
443.394	1332.55
443.769	1354.47
444.143	1368.93
444.518	1394.47
444.892	1385.2
445.267	1410.97
445.641	1411.19
446.016	1428.37
446.39	1434.47
446.764	1465.2
447.139	1461.36
447.513	1487.12
447.887	1480.34
448.262	1479.21
448.636	1467.24
449.01	1508.59
449.384	1497.74
449.758	1519.66
450.132	1560.34
450.506	1528.25
450.88	1556.72
451.254	1584.29
451.628	1591.53
452.002	1591.3
452.376	1618.87
452.75	1597.85
453.123	1667
453.497	1660.68
453.871	1679.21
454.244	1692.54
454.618	1708.59
454.992	1740.45
455.365	1739.32
455.739	1754.91
456.112	1825.42
456.486	1781.58
456.859	1822.93
457.232	1835.81
457.606	1834.23
457.979	1855.47
458.352	1918.97
458.725	1930.73
459.099	1924.17
459.472	1986.09
459.845	1987.45
460.218	2020.22
460.591	2011.63
460.964	2033.1
461.337	2034.23
461.71	2124.62
462.083	2138.86
462.456	2149.03
462.829	2108.12
463.201	2169.82
463.574	2167.56
463.947	2191.96
464.32	2236.93
464.692	2258.4
465.065	2262.47
465.438	2282.13
465.81	2345.63
466.183	2335.01
466.555	2387.89
466.928	2405.74
467.3	2434.89
467.672	2473.99
468.045	2520.54
468.417	2471.28
468.789	2522.8
469.161	2579.07
469.534	2592.18
469.906	2650.03
470.278	2621.1
470.65	2667.66
471.022	2761.44
471.394	2767.31
471.766	2775.22
472.138	2802.12
472.51	2878.5
472.882	2919.85
473.253	2936.12
473.625	2991.72
473.997	3011.15
474.369	3081.88
474.74	3046.85
475.112	3113.75
475.484	3146.74
475.855	3186.29
476.227	3225.38
476.598	3320.97
476.97	3293.63
477.341	3426.28
477.713	3446.17
478.084	3451.14
478.455	3581.98
478.827	3566.16
479.198	3672.6
479.569	3659.04
479.94	3794.86
480.311	3802.99
480.682	3864.01
481.053	3944.01
481.424	4042.31
481.795	4048.18
482.166	4066.49
482.537	4078.47
482.908	4210.67
483.279	4218.35
483.65	4293.15
484.021	4368.18
484.391	4423.09
484.762	4467.16
485.133	4493.82
485.503	4545.8
485.874	4628.73
486.244	4701.73
486.615	4702.18
486.985	4783.08
487.356	4854.72
487.726	4892.46
488.097	5005.22
488.467	5028.5
488.837	5048.38
489.207	5148.04
489.578	5190.3
489.948	5212
490.318	5293.12
490.688	5320.24
491.058	5406.79
491.428	5446.79
491.798	5492.89
492.168	5580.8
492.538	5614.02
492.908	5630.29
493.278	5723.39
493.648	5675.71
494.017	5786.44
494.387	5822.83
494.757	5853.56
495.126	5957.74
495.496	5902.6
495.866	5958.42
496.235	6011.07
496.605	6059.88
496.974	6143.72
497.344	6136.94
497.713	6212.87
498.082	6275.7
498.452	6293.32
498.821	6253.32
499.19	6274.79
499.559	6382.36
499.928	6374.23
500.298	6434.79
500.667	6430.27
501.036	6456.48
501.405	6484.73
501.774	6476.6
502.143	6554.33
502.512	6594.78
502.88	6597.27
503.249	6694.22
503.618	6675.91
503.987	6711.84
504.356	6704.16
504.724	6757.49
505.093	6738.96
505.462	6803.82
505.83	6811.05
506.199	6862.8
506.567	6897.6
506.936	6895.12
507.304	6996.13
507.672	6950.03
508.041	7034.32
508.409	7005.62
508.777	7072.96
509.145	7109.57
509.514	7132.4
509.882	7145.5
510.25	7159.06
510.618	7200.64
510.986	7205.39
511.354	7258.5
511.722	7331.71
512.09	7353.86
512.458	7354.54
512.826	7388.66
513.193	7401.54
513.561	7389.57
513.929	7438.83
514.297	7508.66
514.664	7454.65
515.032	7510.01
515.4	7571.48
515.767	7554.31
516.135	7603.12
516.502	7492.84
516.869	7652.38
517.237	7681.99
517.604	7644.02
517.972	7647.19
518.339	7753.4
518.706	7698.03
519.073	7716.34
519.44	7754.98
519.808	7790.68
520.175	7792.72
520.542	7843.34
520.909	7974.18
521.276	7866.84
521.643	7930.57
522.009	7921.75
522.376	7973.73
522.743	7962.43
523.11	8097.8
523.477	8074.07
523.843	8055.76
524.21	8131.92
524.577	8225.93
524.943	8154.97
525.31	8159.26
525.676	8282.65
526.043	8265.47
526.409	8310.9
526.776	8306.6
527.142	8319.03
527.508	8326.94
527.874	8309.54
528.241	8418.01
528.607	8441.74
528.973	8443.32
529.339	8404.91
529.705	8481.74
530.071	8482.19
530.437	8497.33
530.803	8486.49
531.169	8554.73
531.535	8484.9
531.901	8498.69
532.267	8524.45
532.632	8617.33
532.998	8520.84
533.364	8547.5
533.73	8572.81
534.095	8563.32
534.461	8632.02
534.826	8648.06
535.192	8693.03
535.557	8693.94
535.923	8610.32
536.288	8669.76
536.653	8626.82
537.019	8597.44
537.384	8669.31
537.749	8642.87
538.114	8685.58
538.479	8647.39
538.845	8622.53
539.21	8658.68
539.575	8631.57
539.94	8642.19
540.305	8667.05
540.67	8638.12
541.034	8620.49
541.399	8653.04
541.764	8604.45
542.129	8610.55
542.494	8676.09
542.858	8568.74
543.223	8587.05
543.587	8636.76
543.952	8609.42
544.316	8589.08
544.681	8603.54
545.045	8624.79
545.41	8668.4
545.774	8587.27
546.138	8601.96
546.503	8566.03
546.867	8563.55
547.231	8662.75
547.595	8629.08
547.959	8616.65
548.324	8580.04
548.688	8582.3
549.052	8603.32
549.416	8573.49
549.779	8635.18
550.143	8603.32
550.507	8640.38
550.871	8611.91
551.235	8588.86
551.599	8661.62
551.962	8643.09
552.326	8600.83
552.689	8633.83
553.053	8585.69
553.417	8536.2
553.78	8654.84
554.143	8609.87
554.507	8640.61
554.87	8628.4
555.234	8740.49
555.597	8604
555.96	8623.43
556.323	8630.44
556.686	8617.56
557.05	8694.39
557.413	8696.65
557.776	8661.62
558.139	8763.77
558.502	8794.95
558.865	8699.36
559.228	8708.63
559.59	8804.9
559.953	8735.74
560.316	8893.25
560.679	8834.5
561.041	8821.17
561.404	8862.75
561.767	8877.44
562.129	8864.33
562.492	8976.64
562.854	8939.81
563.217	8851.45
563.579	8943.65
563.941	8987.04
564.304	9044.21
564.666	9043.99
565.028	8998.79
565.39	9006.7
565.753	9077.2
566.115	9060.03
566.477	9167.15
566.839	9143.19
567.201	9160.59
567.563	9228.84
567.925	9219.12
568.287	9159.46
568.648	9281.04
569.01	9328.72
569.372	9344.32
569.734	9324.66
570.095	9366.01
570.457	9395.61
570.819	9445.78
571.18	9389.96
571.542	9498.21
571.903	9455.95
572.265	9499.34
572.626	9558.77
572.987	9575.95
573.349	9550.64
573.71	9553.12
574.071	9596.97
574.432	9655.49
574.794	9707.92
575.155	9610.52
575.516	9626.79
575.877	9695.72
576.238	9712.67
576.599	9733.46
576.96	9747.92
577.32	9745.89
577.681	9799.45
578.042	9827.02
578.403	9827.02
578.763	9784.76
579.124	9833.57
579.485	9868.37
579.845	9941.36
580.206	9926.22
580.566	9936.17
580.927	9960.8
581.287	9863.62
581.648	9874.47
582.008	9998.31
582.368	9980.46
582.728	9958.09
583.089	10022.04
583.449	10072.43
583.809	10000.34
584.169	10141.81
584.529	10042.38
584.889	10095.94
585.249	10050.29
585.609	10028.82
585.969	10120.57
586.329	10096.84
586.688	10188.14
587.048	10161.47
587.408	10134.35
587.768	10088.25
588.127	10108.36
588.487	10163.5
588.846	10183.39
589.206	10225.65
589.565	10184.97
589.925	10200.11
590.284	10229.26
590.643	10204.63
591.003	10273.11
591.362	10254.58
591.721	10262.26
592.08	10241.24
592.44	10231.98
592.799	10201.24
593.158	10286.21
593.517	10253.9
593.876	10254.58
594.235	10197.4
594.593	10248.7
594.952	10305.65
595.311	10278.3
595.67	10301.81
596.029	10333.22
596.387	10356.27
596.746	10400.11
597.104	10282.14
597.463	10319.21
597.822	10341.58
598.18	10245.76
598.538	10318.75
598.897	10372.09
599.255	10337.06
599.613	10400.11
599.972	10349.49
600.33	10370.96
600.688	10361.46
601.046	10437.62
601.404	10412.31
601.762	10384.52
602.12	10422.71
602.478	10470.61
602.836	10451.86
603.194	10378.19
603.552	10524.85
603.91	10363.72
604.268	10423.61
604.625	10467.45
604.983	10483.95
605.341	10423.84
605.698	10476.94
606.056	10479.2
606.413	10444.17
606.771	10504.96
607.128	10530.05
607.485	10464.06
607.843	10521.46
608.2	10543.61
608.557	10617.5
608.914	10536.83
609.272	10505.87
609.629	10504.74
609.986	10630.84
610.343	10515.13
610.7	10679.2
611.057	10560.56
611.414	10629.48
611.771	10661.12
612.127	10654.56
612.484	10707.22
612.841	10740.66
613.198	10709.7
613.554	10649.37
613.911	10709.7
614.267	10755.13
614.624	10657.5
614.98	10677.16
615.337	10717.16
615.693	10722.81
616.05	10717.16
616.406	10810.94
616.762	10726.2
617.118	10726.88
617.475	10740.89
617.831	10779.08
618.187	10793.77
618.543	10815.24
618.899	10758.06
619.255	10792.64
619.611	10861.34
619.967	10863.6
620.323	10906.99
620.678	10788.57
621.034	10849.59
621.39	10814.79
621.746	10787.44
622.101	10974.1
622.457	10848.23
622.812	10855.92
623.168	10862.24
623.523	10804.62
623.879	10819.08
624.234	10780.21
624.589	10802.36
624.945	10886.42
625.3	10844.62
625.655	10789.48
626.01	10871.73
626.365	10821.79
626.72	10851.17
627.075	10802.81
627.43	10850.49
627.785	10777.5
628.14	10868.12
628.495	10797.61
628.85	10802.58
629.205	10787.67
629.559	10813.2
629.914	10797.39
630.269	10820.21
630.623	10783.83
630.978	10726.43
631.332	10748.12
631.687	10745.86
632.041	10727.78
632.396	10779.98
632.75	10723.49
633.104	10681.23
633.459	10687.56
633.813	10670.38
634.167	10596.26
634.521	10648.24
634.875	10711.06
635.229	10673.55
635.583	10551.29
635.937	10624.28
636.291	10543.15
636.645	10577.73
636.999	10529.14
637.352	10602.59
637.706	10523.95
638.06	10511.52
638.413	10500.22
638.767	10518.3
639.121	10449.82
639.474	10377.74
639.828	10478.52
640.181	10458.41
640.534	10488.24
640.888	10404.4
641.241	10382.48
641.594	10333.22
641.947	10344.74
642.301	10439.2
642.654	10388.58
643.007	10364.18
643.36	10395.14
643.713	10372.76
644.066	10456.6
644.419	10380.67
644.771	10253.67
645.124	10216.61
645.477	10145.43
645.83	10097.97
646.182	10056.61
646.535	9999.67
646.888	10029.04
647.24	9982.27
647.593	10054.13
647.945	9987.24
648.298	9874.92
648.65	9862.95
649.002	9872.44
649.355	9942.49
649.707	9923.06
650.059	9911.53
650.411	10043.51
650.763	10068.14
651.115	10186.33
651.467	10108.36
651.819	10128.93
652.171	10184.75
652.523	10115.37
652.875	10145.43
653.227	10071.53
653.578	10204.41
653.93	10143.62
654.282	10083.28
654.633	10154.69
654.985	10084.64
655.337	10094.58
655.688	10081.92
656.039	10172.32
656.391	10054.13
656.742	10074.01
657.094	10081.47
657.445	10067.69
657.796	10112.66
658.147	10049.38
658.498	10059.1
658.849	10106.1
659.2	10068.37
659.551	10076.5
659.902	10106.78
660.253	10096.39
660.604	10159.21
660.955	10092.77
661.306	10104.75
661.656	10064.52
662.007	10032.43
662.358	10081.7
662.708	10067.91
663.059	10096.16
663.409	10009.84
663.76	10112.43
664.11	10051.19
664.461	10041.25
664.811	10083.51
665.161	10049.16
665.511	10051.19
665.862	10109.72
666.212	10073.56
666.562	10098.19
666.912	10006.22
667.262	10015.49
667.612	10028.59
667.962	10057.29
668.312	9998.99
668.662	10095.26
669.011	10058.87
669.361	10073.34
669.711	9985.2
670.06	10032.43
670.41	10030.85
670.76	9975.03
671.109	10025.65
671.459	10051.64
671.808	9932.78
672.157	10011.87
672.507	9960.57
672.856	9908.82
673.205	9909.95
673.554	9954.24
673.904	9916.73
674.253	9942.04
674.602	9947.01
674.951	9846
675.3	9781.59
675.649	9909.95
675.998	9897.07
676.346	9949.95
676.695	9869.5
677.044	9808.94
677.393	9880.35
677.741	9820.24
678.09	9852.1
678.438	9822.5
678.787	9820.91
679.135	9828.6
679.484	9732.1
679.832	9798.09
680.181	9790.41
680.529	9841.25
680.877	9709.5
681.225	9690.3
681.573	9747.92
681.922	9650.07
682.27	9677.64
682.618	9637.19
682.966	9664.08
683.314	9676.29
683.661	9599.45
684.009	9491.21
684.357	9568.49
684.705	9515.39
685.053	9575.04
685.4	9501.83
685.748	9516.52
686.095	9475.61
686.443	9443.3
686.79	9474.26
687.138	9372.56
687.485	9380.93
687.832	9364.2
688.18	9404.88
688.527	9318.33
688.874	9360.59
689.221	9276.07
689.568	9174.83
689.915	9227.03
690.262	9246.01
690.609	9242.85
690.956	9160.14
691.303	9135.96
691.65	9043.31
691.997	9141.38
692.344	9058.45
692.69	8994.5
693.037	9009.86
693.383	8957.89
693.73	9011.9
694.077	8965.12
694.423	8956.08
694.769	8950.88
695.116	8774.16
695.462	8845.8
695.808	8755.86
696.155	8767.16
696.501	8746.59
696.847	8730.77
697.193	8690.77
697.539	8665.92
697.885	8624.34
698.231	8618.46
698.577	8573.04
698.923	8579.59
699.269	8599.93
699.614	8433.61
699.96	8449.88
700.306	8420.72
700.651	8408.07
700.997	8385.25
701.342	8374.85
701.688	8328.52
702.033	8377.79
702.379	8292.82
702.724	8279.03
703.069	8277.45
703.415	8146.16
703.76	8175.53
704.105	8172.37
704.45	8110
704.795	8149.09
705.14	8071.13
705.485	8080.17
705.83	8026.16
706.175	8062.54
706.52	8028.87
706.865	8045.14
707.209	7954.52
707.554	7918.59
707.899	7977.12
708.243	7922.88
708.588	7910.91
708.932	7788.65
709.277	7858.93
709.621	7817.12
709.966	7766.96
710.31	7809.44
710.654	7743.23
710.998	7727.64
711.342	7702.1
711.687	7717.69
712.031	7744.13
712.375	7694.19
712.719	7636.56
713.063	7616.68
713.407	7586.85
713.75	7653.29
714.094	7550.01
714.438	7501.88
714.782	7597.7
715.125	7556.11
715.469	7521.99
715.812	7496.46
716.156	7443.12
716.499	7453.52
716.843	7534.19
717.186	7433.41
717.53	7501.88
717.873	7386.85
718.216	7419.85
718.559	7424.59
718.902	7394.99
719.246	7378.72
719.589	7372.39
719.932	7329.91
720.275	7289.68
720.617	7331.49
720.96	7286.97
721.303	7289.46
721.646	7214.65
721.989	7253.75
722.331	7314.77
722.674	7202
723.016	7248.1
723.359	7243.35
723.701	7256.91
724.044	7235.45
724.386	7195.22
724.729	7197.03
725.071	7187.76
725.413	7158.84
725.755	7218.04
726.097	7155.67
726.439	7096.01
726.782	7117.26
727.124	7101.66
727.465	7119.06
727.807	7119.06
728.149	7098.05
728.491	7081.1
728.833	7097.14
729.175	7066.86
729.516	7065.51
729.858	7042.68
730.199	7100.99
730.541	7138.27
730.882	7052.17
731.224	7058.73
731.565	7035.45
731.906	7066.86
732.248	7079.52
732.589	7012.63
732.93	6993.64
733.271	6981.89
733.612	7036.81
733.953	7023.25
734.294	7036.81
734.635	6969.69
734.976	7054.89
735.317	7013.76
735.658	6985.28
735.999	7000.65
736.339	7060.08
736.68	7044.94
737.021	7037.03
737.361	7024.38
737.702	6999.97
738.042	6968.11
738.383	6987.99
738.723	7010.37
739.063	6992.74
739.404	7044.72
739.744	7017.82
740.084	7000.42
740.424	6999.75
740.764	6987.54
741.104	7032.06
741.444	7027.54
741.784	7076.35
742.124	7009.01
742.464	7030.93
742.804	7019.63
743.143	7049.69
743.483	7075.22
743.823	7084.49
744.162	7059.4
744.502	7103.92
744.841	7104.15
745.181	7133.75
745.52	7102.12
745.86	7140.08
746.199	7183.7
746.538	7152.74
746.877	7243.13
747.216	7252.17
747.556	7257.82
747.895	7356.12
748.234	7295.78
748.573	7313.86
748.911	7374.2
749.25	7355.22
749.589	7401.09
749.928	7507.08
750.267	7530.58
750.605	7583.68
750.944	7570.13
751.283	7643.57
751.621	7696
751.96	7755.66
752.298	7736.68
752.636	7873.17
752.975	7845.82
753.313	7922.43
753.651	8048.08
753.989	8058.7
754.327	8088.53
754.666	8138.92
755.004	8253.27
755.342	8254.85
755.679	8372.59
756.017	8451.91
756.355	8610.55
756.693	8537.11
757.031	8719.02
757.368	8654.39
757.706	8820.26
758.044	8862.3
758.381	8999.47
758.719	9076.98
759.056	9124.66
759.394	9225.45
759.731	9305.67
760.068	9387.48
760.405	9508.83
760.743	9544.31
761.08	9669.96
761.417	9751.76
761.754	9817.98
762.091	9882.38
762.428	9982.04
762.765	10029.72
763.102	10204.63
763.438	10255.03
763.775	10304.52
764.112	10406.66
764.449	10569.82
764.785	10619.54
