Data from hue_180_FLMS001491_00013.txt Node
Date: Tue Feb 07 16:46:37 GMT 2017
User: dcchb
Spectrometer: FLMS00149
Trigger mode: 0
Integration Time (sec): 2.000000E-2
Scans to average: 10
Electric dark correction enabled: true
Nonlinearity correction enabled: false
Boxcar width: 0
XAxis mode: Wavelengths
Number of Pixels in Spectrum: 2048
>>>>>Begin Spectral Data<<<<<
341.393	-10.99
341.776	-10.99
342.16	-10.99
342.543	-61.61
342.927	-74.94
343.31	-64.77
343.693	-67.26
344.077	-56.18
344.46	-55.51
344.843	-52.8
345.226	-39.91
345.61	-36.98
345.993	-27.26
346.376	-6.47
346.759	10.03
347.142	12.51
347.525	51.83
347.908	64.26
348.291	63.36
348.674	93.42
349.057	111.72
349.44	124.15
349.823	143.58
350.206	173.87
350.588	184.03
350.971	226.52
351.354	207.54
351.737	240.3
352.119	259.74
352.502	251.15
352.884	277.37
353.267	264.94
353.65	286.18
354.032	314.65
354.414	311.26
354.797	298.38
355.179	316.91
355.562	303.35
355.944	321.43
356.326	306.97
356.709	326.18
357.091	333.64
357.473	321.88
357.855	327.99
358.238	335.44
358.62	345.16
359.002	354.2
359.384	334.77
359.766	323.47
360.148	331.6
360.53	335.22
360.912	338.83
361.294	339.51
361.676	328.44
362.057	325.27
362.439	329.34
362.821	306.29
363.203	311.49
363.584	319.62
363.966	307.65
364.348	337.25
364.729	325.95
365.111	320.3
365.493	304.71
365.874	308.33
366.256	324.6
366.637	322.79
367.019	302.22
367.4	308.33
367.781	312.62
368.163	309.68
368.544	318.72
368.925	320.53
369.306	334.09
369.688	316.69
370.069	292.96
370.45	325.05
370.831	290.47
371.212	334.54
371.593	322.11
371.974	306.74
372.355	321.43
372.736	302.45
373.117	307.42
373.498	297.03
373.879	317.82
374.26	334.54
374.641	320.3
375.021	321.43
375.402	322.56
375.783	319.17
376.163	310.81
376.544	316.69
376.925	327.31
377.305	330.7
377.686	313.75
378.066	304.48
378.447	326.86
378.827	332.28
379.208	331.83
379.588	329.57
379.968	319.4
380.349	329.57
380.729	325.5
381.109	331.15
381.489	338.83
381.87	338.61
382.25	334.54
382.63	346.74
383.01	347.87
383.39	339.51
383.77	317.14
384.15	350.58
384.53	344.26
384.91	342.22
385.29	362.11
385.67	350.36
386.049	351.04
386.429	341.09
386.809	351.04
387.189	367.08
387.568	355.56
387.948	360.75
388.328	352.84
388.707	372.05
389.087	358.04
389.466	361.21
389.846	342
390.225	353.52
390.605	368.66
390.984	372.28
391.363	350.13
391.743	365.72
392.122	379.51
392.501	391.03
392.881	389
393.26	369.57
393.639	374.99
394.018	387.65
394.397	388.55
394.776	390.36
395.155	366.85
395.534	403.01
395.913	373.86
396.292	376.35
396.671	399.4
397.05	368.66
397.429	378.83
397.808	383.13
398.186	389
398.565	363.01
398.944	404.82
399.323	398.72
399.701	398.04
400.08	420.64
400.458	402.33
400.837	391.26
401.215	423.35
401.594	410.47
401.972	398.49
402.351	411.37
402.729	424.03
403.107	405.05
403.486	431.26
403.864	427.19
404.242	436.46
404.62	450.24
404.999	461.99
405.377	440.98
405.755	431.94
406.133	457.02
406.511	442.56
406.889	468.77
407.267	474.2
407.645	475.33
408.023	468.55
408.401	477.36
408.779	487.76
409.156	492.28
409.534	497.7
409.912	507.19
410.29	505.83
410.667	492.5
411.045	516.23
411.422	529.11
411.8	532.95
412.178	540.18
412.555	555.78
412.933	578.15
413.31	563.23
413.687	555.55
414.065	573.4
414.442	593.52
414.819	582.89
415.197	581.09
415.574	620.63
415.951	605.49
416.328	615.44
416.705	617.02
417.082	620.86
417.46	610.92
417.837	650.46
418.214	650.46
418.591	659.5
418.967	658.37
419.344	672.61
419.721	680.52
420.098	692.72
420.475	694.3
420.852	716.45
421.228	721.42
421.605	715.55
421.982	710.35
422.358	732.95
422.735	758.48
423.111	762.78
423.488	756.22
423.864	794.19
424.241	791.48
424.617	788.76
424.994	833.96
425.37	820.4
425.746	814.53
426.123	857.92
426.499	829.22
426.875	854.07
427.251	874.41
427.627	890.46
428.003	900.17
428.379	898.59
428.756	935.2
429.132	919.61
429.507	950.79
429.883	933.85
430.259	969.32
430.635	959.38
431.011	955.54
431.387	993.96
431.763	1021.75
432.138	1034.18
432.514	1050.68
432.89	1040.06
433.265	1051.81
433.641	1075.76
434.016	1109.66
434.392	1092.03
434.767	1142.88
435.143	1174.07
435.518	1140.62
435.894	1165.93
436.269	1195.53
436.644	1203.44
437.02	1224.91
437.395	1231.69
437.77	1262.65
438.145	1291.35
438.52	1296.77
438.895	1304.01
439.271	1301.75
439.646	1340.39
440.021	1362.76
440.395	1390.78
440.77	1379.26
441.145	1399.6
441.52	1423.78
441.895	1417.22
442.27	1469.42
442.645	1478.01
443.019	1467.84
443.394	1472.36
443.769	1503.55
444.143	1492.47
444.518	1513.49
444.892	1525.92
445.267	1560.5
445.641	1562.53
446.016	1571.57
446.39	1581.51
446.764	1613.15
447.139	1587.61
447.513	1628.06
447.887	1632.81
448.262	1642.08
448.636	1673.71
449.01	1694.5
449.384	1734.95
449.758	1717.55
450.132	1742.41
450.506	1742.64
450.88	1764.11
451.254	1748.74
451.628	1771.56
452.002	1795.97
452.376	1808.17
452.75	1826.03
453.123	1852.01
453.497	1879.58
453.871	1913.93
454.244	1944.44
454.618	1972.69
454.992	1976.98
455.365	2013.82
455.739	2033.03
456.112	2046.81
456.486	2057.21
456.859	2075.51
457.232	2109.63
457.606	2132.23
457.979	2163.64
458.352	2210.65
458.725	2215.62
459.099	2233.7
459.472	2312.34
459.845	2314.6
460.218	2350.08
460.591	2348.27
460.964	2388.04
461.337	2477.76
461.71	2461.04
462.083	2475.27
462.456	2515.5
462.829	2555.95
463.201	2562.5
463.574	2572.9
463.947	2649.73
464.32	2700.35
464.692	2723.63
465.065	2757.07
465.438	2764.76
465.81	2800.01
466.183	2855.6
466.555	2894.25
466.928	2939.89
467.3	2929.27
467.672	2966.79
468.045	3115.48
468.417	3080.46
468.789	3087.24
469.161	3179.44
469.534	3262.15
469.906	3311.41
470.278	3358.19
470.65	3364.29
471.022	3431.41
471.394	3500.56
471.766	3534.46
472.138	3625.07
472.51	3685.86
472.882	3761.12
473.253	3772.41
473.625	3871.85
473.997	3924.5
474.369	3964.27
474.74	4014.67
475.112	4157.49
475.484	4175.34
475.855	4216.25
476.227	4304.83
476.598	4467.99
476.97	4490.14
477.341	4600.42
477.713	4656.23
478.084	4732.16
478.455	4829.56
478.827	4889.9
479.198	5102.1
479.569	5134.86
479.94	5195.65
480.311	5323.11
480.682	5380.73
481.053	5505.25
481.424	5644.23
481.795	5733.49
482.166	5797.67
482.537	5903.88
482.908	6004.45
483.279	6133.93
483.65	6218.23
484.021	6361.5
484.391	6479.01
484.762	6527.14
485.133	6636.29
485.503	6707.7
485.874	6843.52
486.244	6967.36
486.615	7076.51
486.985	7208.03
487.356	7301.81
487.726	7385.88
488.097	7599.21
488.467	7611.18
488.837	7791.97
489.207	7871.06
489.578	8058.86
489.948	8089.59
490.318	8169.81
490.688	8250.94
491.058	8372.52
491.428	8487.09
491.798	8644.15
492.168	8845.05
492.538	8815.45
492.908	8962.33
493.278	9039.4
493.648	9078.26
494.017	9192.16
494.387	9265.6
494.757	9350.35
495.126	9469.44
495.496	9581.75
495.866	9566.16
496.235	9676.44
496.605	9773.61
496.974	9801.63
497.344	9935.42
497.713	10024.45
498.082	10044.79
498.452	10130.44
498.821	10133.6
499.19	10152.59
499.559	10239.82
499.928	10296.76
500.298	10343.09
500.667	10480.94
501.036	10516.42
501.405	10633.03
501.774	10598
502.143	10631.44
502.512	10631.9
502.88	10714.83
503.249	10766.58
503.618	10790.54
503.987	10863.3
504.356	10851.78
504.724	10979.46
505.093	10954.37
505.462	11010.42
505.83	11005.9
506.199	11121.15
506.567	11268.72
506.936	11175.61
507.304	11422.84
507.672	11301.03
508.041	11345.78
508.409	11368.6
508.777	11402.04
509.145	11515.26
509.514	11510.06
509.882	11578.54
510.25	11565.66
510.618	11673.22
510.986	11604.07
511.354	11662.6
511.722	11739.89
512.09	11797.51
512.458	11744.18
512.826	11829.83
513.193	11840
513.561	11848.36
513.929	11840
514.297	12006.1
514.664	12038.86
515.032	11984.18
515.4	12061.46
515.767	12081.35
516.135	12061.01
516.502	11955.48
516.869	12121.12
517.237	12121.35
517.604	12053.55
517.972	12122.93
518.339	12230.5
518.706	12152.53
519.073	12141.46
519.44	12252.19
519.808	12329.48
520.175	12262.36
520.542	12324.05
520.909	12416.03
521.276	12298.07
521.643	12357.5
522.009	12363.38
522.376	12448.8
522.743	12442.47
523.11	12422.81
523.477	12558.62
523.843	12592.3
524.21	12663.71
524.577	12617.38
524.943	12622.58
525.31	12611.05
525.676	12664.61
526.043	12739.18
526.409	12707.77
526.776	12698.96
527.142	12740.09
527.508	12736.47
527.874	12825.74
528.241	12764.27
528.607	12735.57
528.973	12798.17
529.339	12755.46
529.705	12763.59
530.071	12843.36
530.437	12725.4
530.803	12737.83
531.169	12707.77
531.535	12768.56
531.901	12645.85
532.267	12581.45
532.632	12619.87
532.998	12652.86
533.364	12682.01
533.73	12596.14
534.095	12704.38
534.461	12592.75
534.826	12564.73
535.192	12543.48
535.557	12570.83
535.923	12432.98
536.288	12435.69
536.653	12464.84
537.019	12398.4
537.384	12307.33
537.749	12318.4
538.114	12246.09
538.479	12211.52
538.845	12229.37
539.21	12199.99
539.575	12176.26
539.94	12088.13
540.305	12051.52
540.67	12051.75
541.034	11997.74
541.399	11992.76
541.764	11920.45
542.129	11887.68
542.494	11840.45
542.858	11902.37
543.223	11795.03
543.587	11828.25
543.952	11655.6
544.316	11667.35
544.681	11591.42
545.045	11741.47
545.41	11546
545.774	11518.43
546.138	11462.38
546.503	11439.78
546.867	11449.28
547.231	11369.28
547.595	11416.73
547.959	11362.27
548.324	11231.65
548.688	11177.87
549.052	11109.4
549.416	11124.76
549.779	11073.47
550.143	11078.89
550.507	11084.54
550.871	11000.02
551.235	10970.19
551.599	10999.57
551.962	10873.02
552.326	10909.4
552.689	10891.1
553.053	10721.16
553.417	10774.26
553.78	10818.56
554.143	10756.64
554.507	10735.62
554.87	10708.05
555.234	10801.61
555.597	10573.37
555.96	10585.34
556.323	10594.38
556.686	10513.48
557.05	10547.38
557.413	10524.33
557.776	10513.71
558.139	10527.94
558.502	10487.04
558.865	10448.85
559.228	10531.56
559.59	10455.4
559.953	10482.07
560.316	10488.62
560.679	10444.1
561.041	10493.37
561.404	10432.35
561.767	10450.66
562.129	10446.59
562.492	10452.92
562.854	10393.26
563.217	10336.76
563.579	10444.1
563.941	10454.27
564.304	10397.33
564.666	10398.23
565.028	10382.64
565.39	10387.61
565.753	10433.48
566.115	10434.61
566.477	10459.7
566.839	10412.24
567.201	10487.94
567.563	10461.73
567.925	10472.8
568.287	10482.52
568.648	10383.09
569.01	10489.3
569.372	10528.4
569.734	10399.13
570.095	10448.85
570.457	10475.52
570.819	10479.36
571.18	10426.93
571.542	10528.4
571.903	10524.1
572.265	10542.63
572.626	10518.45
572.987	10472.8
573.349	10522.07
573.71	10525.91
574.071	10525.01
574.432	10519.81
574.794	10608.17
575.155	10580.6
575.516	10508.96
575.877	10568.39
576.238	10555.74
576.599	10512.35
576.96	10549.64
577.32	10548.73
577.681	10494.95
578.042	10564.55
578.403	10520.94
578.763	10464.67
579.124	10499.02
579.485	10528.62
579.845	10596.87
580.206	10539.47
580.566	10530.88
580.927	10517.1
581.287	10529.3
581.648	10546.02
582.008	10567.26
582.368	10517.77
582.728	10497.44
583.089	10497.89
583.449	10458.57
583.809	10441.39
584.169	10416.53
584.529	10513.03
584.889	10485.91
585.249	10438.91
585.609	10368.4
585.969	10459.02
586.329	10373.82
586.688	10444.56
587.048	10387.61
587.408	10384.44
587.768	10400.49
588.127	10327.27
588.487	10336.99
588.846	10384.67
589.206	10321.4
589.565	10326.82
589.925	10394.84
590.284	10329.08
590.643	10241.85
591.003	10349.42
591.362	10333.37
591.721	10267.84
592.08	10308.97
592.44	10318.23
592.799	10293.37
593.158	10223.32
593.517	10230.32
593.876	10267.16
594.235	10235.3
594.593	10222.41
594.952	10240.27
595.311	10173.15
595.67	10219.7
596.029	10244.56
596.387	10300.38
596.746	10273.26
597.104	10189.2
597.463	10208.86
597.822	10263.54
598.18	10156.2
598.538	10159.37
598.897	10160.5
599.255	10111.23
599.613	10242.75
599.972	10160.5
600.33	10136.54
600.688	10132.93
601.046	10137.45
601.404	10152.81
601.762	10205.92
602.12	10191.68
602.478	10219.7
602.836	10217.9
603.194	10127.95
603.552	10211.34
603.91	10046.15
604.268	10203.43
604.625	10122.08
604.983	10173.15
605.341	10137.45
605.698	10142.87
606.056	10150.33
606.413	10097.22
606.771	10169.31
607.128	10176.31
607.485	10152.81
607.843	10111.01
608.2	10213.15
608.557	10210.44
608.914	10187.84
609.272	10222.19
609.629	10220.61
609.986	10312.58
610.343	10185.13
610.7	10301.06
611.057	10283.2
611.414	10203.88
611.771	10226.71
612.127	10230.32
612.484	10264.45
612.841	10290.44
613.198	10181.51
613.554	10210.89
613.911	10306.93
614.267	10292.7
614.624	10318.23
614.98	10301.51
615.337	10342.41
615.693	10296.76
616.05	10248.63
616.406	10383.31
616.762	10312.13
617.118	10261.96
617.475	10260.38
617.831	10360.04
618.187	10318.46
618.543	10315.75
618.899	10451.79
619.255	10376.99
619.611	10322.75
619.967	10354.61
620.323	10427.38
620.678	10372.24
621.034	10283.66
621.39	10353.94
621.746	10363.43
622.101	10495.18
622.457	10378.34
622.812	10363.2
623.168	10429.19
623.523	10381.05
623.879	10458.11
624.234	10416.76
624.589	10478
624.945	10343.54
625.3	10424.67
625.655	10401.62
626.01	10423.31
626.365	10385.57
626.72	10372.69
627.075	10376.08
627.43	10364.78
627.785	10313.49
628.14	10348.06
628.495	10323.2
628.85	10389.42
629.205	10252.7
629.559	10358.91
629.914	10325.24
630.269	10354.61
630.623	10264
630.978	10286.82
631.332	10272.36
631.687	10277.78
632.041	10205.69
632.396	10225.58
632.75	10226.48
633.104	10226.48
633.459	10235.3
633.813	10217.9
634.167	10235.07
634.521	10153.49
634.875	10188.07
635.229	10169.31
635.583	10087.5
635.937	10083.89
636.291	10094.73
636.645	10101.51
636.999	10085.24
637.352	10102.42
637.706	10002.08
638.06	10053.83
638.413	10052.25
638.767	10070.78
639.121	10078.92
639.474	9960.73
639.828	9990.1
640.181	9925.93
640.534	9940.84
640.888	9940.61
641.241	9907.39
641.594	9965.47
641.947	9965.47
642.301	9939.26
642.654	9876.44
643.007	9927.73
643.36	9886.83
643.713	9835.08
644.066	9859.26
644.419	9880.95
644.771	9801.41
645.124	9651.81
645.477	9723.22
645.83	9646.61
646.182	9678.47
646.535	9559.61
646.888	9571.58
647.24	9516.9
647.593	9533.62
647.945	9550.34
648.298	9504.02
648.65	9558.48
649.002	9533.85
649.355	9538.14
649.707	9577.23
650.059	9587.86
650.411	9686.16
650.763	9702.65
651.115	9759.83
651.467	9742.43
651.819	9770
652.171	9674.86
652.523	9713.05
652.875	9722.77
653.227	9660.85
653.578	9734.74
653.93	9755.31
654.282	9723.22
654.633	9695.2
654.985	9711.24
655.337	9723.9
655.688	9773.84
656.039	9846.38
656.391	9633.73
656.742	9701.75
657.094	9757.79
657.445	9694.97
657.796	9735.65
658.147	9784.91
658.498	9816.1
658.849	9737.91
659.2	9755.53
659.551	9746.72
659.902	9745.82
660.253	9747.17
660.604	9766.38
660.955	9701.98
661.306	9792.82
661.656	9772.94
662.007	9795.08
662.358	9823.78
662.708	9784.91
663.059	9764.12
663.409	9761.64
663.76	9798.25
664.11	9746.5
664.461	9802.99
664.811	9769.77
665.161	9793.5
665.511	9702.88
665.862	9786.04
666.212	9787.4
666.562	9785.59
666.912	9810.9
667.262	9799.83
667.612	9749.66
667.962	9776.78
668.312	9815.19
668.662	9872.82
669.011	9711.02
669.361	9803.89
669.711	9803.22
670.06	9693.62
670.41	9734.74
670.76	9816.55
671.109	9786.27
671.459	9772.71
671.808	9808.19
672.157	9770
672.507	9744.46
672.856	9656.78
673.205	9682.32
673.554	9753.95
673.904	9660.62
674.253	9773.84
674.602	9688.87
674.951	9544.01
675.3	9544.47
675.649	9668.76
675.998	9610.23
676.346	9686.84
676.695	9696.78
677.044	9555.99
677.393	9673.5
677.741	9623.11
678.09	9585.82
678.438	9620.85
678.787	9610.68
679.135	9551.47
679.484	9515.99
679.832	9522.09
680.181	9417.01
680.529	9464.69
680.877	9442.1
681.225	9448.88
681.573	9504.69
681.922	9430.12
682.27	9442.55
682.618	9436.67
682.966	9370.46
683.314	9448.2
683.661	9363.68
684.009	9348.54
684.357	9214.76
684.705	9360.74
685.053	9289.56
685.4	9187.19
685.748	9218.37
686.095	9191.48
686.443	9177.02
686.79	9117.59
687.138	9186.28
687.485	9200.29
687.832	9167.08
688.18	9137.7
688.527	9052.95
688.874	9036.91
689.221	9020.64
689.568	8968.66
689.915	8988.32
690.262	8928.44
690.609	8898.83
690.956	8925.73
691.303	8908.55
691.65	8821.32
691.997	8810.93
692.344	8774.32
692.69	8735
693.037	8727.54
693.383	8712.17
693.73	8680.08
694.077	8586.75
694.423	8606.86
694.769	8603.47
695.116	8536.13
695.462	8575
695.808	8535.23
696.155	8450.48
696.501	8366.87
696.847	8364.16
697.193	8334.55
697.539	8392.86
697.885	8266.53
698.231	8308.34
698.577	8231.05
698.923	8273.77
699.269	8232.86
699.614	8215.91
699.96	8132.3
700.306	8137.27
700.651	8021.79
700.997	8081.91
701.342	8027.67
701.688	8045.3
702.033	7980.89
702.379	7988.8
702.724	7980.89
703.069	8005.07
703.415	7881.46
703.76	7840.56
704.105	7839.2
704.45	7773.67
704.795	7830.16
705.14	7732.54
705.485	7767.56
705.83	7680.79
706.175	7732.76
706.52	7615.25
706.865	7580.9
707.209	7626.78
707.554	7583.61
707.899	7535.93
708.243	7499.77
708.588	7465.88
708.932	7417.06
709.277	7443.96
709.621	7475.82
709.966	7355.37
710.31	7401.7
710.654	7351.98
710.998	7370.96
711.342	7396.73
711.687	7290.74
712.031	7234.92
712.375	7251.42
712.719	7280.8
713.063	7235.37
713.407	7237.18
713.75	7208.26
714.094	7190.86
714.438	7199.9
714.782	7202.38
715.125	7164.64
715.469	7137.3
715.812	7138.88
716.156	7065.44
716.499	7121.71
716.843	7161.25
717.186	7079.22
717.53	7130.52
717.873	7115.6
718.216	7037.19
718.559	7049.62
718.902	6963.07
719.246	7044.19
719.589	7015.95
719.932	6931.65
720.275	7029.5
720.617	6938.66
720.96	6997.64
721.303	6980.92
721.646	6979.56
721.989	6890.07
722.331	6955.38
722.674	6938.66
723.016	6918.55
723.359	6877.42
723.701	6874.71
724.044	6862.5
724.386	6858.89
724.729	6922.61
725.071	6867.47
725.413	6865.89
725.755	6864.99
726.097	6836.97
726.439	6869.28
726.782	6782.96
727.124	6835.39
727.465	6836.74
727.807	6837.65
728.149	6803.52
728.491	6801.26
728.833	6817.31
729.175	6807.36
729.516	6790.87
729.858	6784.77
730.199	6769.85
730.541	6770.08
730.882	6773.01
731.224	6779.34
731.565	6773.24
731.906	6812.11
732.248	6811.66
732.589	6784.54
732.93	6761.71
733.271	6775.27
733.612	6790.64
733.953	6776.63
734.294	6743.18
734.635	6738.66
734.976	6775.5
735.317	6717.65
735.658	6748.16
735.999	6799.68
736.339	6727.14
736.68	6828.61
737.021	6779.12
737.361	6759.23
737.702	6829.74
738.042	6754.26
738.383	6773.24
738.723	6823.86
739.063	6848.27
739.404	6850.3
739.744	6819.57
740.084	6764.65
740.424	6851.2
740.764	6777.08
741.104	6945.21
741.444	6880.81
741.784	6915.16
742.124	6940.02
742.464	6947.02
742.804	6976.85
743.143	6895.27
743.483	7006.23
743.823	6963.07
744.162	7032.22
744.502	7072.22
744.841	7076.06
745.181	7102.5
745.52	7086.45
745.86	7189.5
746.199	7225.66
746.538	7222.04
746.877	7309.95
747.216	7338.87
747.556	7359.44
747.895	7423.62
748.234	7480.57
748.573	7457.29
748.911	7493.9
749.25	7575.7
749.589	7696.83
749.928	7728.02
750.267	7827
750.605	7848.47
750.944	7938.86
751.283	7963.94
751.621	8068.57
751.96	8123.26
752.298	8204.16
752.636	8394.21
752.975	8445.29
753.313	8508.34
753.651	8612.51
753.989	8708.1
754.327	8836.24
754.666	8921.66
755.004	9025.84
755.342	9116
755.679	9231.71
756.017	9387.18
756.355	9533.17
756.693	9633.96
757.031	9794.18
757.368	9836.21
757.706	10073.94
758.044	10180.38
758.381	10348.51
758.719	10420.6
759.056	10683.65
759.394	10782.17
759.731	10846.58
760.068	11060.36
760.405	11139.45
760.743	11257.19
761.08	11451.99
761.417	11625.32
761.754	11757.74
762.091	11992.99
