Data from hue_90_FLMS001491_71.txt Node
Date: Mon Feb 06 15:25:37 GMT 2017
User: dcchb
Spectrometer: FLMS00149
Trigger mode: 0
Integration Time (sec): 2.000000E-2
Scans to average: 10
Electric dark correction enabled: true
Nonlinearity correction enabled: false
Boxcar width: 0
XAxis mode: Wavelengths
Number of Pixels in Spectrum: 2048
>>>>>Begin Spectral Data<<<<<
341.393	-23.5
341.776	-23.5
342.16	-23.5
342.543	-75.03
342.927	-73.9
343.31	-57.17
343.693	-79.77
344.077	-73.44
344.46	-59.21
344.843	-48.59
345.226	-52.43
345.61	-50.17
345.993	-12.2
346.376	-12.66
346.759	19.89
347.142	23.05
347.525	55.82
347.908	51.98
348.291	71.18
348.674	107.34
349.057	116.38
349.44	145.53
349.823	135.82
350.206	155.02
350.588	188.24
350.971	211.75
351.354	239.32
351.737	247.45
352.119	254.91
352.502	237.51
352.884	252.2
353.267	261.01
353.65	308.24
354.032	277.28
354.414	318.64
354.797	334.68
355.179	305.75
355.562	304.85
355.944	318.18
356.326	343.72
356.709	324.51
357.091	332.87
357.473	337.17
357.855	334
358.238	327.9
358.62	366.54
359.002	337.62
359.384	333.32
359.766	342.59
360.148	334.68
360.53	332.65
360.912	328.35
361.294	337.17
361.676	321.8
362.057	318.18
362.439	332.19
362.821	320.9
363.203	302.82
363.584	300.33
363.966	347.56
364.348	319.99
364.729	321.12
365.111	320.44
365.493	314.12
365.874	332.65
366.256	315.25
366.637	336.94
367.019	308.01
367.4	313.44
367.781	312.08
368.163	326.55
368.544	291.97
368.925	301.91
369.306	313.21
369.688	303.72
370.069	325.64
370.45	304.62
370.831	299.43
371.212	314.79
371.593	304.4
371.974	306.43
372.355	309.82
372.736	305.3
373.117	298.07
373.498	319.77
373.879	327.45
374.26	294.23
374.641	290.16
375.021	321.35
375.402	313.21
375.783	321.57
376.163	322.93
376.544	325.19
376.925	330.39
377.305	319.09
377.686	326.32
378.066	350.5
378.447	342.14
378.827	317.05
379.208	315.92
379.588	340.1
379.968	329.48
380.349	325.42
380.729	315.7
381.109	318.41
381.489	364.74
381.87	332.42
382.25	338.3
382.63	339.43
383.01	348.47
383.39	336.71
383.77	322.03
384.15	337.62
384.53	338.52
384.91	349.37
385.29	344.4
385.67	342.59
386.049	340.33
386.429	346.66
386.809	339.2
387.189	367.45
387.568	373.78
387.948	353.44
388.328	348.01
388.707	351.4
389.087	378.52
389.466	359.76
389.846	361.8
390.225	357.28
390.605	368.13
390.984	365.41
391.363	373.32
391.743	369.26
392.122	378.75
392.501	345.53
392.881	379.43
393.26	377.39
393.639	386.66
394.018	376.26
394.397	374.91
394.776	377.62
395.155	376.94
395.534	377.62
395.913	398.86
396.292	381.46
396.671	380.33
397.05	379.2
397.429	369.26
397.808	372.19
398.186	373.1
398.565	382.14
398.944	382.81
399.323	383.04
399.701	403.61
400.08	418.52
400.458	374.23
400.837	410.38
401.215	392.76
401.594	406.09
401.972	416.49
402.351	405.19
402.729	413.55
403.107	410.16
403.486	407.22
403.864	413.32
404.242	407.9
404.62	436.82
404.999	412.87
405.377	422.59
405.755	432.31
406.133	402.93
406.511	428.46
406.889	418.97
407.267	425.75
407.645	448.12
408.023	437.95
408.401	430.5
408.779	432.98
409.156	438.18
409.534	436.37
409.912	451.51
410.29	457.39
410.667	443.38
411.045	456.94
411.422	466.65
411.8	459.2
412.178	453.77
412.555	489.25
412.933	481.8
413.31	476.6
413.687	481.34
414.065	458.07
414.442	471.17
414.819	496.03
415.197	492.64
415.574	492.19
415.951	496.71
416.328	508.69
416.705	481.34
417.082	484.96
417.46	505.3
417.837	489.7
418.214	501
418.591	502.13
418.967	514.79
419.344	520.44
419.721	517.95
420.098	523.15
420.475	508.69
420.852	522.25
421.228	514.11
421.605	534.22
421.982	527.44
422.358	536.03
422.735	548.01
423.111	525.18
423.488	538.29
423.864	547.33
424.241	566.76
424.617	559.99
424.994	572.41
425.37	563.38
425.746	588.91
426.123	597.05
426.499	573.09
426.875	607.22
427.251	583.49
427.627	568.8
428.003	599.53
428.379	585.75
428.756	626.2
429.132	606.99
429.507	612.19
429.883	616.93
430.259	630.04
430.635	615.13
431.011	625.97
431.387	633.43
431.763	635.24
432.138	641.34
432.514	637.95
432.89	647.89
433.265	677.5
433.641	677.04
434.016	685.41
434.392	678.4
434.767	666.2
435.143	696.48
435.518	695.8
435.894	709.13
436.269	685.41
436.644	713.43
437.02	733.31
437.395	718.17
437.77	731.73
438.145	730.83
438.52	714.78
438.895	737.61
439.271	746.87
439.646	744.84
440.021	776.02
440.395	759.08
440.77	759.53
441.145	779.87
441.52	787.1
441.895	787.78
442.27	787.55
442.645	783.03
443.019	815.12
443.394	816.25
443.769	817.61
444.143	822.35
444.518	813.54
444.892	815.12
445.267	814.44
445.641	840.2
446.016	853.31
446.39	821.22
446.764	860.99
447.139	837.27
447.513	842.01
447.887	865.97
448.262	887.43
448.636	862.58
449.01	882.24
449.384	910.26
449.758	900.09
450.132	923.82
450.506	902.8
450.88	900.09
451.254	903.93
451.628	917.04
452.002	944.61
452.376	954.33
452.75	923.59
453.123	945.96
453.497	958.17
453.871	976.47
454.244	982.12
454.618	994.55
454.992	993.19
455.365	1015.11
455.739	1027.09
456.112	1031.16
456.486	1054.66
456.859	1037.26
457.232	1070.93
457.606	1071.61
457.979	1079.52
458.352	1106.19
458.725	1120.87
459.099	1121.55
459.472	1137.37
459.845	1121.33
460.218	1163.36
460.591	1173.3
460.964	1188.67
461.337	1193.41
461.71	1212.62
462.083	1218.27
462.456	1228.22
462.829	1222.11
463.201	1278.38
463.574	1279.29
463.947	1287.42
464.32	1321.77
464.692	1369.91
465.065	1356.8
465.438	1396.35
465.81	1395.22
466.183	1422.34
466.555	1446.97
466.928	1454.2
467.3	1452.84
467.672	1472.28
468.045	1524.71
468.417	1514.08
468.789	1499.62
469.161	1590.24
469.534	1595.44
469.906	1657.13
470.278	1643.8
470.65	1706.4
471.022	1717.24
471.394	1745.26
471.766	1759.73
472.138	1804.7
472.51	1850.12
472.882	1888.76
473.253	1891.48
473.625	1951.81
473.997	1980.74
474.369	2036.78
474.74	2083.34
475.112	2134.63
475.484	2132.37
475.855	2226.61
476.227	2247.4
476.598	2308.19
476.97	2351.58
477.341	2419.6
477.713	2459.82
478.084	2535.53
478.455	2622.3
478.827	2647.16
479.198	2742.3
479.569	2793.6
479.94	2893.71
480.311	2935.97
480.682	3027.94
481.053	3120.37
481.424	3188.84
481.795	3257.54
482.166	3328.73
482.537	3414.15
482.908	3549.96
483.279	3637.87
483.65	3728.72
484.021	3816.17
484.391	3921.25
484.762	3990.63
485.133	4046.9
485.503	4174.58
485.874	4290.06
486.244	4368.47
486.615	4504.29
486.985	4612.76
487.356	4736.15
487.726	4863.37
488.097	4971.17
488.467	5020.88
488.837	5199.86
489.207	5299.3
489.578	5466.07
489.948	5509.69
490.318	5715.78
490.688	5729.57
491.058	5899.28
491.428	6040.75
491.798	6148.31
492.168	6314.18
492.538	6342.66
492.908	6503.78
493.278	6639.83
493.648	6648.86
494.017	6896.09
494.387	6972.02
494.757	7130.21
495.126	7234.39
495.496	7295.18
495.866	7490.88
496.235	7542.63
496.605	7683.64
496.974	7702.4
497.344	7878.44
497.713	7906.91
498.082	8054.03
498.452	8210.86
498.821	8281.14
499.19	8323.62
499.559	8468.7
499.928	8534.46
500.298	8678.87
500.667	8760.67
501.036	8799.77
501.405	8907.79
501.774	8997.28
502.143	9105.98
502.512	9190.94
502.88	9276.82
503.249	9290.15
503.618	9377.15
503.987	9484.72
504.356	9596.81
504.724	9557.71
505.093	9705.73
505.462	9702.57
505.83	9816.47
506.199	9881.1
506.567	10006.97
506.936	10050.13
507.304	10149.34
507.672	10215.32
508.041	10263.68
508.409	10363.34
508.777	10480.85
509.145	10432.95
509.514	10491.02
509.882	10593.17
510.25	10661.87
510.618	10608.53
510.986	10794.74
511.354	10759.94
511.722	10982.99
512.09	11052.14
512.458	10948.86
512.826	11058.24
513.193	11157.9
513.561	11146.6
513.929	11192.93
514.297	11233.38
514.664	11345.69
515.032	11317.44
515.4	11484.9
515.767	11425.01
516.135	11451.45
516.502	11505.69
516.869	11522.41
517.237	11656.19
517.604	11571.67
517.972	11689.18
518.339	11739.8
518.706	11723.76
519.073	11729.18
519.44	11716.53
519.808	11876.3
520.175	11838.33
520.542	11957.88
520.909	11985.67
521.276	11915.84
521.643	12076.52
522.009	12111.55
522.376	12148.16
522.743	12160.58
523.11	12239.68
523.477	12307.92
523.843	12328.72
524.21	12413.68
524.577	12451.42
524.943	12467.02
525.31	12449.62
525.676	12518.77
526.043	12563.51
526.409	12643.51
526.776	12647.35
527.142	12611.19
527.508	12655.03
527.874	12707.91
528.241	12779.78
528.607	12714.92
528.973	12794.01
529.339	12773.45
529.705	12829.95
530.071	12842.15
530.437	12878.08
530.803	12850.96
531.169	12864.75
531.535	12811.87
531.901	12817.97
532.267	12782.71
532.632	12905.88
532.998	12852.77
533.364	12876.95
533.73	12784.97
534.095	12956.5
534.461	12860.9
534.826	12995.36
535.192	12889.6
535.557	12955.14
535.923	12856.39
536.288	12949.04
536.653	12853
537.019	12821.81
537.384	12785.43
537.749	12845.31
538.114	12856.61
538.479	12763.05
538.845	12826.78
539.21	12766.9
539.575	12749.95
539.94	12730.29
540.305	12743.17
540.67	12630.85
541.034	12655.71
541.399	12621.14
541.764	12612.55
542.129	12628.37
542.494	12605.77
542.858	12572.32
543.223	12546.79
543.587	12553.34
543.952	12533.46
544.316	12512.21
544.681	12481.25
545.045	12458.88
545.41	12413.46
545.774	12410.3
546.138	12360.58
546.503	12398.77
546.867	12376.4
547.231	12412.78
547.595	12370.97
547.959	12234.25
548.324	12292.56
548.688	12236.97
549.052	12249.4
549.416	12228.15
549.779	12170.53
550.143	12105.9
550.507	12157.65
550.871	12141.38
551.235	12178.21
551.599	12098.89
551.962	12120.13
552.326	12100.92
552.689	12109.96
553.053	12095.73
553.417	12016.41
553.78	12159.45
554.143	12021.38
554.507	11953.58
554.87	12066.35
555.234	12087.37
555.597	11979.8
555.96	11991.55
556.323	12002.62
556.686	11932.34
557.05	12020.47
557.413	11924.66
557.776	12008.5
558.139	12006.92
558.502	11978.22
558.865	11911.1
559.228	11989.52
559.59	11964.66
559.953	11888.27
560.316	11929.86
560.679	11995.62
561.041	11963.75
561.404	11985.45
561.767	12074.26
562.129	12008.27
562.492	12072.22
562.854	12078.55
563.217	11980.02
563.579	11978.22
563.941	12091.43
564.304	12057.54
564.666	12149.06
565.028	12133.69
565.39	12094.6
565.753	12132.56
566.115	12184.31
566.477	12147.48
566.839	12175.05
567.201	12231.99
567.563	12218.66
567.925	12249.62
568.287	12199.23
568.648	12240.13
569.01	12312.67
569.372	12338.88
569.734	12281.94
570.095	12321.94
570.457	12341.14
570.819	12379.79
571.18	12284.87
571.542	12474.02
571.903	12368.49
572.265	12393.35
572.626	12465.89
572.987	12463.85
573.349	12404.42
573.71	12470.63
574.071	12454.14
574.432	12469.95
574.794	12527.81
575.155	12475.6
575.516	12447.58
575.877	12529.16
576.238	12470.18
576.599	12567.81
576.96	12561.48
577.32	12571.65
577.681	12594.92
578.042	12562.38
578.403	12585.21
578.763	12618.88
579.124	12600.57
579.485	12627.69
579.845	12564.87
580.206	12579.33
580.566	12552.66
580.927	12547.24
581.287	12578.65
581.648	12533.46
582.008	12523.51
582.368	12499.33
582.728	12558.77
583.089	12512.21
583.449	12604.41
583.809	12606
584.169	12581.14
584.529	12519.67
584.889	12608.93
585.249	12490.07
585.609	12478.54
585.969	12680.12
586.329	12561.25
586.688	12460.92
587.048	12502.27
587.408	12472.21
587.768	12486.45
588.127	12458.2
588.487	12455.94
588.846	12514.7
589.206	12505.43
589.565	12493.68
589.925	12498.65
590.284	12468.82
590.643	12483.06
591.003	12450.97
591.362	12514.02
591.721	12476.51
592.08	12406
592.44	12427.7
592.799	12453.46
593.158	12330.52
593.517	12449.16
593.876	12453.91
594.235	12352.67
594.593	12382.27
594.952	12475.6
595.311	12290.98
595.67	12399.67
596.029	12484.64
596.387	12428.83
596.746	12357.19
597.104	12355.83
597.463	12366.23
597.822	12384.76
598.18	12287.81
598.538	12321.48
598.897	12432.67
599.255	12292.78
599.613	12443.97
599.972	12416.85
600.33	12390.41
600.688	12347.02
601.046	12408.94
601.404	12398.32
601.762	12323.52
602.12	12384.08
602.478	12369.17
602.836	12391.76
603.194	12297.98
603.552	12385.21
603.91	12332.56
604.268	12312.22
604.625	12366.91
604.983	12376.4
605.341	12302.05
605.698	12345.21
606.056	12377.08
606.413	12418.88
606.771	12383.63
607.128	12426.11
607.485	12394.02
607.843	12394.48
608.2	12450.52
608.557	12484.64
608.914	12428.15
609.272	12440.8
609.629	12501.14
609.986	12532.33
610.343	12484.19
610.7	12432.44
611.057	12499.56
611.414	12504.53
611.771	12537.75
612.127	12572.78
612.484	12502.27
612.841	12598.31
613.198	12555.6
613.554	12496.17
613.911	12647.35
614.267	12566
614.624	12496.62
614.98	12543.85
615.337	12711.3
615.693	12609.16
616.05	12626.33
616.406	12671.31
616.762	12580.01
617.118	12645.54
617.475	12655.49
617.831	12636.96
618.187	12658.42
618.543	12669.27
618.899	12711.08
619.255	12737.07
619.611	12683.73
619.967	12684.19
620.323	12756.05
620.678	12708.14
621.034	12619.56
621.39	12714.69
621.746	12630.18
622.101	12876.72
622.457	12707.24
622.812	12763.73
623.168	12747.69
623.523	12804.41
623.879	12777.07
624.234	12648.71
624.589	12702.49
624.945	12777.07
625.3	12697.29
625.655	12741.59
626.01	12768.03
626.365	12731.87
626.72	12667.46
627.075	12689.16
627.43	12634.92
627.785	12686.22
628.14	12690.51
628.495	12720.8
628.85	12695.03
629.205	12645.54
629.559	12758.99
629.914	12670.18
630.269	12716.5
630.623	12567.35
630.978	12536.17
631.332	12668.37
631.687	12690.74
632.041	12542.27
632.396	12664.07
632.75	12523.29
633.104	12630.18
633.459	12600.35
633.813	12482.16
634.167	12501.37
634.521	12502.95
634.875	12480.12
635.229	12497.3
635.583	12453.91
635.937	12421.14
636.291	12466.34
636.645	12421.37
636.999	12391.09
637.352	12471.99
637.706	12373.69
638.06	12384.53
638.413	12371.43
638.767	12381.6
639.121	12384.76
639.474	12354.7
639.828	12246.01
640.181	12316.51
640.534	12339.56
640.888	12261.82
641.241	12129.62
641.594	12220.47
641.947	12351.09
642.301	12259.56
642.654	12293.01
643.007	12224.99
643.36	12238.77
643.713	12216.18
644.066	12246.91
644.419	12140.92
644.771	12045.33
645.124	12002.85
645.477	11927.37
645.83	11880.82
646.182	11880.37
646.535	11791.33
646.888	11835.17
647.24	11704.78
647.593	11890.99
647.945	11793.36
648.298	11715.85
648.65	11697.55
649.002	11686.92
649.355	11707.26
649.707	11741.61
650.059	11785.45
650.411	11846.92
650.763	11901.83
651.115	12110.64
651.467	12088.5
651.819	11995.62
652.171	11986.58
652.523	11976.86
652.875	12008.05
653.227	11960.82
653.578	12033.36
653.93	11953.36
654.282	11961.95
654.633	11992.68
654.985	11932.34
655.337	11964.88
655.688	11987.93
656.039	11989.29
656.391	11965.56
656.742	11964.88
657.094	11940.7
657.445	11971.21
657.796	12043.75
658.147	11988.16
658.498	12043.53
658.849	12010.08
659.2	11956.3
659.551	11883.08
659.902	11952.23
660.253	11941.15
660.604	11992.45
660.955	11938.9
661.306	12134.6
661.656	12031.55
662.007	12052.56
662.358	11956.97
662.708	12025.9
663.059	12014.15
663.409	12003.75
663.76	11999.46
664.11	12039.46
664.461	12011.66
664.811	12052.11
665.161	12032.68
665.511	11993.36
665.862	12030.64
666.212	12100.7
666.562	12025.45
666.912	11981.61
667.262	12071.32
667.612	12045.56
667.962	12073.81
668.312	12010.76
668.662	12085.56
669.011	11974.6
669.361	12002.4
669.711	11933.7
670.06	11976.41
670.41	11992
670.76	11969.18
671.109	11995.62
671.459	11965.34
671.808	11940.25
672.157	11932.34
672.507	11888.95
672.856	11861.16
673.205	11931.89
673.554	11932.34
673.904	11892.12
674.253	12068.61
674.602	11953.13
674.951	11795.62
675.3	11680.6
675.649	11900.48
675.998	11834.04
676.346	11790.42
676.695	11857.77
677.044	11768.28
677.393	11810.08
677.741	11860.71
678.09	11857.09
678.438	11729.41
678.787	11785.9
679.135	11763.98
679.484	11689.41
679.832	11674.95
680.181	11617.55
680.529	11680.82
680.877	11613.48
681.225	11631.56
681.573	11719.47
681.922	11627.72
682.27	11551.11
682.618	11619.13
682.966	11579.36
683.314	11576.64
683.661	11440.83
684.009	11526.25
684.357	11453.71
684.705	11401.28
685.053	11398.12
685.4	11438.34
685.748	11375.07
686.095	11300.95
686.443	11267.05
686.79	11258.24
687.138	11314.5
687.485	11324.45
687.832	11223.43
688.18	11204.9
688.527	11118.58
688.874	11157.45
689.221	11100.73
689.568	11066.83
689.915	11035.87
690.262	10983.89
690.609	10955.87
690.956	10888.75
691.303	10909.09
691.65	10874.74
691.997	10901.18
692.344	10800.62
692.69	10868.87
693.037	10756.1
693.383	10719.04
693.73	10775.99
694.077	10674.3
694.423	10704.35
694.769	10663
695.116	10705.03
695.462	10493.06
695.808	10491.48
696.155	10574.19
696.501	10430.69
696.847	10406.05
697.193	10366.28
697.539	10364.25
697.885	10281.31
698.231	10190.47
698.577	10213.52
698.923	10200.41
699.269	10183.69
699.614	10096.46
699.96	10068.66
700.306	10094.42
700.651	9981.88
700.997	10060.75
701.342	9980.3
701.688	9963.81
702.033	9880.87
702.379	9963.35
702.724	9840.42
703.069	9880.42
703.415	9711.84
703.76	9711.38
704.105	9739.63
704.45	9687.65
704.795	9588.67
705.14	9553.42
705.485	9558.84
705.83	9528.11
706.175	9567.66
706.52	9540.77
706.865	9433.65
707.209	9416.48
707.554	9418.96
707.899	9417.15
708.243	9409.47
708.588	9420.77
708.932	9276.59
709.277	9306.2
709.621	9289.02
709.966	9253.09
710.31	9171.06
710.654	9138.97
710.998	9108.01
711.342	9181.23
711.687	9088.57
712.031	9079.08
712.375	8986.43
712.719	9063.49
713.063	9027.79
713.407	9034.56
713.75	8997.28
714.094	8981.23
714.438	8923.83
714.782	8923.16
715.125	8879.77
715.469	8936.71
715.812	8831.41
716.156	8867.79
716.499	8879.54
716.843	8804.29
717.186	8850.39
717.53	8818.98
717.873	8815.81
718.216	8811.75
718.559	8766.1
718.902	8727
719.246	8728.81
719.589	8700.11
719.932	8635.93
720.275	8719.32
720.617	8720.67
720.96	8680.45
721.303	8680.45
721.646	8653.56
721.989	8657.17
722.331	8688.36
722.674	8539.44
723.016	8556.16
723.359	8546.44
723.701	8639.32
724.044	8564.29
724.386	8504.41
724.729	8509.61
725.071	8481.36
725.413	8560.23
725.755	8501.47
726.097	8461.02
726.439	8433.68
726.782	8438.2
727.124	8430.29
727.465	8448.14
727.807	8410.4
728.149	8426.45
728.491	8449.04
728.833	8496.27
729.175	8438.65
729.516	8377.18
729.858	8456.27
730.199	8382.15
730.541	8446.78
730.882	8443.39
731.224	8526.1
731.565	8418.54
731.906	8402.72
732.248	8411.76
732.589	8365.88
732.93	8325.2
733.271	8380.12
733.612	8373.34
733.953	8431.19
734.294	8404.98
734.635	8381.47
734.976	8440.68
735.317	8363.62
735.658	8379.44
735.999	8386.45
736.339	8335.83
736.68	8411.76
737.021	8363.4
737.361	8379.89
737.702	8390.51
738.042	8381.02
738.383	8368.14
738.723	8458.08
739.063	8344.19
739.404	8440.68
739.744	8405.88
740.084	8388.48
740.424	8459.44
740.764	8437.97
741.104	8423.28
741.444	8442.26
741.784	8440.23
742.124	8465.09
742.464	8474.58
742.804	8476.61
743.143	8515.48
743.483	8592.54
743.823	8483.84
744.162	8554.8
744.502	8579.44
744.841	8512.77
745.181	8677.51
745.52	8629.15
745.86	8708.7
746.199	8716.61
746.538	8736.04
746.877	8774.91
747.216	8784.85
747.556	8810.84
747.895	8900.56
748.234	8935.58
748.573	8871.86
748.911	8975.81
749.25	9092.42
749.589	9054.23
749.928	9053.77
750.267	9136.48
750.605	9210.15
750.944	9339.19
751.283	9313.43
751.621	9387.55
751.96	9477.49
752.298	9553.42
752.636	9675.23
752.975	9699.86
753.313	9797.71
753.651	9912.06
753.989	9970.81
754.327	10041.32
754.666	10110.24
755.004	10192.27
755.342	10358.37
755.679	10386.62
756.017	10484.92
756.355	10599.04
756.693	10696.89
757.031	10856.66
757.368	10957.45
757.706	11045.59
758.044	11196.77
758.381	11335.3
758.719	11455.97
759.056	11596.08
759.394	11680.82
759.731	11759.01
