Data from hue_170_FLMS001491_00068.txt Node
Date: Tue Feb 07 16:49:02 GMT 2017
User: dcchb
Spectrometer: FLMS00149
Trigger mode: 0
Integration Time (sec): 2.000000E-2
Scans to average: 10
Electric dark correction enabled: true
Nonlinearity correction enabled: false
Boxcar width: 0
XAxis mode: Wavelengths
Number of Pixels in Spectrum: 2048
>>>>>Begin Spectral Data<<<<<
341.393	-42.91
341.776	-42.91
342.16	-42.91
342.543	-66.86
342.927	-53.76
343.31	-77.26
343.693	-66.64
344.077	-65.05
344.46	-64.83
344.843	-42.91
345.226	-20.08
345.61	-52.63
345.993	-20.99
346.376	-0.65
346.759	20.59
347.142	17.2
347.525	52
347.908	54.94
348.291	69.4
348.674	89.97
349.057	106.92
349.44	122.06
349.823	140.82
350.206	166.35
350.588	211.77
350.971	203.64
351.354	225.79
351.737	226.91
352.119	258.1
352.502	240.7
352.884	284.31
353.267	272.56
353.65	296.52
354.032	275.05
354.414	296.97
354.797	316.63
355.179	293.13
355.562	330.42
355.944	306.91
356.326	328.83
356.709	321.38
357.091	333.35
357.473	327.93
357.855	342.17
358.238	338.55
358.62	328.61
359.002	326.8
359.384	351.43
359.766	325.44
360.148	341.71
360.53	327.25
360.912	352.34
361.294	332
361.676	344.65
362.057	330.42
362.439	319.57
362.821	341.49
363.203	342.17
363.584	319.34
363.966	318.89
364.348	317.76
364.729	342.39
365.111	304.43
365.493	315.05
365.874	318.89
366.256	314.37
366.637	318.66
367.019	332.67
367.4	331.54
367.781	309.62
368.163	295.39
368.544	339.68
368.925	313.69
369.306	311.88
369.688	307.82
370.069	310.08
370.45	304.65
370.831	306.91
371.212	314.37
371.593	309.4
371.974	333.13
372.355	332.45
372.736	340.58
373.117	310.75
373.498	319.34
373.879	300.81
374.26	325.22
374.641	305.33
375.021	319.79
375.402	323.64
375.783	317.08
376.163	317.08
376.544	329.96
376.925	338.78
377.305	318.44
377.686	334.03
378.066	333.13
378.447	351.43
378.827	343.3
379.208	343.75
379.588	327.7
379.968	348.95
380.349	356.86
380.729	337.87
381.109	327.03
381.489	364.31
381.87	336.06
382.25	340.58
382.63	339.68
383.01	341.94
383.39	345.1
383.77	349.4
384.15	340.13
384.53	356.4
384.91	349.17
385.29	365.89
385.67	358.66
386.049	385.78
386.429	352.11
386.809	337.87
387.189	369.28
387.568	342.17
387.948	362.5
388.328	357.08
388.707	348.27
389.087	356.18
389.466	353.47
389.846	351.21
390.225	372.22
390.605	364.54
390.984	385.1
391.363	381.26
391.743	369.96
392.122	382.39
392.501	376.74
392.881	376.74
393.26	384.65
393.639	387.59
394.018	387.14
394.397	401.15
394.776	378.78
395.155	397.98
395.534	405.89
395.913	384.88
396.292	400.92
396.671	398.89
397.05	392.79
397.429	420.58
397.808	387.14
398.186	383.3
398.565	398.21
398.944	409.51
399.323	415.16
399.701	419.68
400.08	405.67
400.458	395.72
400.837	423.75
401.215	407.93
401.594	432.79
401.972	430.98
402.351	418.32
402.729	414.93
403.107	437.53
403.486	421.94
403.864	418.1
404.242	440.24
404.62	446.57
404.999	428.04
405.377	438.43
405.755	455.61
406.133	451.32
406.511	437.3
406.889	451.54
407.267	447.47
407.645	462.39
408.023	444.31
408.401	478.66
408.779	469.85
409.156	473.91
409.534	473.46
409.912	474.82
410.29	517.75
410.667	493.35
411.045	505.78
411.422	524.76
411.8	496.06
412.178	531.31
412.555	533.12
412.933	538.32
413.31	543.06
413.687	558.88
414.065	536.74
414.442	545.1
414.819	545.55
415.197	559.79
415.574	560.01
415.951	559.56
416.328	574.25
416.705	559.79
417.082	595.27
417.46	555.95
417.837	605.21
418.214	600.46
418.591	602.72
418.967	602.72
419.344	608.83
419.721	621.93
420.098	629.84
420.475	647.24
420.852	616.06
421.228	634.59
421.605	659.67
421.982	643.4
422.358	663.06
422.735	679.33
423.111	684.76
423.488	692.67
423.864	704.42
424.241	726.56
424.617	698.99
424.994	712.78
425.37	713
425.746	725.43
426.123	760.23
426.499	742.61
426.875	769.27
427.251	764.3
427.627	780.12
428.003	755.26
428.379	799.33
428.756	805.66
429.132	778.54
429.507	815.83
429.883	815.83
430.259	834.81
430.635	804.75
431.011	855.15
431.387	842.04
431.763	883.17
432.138	865.09
432.514	884.98
432.89	893.34
433.265	917.52
433.641	932.66
434.016	908.03
434.392	930.85
434.767	949.16
435.143	973.79
435.518	961.13
435.894	978.31
436.269	994.13
436.644	1026.89
437.02	1038.19
437.395	1020.57
437.77	1040.9
438.145	1058.53
438.52	1068.93
438.895	1047.68
439.271	1108.02
439.646	1128.36
440.021	1121.81
440.395	1097.63
440.77	1105.76
441.145	1133.11
441.52	1147.79
441.895	1160.68
442.27	1174.23
442.645	1185.99
443.019	1201.8
443.394	1181.47
443.769	1205.65
444.143	1227.11
444.518	1220.56
444.892	1228.47
445.267	1224.4
445.641	1236.61
446.016	1261.69
446.39	1275.25
446.764	1276.6
447.139	1277.96
447.513	1302.14
447.887	1337.85
448.262	1314.57
448.636	1334.46
449.01	1369.26
449.384	1368.35
449.758	1357.51
450.132	1391.18
450.506	1374.23
450.88	1393.89
451.254	1400.44
451.628	1429.82
452.002	1426.43
452.376	1460.55
452.75	1487.45
453.123	1481.57
453.497	1506.2
453.871	1510.95
454.244	1533.55
454.618	1572.87
454.992	1581.46
455.365	1578.07
455.739	1628.46
456.112	1646.99
456.486	1642.7
456.859	1670.49
457.232	1665.07
457.606	1685.63
457.979	1722.24
458.352	1747.78
458.725	1772.86
459.099	1792.07
459.472	1821.45
459.845	1831.62
460.218	1880.88
460.591	1877.27
460.964	1906.87
461.337	1945.97
461.71	1967.21
462.083	2020.54
462.456	2015.57
462.829	2022.57
463.201	2071.16
463.574	2061.44
463.947	2119.07
464.32	2157.94
464.692	2173.3
465.065	2188.67
465.438	2240.2
465.81	2265.96
466.183	2324.49
466.555	2362.23
466.928	2392.51
467.3	2401.32
467.672	2413.75
468.045	2501.88
468.417	2522.9
468.789	2544.59
469.161	2601.54
469.534	2641.54
469.906	2663.24
470.278	2695.55
470.65	2746.4
471.022	2834.3
471.394	2880.18
471.766	2932.83
472.138	2995.66
472.51	3083.56
472.882	3058.93
473.253	3126.05
473.625	3202.88
473.997	3323.56
474.369	3353.16
474.74	3374.18
475.112	3454.63
475.484	3537.79
475.855	3615.98
476.227	3685.13
476.598	3747.5
476.97	3834.05
477.341	3914.5
477.713	4037.44
478.084	4060.49
478.455	4214.38
478.827	4265.9
479.198	4403.98
479.569	4435.62
479.94	4575.73
480.311	4646.46
480.682	4763.52
481.053	4870.18
481.424	5005.55
481.795	5057.3
482.166	5194.92
482.537	5332.32
482.908	5425.65
483.279	5551.75
483.65	5660.9
484.021	5816.6
484.391	5972.53
484.762	6038.06
485.133	6128.23
485.503	6242.12
485.874	6389.92
486.244	6513.53
486.615	6623.58
486.985	6766.86
487.356	6945.61
487.726	7030.35
488.097	7193.96
488.467	7261.31
488.837	7443
489.207	7608.87
489.578	7744.46
489.948	7860.39
490.318	7991.68
490.688	8071.91
491.058	8284.78
491.428	8404.33
491.798	8533.36
492.168	8765.22
492.538	8809.97
492.908	8919.12
493.278	9081.37
493.648	9129.28
494.017	9308.71
494.387	9412.66
494.757	9460.8
495.126	9623.96
495.496	9681.36
495.866	9771.3
496.235	9908.24
496.605	10004.28
496.974	10141.91
497.344	10289.25
497.713	10307.78
498.082	10417.83
498.452	10530.6
498.821	10592.29
499.19	10677.94
499.559	10783.25
499.928	10841.1
500.298	10903.47
500.667	11067.76
501.036	11067.76
501.405	11188.43
501.774	11229.11
502.143	11317.02
502.512	11423.23
502.88	11454.19
503.249	11527.41
503.618	11689.66
503.987	11716.56
504.356	11670.91
504.724	11851.47
505.093	11832.26
505.462	11890.56
505.83	11942.31
506.199	12106.83
506.567	12128.75
506.936	12124
507.304	12302.53
507.672	12385.92
508.041	12425.46
508.409	12460.04
508.777	12647.83
509.145	12617.1
509.514	12533.94
509.882	12590.21
510.25	12702.52
510.618	12812.8
510.986	12721.73
511.354	12902.74
511.722	13018.89
512.09	12996.3
512.458	13005.34
512.826	13146.12
513.193	13151.09
513.561	13164.65
513.929	13222.51
514.297	13337.98
514.664	13359.9
515.032	13335.95
515.4	13433.12
515.767	13466.11
516.135	13502.27
516.502	13364.65
516.869	13530.97
517.237	13551.08
517.604	13523.74
517.972	13657.97
518.339	13665.43
518.706	13631.99
519.073	13711.98
519.44	13714.24
519.808	13877.4
520.175	13721.7
520.542	13852.55
520.909	13967.57
521.276	13924.18
521.643	13921.92
522.009	13993.11
522.376	14075.59
522.743	14120.56
523.11	14170.73
523.477	14262.7
523.843	14218.19
524.21	14396.71
524.577	14369.82
524.943	14362.59
525.31	14397.62
525.676	14393.55
526.043	14466.77
526.409	14479.42
526.776	14468.8
527.142	14581.79
527.508	14543.6
527.874	14624.05
528.241	14594.9
528.607	14576.14
528.973	14636.48
529.339	14612.3
529.705	14597.16
530.071	14739.98
530.437	14716.25
530.803	14688.46
531.169	14733.88
531.535	14631.28
531.901	14670.6
532.267	14662.47
532.632	14603.26
532.998	14659.08
533.364	14581.57
533.73	14679.42
534.095	14616.59
534.461	14692.3
534.826	14678.06
535.192	14661.34
535.557	14659.3
535.923	14548.8
536.288	14590.61
536.653	14537.73
537.019	14441.23
537.384	14487.33
537.749	14436.71
538.114	14542.7
538.479	14363.72
538.845	14345.19
539.21	14314.68
539.575	14361.01
539.94	14292.08
540.305	14291.86
540.67	14290.95
541.034	14180.45
541.399	14185.19
541.764	14151.07
542.129	14107.45
542.494	14024.74
542.858	14064.07
543.223	13998.53
543.587	14073.56
543.952	13837.63
544.316	13943.62
544.681	13791.08
545.045	13879.66
545.41	13924.18
545.774	13875.82
546.138	13758.31
546.503	13728.03
546.867	13675.6
547.231	13729.38
547.595	13603.51
547.959	13637.18
548.324	13536.85
548.688	13584.08
549.052	13530.75
549.416	13405.55
549.779	13402.61
550.143	13327.59
550.507	13414.59
550.871	13351.09
551.235	13346.34
551.599	13351.77
551.962	13222.05
552.326	13253.01
552.689	13283.52
553.053	13178.21
553.417	13100.47
553.78	13258.89
554.143	13111.1
554.507	13175.5
554.87	13019.57
555.234	13128.95
555.597	12948.84
555.96	13056.63
556.323	12974.83
556.686	13082.4
557.05	13045.56
557.413	13022.96
557.776	12967.37
558.139	13086.24
558.502	13024.09
558.865	13000.14
559.228	13039.23
559.59	12997.88
559.953	13035.62
560.316	12978.22
560.679	13015.96
561.041	12951.33
561.404	13028.39
561.767	12978.22
562.129	12933.02
562.492	13009.63
562.854	12995.84
563.217	12935.28
563.579	12980.03
563.941	13044.43
564.304	13038.1
564.666	13054.6
565.028	13090.31
565.39	13034.26
565.753	13049.63
566.115	13164.2
566.477	13117.42
566.839	13056.41
567.201	13100.93
567.563	13050.76
567.925	13083.98
568.287	13090.08
568.648	13102.73
569.01	13121.04
569.372	13150.19
569.734	13144.09
570.095	13186.12
570.457	13213.24
570.819	13163.3
571.18	13174.6
571.542	13213.24
571.903	13258.89
572.265	13271.09
572.626	13241.49
572.987	13276.06
573.349	13275.61
573.71	13273.13
574.071	13389.96
574.432	13297.98
574.794	13437.19
575.155	13356.29
575.516	13203.75
575.877	13297.53
576.238	13297.53
576.599	13340.92
576.96	13266.35
577.32	13306.57
577.681	13335.72
578.042	13321.03
578.403	13361.03
578.763	13318.1
579.124	13356.06
579.485	13403.29
579.845	13340.69
580.206	13375.04
580.566	13411.65
580.927	13398.77
581.287	13415.49
581.648	13298.89
582.008	13422.27
582.368	13386.79
582.728	13431.77
583.089	13306.8
583.449	13281.03
583.809	13277.19
584.169	13327.81
584.529	13283.75
584.889	13342.28
585.249	13277.65
585.609	13233.58
585.969	13240.58
586.329	13190.19
586.688	13287.14
587.048	13259.79
587.408	13157.2
587.768	13128.5
588.127	13137.54
588.487	13227.25
588.846	13283.29
589.206	13142.28
589.565	13063.19
589.925	13123.07
590.284	13120.59
590.643	13112.23
591.003	13125.56
591.362	13168.27
591.721	13175.05
592.08	13112.9
592.44	13154.26
592.799	13057.99
593.158	13095.96
593.517	13094.6
593.876	13114.49
594.235	13055.96
594.593	13026.58
594.952	13009.86
595.311	13014.15
595.67	12999.23
596.029	13059.12
596.387	13050.76
596.746	13069.06
597.104	13015.28
597.463	12999.69
597.822	13044.21
598.18	12914.72
598.538	13013.92
598.897	12961.04
599.255	12878.79
599.613	13141.15
599.972	13018.22
600.33	13001.49
600.688	12920.59
601.046	12905.45
601.404	13001.04
601.762	13067.93
602.12	13011.21
602.478	13041.04
602.836	12983.19
603.194	12911.78
603.552	12902.74
603.91	12969.4
604.268	12936.41
604.625	12924.43
604.983	12946.35
605.341	12879.46
605.698	12910.2
606.056	13033.36
606.413	12970.53
606.771	12893.47
607.128	12926.24
607.485	12937.54
607.843	12963.76
608.2	12995.84
608.557	13010.53
608.914	13024.32
609.272	13103.19
609.629	13101.83
609.986	13109.97
610.343	13072.23
610.7	13140.02
611.057	13120.36
611.414	13111.32
611.771	13112.9
612.127	13107.93
612.484	13179.57
612.841	13165.11
613.198	13172.79
613.554	13091.21
613.911	13151.32
614.267	13170.76
614.624	13085.11
614.98	13118.1
615.337	13232
615.693	13271.09
616.05	13151.55
616.406	13288.27
616.762	13260.47
617.118	13232.67
617.475	13231.54
617.831	13290.53
618.187	13283.29
618.543	13288.27
618.899	13367.13
619.255	13386.79
619.611	13327.81
619.967	13338.89
620.323	13335.5
620.678	13331.66
621.034	13271.54
621.39	13231.77
621.746	13314.48
622.101	13405.78
622.457	13368.26
622.812	13268.83
623.168	13342.5
623.523	13349.73
623.879	13317.87
624.234	13285.55
624.589	13306.35
624.945	13304.09
625.3	13334.37
625.655	13333.91
626.01	13383.86
626.365	13288.72
626.72	13275.61
627.075	13281.26
627.43	13294.14
627.785	13273.35
628.14	13337.08
628.495	13262.96
628.85	13257.76
629.205	13222.28
629.559	13266.35
629.914	13232
630.269	13213.92
630.623	13231.09
630.978	13156.97
631.332	13241.49
631.687	13240.81
632.041	13195.84
632.396	13114.03
632.75	13043.3
633.104	13089.63
633.459	13099.57
633.813	13168.5
634.167	13094.6
634.521	13060.25
634.875	13133.47
635.229	13089.63
635.583	12994.71
635.937	13001.27
636.291	12904.77
636.645	12944.77
636.999	12970.76
637.352	12889.63
637.706	12918.33
638.06	12879.24
638.413	12907.94
638.767	12876.75
639.121	12911.1
639.474	12811.44
639.828	12873.59
640.181	12832.46
640.534	12841.95
640.888	12694.61
641.241	12685.57
641.594	12780.94
641.947	12831.1
642.301	12760.14
642.654	12746.36
643.007	12742.97
643.36	12799.92
643.713	12715.17
644.066	12702.75
644.419	12711.11
644.771	12575.06
645.124	12459.36
645.477	12463.43
645.83	12406.03
646.182	12353.15
646.535	12345.24
646.888	12341.4
647.24	12229.76
647.593	12274.73
647.945	12225.92
648.298	12276.32
648.65	12137.79
649.002	12132.82
649.355	12252.59
649.707	12204.23
650.059	12273.38
650.411	12488.74
650.763	12439.7
651.115	12596.99
651.467	12517.44
651.819	12521.05
652.171	12605.35
652.523	12483.99
652.875	12495.52
653.227	12567.16
653.578	12622.75
653.93	12565.8
654.282	12490.55
654.633	12511.11
654.985	12526.03
655.337	12533.26
655.688	12495.52
656.039	12572.58
656.391	12511.56
656.742	12470.43
657.094	12452.13
657.445	12489.87
657.796	12478.57
658.147	12480.6
658.498	12492.58
658.849	12554.5
659.2	12520.38
659.551	12499.36
659.902	12568.74
660.253	12547.72
660.604	12546.59
660.955	12453.03
661.306	12566.25
661.656	12547.04
662.007	12555.18
662.358	12558.57
662.708	12604.67
663.059	12595.86
663.409	12490.1
663.76	12590.21
664.11	12455.07
664.461	12611.67
664.811	12627.04
665.161	12562.18
665.511	12580.26
665.862	12578
666.212	12553.6
666.562	12611.9
666.912	12564.9
667.262	12631.33
667.612	12580.04
667.962	12566.03
668.312	12590.43
668.662	12658.9
669.011	12616.42
669.361	12594.73
669.711	12583.88
670.06	12592.47
670.41	12570.55
670.76	12534.16
671.109	12565.57
671.459	12478.12
671.808	12519.02
672.157	12592.01
672.507	12455.75
672.856	12493.03
673.205	12461.17
673.554	12466.14
673.904	12502.07
674.253	12488.51
674.602	12432.47
674.951	12229.99
675.3	12125.81
675.649	12470.21
675.998	12396.99
676.346	12316.99
676.695	12404.67
677.044	12342.3
677.393	12320.38
677.741	12460.94
678.09	12363.54
678.438	12304.56
678.787	12307.95
679.135	12312.02
679.484	12249.2
679.832	12323.32
680.181	12209.88
680.529	12284
680.877	12258.69
681.225	12175.3
681.573	12338.91
681.922	12114.51
682.27	12132.59
682.618	12144.12
682.966	12047.17
683.314	12032.25
683.661	11982.09
684.009	12027.51
684.357	11939.83
684.705	11980.5
685.053	11863.67
685.4	11882.65
685.748	11798.36
686.095	11831.36
686.443	11744.35
686.79	11717.91
687.138	11749.78
687.485	11767.63
687.832	11716.1
688.18	11725.6
688.527	11589.55
688.874	11744.35
689.221	11587.52
689.568	11519.05
689.915	11585.26
690.262	11524.92
690.609	11382.1
690.956	11435.89
691.303	11477.24
691.65	11313.18
691.997	11319.05
692.344	11239.96
692.69	11188.89
693.037	11159.51
693.383	11077.93
693.73	11163.12
694.077	11136.23
694.423	11103.69
694.769	10989.57
695.116	10982.34
695.462	10883.13
695.808	10899.18
696.155	10958.61
696.501	10882.45
696.847	10836.35
697.193	10704.61
697.539	10752.97
697.885	10627.55
698.231	10682.46
698.577	10681.33
698.923	10583.7
699.269	10504.16
699.614	10505.51
699.96	10447.89
700.306	10395.91
700.651	10386.87
700.997	10349.59
701.342	10367.89
701.688	10277.27
702.033	10268.91
702.379	10229.14
702.724	10218.97
703.069	10220.1
703.415	10062.36
703.76	10116.37
704.105	10044.06
704.45	9990.5
704.795	9980.1
705.14	9933.78
705.485	9990.5
705.83	9931.74
706.175	9842.03
706.52	9900.56
706.865	9825.76
707.209	9792.54
707.554	9687.01
707.899	9697.4
708.243	9691.98
708.588	9686.1
708.932	9657.4
709.277	9611.53
709.621	9579.89
709.966	9485.2
710.31	9515.03
710.654	9426.9
710.998	9446.33
711.342	9493.79
711.687	9377.86
712.031	9397.52
712.375	9319.11
712.719	9407.46
713.063	9316.17
713.407	9313.46
713.75	9298.09
714.094	9299.9
714.438	9173.12
714.782	9246.34
715.125	9180.35
715.469	9222.61
715.812	9141.93
716.156	9130.41
716.499	9102.16
716.843	9086.12
717.186	9075.27
717.53	9147.13
717.873	9129.28
718.216	9061.94
718.559	9107.81
718.902	9003.86
719.246	9055.61
719.589	8993.46
719.932	8977.87
720.275	8993.69
720.617	9008.38
720.96	8934.03
721.303	8967.25
721.646	8924.77
721.989	8885.67
722.331	8972.45
722.674	8873.02
723.016	8914.6
723.359	8850.64
723.701	8878.89
724.044	8920.02
724.386	8826.91
724.729	8857.42
725.071	8788.5
725.413	8820.14
725.755	8827.82
726.097	8843.41
726.439	8782.17
726.782	8767.93
727.124	8828.5
727.465	8782.17
727.807	8731.32
728.149	8731.78
728.491	8716.41
728.833	8801.15
729.175	8706.92
729.516	8717.31
729.858	8733.36
730.199	8740.14
730.541	8720.48
730.882	8700.36
731.224	8727.26
731.565	8635.06
731.906	8719.35
732.248	8722.51
732.589	8648.61
732.93	8702.4
733.271	8695.84
733.612	8719.35
733.953	8757.09
734.294	8670.99
734.635	8671.21
734.976	8651.33
735.317	8662.17
735.658	8677.99
735.999	8713.92
736.339	8666.47
736.68	8803.19
737.021	8730.42
737.361	8757.54
737.702	8768.61
738.042	8739.01
738.383	8699.69
738.723	8787.59
739.063	8756.18
739.404	8775.62
739.744	8768.16
740.084	8757.99
740.424	8781.27
740.764	8779.23
741.104	8849.97
741.444	8826.24
741.784	8869.63
742.124	8840.93
742.464	8893.58
742.804	8891.09
743.143	8869.17
743.483	8914.14
743.823	8883.86
744.162	9041.82
744.502	9063.74
744.841	8996.85
745.181	9049.73
745.52	9058.55
745.86	9143.06
746.199	9176.96
746.538	9229.39
746.877	9244.3
747.216	9317.52
747.556	9381.7
747.895	9353.45
748.234	9436.16
748.573	9427.58
748.911	9522.94
749.25	9514.58
749.589	9604.07
749.928	9730.62
750.267	9834.35
750.605	9822.14
750.944	9879.54
751.283	9988.24
751.621	10121.12
751.96	10117.5
752.298	10214.67
752.636	10313.43
752.975	10353.2
753.313	10522.24
753.651	10661.44
753.989	10679.75
754.327	10843.81
754.666	10882.68
755.004	11044.94
755.342	11153.18
755.679	11377.81
756.017	11418.94
756.355	11577.35
756.693	11686.5
757.031	11794.07
757.368	11891.24
757.706	12111.35
758.044	12309.31
