Data from hue_120_FLMS001491_00069.txt Node
Date: Tue Feb 07 16:59:50 GMT 2017
User: dcchb
Spectrometer: FLMS00149
Trigger mode: 0
Integration Time (sec): 2.000000E-2
Scans to average: 10
Electric dark correction enabled: true
Nonlinearity correction enabled: false
Boxcar width: 0
XAxis mode: Wavelengths
Number of Pixels in Spectrum: 2048
>>>>>Begin Spectral Data<<<<<
341.393	-3.95
341.776	-3.95
342.16	-3.95
342.543	-91.18
342.927	-69.04
343.31	-61.81
343.693	-59.09
344.077	-69.26
344.46	-65.65
344.843	-60.68
345.226	-58.64
345.61	-34.46
345.993	-0.79
346.376	-19.1
346.759	24.97
347.142	26.78
347.525	52.99
347.908	57.29
348.291	74.46
348.674	85.99
349.057	107
349.44	116.72
349.823	152.88
350.206	150.62
350.588	185.42
350.971	207.11
351.354	227.45
351.737	234.46
352.119	251.41
352.502	250.73
352.884	275.13
353.267	294.12
353.65	289.6
354.032	301.12
354.414	304.96
354.797	313.55
355.179	305.87
355.562	321.46
355.944	331.18
356.326	320.78
356.709	337.51
357.091	317.39
357.473	328.69
357.855	319.43
358.238	338.18
358.62	325.3
359.002	344.51
359.384	338.64
359.766	334.57
360.148	341.57
360.53	327.34
360.912	349.26
361.294	326.43
361.676	337.05
362.057	329.6
362.439	327.56
362.821	335.02
363.203	344.96
363.584	328.92
363.966	322.59
364.348	311.52
364.729	317.84
365.111	302.7
365.493	313.55
365.874	332.08
366.256	328.24
366.637	314.23
367.019	312.2
367.4	311.74
367.781	313.78
368.163	323.04
368.544	297.73
368.925	312.42
369.306	341.57
369.688	320.78
370.069	323.49
370.45	304.06
370.831	323.49
371.212	332.08
371.593	325.08
371.974	339.99
372.355	310.84
372.736	319.2
373.117	301.35
373.498	303.83
373.879	332.08
374.26	318.07
374.641	316.71
375.021	311.74
375.402	325.98
375.783	331.18
376.163	335.47
376.544	342.25
376.925	344.06
377.305	316.04
377.686	323.72
378.066	332.76
378.447	344.74
378.827	336.83
379.208	341.8
379.588	356.26
379.968	333.44
380.349	332.99
380.729	334.12
381.109	337.28
381.489	351.97
381.87	344.74
382.25	344.74
382.63	344.51
383.01	356.49
383.39	353.1
383.77	346.09
384.15	350.84
384.53	352.87
384.91	347.67
385.29	375.02
385.67	379.76
386.049	376.15
386.429	366.66
386.809	379.99
387.189	382.02
387.568	363.95
387.948	367.79
388.328	347
388.707	371.85
389.087	377.05
389.466	354.68
389.846	369.82
390.225	376.37
390.605	391.29
390.984	374.11
391.363	381.12
391.743	379.54
392.122	380.44
392.501	385.41
392.881	389.93
393.26	382.7
393.639	375.02
394.018	405.3
394.397	384.74
394.776	390.84
395.155	408.92
395.534	383.83
395.913	390.61
396.292	406.88
396.671	409.37
397.05	407.11
397.429	405.75
397.808	387.9
398.186	408.46
398.565	407.11
398.944	382.48
399.323	423.38
399.701	424.73
400.08	410.05
400.458	420.89
400.837	437.84
401.215	436.71
401.594	424.51
401.972	421.34
402.351	426.32
402.729	439.65
403.107	433.55
403.486	450.27
403.864	428.58
404.242	441.01
404.62	441.46
404.999	431.97
405.377	442.81
405.755	458.18
406.133	454.56
406.511	461.57
406.889	447.56
407.267	480.55
407.645	466.54
408.023	484.62
408.401	492.76
408.779	497.95
409.156	483.72
409.534	466.54
409.912	465.64
410.29	489.82
410.667	503.15
411.045	497.05
411.422	482.36
411.8	503.15
412.178	485.3
412.555	497.05
412.933	497.5
413.31	523.26
413.687	519.87
414.065	522.59
414.442	518.07
414.819	533.66
415.197	542.7
415.574	534.11
415.951	511.29
416.328	518.07
416.705	561.91
417.082	540.44
417.46	563.71
417.837	557.39
418.214	542.7
418.591	559.42
418.967	583.6
419.344	566.65
419.721	573.88
420.098	586.76
420.475	569.59
420.852	587.89
421.228	579.31
421.605	593.54
421.982	607.33
422.358	602.81
422.735	619.98
423.111	616.37
423.488	600.55
423.864	629.93
424.241	627.67
424.617	630.38
424.994	642.13
425.37	644.39
425.746	647.78
426.123	666.76
426.499	642.81
426.875	650.27
427.251	665.41
427.627	665.86
428.003	688.91
428.379	688
428.756	684.61
429.132	708.79
429.507	692.75
429.883	692.07
430.259	718.74
430.635	697.04
431.011	727.55
431.387	729.13
431.763	741.79
432.138	760.77
432.514	730.94
432.89	733.65
433.265	782.47
433.641	787.89
434.016	755.12
434.392	765.52
434.767	799.87
435.143	787.66
435.518	796.93
435.894	807.32
436.269	799.41
436.644	838.06
437.02	842.35
437.395	851.16
437.77	860.88
438.145	862.69
438.52	864.27
438.895	866.3
439.271	877.6
439.646	886.42
440.021	880.54
440.395	879.41
440.77	900.88
441.145	880.54
441.52	910.37
441.895	923.03
442.27	920.99
442.645	934.1
443.019	916.47
443.394	937.49
443.769	940.43
444.143	948.56
444.518	964.61
444.892	970.48
445.267	988.79
445.641	977.49
446.016	1009.13
446.39	990.82
446.764	996.7
447.139	992.18
447.513	1015.23
447.887	1011.16
448.262	1013.19
448.636	1024.27
449.01	1020.2
449.384	1042.35
449.758	1034.44
450.132	1069.01
450.506	1081.44
450.88	1072.4
451.254	1061.55
451.628	1079.63
452.002	1119.63
452.376	1129.12
452.75	1124.15
453.123	1115.34
453.497	1162.12
453.871	1154.66
454.244	1175.9
454.618	1177.71
454.992	1196.24
455.365	1202.12
455.739	1242.57
456.112	1231.27
456.486	1254.09
456.859	1238.05
457.232	1260.19
457.606	1296.12
457.979	1296.12
458.352	1312.17
458.725	1327.31
459.099	1348.78
459.472	1385.16
459.845	1406.63
460.218	1390.58
460.591	1391.49
460.964	1423.13
461.337	1427.65
461.71	1478.94
462.083	1498.6
462.456	1498.38
462.829	1529.79
463.201	1532.28
463.574	1577.02
463.947	1547.42
464.32	1596.68
464.692	1620.41
465.065	1634.42
465.438	1653.4
465.81	1675.1
466.183	1690.24
466.555	1754.64
466.928	1750.58
467.3	1788.31
467.672	1794.19
468.045	1824.92
468.417	1854.3
468.789	1873.06
469.161	1921.19
469.534	1942.66
469.906	1983.56
470.278	2028.99
470.65	2069.89
471.022	2110.57
471.394	2154.86
471.766	2160.51
472.138	2225.59
472.51	2252.48
472.882	2323.22
473.253	2326.15
473.625	2389.43
473.997	2489.54
474.369	2482.53
474.74	2539.26
475.112	2608.41
475.484	2692.47
475.855	2722.08
476.227	2776.31
476.598	2844.78
476.97	2928.62
477.341	2995.29
477.713	3063.76
478.084	3079.13
478.455	3242.29
478.827	3271.67
479.198	3413.36
479.569	3393.7
479.94	3578.1
480.311	3651.77
480.682	3755.49
481.053	3869.39
481.424	3934.7
481.795	4075.49
482.166	4148.7
482.537	4214.69
482.908	4357.29
483.279	4464.63
483.65	4626.66
484.021	4737.84
484.391	4865.75
484.762	4941.45
485.133	5084.73
485.503	5213.76
485.874	5336.24
486.244	5452.17
486.615	5591.15
486.985	5671.83
487.356	5918.83
487.726	6043.34
488.097	6197.01
488.467	6236.56
488.837	6486.04
489.207	6607.17
489.578	6719.48
489.948	6893.49
490.318	7074.28
490.688	7190.21
491.058	7399.01
491.428	7496.41
491.798	7696.41
492.168	7894.14
492.538	8044.87
492.908	8187.24
493.278	8401.47
493.648	8453.22
494.017	8532.09
494.387	8738.41
494.757	8924.17
495.126	9065.41
495.496	9186.09
495.866	9246.65
496.235	9458.4
496.605	9606.19
496.974	9721.21
497.344	9852.28
497.713	10015.44
498.082	10087.31
498.452	10209.34
498.821	10374.76
499.19	10454.3
499.559	10634.86
499.928	10723.45
500.298	10852.48
500.667	10943.33
501.036	10988.3
501.405	11154.85
501.774	11196.88
502.143	11422.64
502.512	11496.08
502.88	11667.15
503.249	11644.1
503.618	11791.67
503.987	11904.66
504.356	11996.86
504.724	12063.75
505.093	12194.14
505.462	12224.65
505.83	12297.87
506.199	12520.91
506.567	12649.72
506.936	12701.25
507.304	12787.12
507.672	12817.63
508.041	12984.86
508.409	13045.65
508.777	13201.8
509.145	13174.91
509.514	13200.22
509.882	13271.63
510.25	13349.37
510.618	13418.97
510.986	13528.57
511.354	13676.14
511.722	13710.49
512.09	13874.78
512.458	13828.68
512.826	13984.83
513.193	14004.94
513.561	14043.59
513.929	14130.36
514.297	14273.64
514.664	14281.09
515.032	14326.29
515.4	14488.77
515.767	14464.59
516.135	14554.98
516.502	14429.11
516.869	14693.51
517.237	14647.19
517.604	14658.26
517.972	14804.47
518.339	14840.85
518.706	14832.72
519.073	14889.44
519.44	14929.44
519.808	15077.68
520.175	15048.76
520.542	15148.42
520.909	15215.98
521.276	15265.25
521.643	15343.21
522.009	15306.83
522.376	15403.78
522.743	15433.15
523.11	15482.87
523.477	15654.84
523.843	15703.2
524.21	15832.47
524.577	15789.08
524.943	15743.2
525.31	15838.34
525.676	15995.62
526.043	16071.78
526.409	16006.25
526.776	16102.29
527.142	16118.56
527.508	16048.96
527.874	16135.73
528.241	16290.08
528.607	16175.28
528.973	16263.64
529.339	16306.58
529.705	16312.9
530.071	16338.67
530.437	16395.39
530.803	16375.73
531.169	16413.01
531.535	16372.34
531.901	16381.83
532.267	16415.73
532.632	16416.86
532.998	16380.93
533.364	16429.51
533.73	16463.41
534.095	16446.23
534.461	16433.35
534.826	16430.87
535.192	16459.57
535.557	16492.56
535.923	16394.71
536.288	16305
536.653	16397.2
537.019	16327.37
537.384	16314.03
537.749	16346.12
538.114	16381.6
538.479	16347.03
538.845	16321.04
539.21	16202.4
539.575	16297.54
539.94	16257.99
540.305	16221.61
540.67	16132.34
541.034	16237.88
541.399	16186.58
541.764	16164.21
542.129	16086.24
542.494	16137.32
542.858	16130.31
543.223	16027.04
543.587	16017.77
543.952	15910.66
544.316	15934.61
544.681	15904.78
545.045	15925.57
545.41	15962.63
545.774	15980.71
546.138	15780.94
546.503	15819.81
546.867	15780.72
547.231	15830.88
547.595	15747.27
547.959	15688.51
548.324	15640.61
548.688	15598.57
549.052	15592.7
549.416	15593.15
549.779	15589.53
550.143	15585.47
550.507	15470.89
550.871	15475.86
551.235	15566.26
551.599	15587.27
551.962	15513.83
552.326	15439.93
552.689	15468.18
553.053	15432.93
553.417	15325.36
553.78	15519.7
554.143	15378.69
554.507	15361.07
554.87	15287.17
555.234	15395.64
555.597	15345.47
555.96	15301.86
556.323	15366.04
556.686	15305.47
557.05	15358.35
557.413	15289.65
557.776	15323.1
558.139	15269.77
558.502	15202.65
558.865	15203.1
559.228	15297.56
559.59	15305.25
559.953	15301.41
560.316	15413.72
560.679	15277.68
561.041	15419.82
561.404	15278.13
561.767	15436.54
562.129	15397.67
562.492	15439.26
562.854	15422.76
563.217	15307.51
563.579	15346.38
563.941	15493.72
564.304	15452.59
564.666	15468.41
565.028	15372.82
565.39	15563.09
565.753	15617.33
566.115	15626.82
566.477	15535.75
566.839	15674.05
567.201	15647.39
567.563	15629.53
567.925	15708.4
568.287	15593.38
568.648	15612.36
569.01	15721.28
569.372	15810.77
569.734	15755.86
570.095	15739.36
570.457	15767.61
570.819	15708.4
571.18	15737.33
571.542	15809.19
571.903	15847.83
572.265	15843.31
572.626	15901.62
572.987	15874.72
573.349	15913.59
573.71	15839.47
574.071	15864.1
574.432	15964.66
574.794	16032.01
575.155	16019.35
575.516	15966.92
575.877	16048.5
576.238	16044.66
576.599	16028.62
576.96	16035.62
577.32	16076.53
577.681	16100.71
578.042	16014.16
578.403	16135.51
578.763	16078.79
579.124	16115.62
579.485	16172.8
579.845	16133.25
580.206	16091.22
580.566	16115.17
580.927	16143.19
581.287	16176.64
581.648	16073.14
582.008	16210.99
582.368	16100.93
582.728	16087.37
583.089	16071.78
583.449	16012.8
583.809	16058.22
584.169	16114.94
584.529	15972.8
584.889	16098.45
585.249	16002.63
585.609	16005.34
585.969	16134.15
586.329	15955.63
586.688	16028.39
587.048	16064.55
587.408	15897.32
587.768	15978.68
588.127	15951.78
588.487	15870.66
588.846	16005.12
589.206	15954.04
589.565	15907.49
589.925	16062.97
590.284	15891.9
590.643	15972.8
591.003	15944.1
591.362	15998.34
591.721	15933.93
592.08	15966.47
592.44	15900.49
592.799	15949.98
593.158	15807.83
593.517	15884.89
593.876	15919.69
594.235	15867.72
594.593	15843.76
594.952	15831.56
595.311	15799.92
595.67	15856.87
596.029	15880.15
596.387	15885.35
596.746	15797.44
597.104	15847.38
597.463	15754.95
597.822	15843.76
598.18	15818.68
598.538	15865.68
598.897	15883.09
599.255	15757.66
599.613	15954.95
599.972	15784.78
600.33	15906.81
600.688	15870.2
601.046	15943.65
601.404	15896.87
601.762	15971.22
602.12	15945.68
602.478	15897.1
602.836	15991.56
603.194	15927.83
603.552	15870.43
603.91	15848.51
604.268	15841.5
604.625	15801.96
604.983	15918.11
605.341	15752.69
605.698	15815.97
606.056	15854.84
606.413	15848.74
606.771	15896.64
607.128	15899.36
607.485	15816.87
607.843	15834.05
608.2	15933.25
608.557	16013.03
608.914	15886.47
609.272	16007.83
609.629	16061.39
609.986	16045.57
610.343	15975.06
610.7	16108.62
611.057	16001.73
611.414	16009.18
611.771	16008.05
612.127	16090.09
612.484	16086.24
612.841	16118.11
613.198	16092.12
613.554	16050.76
613.911	16117.2
614.267	16204.21
614.624	16111.1
614.98	16188.84
615.337	16130.08
615.693	16121.5
616.05	16115.4
616.406	16233.81
616.762	16229.29
617.118	16168.28
617.475	16286.24
617.831	16245.11
618.187	16238.56
618.543	16267.48
618.899	16347.25
619.255	16324.43
619.611	16269.29
619.967	16301.83
620.323	16324.88
620.678	16424.31
621.034	16374.6
621.39	16319.01
621.746	16275.84
622.101	16530.3
622.457	16283.3
622.812	16416.18
623.168	16380.7
623.523	16353.58
623.879	16385.44
624.234	16290.98
624.589	16427.03
624.945	16321.04
625.3	16312
625.655	16375.28
626.01	16290.53
626.365	16358.33
626.72	16257.31
627.075	16243.3
627.43	16275.39
627.785	16325.33
628.14	16368.5
628.495	16317.88
628.85	16273.58
629.205	16296.18
629.559	16257.09
629.914	16267.03
630.269	16268.61
630.623	16201.04
630.978	16174.15
631.332	16257.09
631.687	16234.71
632.041	16192
632.396	16154.94
632.75	16192.46
633.104	16172.57
633.459	16028.84
633.813	16046.47
634.167	16089.41
634.521	16103.19
634.875	16072.23
635.229	16077.66
635.583	15959.24
635.937	16029.97
636.291	15856.87
636.645	15955.63
636.999	15964.44
637.352	15957.43
637.706	15898.23
638.06	15846.48
638.413	15852.35
638.767	15928.96
639.121	15876.53
639.474	15820.04
639.828	15813.71
640.181	15756.53
640.534	15761.73
640.888	15713.6
641.241	15640.38
641.594	15650.77
641.947	15761.51
642.301	15706.14
642.654	15721.73
643.007	15675.18
643.36	15793.37
643.713	15630.66
644.066	15708.4
644.419	15578.46
644.771	15541.4
645.124	15386.15
645.477	15355.19
645.83	15300.95
646.182	15202.2
646.535	15200.17
646.888	15227.51
647.24	15089.66
647.593	15182.54
647.945	15092.37
648.298	14980.06
648.65	14985.71
649.002	14989.1
649.355	15128.08
649.707	15156.32
650.059	15148.42
650.411	15269.77
650.763	15337.56
651.115	15476.77
651.467	15401.52
651.819	15498.24
652.171	15384.79
652.523	15390.22
652.875	15453.72
653.227	15390.44
653.578	15499.37
653.93	15436.09
654.282	15328.98
654.633	15329.65
654.985	15413.94
655.337	15427.05
655.688	15501.63
656.039	15511.8
656.391	15361.29
656.742	15387.96
657.094	15460.72
657.445	15450.78
657.796	15451.23
658.147	15375.75
658.498	15391.35
658.849	15385.25
659.2	15373.95
659.551	15431.8
659.902	15468.86
660.253	15400.84
660.604	15423.21
660.955	15325.13
661.306	15472.47
661.656	15412.14
662.007	15421.18
662.358	15451.68
662.708	15453.72
663.059	15460.05
663.409	15411.91
663.76	15395.64
664.11	15500.95
664.461	15468.41
664.811	15519.25
665.161	15417.56
665.511	15419.37
665.862	15482.19
666.212	15456.66
666.562	15450.55
666.912	15462.31
667.262	15391.12
667.612	15424.79
667.962	15487.84
668.312	15376.88
668.662	15463.66
669.011	15507.73
669.361	15419.59
669.711	15305.25
670.06	15463.21
670.41	15406.71
670.76	15389.99
671.109	15367.84
671.459	15407.84
671.808	15317.9
672.157	15358.35
672.507	15246.49
672.856	15328.3
673.205	15382.99
673.554	15376.88
673.904	15363.55
674.253	15443.32
674.602	15356.55
674.951	15104.8
675.3	14959.27
675.649	15221.18
675.998	15236.1
676.346	15157.23
676.695	15324.46
677.044	15148.87
677.393	15073.39
677.741	15227.06
678.09	15188.19
678.438	15047.63
678.787	15159.49
679.135	15134.86
679.484	15014.18
679.832	15032.49
680.181	15004.46
680.529	14956.1
680.877	14964.92
681.225	14970.34
681.573	15038.36
681.922	14921.53
682.27	14883.79
682.618	14830.23
682.966	14739.16
683.314	14759.27
683.661	14794.98
684.009	14735.54
684.357	14730.8
684.705	14648.32
685.053	14676.56
685.4	14606.51
685.748	14564.25
686.095	14540.3
686.443	14502.56
686.79	14547.08
687.138	14510.47
687.485	14419.62
687.832	14357.02
688.18	14389.57
688.527	14369.68
688.874	14334.88
689.221	14210.36
689.568	14183.69
689.915	14101.66
690.262	14199.29
690.609	14098.5
690.956	14094.43
691.303	13993.42
691.65	13949.58
691.997	13921.1
692.344	13893.31
692.69	13885.17
693.037	13893.98
693.383	13786.87
693.73	13812.41
694.077	13613.77
694.423	13711.39
694.769	13555.46
695.116	13575.12
695.462	13621.22
695.808	13486.09
696.155	13486.54
696.501	13390.5
696.847	13392.08
697.193	13308.01
697.539	13389.59
697.885	13297.16
698.231	13114.57
698.577	13259.88
698.923	13175.59
699.269	13098.75
699.614	13036.38
699.96	12975.82
700.306	12955.93
700.651	12913.22
700.997	12858.76
701.342	12769.49
701.688	12716.61
702.033	12658.31
702.379	12676.16
702.724	12670.29
703.069	12715.94
703.415	12467.36
703.76	12595.49
704.105	12441.59
704.45	12379.45
704.795	12334.25
705.14	12228.94
705.485	12278.21
705.83	12190.07
706.175	12245.67
706.52	12161.6
706.865	12125.44
707.209	12109.4
707.554	11997.09
707.899	12059.46
708.243	11932.23
708.588	11935.62
708.932	11873.47
709.277	11848.39
709.621	11905.11
709.966	11762.74
710.31	11853.13
710.654	11718.9
710.998	11738.11
711.342	11660.15
711.687	11656.76
712.031	11678.22
712.375	11587.6
712.719	11680.03
713.063	11611.11
713.407	11683.42
713.75	11589.41
714.094	11543.76
714.438	11495.86
714.782	11541.73
715.125	11468.29
715.469	11463.77
715.812	11337.22
716.156	11290.66
716.499	11353.71
716.843	11337.44
717.186	11223.55
717.53	11259.48
717.873	11362.3
718.216	11336.31
718.559	11242.08
718.902	11183.1
719.246	11179.71
719.589	11175.19
719.932	11154.4
720.275	11106.04
720.617	11092.02
720.96	11076.88
721.303	11095.19
721.646	11109.88
721.989	11118.92
722.331	11113.72
722.674	11071.46
723.016	11075.98
723.359	10983.1
723.701	11071.46
724.044	10992.14
724.386	10951.46
724.729	11012.48
725.071	10972.25
725.413	10960.28
725.755	10960.05
726.097	10903.56
726.439	10839.38
726.782	10889.09
727.124	10961.63
727.465	10775.2
727.807	10833.27
728.149	10850.45
728.491	10831.24
728.833	10863.56
729.175	10822.65
729.516	10817
729.858	10822.88
730.199	10824.24
730.541	10773.62
730.882	10795.31
731.224	10826.95
731.565	10751.69
731.906	10784.91
732.248	10701.07
732.589	10802.09
732.93	10646.84
733.271	10676.89
733.612	10759.15
733.953	10778.36
734.294	10640.74
734.635	10715.09
734.976	10733.84
735.317	10678.48
735.658	10686.84
735.999	10753.28
736.339	10685.93
736.68	10778.81
737.021	10728.19
737.361	10744.24
737.702	10791.92
738.042	10723.9
738.383	10761.41
738.723	10760.51
739.063	10729.1
739.404	10817.46
739.744	10755.31
740.084	10740.4
740.424	10715.09
740.764	10753.05
741.104	10874.4
741.444	10801.18
741.784	10776.33
742.124	10920.73
742.464	10836.21
742.804	10931.13
743.143	10889.09
743.483	10959.82
743.823	10833.5
744.162	10804.12
744.502	11001.18
744.841	10939.49
745.181	10994.17
745.52	11021.52
745.86	11073.27
746.199	11154.85
746.538	11134.51
746.877	11278.91
747.216	11295.86
747.556	11239.59
747.895	11407.5
748.234	11356.2
748.573	11388.97
748.911	11426.03
749.25	11572.46
749.589	11585.57
749.928	11674.61
750.267	11769.52
750.605	11822.18
750.944	11941.72
751.283	11889.97
751.621	12095.16
751.96	12100.81
752.298	12237.76
752.636	12394.14
752.975	12419.67
753.313	12499.22
753.651	12732.66
753.989	12779.89
754.327	12785.31
754.666	12956.61
755.004	13098.75
755.342	13197.73
755.679	13330.61
