Data from hue_10_FLMS001491_6.txt Node
Date: Mon Feb 06 15:31:19 GMT 2017
User: dcchb
Spectrometer: FLMS00149
Trigger mode: 0
Integration Time (sec): 2.000000E-2
Scans to average: 10
Electric dark correction enabled: true
Nonlinearity correction enabled: false
Boxcar width: 0
XAxis mode: Wavelengths
Number of Pixels in Spectrum: 2048
>>>>>Begin Spectral Data<<<<<
341.393	-13.97
341.776	-13.97
342.16	-13.97
342.543	-69.11
342.927	-84.25
343.31	-74.98
343.693	-70.24
344.077	-77.7
344.46	-63.68
344.843	-58.04
345.226	-45.38
345.61	-18.71
345.993	-28.66
346.376	-10.8
346.759	5.01
347.142	23.32
347.525	59.93
347.908	65.13
348.291	79.59
348.674	94.73
349.057	120.49
349.44	123.88
349.823	134.73
350.206	145.12
350.588	193.94
350.971	204.1
351.354	216.08
351.737	225.57
352.119	253.14
352.502	269.41
352.884	266.93
353.267	284.55
353.65	292.46
354.032	282.07
354.414	310.77
354.797	299.24
355.179	312.35
355.562	319.36
355.944	316.42
356.326	330.2
356.709	304.67
357.091	326.14
357.473	326.81
357.855	329.3
358.238	328.17
358.62	325.46
359.002	355.97
359.384	323.2
359.766	331.11
360.148	330.2
360.53	325.91
360.912	309.41
361.294	325.46
361.676	327.27
362.057	337.89
362.439	343.99
362.821	334.27
363.203	327.94
363.584	332.91
363.966	305.35
364.348	318
364.729	304.22
365.111	332.24
365.493	313.71
365.874	306.02
366.256	309.64
366.637	319.58
367.019	320.26
367.4	328.85
367.781	312.58
368.163	304.22
368.544	312.12
368.925	316.19
369.306	310.32
369.688	310.54
370.069	289.98
370.45	297.21
370.831	307.6
371.212	284.78
371.593	296.31
371.974	304.67
372.355	303.54
372.736	314.84
373.117	295.63
373.498	324.55
373.879	322.75
374.26	315.29
374.641	314.84
375.021	322.52
375.402	315.97
375.783	298.79
376.163	331.79
376.544	315.51
376.925	309.86
377.305	332.01
377.686	314.61
378.066	314.16
378.447	324.33
378.827	329.75
379.208	317.32
379.588	327.72
379.968	316.19
380.349	328.62
380.729	315.51
381.109	318.9
381.489	332.01
381.87	320.03
382.25	321.84
382.63	332.24
383.01	358.9
383.39	325.01
383.77	322.75
384.15	343.54
384.53	347.6
384.91	344.21
385.29	345.34
385.67	336.76
386.049	338.34
386.429	363.42
386.809	340.15
387.189	323.2
387.568	330.2
387.948	353.93
388.328	337.89
388.707	324.33
389.087	357.32
389.466	351.9
389.846	339.02
390.225	355.51
390.605	336.3
390.984	364.33
391.363	360.48
391.743	349.64
392.122	371.78
392.501	360.48
392.881	368.62
393.26	362.52
393.639	361.84
394.018	367.72
394.397	364.1
394.776	384.89
395.155	386.47
395.534	404.55
395.913	377.43
396.292	386.92
396.671	372.46
397.05	369.07
397.429	376.98
397.808	379.47
398.186	358.45
398.565	398.9
398.944	394.61
399.323	376.76
399.701	403.42
400.08	363.87
400.458	383.76
400.837	392.12
401.215	380.37
401.594	388.28
401.972	370.43
402.351	388.51
402.729	406.36
403.107	379.47
403.486	381.95
403.864	411.78
404.242	392.8
404.62	382.63
404.999	399.35
405.377	396.87
405.755	397.55
406.133	407.26
406.511	401.84
406.889	427.6
407.267	427.6
407.645	405.46
408.023	398
408.401	415.17
408.779	424.89
409.156	418.34
409.534	404.55
409.912	422.4
410.29	421.5
410.667	434.16
411.045	421.5
411.422	422.86
411.8	428.05
412.178	449.07
412.555	440.26
412.933	447.04
413.31	444.32
413.687	458.56
414.065	441.84
414.442	452.01
414.819	458.11
415.197	457.43
415.574	466.7
415.951	462.18
416.328	484.1
416.705	456.98
417.082	461.73
417.46	481.61
417.837	470.54
418.214	468.73
418.591	485.68
418.967	471.89
419.344	466.24
419.721	506.92
420.098	496.3
420.475	502.85
420.852	463.76
421.228	493.36
421.605	504.89
421.982	491.33
422.358	508.05
422.735	508.28
423.111	489.3
423.488	504.44
423.864	502.63
424.241	516.41
424.617	515.06
424.994	526.58
425.37	529.97
425.746	522.51
426.123	525.45
426.499	533.36
426.875	539.46
427.251	569.29
427.627	543.76
428.003	552.57
428.379	536.75
428.756	550.31
429.132	560.48
429.507	553.7
429.883	555.51
430.259	568.84
430.635	598.44
431.011	575.85
431.387	581.27
431.763	587.37
432.138	579.01
432.514	586.47
432.89	596.18
433.265	581.5
433.641	609.97
434.016	615.62
434.392	627.82
434.767	620.59
435.143	612
435.518	624.88
435.894	636.64
436.269	648.84
436.644	634.83
437.02	673.92
437.395	623.75
437.77	678.89
438.145	660.36
438.52	649.06
438.895	669.18
439.271	656.52
439.646	672.57
440.021	662.62
440.395	663.75
440.77	686.58
441.145	689.29
441.52	690.65
441.895	686.8
442.27	698.1
442.645	673.92
443.019	715.5
443.394	689.06
443.769	718.67
444.143	697.43
444.518	737.2
444.892	722.96
445.267	718.22
445.641	735.39
446.016	741.72
446.39	727.93
446.764	764.09
447.139	756.63
447.513	726.8
447.887	747.82
448.262	725.9
448.636	764.09
449.01	770.42
449.384	750.53
449.758	763.41
450.132	766.12
450.506	766.58
450.88	780.36
451.254	767.48
451.628	804.77
452.002	797.54
452.376	816.07
452.75	810.42
453.123	822.62
453.497	819.23
453.871	840.47
454.244	860.58
454.618	842.51
454.992	862.84
455.365	862.62
455.739	872.34
456.112	883.41
456.486	879.34
456.859	853.81
457.232	888.38
457.606	899.91
457.979	902.17
458.352	933.35
458.725	911.2
459.099	932.9
459.472	946.23
459.845	945.55
460.218	971.99
460.591	976.29
460.964	972.67
461.337	983.07
461.71	987.36
462.083	1016.96
462.456	993.69
462.829	1006.57
463.201	1030.98
463.574	1049.51
463.947	1060.58
464.32	1067.58
464.692	1071.88
465.065	1058.32
465.438	1100.8
465.81	1090.18
466.183	1112.1
466.555	1125.44
466.928	1146.9
467.3	1139.67
467.672	1152.55
468.045	1160.92
468.417	1167.47
468.789	1227.13
469.161	1197.07
469.534	1238.88
469.906	1239.33
470.278	1260.35
470.65	1270.07
471.022	1280.46
471.394	1324.98
471.766	1342.38
472.138	1320.23
472.51	1357.52
472.882	1376.28
473.253	1404.07
473.625	1420.57
473.997	1441.81
474.369	1451.08
474.74	1463.96
475.112	1482.49
475.484	1533.34
475.855	1548.7
476.227	1587.57
476.598	1605.88
476.97	1637.74
477.341	1682.48
477.713	1696.04
478.084	1682.94
478.455	1764.74
478.827	1743.5
479.198	1792.31
479.569	1830.73
479.94	1835.7
480.311	1860.56
480.682	1920.67
481.053	1984.85
481.424	1966.54
481.795	2008.58
482.166	2058.07
482.537	2094.22
482.908	2126.31
483.279	2134.9
483.65	2179.65
484.021	2257.61
484.391	2234.11
484.762	2274.78
485.133	2321.56
485.503	2345.07
485.874	2385.06
486.244	2435.91
486.615	2477.04
486.985	2508.68
487.356	2560.65
487.726	2564.72
488.097	2632.06
488.467	2646.07
488.837	2710.71
489.207	2759.07
489.578	2758.39
489.948	2802.68
490.318	2859.85
490.688	2893.98
491.058	2966.74
491.428	2989.57
491.798	2994.99
492.168	3059.4
492.538	3043.13
492.908	3111.82
493.278	3171.48
493.648	3179.62
494.017	3230.92
494.387	3240.86
494.757	3325.38
495.126	3363.12
495.496	3349.33
495.866	3341.2
496.235	3383.23
496.605	3442.89
496.974	3451.03
497.344	3538.71
497.713	3494.19
498.082	3538.03
498.452	3618.7
498.821	3608.76
499.19	3618.7
499.559	3666.16
499.928	3677.69
500.298	3721.75
500.667	3750.9
501.036	3773.5
501.405	3762.88
501.774	3764.24
502.143	3834.07
502.512	3873.39
502.88	3867.96
503.249	3923.1
503.618	3929.66
503.987	3949.09
504.356	3953.38
504.724	3978.47
505.093	3988.86
505.462	4046.72
505.83	4037.45
506.199	4062.31
506.567	4102.31
506.936	4040.61
507.304	4150.44
507.672	4160.16
508.041	4170.78
508.409	4178.69
508.777	4214.17
509.145	4222.53
509.514	4184.11
509.882	4276.09
510.25	4251.46
510.618	4371
510.986	4338.46
511.354	4385.69
511.722	4412.13
512.09	4422.07
512.458	4415.07
512.826	4448.96
513.193	4500.04
513.561	4441.96
513.929	4512.01
514.297	4592.01
514.664	4566.48
515.032	4603.99
515.4	4585.91
515.767	4664.55
516.135	4646.02
516.502	4569.87
516.869	4672.01
517.237	4684.66
517.604	4615.29
517.972	4747.71
518.339	4712.91
518.706	4735.74
519.073	4775.28
519.44	4821.84
519.808	4823.64
520.175	4862.06
520.542	4838.11
520.909	4900.25
521.276	4891.21
521.643	4928.73
522.009	4935.05
522.376	4942.74
522.743	5002.4
523.11	5048.5
523.477	5043.07
523.843	5088.95
524.21	5112.45
524.577	5135.73
524.943	5174.14
525.31	5208.04
525.676	5201.26
526.043	5277.64
526.409	5277.19
526.776	5349.05
527.142	5402.61
527.508	5336.17
527.874	5406
528.241	5402.61
528.607	5436.96
528.973	5486.9
529.339	5508.6
529.705	5527.58
530.071	5522.38
530.437	5501.59
530.803	5586.56
531.169	5638.09
531.535	5634.47
531.901	5684.86
532.267	5684.86
532.632	5753.79
532.998	5748.14
533.364	5778.42
533.73	5752.43
534.095	5855.48
534.461	5828.82
534.826	5938.19
535.192	5881.92
535.557	5973.22
535.923	5960.79
536.288	5933.67
536.653	6027.68
537.019	5983.39
537.384	5982.26
537.749	6090.28
538.114	6080.33
538.479	6088.92
538.845	6110.16
539.21	6095.02
539.575	6141.58
539.94	6145.87
540.305	6228.13
540.67	6176.38
541.034	6259.99
541.399	6244.62
541.764	6329.59
542.129	6338.86
542.494	6321.23
542.858	6369.37
543.223	6402.59
543.587	6419.31
543.952	6428.57
544.316	6467.67
544.681	6468.12
545.045	6482.36
545.41	6610.04
545.774	6590.6
546.138	6559.42
546.503	6611.62
546.867	6706.08
547.231	6638.96
547.595	6682.35
547.959	6684.84
548.324	6724.84
548.688	6744.95
549.052	6740.66
549.416	6832.41
549.779	6838.05
550.143	6818.85
550.507	6821.11
550.871	6879.18
551.235	6922.12
551.599	6974.1
551.962	7012.51
552.326	7023.81
552.689	7100.65
553.053	6996.24
553.417	7025.62
553.78	7136.35
554.143	7133.41
554.507	7184.94
554.87	7206.18
555.234	7172.96
555.597	7250.93
555.96	7226.75
556.323	7275.11
556.686	7203.92
557.05	7304.26
557.413	7256.57
557.776	7330.25
558.139	7272.85
558.502	7351.04
558.865	7353.75
559.228	7421.77
559.59	7469.22
559.953	7503.8
560.316	7552.61
560.679	7586.96
561.041	7639.39
561.404	7605.94
561.767	7634.42
562.129	7606.62
562.492	7724.13
562.854	7718.71
563.217	7757.58
563.579	7773.17
563.941	7864.69
564.304	7887.52
564.666	7841.87
565.028	7903.11
565.39	7872.6
565.753	7938.36
566.115	7968.65
566.477	8034.41
566.839	8033.5
567.201	8158.02
567.563	8087.06
567.925	8120.28
568.287	8107.85
568.648	8156.21
569.01	8221.52
569.372	8238.7
569.734	8227.85
570.095	8307.62
570.457	8350.11
570.819	8370.9
571.18	8352.59
571.542	8458.13
571.903	8529.31
572.265	8536.32
572.626	8575.86
572.987	8645.01
573.349	8696.99
573.71	8703.09
574.071	8760.26
574.432	8776.08
574.794	8858.11
575.155	8880.49
575.516	8852.69
575.877	9015.17
576.238	8986.25
576.599	9099.69
576.96	9161.16
577.32	9258.56
577.681	9254.49
578.042	9379.68
578.403	9385.56
578.763	9537.42
579.124	9611.54
579.485	9667.36
579.845	9807.69
580.206	9821.25
580.566	9918.88
580.927	10015.82
581.287	10229.83
581.648	10320.22
582.008	10348.02
582.368	10556.37
582.728	10677.05
583.089	10828.91
583.449	10901.45
583.809	11088.56
584.169	11247.88
584.529	11375.56
584.889	11601.32
585.249	11764.25
585.609	11840.18
585.969	12091.93
586.329	12221.42
586.688	12415.76
587.048	12599.71
587.408	12747.73
587.768	12957.22
588.127	13146.14
588.487	13363.76
588.846	13709.06
589.206	13862.05
589.565	14118.32
589.925	14337.07
590.284	14549.72
590.643	14821.8
591.003	15115.35
591.362	15346.98
591.721	15611.38
592.08	15800.98
592.44	16182.89
592.799	16333.17
593.158	16721.86
593.517	16893.38
593.876	17220.83
594.235	17388.51
594.593	17758.67
594.952	18002.28
595.311	18215.16
595.67	18511.87
596.029	19051.97
596.387	19227.79
596.746	19554.78
597.104	19736.25
597.463	19982.79
597.822	20430.24
598.18	20558.15
598.538	20855.99
598.897	21297.34
599.255	21329.43
599.613	21958.11
599.972	22081.5
600.33	22552.67
600.688	22506.34
601.046	22954.47
601.404	23339.77
601.762	23608.24
602.12	23859.98
602.478	24084.38
602.836	24424.94
603.194	24553.75
603.552	24929.1
603.91	24965.71
604.268	25370.22
604.625	25518.92
604.983	25993.26
605.341	26174.72
605.698	26491.78
606.056	26823.74
606.413	26919.79
606.771	27252.66
607.128	27502.14
607.485	27609.26
607.843	27904.62
608.2	28083.82
608.557	28507.99
608.914	28623.02
609.272	28853.52
609.629	29176.45
609.986	29454.18
610.343	29593.39
610.7	29986.37
611.057	30083.09
611.414	30246.7
611.771	30584.1
612.127	30884.65
612.484	30992.45
612.841	31225.89
613.198	31293.91
613.554	31502.49
613.911	31998.75
614.267	31938.19
614.624	32108.58
614.98	32379.08
615.337	32756.24
615.693	32626.98
616.05	32828.78
616.406	33306.29
616.762	33155.78
617.118	33428.99
617.475	33491.82
617.831	33726.39
618.187	33892.26
618.543	34072.14
618.899	34227.84
619.255	34266.71
619.611	34501.28
619.967	34627.38
620.323	34745.12
620.678	34718.45
621.034	34829.41
621.39	34916.64
621.746	35075.96
622.101	35567.47
622.457	35283.86
622.812	35388.94
623.168	35662.16
623.523	35773.34
623.879	35905.31
624.234	35735.37
624.589	36041.81
624.945	36182.37
625.3	36176.27
625.655	36267.11
626.01	36321.57
626.365	36463.94
626.72	36546.88
627.075	36476.82
627.43	36590.72
627.785	36617.61
628.14	36787.32
628.495	36865.51
628.85	36903.25
629.205	36757.49
629.559	37106.19
629.914	37013.98
630.269	37079.29
630.623	36866.87
630.978	36931.5
631.332	37187.99
631.687	37262.34
632.041	37136.02
632.396	37213.75
632.75	37163.13
633.104	37312.51
633.459	37216.69
633.813	37220.53
634.167	37320.19
634.521	37428.44
634.875	37363.58
635.229	37346.86
635.583	37336.01
635.937	37276.58
636.291	37213.75
636.645	37427.53
636.999	37237.26
637.352	37579.62
637.706	37187.99
638.06	37280.19
638.413	37151.16
638.767	37235.67
639.121	37291.27
639.474	37136.47
639.828	37215.79
640.181	37243.58
640.534	37300.76
640.888	37210.36
641.241	37043.14
641.594	37177.6
641.947	37262.57
642.301	37090.14
642.654	37253.75
643.007	37120.2
643.36	37066.64
643.713	37154.77
644.066	37346.86
644.419	36932.4
644.771	36822.8
645.124	36548.23
645.477	36470.27
645.83	36267.79
646.182	36171.07
646.535	36057.85
646.888	36117.96
647.24	36078.64
647.593	36209.49
647.945	36180.33
648.298	35986.89
648.65	36019.21
649.002	35938.08
649.355	36112.99
649.707	35912.32
650.059	36169.71
650.411	36561.34
650.763	36458.52
651.115	36891.95
651.467	36863.93
651.819	36912.07
652.171	36836.36
652.523	36762.92
652.875	36701.68
653.227	36490.38
653.578	36764.05
653.93	36710.04
654.282	36546.43
654.633	36554.56
654.985	36519.76
655.337	36612.41
655.688	36623.03
656.039	36696.7
656.391	36542.13
656.742	36548.01
657.094	36521.79
657.445	36737.16
657.796	36511.17
658.147	36569.7
658.498	36535.58
658.849	36536.26
659.2	36517.95
659.551	36292.42
659.902	36597.27
660.253	36503.94
660.604	36446.54
660.955	36266.21
661.306	36546.88
661.656	36352.08
662.007	36404.28
662.358	36374.23
662.708	36423.27
663.059	36358.18
663.409	36138.75
663.76	36377.84
664.11	36437.5
664.461	36430.04
664.811	36391.63
665.161	36296.94
665.511	36370.16
665.862	36435.02
666.212	36404.28
666.562	36432.08
666.912	36419.88
667.262	36176.04
667.612	36362.7
667.962	36312.08
668.312	36290.39
668.662	36418.07
669.011	36253.78
669.361	36211.75
669.711	36288.35
670.06	36336.94
670.41	36128.81
670.76	36172.42
671.109	36360.44
671.459	36205.64
671.808	36191.63
672.157	36324.06
672.507	36006.33
672.856	36002.94
673.205	36188.92
673.554	36290.39
673.904	36103.95
674.253	36207.68
674.602	36217.85
674.951	35602.95
675.3	35511.88
675.649	36004.52
675.998	35930.17
676.346	36001.81
676.695	36110.51
677.044	35749.38
677.393	35862.83
677.741	36020.11
678.09	35974.24
678.438	35762.27
678.787	35856.5
679.135	35735.83
679.484	35520.92
679.832	35749.16
680.181	35480.47
680.529	35604.08
680.877	35541.03
681.225	35552.1
681.573	35634.81
681.922	35387.13
682.27	35245.67
682.618	35343.75
682.966	35252
683.314	35390.52
683.661	35223.75
684.009	35055.17
684.357	35002.06
684.705	35012.68
685.053	35000.25
685.4	35017.65
685.748	34846.13
686.095	34666.25
686.443	34714.38
686.79	34710.54
687.138	34740.6
687.485	34722.75
687.832	34554.84
688.18	34562.07
688.527	34303.32
688.874	34471.45
689.221	34332.47
689.568	34349.87
689.915	34104.23
690.262	34075.76
690.609	34033.72
690.956	33938.59
691.303	33964.8
691.65	33812.94
691.997	33798.48
692.344	33581.31
692.69	33513.74
693.037	33535.43
693.383	33367.3
693.73	33426.28
694.077	33184.48
694.423	33256.34
694.769	32977.71
695.116	33019.29
695.462	33026.97
695.808	32881.66
696.155	32928.67
696.501	32668.56
696.847	32686.41
697.193	32550.37
697.539	32542.46
697.885	32532.29
698.231	32275.35
698.577	32161.91
698.923	32225.64
699.269	31964.85
699.614	31935.25
699.96	31938.64
700.306	31871.52
700.651	31659.1
700.997	31831.97
701.342	31621.81
701.688	31517.86
702.033	31530.51
702.379	31502.04
702.724	31251.2
703.069	31472.66
703.415	30950.19
703.76	31118.77
704.105	31171.88
704.45	31050.3
704.795	30912.45
705.14	30646.24
705.485	30583.87
705.83	30514.49
706.175	30689.18
706.52	30581.39
706.865	30433.82
707.209	30369.87
707.554	30214.62
707.899	30489.18
708.243	30168.51
708.588	30102.98
708.932	29970.33
709.277	30040.83
709.621	29979.59
709.966	29766.27
710.31	29868.86
710.654	29580.06
710.998	29687.17
711.342	29637.46
711.687	29539.15
712.031	29498.02
712.375	29256.67
712.719	29398.82
713.063	29250.12
713.407	29319.95
713.75	29170.12
714.094	29142.78
714.438	28991.37
714.782	28878.38
715.125	29056.45
715.469	29002.67
715.812	28862.11
716.156	28713.64
716.499	28624.15
716.843	28632.51
717.186	28518.84
717.53	28728.78
717.873	28759.51
718.216	28507.99
718.559	28449.24
718.902	28332.63
719.246	28317.04
719.589	28250.15
719.932	28236.59
720.275	28167.44
720.617	28143.94
720.96	27980.55
721.303	28009.02
721.646	27974
721.989	27810.61
722.331	28035.46
722.674	27793.89
723.016	27806.54
723.359	27790.72
723.701	27769.71
724.044	27622.37
724.386	27362.26
724.729	27630.28
725.071	27587.11
725.413	27523.61
725.755	27532.65
726.097	27355.71
726.439	27183.06
726.782	27235.48
727.124	27348.93
727.465	27117.52
727.807	27171.98
728.149	27172.44
728.491	27126.11
728.833	27069.16
729.175	26915.72
729.516	26994.81
729.858	26844.53
730.199	26865.78
730.541	26901.26
730.882	26768.15
731.224	26912.33
731.565	26668.72
731.906	26729.51
732.248	26760.92
732.589	26643.18
732.93	26543.75
733.271	26473.7
733.612	26455.17
733.953	26658.32
734.294	26364.55
734.635	26355.73
734.976	26399.12
735.317	26164.78
735.658	26207.71
735.999	26263.08
736.339	26226.25
736.68	26201.61
737.021	26205.46
737.361	25995.52
737.702	26162.52
738.042	25969.76
738.383	25973.82
738.723	25981.96
739.063	25870.55
739.404	26026.02
739.744	25794.39
740.084	25773.83
740.424	25732.47
740.764	25764.34
741.104	25837.33
741.444	25624.68
741.784	25663.55
742.124	25688.18
742.464	25648.63
742.804	25488.41
743.143	25466.94
743.483	25522.31
743.823	25373.16
744.162	25518.02
744.502	25436.21
744.841	25203.9
745.181	25355.76
745.52	25120.74
745.86	25250.68
746.199	25169.55
746.538	25179.04
746.877	25190.79
747.216	25134.07
747.556	25117.35
747.895	25043
748.234	24916.45
748.573	24956.67
748.911	24859.5
749.25	24894.98
749.589	24794.19
749.928	24753.97
750.267	24836
750.605	24747.41
750.944	24667.42
751.283	24581.77
751.621	24596.68
751.96	24655.67
752.298	24532.28
752.636	24632.84
752.975	24371.15
753.313	24471.72
753.651	24381.55
753.989	24260.42
754.327	24296.35
754.666	24158.05
755.004	24170.25
755.342	24262.68
755.679	24136.36
756.017	24021.56
756.355	23991.5
756.693	23933.88
757.031	24031.05
757.368	23903.59
757.706	23776.59
758.044	23747.21
758.381	23761.23
758.719	23706.99
759.056	23672.64
759.394	23560.33
759.731	23406.88
760.068	23320.33
760.405	23337.73
760.743	23243.95
