Data from hue_40_FLMS001491_22.txt Node
Date: Mon Feb 06 15:07:39 GMT 2017
User: dcchb
Spectrometer: FLMS00149
Trigger mode: 0
Integration Time (sec): 2.000000E-2
Scans to average: 10
Electric dark correction enabled: true
Nonlinearity correction enabled: false
Boxcar width: 0
XAxis mode: Wavelengths
Number of Pixels in Spectrum: 2048
>>>>>Begin Spectral Data<<<<<
341.393	-24.28
341.776	-24.28
342.16	-24.28
342.543	-62.24
342.927	-77.61
343.31	-75.8
343.693	-65.41
344.077	-49.36
344.46	-45.75
344.843	-67.44
345.226	-24.05
345.61	-26.31
345.993	-9.82
346.376	-18.4
346.759	5.78
347.142	32.22
347.525	24.99
347.908	50.75
348.291	70.18
348.674	95.72
349.057	102.72
349.44	123.74
349.823	153.34
350.206	162.61
350.588	210.07
350.971	225.88
351.354	232.66
351.737	233.12
352.119	247.58
352.502	268.14
352.884	257.75
353.267	284.41
353.65	298.65
354.032	316.73
354.414	330.97
354.797	325.99
355.179	329.84
355.562	325.32
355.944	329.38
356.326	314.24
356.709	350.17
357.091	339.55
357.473	342.04
357.855	357.18
358.238	342.27
358.62	336.84
359.002	338.42
359.384	359.89
359.766	352.43
360.148	342.04
360.53	340.23
360.912	323.73
361.294	329.61
361.676	351.3
362.057	325.09
362.439	333.23
362.821	330.29
363.203	330.97
363.584	321.25
363.966	343.17
364.348	325.99
364.729	315.15
365.111	324.41
365.493	333.68
365.874	324.19
366.256	346.33
366.637	318.54
367.019	318.31
367.4	324.19
367.781	327.12
368.163	336.39
368.544	318.08
368.925	344.07
369.306	326.9
369.688	295.26
370.069	314.24
370.45	314.47
370.831	316.28
371.212	325.54
371.593	318.54
371.974	333.68
372.355	333.23
372.736	326.67
373.117	338.2
373.498	323.28
373.879	337.52
374.26	318.08
374.641	310.18
375.021	317.41
375.402	333
375.783	324.41
376.163	318.99
376.544	333.9
376.925	321.93
377.305	344.98
377.686	342.04
378.066	335.49
378.447	351.08
378.827	322.83
379.208	321.02
379.588	341.14
379.968	348.82
380.349	339.55
380.729	335.71
381.109	337.97
381.489	354.24
381.87	358.31
382.25	356.95
382.63	352.21
383.01	336.62
383.39	345.88
383.77	333
384.15	337.75
384.53	349.04
384.91	366.9
385.29	330.51
385.67	349.04
386.049	356.95
386.429	354.24
386.809	377.97
387.189	361.25
387.568	365.09
387.948	351.98
388.328	361.25
388.707	351.08
389.087	363.28
389.466	356.95
389.846	340.91
390.225	371.87
390.605	361.47
390.984	385.65
391.363	382.26
391.743	387.01
392.122	380.68
392.501	377.97
392.881	369.16
393.26	386.33
393.639	384.98
394.018	388.14
394.397	388.59
394.776	393.79
395.155	385.88
395.534	387.91
395.913	370.51
396.292	388.37
396.671	397.18
397.05	389.95
397.429	399.89
397.808	411.42
398.186	396.05
398.565	388.59
398.944	400.79
399.323	414.81
399.701	402.15
400.08	405.99
400.458	384.52
400.837	414.13
401.215	412.77
401.594	397.4
401.972	429.95
402.351	408.03
402.729	437.86
403.107	421.81
403.486	422.94
403.864	427.23
404.242	428.14
404.62	446.67
404.999	423.17
405.377	440.57
405.755	424.52
406.133	437.18
406.511	421.36
406.889	440.57
407.267	436.73
407.645	441.25
408.023	444.64
408.401	450.74
408.779	442.38
409.156	444.41
409.534	435.14
409.912	440.34
410.29	467.69
410.667	462.04
411.045	485.99
411.422	496.16
411.8	469.04
412.178	471.53
412.555	482.6
412.933	474.69
413.31	473.56
413.687	486.89
414.065	498.42
414.442	497.06
414.819	505.42
415.197	476.5
415.574	503.84
415.951	474.92
416.328	519.66
416.705	491.19
417.082	509.04
417.46	505.42
417.837	510.4
418.214	512.66
418.591	523.96
418.967	544.75
419.344	541.81
419.721	530.06
420.098	535.25
420.475	515.59
420.852	548.59
421.228	556.5
421.605	546.1
421.982	581.81
422.358	555.14
422.735	566.21
423.111	559.89
423.488	583.16
423.864	556.27
424.241	564.18
424.617	577.74
424.994	587
425.37	595.37
425.746	569.15
426.123	581.35
426.499	585.65
426.875	606.89
427.251	604.18
427.627	609.38
428.003	593.56
428.379	615.93
428.756	628.13
429.132	627.23
429.507	634.46
429.883	653.22
430.259	645.53
430.635	636.27
431.011	649.15
431.387	667.68
431.763	664.74
432.138	678.3
432.514	653.67
432.89	678.3
433.265	691.41
433.641	673.78
434.016	694.12
434.392	705.65
434.767	713.78
435.143	736.38
435.518	724.63
435.894	728.7
436.269	741.35
436.644	745.19
437.02	735.02
437.395	744.51
437.77	763.72
438.145	754.91
438.52	771.18
438.895	773.67
439.271	752.42
439.646	784.51
440.021	801.24
440.395	780.67
440.77	786.77
441.145	817.51
441.52	827
441.895	821.8
442.27	832.87
442.645	815.47
443.019	818.64
443.394	821.8
443.769	849.6
444.143	848.24
444.518	850.05
444.892	830.39
445.267	826.55
445.641	872.19
446.016	855.47
446.39	860.44
446.764	879.43
447.139	851.4
447.513	869.71
447.887	903.61
448.262	901.57
448.636	895.02
449.01	885.3
449.384	906.09
449.758	894.57
450.132	912.19
450.506	937.73
450.88	924.85
451.254	911.52
451.628	946.09
452.002	934.34
452.376	933.44
452.75	945.64
453.123	974.56
453.497	948.12
453.871	974.79
454.244	1009.37
454.618	1016.82
454.992	1021.8
455.365	1018.63
455.739	1011.17
456.112	1040.1
456.486	1046.65
456.859	1079.19
457.232	1066.31
457.606	1081.91
457.979	1109.93
458.352	1108.35
458.725	1131.62
459.099	1106.31
459.472	1155.8
459.845	1158.06
460.218	1158.29
460.591	1176.59
460.964	1187.67
461.337	1207.55
461.71	1223.6
462.083	1263.37
462.456	1250.04
462.829	1297.95
463.201	1267.21
463.574	1294.56
463.947	1269.25
464.32	1314.89
464.692	1359.87
465.065	1333.88
465.438	1371.62
465.81	1376.59
466.183	1420.88
466.555	1447.09
466.928	1445.74
467.3	1449.35
467.672	1463.37
468.045	1506.98
468.417	1511.27
468.789	1531.16
469.161	1525.51
469.534	1554.66
469.906	1592.18
470.278	1634.89
470.65	1628.33
471.022	1670.59
471.394	1716.24
471.766	1742.45
472.138	1745.17
472.51	1788.1
472.882	1843.24
473.253	1873.3
473.625	1904.26
473.997	1929.79
474.369	1996.01
474.74	2051.37
475.112	2052.73
475.484	2086.17
475.855	2165.27
476.227	2190.8
476.598	2227.64
476.97	2283.23
477.341	2342.89
477.713	2370.91
478.084	2430.12
478.455	2514.19
478.827	2558.93
479.198	2634.18
479.569	2682.77
479.94	2778.81
480.311	2817
480.682	2892.93
481.053	2959.37
481.424	3044.57
481.795	3107.62
482.166	3223.55
482.537	3249.76
482.908	3372.24
483.279	3409.98
483.65	3548.51
484.021	3639.13
484.391	3669.18
484.762	3776.98
485.133	3807.71
485.503	3957.54
485.874	4055.39
486.244	4095.16
486.615	4245.21
486.985	4354.14
487.356	4473.68
487.726	4553
488.097	4656.73
488.467	4764.3
488.837	4906.44
489.207	5011.07
489.578	5088.81
489.948	5164.51
490.318	5273.21
490.688	5338.97
491.058	5543.48
491.428	5631.62
491.798	5721.78
492.168	5887.88
492.538	5999.97
492.908	6128.33
493.278	6238.83
493.648	6244.26
494.017	6426.85
494.387	6500.97
494.757	6641.31
495.126	6742.32
495.496	6781.42
495.866	6912.26
496.235	7052.15
496.605	7119.26
496.974	7204.68
497.344	7333.04
497.713	7437.9
498.082	7507.95
498.452	7637.21
498.821	7829.53
499.19	7805.12
499.559	7950.88
499.928	8054.38
500.298	8098.22
500.667	8297.99
501.036	8231.32
501.405	8370.98
501.774	8452.33
502.143	8583.86
502.512	8635.61
502.88	8760.57
503.249	8736.85
503.618	8840.57
503.987	8992.89
504.356	9026.78
504.724	9140.68
505.093	9197.85
505.462	9260.45
505.83	9373.67
506.199	9462.7
506.567	9680.55
506.936	9718.29
507.304	9771.17
507.672	9840.09
508.041	9945.18
508.409	10022.91
508.777	10134.32
509.145	10252.51
509.514	10239.86
509.882	10302.23
510.25	10367.09
510.618	10500.19
510.986	10513.07
511.354	10614.54
511.722	10727.08
512.09	10776.57
512.458	10817.02
512.826	10969.56
513.193	10989.67
513.561	11074.41
513.929	11151.92
514.297	11298.14
514.664	11378.36
515.032	11360.28
515.4	11527.51
515.767	11574.74
516.135	11647.5
516.502	11602.76
516.869	11821.96
517.237	11894.28
517.604	11825.58
517.972	11862.87
518.339	11995.29
518.706	12014.95
519.073	12148.06
519.44	12233.93
519.808	12297.43
520.175	12370.65
520.542	12550.08
520.909	12597.31
521.276	12647.03
521.643	12709.85
522.009	12762.73
522.376	12799.79
522.743	12957.53
523.11	13053.12
523.477	13111.19
523.843	13173.57
524.21	13353.9
524.577	13470.96
524.943	13533.56
525.31	13580.11
525.676	13666.43
526.043	13813.55
526.409	13880.44
526.776	13989.14
527.142	14058.74
527.508	14077.72
527.874	14246.76
528.241	14332.86
528.607	14372.18
528.973	14508.22
529.339	14512.29
529.705	14722
530.071	14723.13
530.437	14827.99
530.803	14883.13
531.169	15013.07
531.535	14987.08
531.901	15049.45
532.267	15115.66
532.632	15218.03
532.998	15225.94
533.364	15386.84
533.73	15373.28
534.095	15618.7
534.461	15599.26
534.826	15655.53
535.192	15655.76
535.557	15858.69
535.923	15858.02
536.288	15946.83
536.653	16094.17
537.019	15953.15
537.384	16086.26
537.749	16148.63
538.114	16177.33
538.479	16244.22
538.845	16309.75
539.21	16331.45
539.575	16327.16
539.94	16498.9
540.305	16587.04
540.67	16574.83
541.034	16632.91
541.399	16779.12
541.764	16791.1
542.129	16828.39
542.494	16846.46
542.858	17036.06
543.223	17046.23
543.587	17137.08
543.952	17076.51
544.316	17244.65
544.681	17245.1
545.045	17351.54
545.41	17425.21
545.774	17476.28
546.138	17498.65
546.503	17608.25
546.867	17589.27
547.231	17790.17
547.595	17824.74
547.959	17881.69
548.324	17897.96
548.688	17973.21
549.052	18060.67
549.416	18075.36
549.779	18137.96
550.143	18154.23
550.507	18268.8
550.871	18337.95
551.235	18252.08
551.599	18405.29
551.962	18542.46
552.326	18488
552.689	18628.11
553.053	18577.72
553.417	18732.29
553.78	18932.06
554.143	18821.78
554.507	18899.29
554.87	19045.73
555.234	19243.69
555.597	19104.94
555.96	19137.93
556.323	19263.8
556.686	19374.98
557.05	19422.67
557.413	19560.29
557.776	19509.22
558.139	19643.23
558.502	19763
558.865	19741.53
559.228	19920.06
559.59	19923.45
559.953	19850.45
560.316	20105.14
560.679	20100.62
561.041	20241.63
561.404	20334.51
561.767	20471
562.129	20388.52
562.492	20638.23
562.854	20543.77
563.217	20598.91
563.579	20746.02
563.941	20759.13
564.304	20863.76
564.666	20977.2
565.028	21039.35
565.39	21078.67
565.753	21249.06
566.115	21376.06
566.477	21419.22
566.839	21373.35
567.201	21556.62
567.563	21687.92
567.925	21778.31
568.287	21772.21
568.648	21851.08
569.01	21962.04
569.372	22084.52
569.734	22020.79
570.095	22109.6
570.457	22294.91
570.819	22334.23
571.18	22413.1
571.542	22570.83
571.903	22511.17
572.265	22586.88
572.626	22796.82
572.987	22948.9
573.349	22936.47
573.71	23016.47
574.071	23133.3
574.432	23319.29
574.794	23438.83
575.155	23444.03
575.516	23455.78
575.877	23583.91
576.238	23852.83
576.599	23940.51
576.96	23960.63
577.32	23977.12
577.681	24173.05
578.042	24443.78
578.403	24574.4
578.763	24497.56
579.124	24713.15
579.485	24808.06
579.845	25114.04
580.206	25037.66
580.566	25200.14
580.927	25301.61
581.287	25434.03
581.648	25602.39
582.008	25825.21
582.368	26010.52
582.728	26093.45
583.089	26285.09
583.449	26321.92
583.809	26457.51
584.169	26794.9
584.529	26904.28
584.889	27153.31
585.249	27181.11
585.609	27452.51
585.969	27682.34
586.329	27752.62
586.688	28007.3
587.048	28145.6
587.408	28290.23
587.768	28369.32
588.127	28566.38
588.487	28779.94
588.846	29079.36
589.206	29096.99
589.565	29154.39
589.925	29561.84
590.284	29726.8
590.643	29987.59
591.003	30166.57
591.362	30414.02
591.721	30565.2
592.08	30749.38
592.44	30959.77
592.799	31187.1
593.158	31198.85
593.517	31473.88
593.876	31657.6
594.235	31862.34
594.593	32085.61
594.952	32344.36
595.311	32312.5
595.67	32666.61
596.029	32932.82
596.387	32932.14
596.746	33307.5
597.104	33312.92
597.463	33575.29
597.822	33789.07
598.18	33771.44
598.538	33964.43
598.897	34276.51
599.255	34204.88
599.613	34810.29
599.972	34743.62
600.33	34927.12
600.688	34966.67
601.046	35256.15
601.404	35515.13
601.762	35538.4
602.12	35815.46
602.478	35916.47
602.836	35915.11
603.194	35882.8
603.552	36297.93
603.91	36204.15
604.268	36605.94
604.625	36530.01
604.983	36715.77
605.341	36784.47
605.698	36957.8
606.056	37319.82
606.413	37244.12
606.771	37504.23
607.128	37630.55
607.485	37664.22
607.843	37624.9
608.2	37913.03
608.557	38201.83
608.914	38175.62
609.272	38419.68
609.629	38571.99
609.986	38741.26
610.343	38664.65
610.7	39042.72
611.057	39000.91
611.414	39042.49
611.771	39170.17
612.127	39335.82
612.484	39416.04
612.841	39479.09
613.198	39457.39
613.554	39743.71
613.911	39930.83
614.267	39961.79
614.624	40040.88
614.98	40088.11
615.337	40409.46
615.693	40459.85
616.05	40383.92
616.406	40672.96
616.762	40573.98
617.118	40705.27
617.475	40615.33
617.831	41044.02
618.187	40998.6
618.543	40997.02
618.899	41324.24
619.255	41312.71
619.611	41373.28
619.967	41430.68
620.323	41654.17
620.678	41422.77
621.034	41417.12
621.39	41538.24
621.746	41600.84
622.101	42026.82
622.457	41703.89
622.812	41799.48
623.168	42012.58
623.523	41944.56
623.879	42141.84
624.234	41872.25
624.589	41948.4
624.945	42156.53
625.3	42202.41
625.655	42154.72
626.01	42179.13
626.365	42289.64
626.72	42291.22
627.075	42406.92
627.43	42291.44
627.785	42219.58
628.14	42427.94
628.495	42361.05
628.85	42387.94
629.205	42272.46
629.559	42505.45
629.914	42290.77
630.269	42447.37
630.623	42395.85
630.978	42316.75
631.332	42428.84
631.687	42629.97
632.041	42456.86
632.396	42478.11
632.75	42404.44
633.104	42446.02
633.459	42243.54
633.813	42342.74
634.167	42386.58
634.521	42292.12
634.875	42343.65
635.229	42283.54
635.583	42046.93
635.937	42166.25
636.291	42181.39
636.645	42230.43
636.999	42081.05
637.352	42278.79
637.706	42064.33
638.06	42279.47
638.413	42155.4
638.767	42072.24
639.121	42221.16
639.474	41868.63
639.828	41943.66
640.181	41894.39
640.534	42044.45
640.888	41898.01
641.241	41849.2
641.594	41949.76
641.947	42054.61
642.301	41830.44
642.654	41958.57
643.007	41851
643.36	41872.47
643.713	41754.06
644.066	41933.71
644.419	41633.61
644.771	41420.96
645.124	41045.83
645.477	41049.9
645.83	40735.55
646.182	40576.46
646.535	40602.9
646.888	40659.17
647.24	40390.48
647.593	40491.72
647.945	40514.54
648.298	40287.66
648.65	40331.5
649.002	40179.18
649.355	40419.4
649.707	40445.62
650.059	40595.22
650.411	40827.08
650.763	41124.02
651.115	41349.77
651.467	41368.08
651.819	41191.59
652.171	41199.95
652.523	41067.75
652.875	41054.41
653.227	40937.81
653.578	41228.42
653.93	41041.76
654.282	40832.27
654.633	40934.87
654.985	40940.07
655.337	41011.25
655.688	40888.32
656.039	41096.45
656.391	40903.46
656.742	40805.61
657.094	40920.63
657.445	40983.46
657.796	40860.52
658.147	40612.62
658.498	40753.63
658.849	40833.4
659.2	40681.32
659.551	40645.84
659.902	40874.08
660.253	40808.55
660.604	40815.78
660.955	40502.79
661.306	40834.31
661.656	40627.53
662.007	40729.45
662.358	40627.76
662.708	40721.99
663.059	40547.08
663.409	40408.33
663.76	40723.8
664.11	40564.48
664.461	40635.67
664.811	40716.12
665.161	40476.58
665.511	40476.35
665.862	40567.2
666.212	40592.51
666.562	40668.21
666.912	40748.21
667.262	40582.11
667.612	40607.65
667.962	40660.3
668.312	40448.56
668.662	40724.03
669.011	40459.85
669.361	40547.31
669.711	40397.71
670.06	40421.89
670.41	40247.43
670.76	40308.22
671.109	40407.65
671.459	40366.3
671.808	40332.63
672.157	40278.62
672.507	40128.56
672.856	40089.47
673.205	40109.35
673.554	40195.68
673.904	40136.47
674.253	40377.82
674.602	40148.68
674.951	39596.6
675.3	39432.99
675.649	40158.17
675.998	40031.16
676.346	40028
676.695	40197.04
677.044	39959.3
677.393	40012.41
677.741	40044.95
678.09	39960.21
678.438	39802.7
678.787	40025.74
679.135	39907.55
679.484	39753.88
679.832	39783.04
680.181	39534.23
680.529	39708.24
680.877	39569.71
681.225	39582.82
681.573	39750.72
681.922	39451.52
682.27	39315.03
682.618	39444.06
682.966	39370.84
683.314	39253.56
683.661	39218.08
684.009	39172.43
684.357	39118.87
684.705	38887.92
685.053	39079.33
685.4	38952.32
685.748	38666.46
686.095	38707.13
686.443	38689.28
686.79	38519.79
687.138	38762.72
687.485	38698.09
687.832	38489.74
688.18	38481.15
688.527	38271.44
688.874	38426.24
689.221	38228.5
689.568	38251.78
689.915	37972.46
690.262	37955.74
690.609	37859.47
690.956	37724.11
691.303	37745.35
691.65	37604.79
691.997	37727.72
692.344	37370.44
692.69	37330.44
693.037	37386.26
693.383	37063.33
693.73	37235.31
694.077	36955.31
694.423	36858.37
694.769	36958.93
695.116	36771.14
695.462	36729.56
695.808	36602.78
696.155	36674.19
696.501	36496.79
696.847	36320.75
697.193	36250.47
697.539	36293.64
697.885	36149.69
698.231	36047.77
698.577	35897.94
698.923	35973.87
699.269	35689.13
699.614	35477.84
699.96	35555.8
700.306	35623.37
700.651	35354.68
700.997	35382.25
701.342	35316.26
701.688	35138.64
702.033	34965.54
702.379	35029.71
702.724	34887.8
703.069	35000.56
703.415	34572.55
703.76	34571.87
704.105	34624.98
704.45	34587.01
704.795	34427.7
705.14	34253.24
705.485	34269.06
705.83	34048.5
706.175	34102.73
706.52	34101.15
706.865	34012.34
707.209	34006.92
707.554	33689.86
707.899	33834.27
708.243	33667.49
708.588	33682.63
708.932	33439.25
709.277	33352.7
709.621	33462.52
709.966	33145.7
710.31	33285.81
710.654	32946.15
710.998	33140.5
711.342	32963.55
711.687	32931.01
712.031	32794.97
712.375	32740.28
712.719	32748.19
713.063	32695.31
713.407	32645.37
713.75	32613.28
714.094	32554.3
714.438	32371.48
714.782	32441.08
715.125	32243.57
715.469	32205.16
715.812	32234.99
716.156	31906.86
716.499	31979.17
716.843	31996.12
717.186	31749.57
717.53	32023.24
717.873	32011.71
718.216	31782.79
718.559	31743.02
718.902	31596.81
719.246	31550.03
719.589	31487.21
719.932	31311.17
720.275	31362.92
720.617	31369.25
720.96	31301.22
721.303	31239.98
721.646	31252.41
721.989	31141.68
722.331	31185.52
722.674	31050.16
723.016	31040.89
723.359	30954.57
723.701	30955.47
724.044	30737.17
724.386	30603.16
724.729	30782.82
725.071	30641.58
725.413	30747.34
725.755	30555.71
726.097	30503.05
726.439	30265.77
726.782	30437.97
727.124	30463.73
727.465	30225.1
727.807	30302.83
728.149	30180.35
728.491	30218.32
728.833	30296.51
729.175	29987.14
729.516	29940.36
729.858	29952.79
730.199	29908.49
730.541	29934.93
730.882	29873.47
731.224	29956.4
731.565	29640.25
731.906	29764.77
732.248	29719.8
732.589	29554.15
732.93	29477.09
733.271	29461.05
733.612	29524.32
733.953	29540.14
734.294	29434.83
734.635	29434.16
734.976	29513.25
735.317	29293.14
735.658	29243.88
735.999	29257.44
736.339	29101.51
736.68	29234.61
737.021	29119.59
737.361	29088.18
737.702	29143.54
738.042	29113.26
738.383	28968.86
738.723	28956.43
739.063	28811.8
739.404	28858.58
739.744	28834.17
740.084	28732.48
740.424	28704.91
740.764	28579.26
741.104	28757.56
741.444	28531.35
741.784	28432.15
742.124	28428.76
742.464	28401.64
742.804	28319.83
743.143	28323.68
743.483	28349.44
743.823	28180.4
744.162	28263.34
744.502	28174.53
744.841	28046.85
745.181	28223.57
745.52	27938.15
745.86	28048.88
746.199	27940.41
746.538	27956.68
746.877	28034.42
747.216	27885.95
747.556	27829.9
747.895	27887.98
748.234	27826.97
748.573	27581.32
748.911	27688.66
749.25	27643.24
749.589	27674.88
749.928	27582.45
750.267	27600.31
750.605	27497.26
750.944	27350.37
751.283	27269.92
751.621	27506.3
751.96	27115.12
752.298	27226.53
752.636	27278.73
752.975	27021.56
753.313	27067.89
753.651	27141.11
753.989	26928.46
754.327	26917.16
754.666	26795.35
755.004	26870.83
755.342	26872.87
755.679	26717.62
756.017	26576.83
756.355	26715.13
756.693	26492.09
