Data from hue_190_FLMS001491_00011.txt Node
Date: Tue Feb 07 16:44:54 GMT 2017
User: dcchb
Spectrometer: FLMS00149
Trigger mode: 0
Integration Time (sec): 2.000000E-2
Scans to average: 10
Electric dark correction enabled: true
Nonlinearity correction enabled: false
Boxcar width: 0
XAxis mode: Wavelengths
Number of Pixels in Spectrum: 2048
>>>>>Begin Spectral Data<<<<<
341.393	-6.26
341.776	-6.26
342.16	-6.26
342.543	-64.11
342.927	-79.02
343.31	-56.65
343.693	-50.78
344.077	-62.75
344.46	-73.6
344.843	-50.32
345.226	-57.78
345.61	-23.88
345.993	-22.3
346.376	-5.35
346.759	0.52
347.142	28.09
347.525	42.1
347.908	67.41
348.291	80.29
348.674	86.85
349.057	98.15
349.44	126.17
349.823	133.4
350.206	167.07
350.588	188.54
350.971	207.52
351.354	223.79
351.737	244.81
352.119	257.01
352.502	250.91
352.884	258.82
353.267	268.99
353.65	304.7
354.032	291.14
354.414	304.7
354.797	305.6
355.179	315.09
355.562	342.89
355.944	314.64
356.326	317.8
356.709	306.73
357.091	322.77
357.473	320.06
357.855	339.72
358.238	346.28
358.62	332.94
359.002	336.33
359.384	337.69
359.766	334.75
360.148	346.95
360.53	329.78
360.912	359.38
361.294	331.36
361.676	323
362.057	301.53
362.439	338.82
362.821	328.2
363.203	321.87
363.584	314.64
363.966	318.48
364.348	320.06
364.729	324.13
365.111	308.31
365.493	318.71
365.874	313.28
366.256	304.7
366.637	316.45
367.019	322.1
367.4	325.71
367.781	300.63
368.163	301.98
368.544	324.81
368.925	299.95
369.306	316.67
369.688	299.95
370.069	310.57
370.45	320.97
370.831	294.07
371.212	313.96
371.593	306.05
371.974	318.93
372.355	312.6
372.736	308.31
373.117	298.82
373.498	313.96
373.879	309.67
374.26	308.31
374.641	302.89
375.021	328.2
375.402	322.1
375.783	311.7
376.163	330.46
376.544	332.04
376.925	297.46
377.305	319.84
377.686	325.26
378.066	334.98
378.447	316.22
378.827	304.47
379.208	323.23
379.588	315.77
379.968	315.09
380.349	320.97
380.729	323.23
381.109	324.13
381.489	336.56
381.87	333.62
382.25	356.22
382.63	346.28
383.01	335.66
383.39	325.94
383.77	358.25
384.15	344.69
384.53	357.58
384.91	373.39
385.29	338.37
385.67	351.47
386.049	353.51
386.429	352.6
386.809	344.92
387.189	343.56
387.568	337.24
387.948	339.5
388.328	324.36
388.707	355.32
389.087	364.58
389.466	353.51
389.846	383.11
390.225	352.6
390.605	382.43
390.984	384.47
391.363	363.22
391.743	358.93
392.122	352.38
392.501	368.42
392.881	375.2
393.26	378.14
393.639	356.22
394.018	385.37
394.397	379.72
394.776	391.7
395.155	369.1
395.534	386.05
395.913	380.63
396.292	393.73
396.671	403
397.05	394.64
397.429	397.12
397.808	396.67
398.186	394.41
398.565	391.25
398.944	405.03
399.323	404.13
399.701	395.31
400.08	409.1
400.458	404.13
400.837	425.14
401.215	411.81
401.594	404.58
401.972	386.05
402.351	410.68
402.729	429.66
403.107	424.24
403.486	419.95
403.864	425.82
404.242	446.84
404.62	462.66
404.999	445.03
405.377	457.91
405.755	465.37
406.133	437.12
406.511	465.37
406.889	474.18
407.267	483
407.645	489.32
408.023	474.63
408.401	490
408.779	489.55
409.156	493.62
409.534	506.72
409.912	507.63
410.29	530
410.667	537.68
411.045	556.21
411.422	534.97
411.8	537.23
412.178	566.16
412.555	560.51
412.933	572.94
413.31	587.85
413.687	577
414.065	581.75
414.442	595.54
414.819	592.37
415.197	623.11
415.574	618.13
415.951	642.77
416.328	657.68
416.705	655.19
417.082	661.07
417.46	661.3
417.837	692.03
418.214	678.02
418.591	668.3
418.967	684.57
419.344	706.27
419.721	695.65
420.098	725.48
420.475	711.01
420.852	736.1
421.228	751.24
421.605	744.91
421.982	797.11
422.358	790.33
422.735	803.21
423.111	803.67
423.488	855.87
423.864	836.21
424.241	864.45
424.617	891.12
424.994	880.95
425.37	894.28
425.746	903.1
426.123	933.15
426.499	928.63
426.875	946.71
427.251	949.88
427.627	985.13
428.003	985.58
428.379	994.62
428.756	1021.29
429.132	1029.42
429.507	1032.36
429.883	1034.17
430.259	1059.93
430.635	1061.96
431.011	1068.97
431.387	1112.58
431.763	1124.56
432.138	1117.33
432.514	1148.29
432.89	1180.15
433.265	1200.04
433.641	1170.21
434.016	1205.69
434.392	1247.72
434.767	1261.51
435.143	1298.79
435.518	1309.41
435.894	1327.95
436.269	1377.21
436.644	1375.85
437.02	1400.71
437.395	1413.37
437.77	1435.74
438.145	1464.66
438.52	1503.99
438.895	1482.29
439.271	1512.8
439.646	1536.98
440.021	1588.96
440.395	1584.66
440.77	1582.85
441.145	1644.77
441.52	1668.73
441.895	1653.13
442.27	1675.28
442.645	1683.87
443.019	1749.63
443.394	1718.44
443.769	1750.31
444.143	1751.44
444.518	1798.67
444.892	1787.59
445.267	1811.1
445.641	1830.98
446.016	1865.11
446.39	1846.58
446.764	1889.96
447.139	1877.99
447.513	1910.75
447.887	1918.66
448.262	1921.83
448.636	1934.48
449.01	1949.17
449.384	2030.07
449.758	2005.89
450.132	2036.85
450.506	2049.06
450.88	2079.79
451.254	2068.04
451.628	2147.58
452.002	2119.34
452.376	2130.18
452.75	2123.63
453.123	2196.85
453.497	2209.28
453.871	2249.28
454.244	2271.42
454.618	2281.37
454.992	2304.87
455.365	2313.46
455.739	2371.99
456.112	2401.59
456.486	2429.84
456.859	2448.59
457.232	2510.51
457.606	2493.34
457.979	2521.59
458.352	2567.23
458.725	2650.4
459.099	2653.79
459.472	2710.06
459.845	2722.26
460.218	2728.81
460.591	2781.69
460.964	2753.44
461.337	2849.94
461.71	2872.31
462.083	2937.85
462.456	2911.63
462.829	2958.41
463.201	2999.77
463.574	3007
463.947	3054.68
464.32	3160.67
464.692	3143.72
465.065	3149.14
465.438	3246.99
465.81	3238.18
466.183	3304.62
466.555	3372.41
466.928	3410.38
467.3	3409.92
467.672	3499.19
468.045	3578.73
468.417	3566.98
468.789	3634.55
469.161	3678.17
469.534	3756.36
469.906	3785.96
470.278	3840.42
470.65	3857.82
471.022	3970.36
471.394	4053.75
471.766	4024.82
472.138	4083.13
472.51	4147.31
472.882	4226.17
473.253	4260.75
473.625	4404.47
473.997	4451.03
474.369	4486.28
474.74	4535.77
475.112	4652.15
475.484	4707.29
475.855	4805.14
476.227	4858.93
476.598	4982.76
476.97	4989.09
477.341	5101.86
477.713	5223.89
478.084	5259.14
478.455	5400.15
478.827	5446.48
479.198	5571
479.569	5568.29
479.94	5749.75
480.311	5809.41
480.682	5961.5
481.053	6086.01
481.424	6152.23
481.795	6288.27
482.166	6306.57
482.537	6386.34
482.908	6513.57
483.279	6616.85
483.65	6756.05
484.021	6906.56
484.391	6933.9
484.762	6981.36
485.133	7072.43
485.503	7155.36
485.874	7306.32
486.244	7446.88
486.615	7572.75
486.985	7584.73
487.356	7746.31
487.726	7844.38
488.097	8016.58
488.467	8079.18
488.837	8203.24
489.207	8293.19
489.578	8422.67
489.948	8534.54
490.318	8563.91
490.688	8630.35
491.058	8761.65
491.428	8828.99
491.798	8937.24
492.168	9072.6
492.538	9078.02
492.908	9215.42
493.278	9358.92
493.648	9323.67
494.017	9463.78
494.387	9543.1
494.757	9566.15
495.126	9776.99
495.496	9695.41
495.866	9791
496.235	9899.25
496.605	9955.29
496.974	10024.21
497.344	10086.13
497.713	10127.26
498.082	10129.52
498.452	10280.48
498.821	10257.2
499.19	10284.32
499.559	10395.05
499.928	10461.72
500.298	10517.31
500.667	10601.83
501.036	10517.53
501.405	10617.42
501.774	10629.17
502.143	10675.27
502.512	10695.16
502.88	10796.85
503.249	10801.59
503.618	10847.24
503.987	10849.73
504.356	10941.48
504.724	11001.82
505.093	10968.37
505.462	10975.38
505.83	11035.49
506.199	11118.42
506.567	11155.94
506.936	11096.95
507.304	11272.32
507.672	11244.75
508.041	11294.01
508.409	11345.99
508.777	11370.85
509.145	11419.66
509.514	11401.13
509.882	11408.81
510.25	11515.7
510.618	11482.25
510.986	11469.15
511.354	11594.12
511.722	11552.08
512.09	11579.43
512.458	11592.76
512.826	11623.27
513.193	11690.84
513.561	11711.4
513.929	11743.26
514.297	11795.01
514.664	11817.39
515.032	11791.85
515.4	11812.87
515.767	11776.26
516.135	11902.58
516.502	11748.01
516.869	11928.34
517.237	11848.35
517.604	11847.89
517.972	11956.82
518.339	11947.1
518.706	11891.51
519.073	12013.09
519.44	11934.9
519.808	11977.38
520.175	11926.08
520.542	12048.57
520.909	11986.87
521.276	11975.57
521.643	12055.57
522.009	12037.95
522.376	12064.16
522.743	12080.43
523.11	12189.81
523.477	12183.93
523.843	12158.85
524.21	12319.29
524.577	12222.35
524.943	12239.97
525.31	12160.65
525.676	12349.12
526.043	12270.03
526.409	12256.7
526.776	12343.93
527.142	12216.92
527.508	12169.24
527.874	12246.53
528.241	12272.06
528.607	12156.36
528.973	12287.21
529.339	12147.77
529.705	12164.5
530.071	12239.3
530.437	12195.46
530.803	12185.06
531.169	12180.54
531.535	12080.66
531.901	12060.54
532.267	12084.5
532.632	12068
532.998	11992.75
533.364	11988.46
533.73	11993.65
534.095	12059.64
534.461	11971.96
534.826	11907.78
535.192	11959.3
535.557	11879.31
535.923	11772.64
536.288	11781.91
536.653	11755.92
537.019	11715.47
537.384	11645.41
537.749	11627.79
538.114	11615.13
538.479	11584.62
538.845	11475.25
539.21	11416.27
539.575	11409.94
539.94	11419.66
540.305	11369.04
540.67	11263.05
541.034	11255.37
541.399	11264.63
541.764	11163.39
542.129	11108.03
542.494	11045.88
542.858	11018.54
543.223	10995.94
543.587	10950.74
543.952	10920.46
544.316	10865.55
544.681	10802.5
545.045	10781.48
545.41	10764.08
545.774	10736.74
546.138	10627.14
546.503	10563.18
546.867	10549.17
547.231	10531.32
547.595	10448.84
547.959	10416.07
548.324	10410.42
548.688	10278.22
549.052	10280.25
549.416	10173.81
549.779	10135.17
550.143	10097.43
550.507	10167.49
550.871	10091.78
551.235	10058.11
551.599	10055.63
551.962	9933.82
552.326	9909.19
552.689	9925.23
553.053	9782.19
553.417	9737.44
553.78	9862.64
554.143	9728.85
554.507	9729.31
554.87	9644.56
555.234	9730.89
555.597	9597.11
555.96	9557.56
556.323	9553.94
556.686	9485.24
557.05	9458.13
557.413	9461.29
557.776	9417
558.139	9442.76
558.502	9378.81
558.865	9368.86
559.228	9404.12
559.59	9368.19
559.953	9255.65
560.316	9316.66
560.679	9313.95
561.041	9302.65
561.404	9281.18
561.767	9373.16
562.129	9337.23
562.492	9305.14
562.854	9285.02
563.217	9182.43
563.579	9341.97
563.941	9272.82
564.304	9274.63
564.666	9308.98
565.028	9237.79
565.39	9159.6
565.753	9278.92
566.115	9143.78
566.477	9239.83
566.839	9245.7
567.201	9220.39
567.563	9202.77
567.925	9237.12
568.287	9246.16
568.648	9139.72
569.01	9192.15
569.372	9195.99
569.734	9197.57
570.095	9265.59
570.457	9247.29
570.819	9194.86
571.18	9166.61
571.542	9239.83
571.903	9207.96
572.265	9258.58
572.626	9259.49
572.987	9245.7
573.349	9258.36
573.71	9242.54
574.071	9243.67
574.432	9240.28
574.794	9234.86
575.155	9288.19
575.516	9214.74
575.877	9173.61
576.238	9269.43
576.599	9223.1
576.96	9230.34
577.32	9227.85
577.681	9250.9
578.042	9168.42
578.403	9184.69
578.763	9221.98
579.124	9224.23
579.485	9233.05
579.845	9245.03
580.206	9192.82
580.566	9231.69
580.927	9153.95
581.287	9298.58
581.648	9193.28
582.008	9157.57
582.368	9191.24
582.728	9123.45
583.089	9138.14
583.449	9151.24
583.809	9158.93
584.169	9217.23
584.529	9119.6
584.889	9229.43
585.249	9112.6
585.609	9084.8
585.969	9089.55
586.329	9070.79
586.688	9102.2
587.048	9082.54
587.408	9036.67
587.768	9070.11
588.127	9029.21
588.487	9070.11
588.846	9014.75
589.206	9010
589.565	8979.27
589.925	9011.36
590.284	9002.55
590.643	9050
591.003	8986.5
591.362	9069.89
591.721	8939.72
592.08	8963.45
592.44	8990.12
592.799	8959.38
593.158	8909.89
593.517	8958.03
593.876	8915.32
594.235	8955.99
594.593	8943.34
594.952	8895.88
595.311	8877.35
595.67	8926.39
596.029	8943.11
596.387	8907.41
596.746	8970.91
597.104	8910.34
597.463	8821.53
597.822	8857.01
598.18	8773.4
598.538	8835.32
598.897	8868.99
599.255	8831.02
599.613	8953.06
599.972	8810.69
600.33	8869.67
600.688	8819.95
601.046	8802.33
601.404	8898.37
601.762	8865.15
602.12	8898.37
602.478	8852.49
602.836	8872.15
603.194	8883
603.552	8863.79
603.91	8849.33
604.268	8865.6
604.625	8757.13
604.983	8866.05
605.341	8805.26
605.698	8837.35
606.056	8870.35
606.413	8863.79
606.771	8858.37
607.128	8870.12
607.485	8844.36
607.843	8816.56
608.2	8829.44
608.557	8899.05
608.914	8838.03
609.272	8857.01
609.629	8824.25
609.986	8876
610.343	8845.71
610.7	8886.84
611.057	8861.31
611.414	8856.79
611.771	8837.58
612.127	8899.5
612.484	8885.71
612.841	8872.15
613.198	8874.64
613.554	8954.19
613.911	8938.82
614.267	8875.54
614.624	8899.05
614.98	8932.94
615.337	8948.99
615.693	8923.9
616.05	8979.27
616.406	8958.03
616.762	8949.67
617.118	8916.9
617.475	8877.35
617.831	8927.29
618.187	8994.64
618.543	8942.43
618.899	8995.31
619.255	8949.67
619.611	8962.55
619.967	8960.96
620.323	9023.56
620.678	8986.73
621.034	9004.13
621.39	8968.2
621.746	8934.75
622.101	9096.78
622.457	8994.18
622.812	8998.7
623.168	8983.56
623.523	9073.73
623.879	9051.36
624.234	8964.35
624.589	9021.75
624.945	8960.29
625.3	9023.34
625.655	9050
626.01	9039.83
626.365	8985.6
626.72	8970
627.075	8955.99
627.43	8940.17
627.785	9016.33
628.14	9039.61
628.495	8967.29
628.85	8989.44
629.205	8878.26
629.559	8960.74
629.914	8955.32
630.269	8965.94
630.623	8903.11
630.978	8867.41
631.332	8937.69
631.687	8940.63
632.041	8882.32
632.396	8895.66
632.75	8888.65
633.104	8874.64
633.459	8813.17
633.813	8820.18
634.167	8847.52
634.521	8809.78
634.875	8878.71
635.229	8808.2
635.583	8744.47
635.937	8799.84
636.291	8774.98
636.645	8831.7
636.999	8787.18
637.352	8683.46
637.706	8779.73
638.06	8757.35
638.413	8742.21
638.767	8637.36
639.121	8656.34
639.474	8639.84
639.828	8629.9
640.181	8631.71
640.534	8591.03
640.888	8579.73
641.241	8531.6
641.594	8609.79
641.947	8627.19
642.301	8598.49
642.654	8638.71
643.007	8627.64
643.36	8607.53
643.713	8633.29
644.066	8623.35
644.419	8558.04
644.771	8565.27
645.124	8464.25
645.477	8405.27
645.83	8366.86
646.182	8310.81
646.535	8314.43
646.888	8292.96
647.24	8282.56
647.593	8326.41
647.945	8310.13
648.298	8242.11
648.65	8285.05
649.002	8218.39
649.355	8289.8
649.707	8220.42
650.059	8293.64
650.411	8400.3
650.763	8363.24
651.115	8535.89
651.467	8496.12
651.819	8493.18
652.171	8471.03
652.523	8407.31
652.875	8410.7
653.227	8458.15
653.578	8497.02
653.93	8462.45
654.282	8461.77
654.633	8404.14
654.985	8454.76
655.337	8511.26
655.688	8426.97
656.039	8512.62
656.391	8470.58
656.742	8492.5
657.094	8454.76
657.445	8532.73
657.796	8443.01
658.147	8470.58
658.498	8466.74
658.849	8422
659.2	8487.53
659.551	8421.32
659.902	8499.06
660.253	8529.34
660.604	8515.78
660.955	8459.28
661.306	8468.32
661.656	8525.27
662.007	8506.97
662.358	8506.74
662.708	8553.52
663.059	8452.96
663.409	8418.61
663.76	8501.54
664.11	8558.04
664.461	8568.43
664.811	8515.1
665.161	8550.58
665.511	8472.39
665.862	8491.15
666.212	8539.96
666.562	8549.22
666.912	8527.98
667.262	8526.63
667.612	8457.48
667.962	8557.36
668.312	8507.42
668.662	8606.4
669.011	8515.1
669.361	8452.73
669.711	8504.03
670.06	8507.87
670.41	8511.71
670.76	8481.88
671.109	8522.33
671.459	8485.72
671.808	8484.59
672.157	8445.72
672.507	8459.06
672.856	8410.02
673.205	8459.28
673.554	8469.45
673.904	8444.37
674.253	8495.67
674.602	8411.83
674.951	8299.29
675.3	8365.05
675.649	8440.07
675.998	8421.77
676.346	8434.43
676.695	8442.11
677.044	8323.92
677.393	8341.77
677.741	8384.93
678.09	8348.1
678.438	8311.26
678.787	8308.55
679.135	8324.15
679.484	8232.17
679.832	8302.45
680.181	8318.5
680.529	8308.55
680.877	8246.63
681.225	8261.1
681.573	8280.08
681.922	8228.78
682.27	8208.89
682.618	8240.76
682.966	8164.83
683.314	8209.8
683.661	8117.82
684.009	8103.59
684.357	8109.46
684.705	8090.03
685.053	8121.44
685.4	8029.01
685.748	8029.46
686.095	8047.09
686.443	7932.97
686.79	7939.75
687.138	8005.28
687.485	7946.3
687.832	7977.49
688.18	7897.72
688.527	7925.06
688.874	7838.51
689.221	7811.39
689.568	7807.1
689.915	7784.95
690.262	7804.61
690.609	7736.14
690.956	7739.08
691.303	7725.07
691.65	7645.75
691.997	7645.97
692.344	7573.43
692.69	7607.78
693.037	7644.62
693.383	7535.69
693.73	7529.14
694.077	7561.23
694.423	7439.65
694.769	7488.46
695.116	7417.5
695.462	7435.13
695.808	7373.89
696.155	7387
696.501	7336.6
696.847	7259.54
697.193	7250.05
697.539	7276.94
697.885	7181.8
698.231	7203.95
698.577	7202.82
698.923	7239.65
699.269	7114.91
699.614	7053.9
699.96	7060.9
700.306	7019.1
700.651	6997.85
700.997	6999.43
701.342	6962.15
701.688	6923.5
702.033	6877.4
702.379	6893
702.724	6910.17
703.069	6902.94
703.415	6765.77
703.76	6834.02
704.105	6786.78
704.45	6775.49
704.795	6763.73
705.14	6690.97
705.485	6741.14
705.83	6664.75
706.175	6671.53
706.52	6724.41
706.865	6616.85
707.209	6637.86
707.554	6594.47
707.899	6562.16
708.243	6522.38
708.588	6519.22
708.932	6495.72
709.277	6520.35
709.621	6519.67
709.966	6441.94
710.31	6438.55
710.654	6436.29
710.998	6416.85
711.342	6346.8
711.687	6429.73
712.031	6338.21
712.375	6344.08
712.719	6289.62
713.063	6340.24
713.407	6353.8
713.75	6266.57
714.094	6214.14
714.438	6273.8
714.782	6278.55
715.125	6235.16
715.469	6283.75
715.812	6244.2
716.156	6132.56
716.499	6190.19
716.843	6261.37
717.186	6180.25
717.53	6189.29
717.873	6186.12
718.216	6191.77
718.559	6123.07
718.902	6120.14
719.246	6128.95
719.589	6114.71
719.932	6051.44
720.275	6079.46
720.617	6079.23
720.96	6069.74
721.303	6073.13
721.646	6156.74
721.989	6039.69
722.331	6063.41
722.674	6005.56
723.016	6078.55
723.359	6040.14
723.701	6068.61
724.044	6041.04
724.386	5968.73
724.729	6021.83
725.071	5996.3
725.413	6013.7
725.755	6000.14
726.097	5988.39
726.439	5921.27
726.782	5945.23
727.124	5998.78
727.465	6014.83
727.807	6004.21
728.149	5968.5
728.491	5978.44
728.833	5984.09
729.175	5990.2
729.516	6001.49
729.858	5930.99
730.199	5963.53
730.541	5927.6
730.882	5982.51
731.224	6029.97
731.565	6001.72
731.906	5961.95
732.248	5992.91
732.589	5902.74
732.93	5907.49
733.271	5946.13
733.612	5941.84
733.953	5968.5
734.294	5959.46
734.635	5944.32
734.976	5970.54
735.317	5953.13
735.658	5965.11
735.999	5982.51
736.339	5981.61
736.68	5983.19
737.021	6002.17
737.361	5959.91
737.702	6028.84
738.042	5986.58
738.383	6001.72
738.723	6079.46
739.063	5996.3
739.404	6046.69
739.744	6014.38
740.084	6016.18
740.424	6067.48
740.764	6074.26
741.104	6062.06
741.444	6074.94
741.784	6094.15
742.124	6133.02
742.464	6099.12
742.804	6177.54
743.143	6137.31
743.483	6243.75
743.823	6169.4
744.162	6238.55
744.502	6317.42
744.841	6282.39
745.181	6340.24
745.52	6308.83
745.86	6377.53
746.199	6415.27
746.538	6429.96
746.877	6490.07
747.216	6553.12
747.556	6506.57
747.895	6625.43
748.234	6685.77
748.573	6681.7
748.911	6807.35
749.25	6830.63
749.589	6814.35
749.928	6984.07
750.267	6978.64
750.605	7026.55
750.944	7087.79
751.283	7123.95
751.621	7294.79
751.96	7322.82
752.298	7405.07
752.636	7487.33
752.975	7566.43
753.313	7670.6
753.651	7777.95
753.989	7876.47
754.327	8016.58
754.666	8101.1
755.004	8202.11
755.342	8381.09
755.679	8556.46
756.017	8591.71
756.355	8750.35
756.693	8866.05
757.031	8986.28
757.368	9158.7
757.706	9229.43
758.044	9470.33
758.381	9594.17
758.719	9753.71
759.056	9963.42
759.394	10044.55
759.731	10237.54
760.068	10404.77
760.405	10512.34
760.743	10709.62
761.08	10783.06
761.417	11041.14
761.754	11155.26
762.091	11387.79
762.428	11514.12
762.765	11776.26
763.102	11970.15
763.438	12051.28
763.775	12274.55
764.112	12361.78
764.449	12573.75
764.785	12839.73
765.122	12935.78
765.458	13032.5
765.795	13308.42
766.131	13398.14
766.467	13550.45
