Data from hue_32_FLMS001491_00096.txt Node
Date: Tue Feb 07 17:24:17 GMT 2017
User: dcchb
Spectrometer: FLMS00149
Trigger mode: 0
Integration Time (sec): 2.000000E-2
Scans to average: 10
Electric dark correction enabled: true
Nonlinearity correction enabled: false
Boxcar width: 0
XAxis mode: Wavelengths
Number of Pixels in Spectrum: 2048
>>>>>Begin Spectral Data<<<<<
341.393	-14.55
341.776	-14.55
342.16	-14.55
342.543	-58.84
342.927	-68.11
343.31	-76.47
343.693	-59.07
344.077	-73.3
344.46	-71.27
344.843	-55
345.226	-26.52
345.61	-37.82
345.993	-24.94
346.376	-17.26
346.759	3.98
347.142	34.49
347.525	41.04
347.908	72.91
348.291	94.38
348.674	94.6
349.057	100.25
349.44	109.74
349.823	134.6
350.206	162.17
350.588	195.62
350.971	220.02
351.354	210.98
351.737	228.84
352.119	274.03
352.502	270.42
352.884	291.21
353.267	286.46
353.65	308.83
354.032	292.34
354.414	305.67
354.797	323.3
355.179	332.79
355.562	306.12
355.944	340.25
356.326	338.21
356.709	338.21
357.091	354.48
357.473	343.18
357.855	350.19
358.238	352.22
358.62	351.54
359.002	348.83
359.384	335.73
359.766	355.61
360.148	369.85
360.53	349.06
360.912	344.54
361.294	342.96
361.676	354.03
362.057	331.21
362.439	348.61
362.821	335.95
363.203	319
363.584	325.1
363.966	339.34
364.348	324.65
364.729	326.23
365.111	314.48
365.493	344.54
365.874	333.01
366.256	323.3
366.637	328.49
367.019	337.76
367.4	317.65
367.781	320.13
368.163	330.3
368.544	328.72
368.925	310.19
369.306	314.71
369.688	329.62
370.069	308.16
370.45	318.78
370.831	335.5
371.212	299.12
371.593	312.68
371.974	336.63
372.355	317.42
372.736	322.39
373.117	319.23
373.498	329.4
373.879	317.2
374.26	307.25
374.641	323.3
375.021	335.5
375.402	322.84
375.783	316.97
376.163	334.6
376.544	319.68
376.925	327.82
377.305	327.59
377.686	330.53
378.066	320.81
378.447	325.1
378.827	337.08
379.208	328.95
379.588	339.79
379.968	342.28
380.349	361.71
380.729	326.91
381.109	360.36
381.489	353.58
381.87	340.47
382.25	340.47
382.63	352.67
383.01	339.12
383.39	330.98
383.77	352.22
384.15	357.42
384.53	340.7
384.91	336.63
385.29	338.89
385.67	348.61
386.049	364.65
386.429	351.32
386.809	351.77
387.189	349.51
387.568	378.66
387.948	371.66
388.328	362.17
388.707	355.39
389.087	383.86
389.466	369.62
389.846	375.5
390.225	396.74
390.605	371.88
390.984	367.36
391.363	371.88
391.743	365.56
392.122	378.21
392.501	387.02
392.881	374.82
393.26	385.67
393.639	396.74
394.018	373.01
394.397	393.13
394.776	385.67
395.155	407.59
395.534	390.64
395.913	381.15
396.292	425.21
396.671	410.75
397.05	388.38
397.429	405.33
397.808	393.35
398.186	396.06
398.565	397.87
398.944	378.66
399.323	390.87
399.701	370.08
400.08	401.26
400.458	393.13
400.837	392.9
401.215	390.19
401.594	408.27
401.972	407.36
402.351	434.71
402.729	410.53
403.107	424.08
403.486	419.57
403.864	427.7
404.242	408.04
404.62	415.72
404.999	428.6
405.377	420.24
405.755	440.13
406.133	430.86
406.511	407.14
406.889	449.85
407.267	437.64
407.645	443.07
408.023	443.07
408.401	443.29
408.779	452.33
409.156	453.01
409.534	442.62
409.912	452.56
410.29	440.13
410.667	447.14
411.045	470.86
411.422	484.87
411.8	478.32
412.178	478.09
412.555	477.42
412.933	476.96
413.31	465.44
413.687	473.12
414.065	476.29
414.442	482.16
414.819	475.38
415.197	497.76
415.574	509.28
415.951	504.53
416.328	517.42
416.705	507.25
417.082	500.47
417.46	514.25
417.837	514.48
418.214	518.55
418.591	521.26
418.967	524.65
419.344	535.27
419.721	530.07
420.098	548.15
420.475	534.59
420.852	552.9
421.228	528.71
421.605	554.93
421.982	560.13
422.358	560.58
422.735	556.28
423.111	559.45
423.488	559.22
423.864	561.26
424.241	563.74
424.617	568.71
424.994	570.97
425.37	560.8
425.746	573.01
426.123	570.75
426.499	587.02
426.875	581.37
427.251	603.52
427.627	601.48
428.003	594.48
428.379	604.19
428.756	598.54
429.132	610.75
429.507	609.62
429.883	615.49
430.259	624.53
430.635	648.71
431.011	638.09
431.387	659.56
431.763	646.23
432.138	648.94
432.514	660.01
432.89	633.57
433.265	660.46
433.641	666.34
434.016	695.26
434.392	689.84
434.767	683.74
435.143	701.14
435.518	702.04
435.894	714.92
436.269	704.53
436.644	713.34
437.02	712.44
437.395	719.9
437.77	746.56
438.145	736.85
438.52	735.04
438.895	752.66
439.271	769.61
439.646	789.27
440.021	776.62
440.395	758.77
440.77	763.29
441.145	789.5
441.52	809.16
441.895	775.04
442.27	806.9
442.645	782.27
443.019	795.15
443.394	797.18
443.769	796.28
444.143	793.57
444.518	818.2
444.892	795.37
445.267	831.76
445.641	831.08
446.016	829.05
446.39	855.49
446.764	845.32
447.139	831.76
447.513	862.49
447.887	867.24
448.262	855.94
448.636	847.8
449.01	873.79
449.384	875.15
449.758	858.88
450.132	894.81
450.506	884.64
450.88	891.87
451.254	911.3
451.628	923.05
452.002	928.7
452.376	897.29
452.75	927.57
453.123	942.72
453.497	919.89
453.871	940.23
454.244	978.19
454.618	978.65
454.992	990.4
455.365	1005.09
455.739	1005.31
456.112	991.3
456.486	1001.24
456.859	1022.49
457.232	1041.47
457.606	1038.76
457.979	1074.01
458.352	1041.92
458.725	1062.49
459.099	1118.53
459.472	1120.56
459.845	1092.77
460.218	1130.51
460.591	1112.2
460.964	1144.29
461.337	1148.36
461.71	1185.42
462.083	1192.2
462.456	1188.81
462.829	1189.94
463.201	1203.05
463.574	1239.88
463.947	1236.49
464.32	1252.76
464.692	1285.53
465.065	1260.45
465.438	1297.51
465.81	1312.88
466.183	1330.95
466.555	1365.3
466.928	1366.43
467.3	1371.86
467.672	1402.82
468.045	1430.39
468.417	1431.97
468.789	1433.32
469.161	1473.77
469.534	1513.77
469.906	1497.73
470.278	1496.37
470.65	1539.08
471.022	1591.74
471.394	1612.98
471.766	1644.17
472.138	1643.26
472.51	1690.27
472.882	1691.17
473.253	1725.97
473.625	1762.13
473.997	1805.74
474.369	1815.91
474.74	1846.19
475.112	1878.51
475.484	1941.33
475.855	1989.02
476.227	1994.67
476.598	2082.57
476.97	2090.03
477.341	2112.85
477.713	2128.67
478.084	2196.69
478.455	2238.05
478.827	2260.19
479.198	2372.28
479.569	2388.55
479.94	2447.53
480.311	2501.09
480.682	2559.4
481.053	2632.16
481.424	2690.01
481.795	2725.27
482.166	2809.11
482.537	2850.91
482.908	2931.36
483.279	2998.25
483.65	3064.02
484.021	3132.49
484.391	3222.43
484.762	3263.33
485.133	3265.14
485.503	3387.62
485.874	3476.89
486.244	3547.39
486.615	3562.31
486.985	3683.43
487.356	3800.72
487.726	3849.76
488.097	3906.93
488.467	3972.24
488.837	4073.48
489.207	4131.11
489.578	4221.73
489.948	4307.6
490.318	4432.57
490.688	4455.39
491.058	4563.86
491.428	4602.05
491.798	4754.82
492.168	4845.89
492.538	4862.61
492.908	4974.25
493.278	5049.5
493.648	5146.22
494.017	5172.89
494.387	5243.39
494.757	5325.65
495.126	5432.99
495.496	5482.93
495.866	5571.75
496.235	5632.99
496.605	5716.15
496.974	5787.33
497.344	5822.59
497.713	5892.64
498.082	5945.97
498.452	6021.9
498.821	6132.18
499.19	6164.72
499.559	6233.88
499.928	6251.28
500.298	6386.19
500.667	6490.82
501.036	6392.74
501.405	6577.6
501.774	6563.58
502.143	6694.65
502.512	6692.62
502.88	6797.48
503.249	6788.66
503.618	6836.35
503.987	6913.86
504.356	6933.29
504.724	7057.36
505.093	7105.27
505.462	7144.81
505.83	7137.13
506.199	7210.12
506.567	7332.15
506.936	7345.71
507.304	7449.21
507.672	7492.15
508.041	7511.36
508.409	7615.08
508.777	7679.94
509.145	7763.78
509.514	7635.65
509.882	7798.58
510.25	7836.55
510.618	7884.23
510.986	7918.58
511.354	8082.87
511.722	8070.21
512.09	8058.69
512.458	8089.19
512.826	8218.46
513.193	8262.52
513.561	8354.5
513.929	8313.59
514.297	8418.22
514.664	8432.01
515.032	8511.1
515.4	8553.81
515.767	8620.71
516.135	8647.15
516.502	8583.64
516.869	8744.77
517.237	8744.32
517.604	8759.68
517.972	8818.89
518.339	8852.11
518.706	8885.56
519.073	8960.36
519.44	8992.67
519.808	9030.86
520.175	9037.87
520.542	9136.4
520.909	9194.25
521.276	9200.13
521.643	9341.14
522.009	9316.05
522.376	9403.28
522.743	9512.66
523.11	9589.27
523.477	9576.16
523.843	9645.09
524.21	9755.59
524.577	9787.68
524.943	9910.84
525.31	9846.44
525.676	9982.7
526.043	10018.63
526.409	10045.07
526.776	10156.26
527.142	10119.42
527.508	10261.79
527.874	10341.56
528.241	10364.61
528.607	10345.41
528.973	10482.13
529.339	10454.33
529.705	10643.25
530.071	10671.05
530.437	10727.54
530.803	10745.62
531.169	10833.3
531.535	10847.31
531.901	10880.53
532.267	10941.1
532.632	11027.87
532.998	11061.32
533.364	11113.75
533.73	11103.58
534.095	11239.62
534.461	11288.88
534.826	11346.96
535.192	11377.24
535.557	11477.35
535.923	11407.98
536.288	11533.4
536.653	11567.97
537.019	11533.17
537.384	11629.67
537.749	11655.2
538.114	11683.22
538.479	11639.61
538.845	11755.76
539.21	11820.62
539.575	11825.14
539.94	11791.92
540.305	11960.5
540.67	11939.26
541.034	11981.07
541.399	12156.88
541.764	12104.68
542.129	12251.57
542.494	12318.91
542.858	12280.95
543.223	12292.7
543.587	12390.1
543.952	12377.89
544.316	12481.62
544.681	12486.14
545.045	12584.44
545.41	12656.76
545.774	12656.31
546.138	12704.21
546.503	12665.8
546.867	12794.83
547.231	12828.05
547.595	12881.61
547.959	12871.44
548.324	12943.98
548.688	13000.03
549.052	13052
549.416	13095.39
549.779	13086.58
550.143	13146.46
550.507	13241.37
550.871	13271.88
551.235	13217.65
551.599	13402.73
551.962	13408.6
552.326	13363.63
552.689	13589.39
553.053	13511.88
553.417	13594.36
553.78	13774.69
554.143	13645.66
554.507	13690.85
554.87	13830.29
555.234	13999.55
555.597	13787.35
555.96	13888.59
556.323	13910.28
556.686	13952.54
557.05	14011.98
557.413	14032.99
557.776	14232.54
558.139	14215.59
558.502	14283.83
558.865	14310.95
559.228	14390.27
559.59	14371.97
559.953	14425.98
560.316	14582.58
560.679	14595.24
561.041	14624.84
561.404	14709.81
561.767	14784.16
562.129	14762.92
562.492	14877.94
562.854	14866.42
563.217	14854.21
563.579	14915.46
563.941	15072.97
564.304	15102.12
564.666	15165.84
565.028	15183.24
565.39	15267.08
565.753	15403.58
566.115	15337.14
566.477	15414.65
566.839	15419.4
567.201	15507.53
567.563	15514.54
567.925	15647.64
568.287	15699.62
568.648	15666.4
569.01	15740.52
569.372	15851.93
569.734	15735.55
570.095	15914.75
570.457	16040.62
570.819	15999.04
571.18	16147.74
571.542	16249.88
571.903	16258.92
572.265	16353.16
572.626	16377.79
572.987	16540.95
573.349	16503.44
573.71	16601.06
574.071	16754.5
574.432	16818.23
574.794	16986.14
575.155	17019.13
575.516	17002.86
575.877	17205.79
576.238	17253.7
576.599	17357.2
576.96	17405.33
577.32	17520.81
577.681	17793.35
578.042	17873.57
578.403	17904.76
578.763	18013.9
579.124	18137.52
579.485	18228.59
579.845	18438.3
580.206	18531.18
580.566	18658.41
580.927	18864.96
581.287	19120.54
581.648	19202.57
582.008	19420.65
582.368	19490.25
582.728	19716.01
583.089	19896.12
583.449	20015.89
583.809	20212.27
584.169	20417.01
584.529	20538.13
584.889	20954.17
585.249	21025.35
585.609	21262.63
585.969	21499.01
586.329	21716.18
586.688	21905.78
587.048	22102.84
587.408	22366.11
587.768	22534.92
588.127	22872.08
588.487	22947.56
588.846	23412.18
589.206	23428.45
589.565	23776.01
589.925	24033.86
590.284	24245.61
590.643	24698.02
591.003	24848.53
591.362	25230.44
591.721	25299.59
592.08	25626.13
592.44	25922.17
592.799	26313.12
593.158	26364.42
593.517	26758.53
593.876	27181.35
594.235	27135.25
594.593	27514.67
594.952	27730.26
595.311	27968.9
595.67	28225.16
596.029	28703.79
596.387	29058.81
596.746	29221.75
597.104	29380.84
597.463	29672.36
597.822	30068.96
598.18	30073.7
598.538	30382.85
598.897	30676.85
599.255	30770.18
599.613	31473.44
599.972	31539.65
600.33	31803.6
600.688	31933.76
601.046	32358.61
601.404	32459.85
601.762	32786.4
602.12	33133.73
602.478	33220.74
602.836	33426.61
603.194	33610.1
603.552	33742.3
603.91	33912.24
604.268	34236.08
604.625	34346.13
604.983	34732.11
605.341	34744.09
605.698	35085.32
606.056	35418.64
606.413	35426.33
606.771	35668.13
607.128	36015.24
607.485	36014.79
607.843	36118.74
608.2	36553.3
608.557	36741.77
608.914	36825.61
609.272	37187.19
609.629	37325.26
609.986	37572.71
610.343	37570.68
610.7	37986.94
611.057	37993.49
611.414	38110.55
611.771	38417.21
612.127	38615.85
612.484	38731.1
612.841	39067.36
613.198	38872.57
613.554	38980.81
613.911	39496.28
614.267	39473.91
614.624	39425.55
614.98	39616.05
615.337	39931.97
615.693	40070.73
616.05	39990.05
616.406	40247.22
616.762	40290.83
617.118	40416.71
617.475	40585.97
617.831	40752.29
618.187	40760.65
618.543	41012.62
618.899	41277.93
619.255	41300.75
619.611	41375.1
619.967	41586.62
620.323	41687.41
620.678	41627.52
621.034	41578.48
621.39	41731.47
621.746	41798.59
622.101	42262.53
622.457	41985.7
622.812	42245.58
623.168	42345.69
623.523	42326.71
623.879	42556.76
624.234	42227.73
624.589	42442.64
624.945	42566.03
625.3	42706.81
625.655	42675.4
626.01	42709.75
626.365	42803.31
626.72	42766.25
627.075	42768.06
627.43	42862.97
627.785	42712.01
628.14	42956.75
628.495	43008.73
628.85	43037.43
629.205	42945.45
629.559	43154.26
629.914	43033.59
630.269	43231.55
630.623	43075.39
630.978	43080.82
631.332	43233.35
631.687	43264.09
632.041	43267.93
632.396	43367.59
632.75	43148.84
633.104	43214.6
633.459	43175.28
633.813	43117.88
634.167	43215.73
634.521	43215.5
634.875	43139.12
635.229	43239.91
635.583	42961.95
635.937	43091.89
636.291	43133.92
636.645	43164.43
636.999	42987.71
637.352	43327.14
637.706	43048.95
638.06	43138.22
638.413	43057.99
638.767	43006.47
639.121	43180.25
639.474	42917.43
639.828	42936.19
640.181	42933.93
640.534	43119.69
640.888	42924.44
641.241	42916.07
641.594	42970.76
641.947	42988.39
642.301	42894.15
642.654	42925.79
643.007	42936.87
643.36	42979.12
643.713	42921.95
644.066	43075.17
644.419	42691.22
644.771	42567.61
645.124	42211.91
645.477	42221.4
645.83	41950
646.182	41647.41
646.535	41672.94
646.888	41840.17
647.24	41550.91
647.593	41662.32
647.945	41608.76
648.298	41663.68
648.65	41499.84
649.002	41358.6
649.355	41539.84
649.707	41488.77
650.059	41661.87
650.411	42204.23
650.763	42104.57
651.115	42487.39
651.467	42319.48
651.819	42502.75
652.171	42442.19
652.523	42314.73
652.875	42202.2
653.227	42123.33
653.578	42328.07
653.93	42299.37
654.282	42336.2
654.633	42053.05
654.985	42232.7
655.337	42308.18
655.688	42220.27
656.039	42422.53
656.391	42022.54
656.742	42086.72
657.094	42161.52
657.445	42293.72
657.796	42303.44
658.147	42189.54
658.498	42130.56
658.849	42194.74
659.2	42081.52
659.551	41957.23
659.902	42100.05
660.253	42105.25
660.604	42184.12
660.955	42015.76
661.306	41947.06
661.656	41941.41
662.007	42062.09
662.358	41936.67
662.708	42017.12
663.059	41853.28
663.409	41752.49
663.76	42124.91
664.11	41930.11
664.461	42053.72
664.811	41966.5
665.161	42035.42
665.511	41901.86
665.862	41844.69
666.212	41946.83
666.562	41954.29
666.912	41742.55
667.262	41714.3
667.612	41762.21
667.962	41782.55
668.312	41809.44
668.662	42085.81
669.011	41762.88
669.361	41601.99
669.711	41815.99
670.06	41756.56
670.41	41615.32
670.76	41611.48
671.109	41798.82
671.459	41627.97
671.808	41684.24
672.157	41741.87
672.507	41627.07
672.856	41667.52
673.205	41588.88
673.554	41742.32
673.904	41645.83
674.253	41782.77
674.602	41581.19
674.951	41006.52
675.3	40956.58
675.649	41521.31
675.998	41473.85
676.346	41556.34
676.695	41694.41
677.044	41310.02
677.393	41327.19
677.741	41513.4
678.09	41411.03
678.438	41195.89
678.787	41279.96
679.135	41317.7
679.484	41136.46
679.832	41253.07
680.181	41022.57
680.529	41142.79
680.877	41071.6
681.225	40892.85
681.573	41211.49
681.922	40877.48
682.27	40821.67
682.618	40886.3
682.966	40841.33
683.314	40753.42
683.661	40705.74
684.009	40460.77
684.357	40532.63
684.705	40356.59
685.053	40429.59
685.4	40301.45
685.748	40169.48
686.095	40163.15
686.443	40055.59
686.79	40023.95
687.138	40043.83
687.485	40074.57
687.832	39923.39
688.18	39987.56
688.527	39917.28
688.874	39765.2
689.221	39666.22
689.568	39427.35
689.915	39617.63
690.262	39546.67
690.609	39383.29
690.956	39177.19
691.303	39223.97
691.65	38936.74
691.997	38961.38
692.344	38731.78
692.69	38848.61
693.037	38722.74
693.383	38365.91
693.73	38687.03
694.077	38434.61
694.423	38375.86
694.769	38252.92
695.116	38186.48
695.462	38202.53
695.808	38011.8
696.155	38134.96
696.501	37828.07
696.847	37808.64
697.193	37694.74
697.539	37820.62
697.885	37463.56
698.231	37366.39
698.577	37376.33
698.923	37466.05
699.269	37216.11
699.614	36890.47
699.96	37087.75
700.306	37085.95
700.651	36839.17
700.997	36617.94
701.342	36653.64
701.688	36521.21
702.033	36474.44
702.379	36364.83
702.724	36361.9
703.069	36396.02
703.415	35986.54
703.76	35973.21
704.105	36076.48
704.45	35863.61
704.795	35757.62
705.14	35732.54
705.485	35549.94
705.83	35537.29
706.175	35678.07
706.52	35360.12
706.865	35403.96
707.209	35348.14
707.554	35151.99
707.899	35233.34
708.243	34988.6
708.588	35017.53
708.932	34757.65
709.277	34900.92
709.621	34851.2
709.966	34608.72
710.31	34633.81
710.654	34260.48
710.998	34445.56
711.342	34437.88
711.687	34229.98
712.031	34193.82
712.375	34015.74
712.719	34090.77
713.063	34054.16
713.407	34017.78
713.75	33896.65
714.094	33794.73
714.438	33607.62
714.782	33815.98
715.125	33610.56
715.469	33716.77
715.812	33458.7
716.156	33250.34
716.499	33371.47
716.843	33308.42
717.186	33138.93
717.53	33327.17
717.873	33263.22
718.216	33170.12
718.559	32935.55
718.902	32778.94
719.246	32849
719.589	32861.88
719.932	32625.5
720.275	32795.44
720.617	32623.24
720.96	32743.24
721.303	32578.27
721.646	32710.92
721.989	32359.06
722.331	32460.76
722.674	32332.4
723.016	32492.85
723.359	32272.74
723.701	32332.62
724.044	32273.87
724.386	32014.21
724.729	32156.13
725.071	32004.5
725.413	31967.44
725.755	31955.23
726.097	31809.47
726.439	31579.42
726.782	31720.44
727.124	31833.2
727.465	31675.24
727.807	31626.88
728.149	31602.25
728.491	31503.95
728.833	31668.01
729.175	31358.64
729.516	31336.04
729.858	31310.28
730.199	31349.37
730.541	31256.95
730.882	31199.55
731.224	31352.99
731.565	31053.34
731.906	31135.37
732.248	31127.91
732.589	30882.72
732.93	30747.81
733.271	30794.36
733.612	30808.37
733.953	30857.18
734.294	30692.67
734.635	30684.53
734.976	30737.19
735.317	30516.18
735.658	30641.37
735.999	30596.62
736.339	30391.88
736.68	30504.88
737.021	30415.61
737.361	30303.98
737.702	30364.99
738.042	30362.96
738.383	30324.54
738.723	30342.62
739.063	30266.46
739.404	30310.98
739.744	30000.48
740.084	30046.81
740.424	29959.13
740.764	29962.52
741.104	30083.87
741.444	29875.74
741.784	29777.21
742.124	29933.59
742.464	29804.1
742.804	29699.7
743.143	29712.81
743.483	29707.61
743.823	29541.29
744.162	29560.72
744.502	29584.45
744.841	29563.66
745.181	29657.67
745.52	29482.76
745.86	29555.97
746.199	29431.68
746.538	29409.54
746.877	29430.55
747.216	29261.07
747.556	29302.65
747.895	29177.23
748.234	29144.91
748.573	29026.5
748.911	28965.71
749.25	29115.99
749.589	28716.22
749.928	28841.42
750.267	28914.64
750.605	28855.88
750.944	28694.53
751.283	28680.07
751.621	28757.8
751.96	28570.69
752.298	28596.45
752.636	28610.91
752.975	28328.21
753.313	28301.54
753.651	28457.92
753.989	28170.47
754.327	28350.13
754.666	28093.87
755.004	28196.01
755.342	28238.95
755.679	27994.21
756.017	27856.81
756.355	27888
756.693	27879.86
757.031	27908.11
757.368	27761.9
