Data from hue_28_FLMS001491_00066.txt Node
Date: Tue Feb 07 17:17:36 GMT 2017
User: dcchb
Spectrometer: FLMS00149
Trigger mode: 0
Integration Time (sec): 2.000000E-2
Scans to average: 10
Electric dark correction enabled: true
Nonlinearity correction enabled: false
Boxcar width: 0
XAxis mode: Wavelengths
Number of Pixels in Spectrum: 2048
>>>>>Begin Spectral Data<<<<<
341.393	-11.96
341.776	-11.96
342.16	-11.96
342.543	-64.16
342.927	-95.8
343.31	-58.52
343.693	-84.73
344.077	-49.93
344.46	-69.59
344.843	-53.54
345.226	-40.44
345.61	-56.26
345.993	-17.39
346.376	0.69
346.759	12.22
347.142	20.13
347.525	42.5
347.908	69.16
348.291	77.53
348.674	97.64
349.057	110.52
349.44	134.93
349.823	145.77
350.206	167.47
350.588	186.9
350.971	218.09
351.354	227.58
351.737	242.49
352.119	260.57
352.502	256.96
352.884	263.74
353.267	279.78
353.65	272.1
354.032	278.2
354.414	306.9
354.797	320.01
355.179	330.17
355.562	316.39
355.944	339.67
356.326	341.25
356.709	334.47
357.091	351.64
357.473	320.23
357.855	333.56
358.238	360.91
358.62	349.84
359.002	337.18
359.384	344.86
359.766	344.86
360.148	360.68
360.53	315.03
360.912	316.39
361.294	326.33
361.676	316.62
362.057	339.67
362.439	317.29
362.821	334.92
363.203	320.46
363.584	317.29
363.966	318.2
364.348	329.72
364.729	317.52
365.111	324.53
365.493	331.08
365.874	315.71
366.256	311.42
366.637	302.15
367.019	305.77
367.4	335.37
367.781	301.7
368.163	323.17
368.544	305.54
368.925	325.43
369.306	314.58
369.688	320.46
370.069	308.48
370.45	319.33
370.831	310.51
371.212	308.48
371.593	304.86
371.974	318.2
372.355	329.5
372.736	314.36
373.117	326.11
373.498	318.2
373.879	324.98
374.26	323.62
374.641	331.76
375.021	305.54
375.402	330.85
375.783	340.34
376.163	326.79
376.544	334.24
376.925	337.18
377.305	332.43
377.686	330.85
378.066	316.39
378.447	328.37
378.827	325.2
379.208	332.21
379.588	324.53
379.968	313.68
380.349	319.55
380.729	328.37
381.109	332.66
381.489	346.9
381.87	331.76
382.25	329.27
382.63	330.63
383.01	342.15
383.39	355.71
383.77	333.11
384.15	331.76
384.53	337.63
384.91	358.65
385.29	343.51
385.67	340.57
386.049	333.79
386.429	356.61
386.809	329.5
387.189	371.76
387.568	343.06
387.948	327.92
388.328	334.69
388.707	348.93
389.087	371.76
389.466	356.61
389.846	362.26
390.225	358.65
390.605	353.23
390.984	350.74
391.363	353
391.743	376.28
392.122	386.22
392.501	384.64
392.881	363.39
393.26	355.94
393.639	378.76
394.018	356.84
394.397	367.91
394.776	382.38
395.155	390.74
395.534	371.98
395.913	392.77
396.292	384.86
396.671	378.31
397.05	367.46
397.429	376.5
397.808	399.33
398.186	387.12
398.565	376.5
398.944	388.03
399.323	370.85
399.701	380.8
400.08	396.84
400.458	408.36
400.837	391.87
401.215	403.39
401.594	401.81
401.972	381.92
402.351	398.87
402.729	410.62
403.107	415.82
403.486	393.68
403.864	421.7
404.242	414.92
404.62	419.44
404.999	414.92
405.377	420.79
405.755	411.98
406.133	424.64
406.511	410.62
406.889	405.88
407.267	429.83
407.645	424.41
408.023	435.48
408.401	422.38
408.779	452.88
409.156	432.32
409.534	462.6
409.912	448.14
410.29	439.78
410.667	449.27
411.045	461.7
411.422	427.57
411.8	463.96
412.178	463.05
412.555	428.03
412.933	459.66
413.31	457.86
413.687	446.1
414.065	454.92
414.442	449.49
414.819	455.82
415.197	494.69
415.574	462.15
415.951	491.53
416.328	480.23
416.705	474.35
417.082	498.53
417.46	478.65
417.837	511.64
418.214	477.97
418.591	501.92
418.967	522.26
419.344	503.05
419.721	514.8
420.098	498.76
420.475	517.06
420.852	515.71
421.228	515.03
421.605	534.01
421.982	535.14
422.358	533.11
422.735	531.3
423.111	524.07
423.488	540.11
423.864	525.65
424.241	549.6
424.617	534.24
424.994	538.76
425.37	549.83
425.746	553.45
426.123	552.54
426.499	540.34
426.875	567.91
427.251	575.14
427.627	590.51
428.003	580.56
428.379	566.33
428.756	577.17
429.132	589.38
429.507	595.7
429.883	581.47
430.259	579.89
430.635	587.57
431.011	603.39
431.387	588.7
431.763	627.57
432.138	624.4
432.514	614.91
432.89	641.35
433.265	617.85
433.641	656.04
434.016	658.3
434.392	647.45
434.767	658.98
435.143	659.43
435.518	674.35
435.894	675.7
436.269	663.05
436.644	691.75
437.02	659.21
437.395	686.78
437.77	698.3
438.145	675.93
438.52	688.36
438.895	705.53
439.271	709.83
439.646	736.04
440.021	725.19
440.395	719.32
440.77	718.64
441.145	722.03
441.52	750.05
441.895	732.2
442.27	746.44
442.645	744.63
443.019	744.18
443.394	741.46
443.769	746.89
444.143	775.59
444.518	747.57
444.892	746.44
445.267	766.77
445.641	784.4
446.016	771.29
446.39	771.97
446.764	770.84
447.139	785.08
447.513	785.98
447.887	808.35
448.262	792.54
448.636	799.54
449.01	790.73
449.384	798.64
449.758	826.21
450.132	800.9
450.506	819.43
450.88	840.67
451.254	820.56
451.628	854.23
452.002	857.84
452.376	860.33
452.75	855.81
453.123	874.57
453.497	865.75
453.871	899.65
454.244	903.49
454.618	903.72
454.992	881.8
455.365	904.62
455.739	912.53
456.112	934.23
456.486	953.89
456.859	946.43
457.232	966.32
457.606	949.82
457.979	966.77
458.352	972.87
458.725	989.37
459.099	988.46
459.472	1017.16
459.845	1004.73
460.218	1028.69
460.591	1042.25
460.964	1037.95
461.337	1050.83
461.71	1061.23
462.083	1098.74
462.456	1103.71
462.829	1090.61
463.201	1101.68
463.574	1126.09
463.947	1141.45
464.32	1132.64
464.692	1148.91
465.065	1171.06
465.438	1190.04
465.81	1189.59
466.183	1216.71
466.555	1236.82
466.928	1241.79
467.3	1241.56
467.672	1259.64
468.045	1291.73
468.417	1288.57
468.789	1311.84
469.161	1315.01
469.534	1350.94
469.906	1355.46
470.278	1377.38
470.65	1388.45
471.022	1436.81
471.394	1439.75
471.766	1475.91
472.138	1470.03
472.51	1485.4
472.882	1518.39
473.253	1561.33
473.625	1574.21
473.997	1595
474.369	1617.6
474.74	1616.02
475.112	1658.05
475.484	1678.16
475.855	1706.86
476.227	1744.83
476.598	1770.82
476.97	1794.09
477.341	1854.65
477.713	1900.08
478.084	1907.08
478.455	1974.2
478.827	1988.21
479.198	2042.9
479.569	2067.3
479.94	2128.55
480.311	2169.22
480.682	2210.58
481.053	2230.92
481.424	2264.36
481.795	2304.81
482.166	2326.05
482.537	2390.69
482.908	2464.36
483.279	2495.99
483.65	2551.81
484.021	2634.07
484.391	2636.78
484.762	2659.83
485.133	2714.52
485.503	2762.88
485.874	2818.02
486.244	2874.06
486.615	2956.09
486.985	2990.22
487.356	3070.89
487.726	3102.76
488.097	3197.44
488.467	3213.71
488.837	3271.34
489.207	3316.76
489.578	3352.92
489.948	3444.22
490.318	3485.8
490.688	3488.96
491.058	3594.95
491.428	3653.7
491.798	3685.11
492.168	3774.15
492.538	3804.43
492.908	3852.12
493.278	3923.98
493.648	3945.22
494.017	3997.2
494.387	4055.5
494.757	4105.44
495.126	4142.28
495.496	4161.49
495.866	4189.51
496.235	4277.19
496.605	4307.7
496.974	4339.34
497.344	4354.25
497.713	4454.59
498.082	4474.7
498.452	4539.1
498.821	4605.54
499.19	4578.65
499.559	4629.27
499.928	4655.26
500.298	4707.91
500.667	4802.37
501.036	4713.79
501.405	4835.82
501.774	4827.23
502.143	4854.12
502.512	4934.57
502.88	4965.53
503.249	4968.92
503.618	5035.14
503.987	5019.54
504.356	5109.26
504.724	5087.11
505.093	5096.15
505.462	5127.34
505.83	5165.53
506.199	5218.63
506.567	5313.32
506.936	5283.04
507.304	5340.44
507.672	5371.4
508.041	5404.17
508.409	5407.78
508.777	5492.3
509.145	5482.13
509.514	5572.3
509.882	5558.74
510.25	5537.27
510.618	5565.29
510.986	5649.58
511.354	5673.54
511.722	5754.67
512.09	5764.16
512.458	5733.87
512.826	5747.66
513.193	5803.03
513.561	5838.05
513.929	5834.66
514.297	5902.23
514.664	5899.29
515.032	5934.77
515.4	5947.65
515.767	6011.83
516.135	6077.59
516.502	6046.86
516.869	6131.6
517.237	6105.84
517.604	6061.32
517.972	6172.96
518.339	6230.81
518.706	6189
519.073	6205.05
519.44	6255.44
519.808	6336.57
520.175	6295.22
520.542	6339.06
520.909	6359.85
521.276	6397.13
521.643	6462.9
522.009	6488.66
522.376	6478.71
522.743	6495.44
523.11	6574.98
523.477	6605.72
523.843	6594.19
524.21	6670.12
524.577	6736.79
524.943	6794.86
525.31	6789.67
525.676	6853.62
526.043	6896.33
526.409	6891.81
526.776	6946.5
527.142	6985.59
527.508	6985.37
527.874	7051.81
528.241	7101.97
528.607	7146.49
528.973	7213.61
529.339	7223.55
529.705	7194.4
530.071	7301.07
530.437	7271.91
530.803	7347.17
531.169	7371.57
531.535	7377
531.901	7362.76
532.267	7431.46
532.632	7555.07
532.998	7563.66
533.364	7564.34
533.73	7629.87
534.095	7690.43
534.461	7687.5
534.826	7748.74
535.192	7759.58
535.557	7817.66
535.923	7812.24
536.288	7827.38
536.653	7914.16
537.019	7842.07
537.384	7826.7
537.749	7927.04
538.114	8011.33
538.479	7975.4
538.845	8016.53
539.21	7977.21
539.575	8052.91
539.94	8143.3
540.305	8189.4
540.67	8147.6
541.034	8183.08
541.399	8277.76
541.764	8280.25
542.129	8309.63
542.494	8390.53
542.858	8398.89
543.223	8409.74
543.587	8485.21
543.952	8394.14
544.316	8486.57
544.681	8546.46
545.045	8560.69
545.41	8675.72
545.774	8594.36
546.138	8696.51
546.503	8711.2
546.867	8684.08
547.231	8824.41
547.595	8811.31
547.959	8809.05
548.324	8824.41
548.688	8924.75
549.052	8906.45
549.416	8931.98
549.779	8948.25
550.143	8990.06
550.507	9036.84
550.871	9089.72
551.235	9016.05
551.599	9142.15
551.962	9165.2
552.326	9157.74
552.689	9243.39
553.053	9172.43
553.417	9256.49
553.78	9326.32
554.143	9263.27
554.507	9406.09
554.87	9404.74
555.234	9445.19
555.597	9466.21
555.96	9489.71
556.323	9468.69
556.686	9523.38
557.05	9573.32
557.413	9526.09
557.776	9533.32
558.139	9650.83
558.502	9630.5
558.865	9736.26
559.228	9800.66
559.59	9824.39
559.953	9796.82
560.316	9943.93
560.679	9875.91
561.041	9981.22
561.404	10033.87
561.767	10140.54
562.129	9922.92
562.492	10099.64
562.854	10091.27
563.217	10071.84
563.579	10132.18
563.941	10206.3
564.304	10288.11
564.666	10249.01
565.028	10373.53
565.39	10274.55
565.753	10380.76
566.115	10427.08
566.477	10537.14
566.839	10476.57
567.201	10536.01
567.563	10559.74
567.925	10657.81
568.287	10598.61
568.648	10649.68
569.01	10666.4
569.372	10838.6
569.734	10818.94
570.095	10909.56
570.457	10935.09
570.819	10959.27
571.18	10939.16
571.542	11039.27
571.903	11131.25
572.265	11110
572.626	11164.24
572.987	11178.03
573.349	11217.35
573.71	11343.22
574.071	11412.82
574.432	11429.77
574.794	11601.07
575.155	11631.8
575.516	11708.63
575.877	11726.71
576.238	11837.22
576.599	11844.67
576.96	11988.4
577.32	12015.97
577.681	12196.98
578.042	12236.08
578.403	12298.22
578.763	12483.08
579.124	12549.97
579.485	12627.25
579.845	12827.93
580.206	12879.22
580.566	12995.15
580.927	13124.41
581.287	13350.85
581.648	13361.02
582.008	13544.29
582.368	13686.43
582.728	13852.98
583.089	14001.68
583.449	14224.27
583.809	14365.74
584.169	14560.31
584.529	14734.54
584.889	14957.36
585.249	15066.96
585.609	15217.92
585.969	15533.17
586.329	15701.52
586.688	15988.29
587.048	16150.78
587.408	16446.59
587.768	16550.99
588.127	16894.26
588.487	17125.44
588.846	17411.08
589.206	17455.6
589.565	17873.22
589.925	18192.98
590.284	18423.26
590.643	18667.32
591.003	18963.58
591.362	19369.9
591.721	19537.81
592.08	19721.98
592.44	20150.9
592.799	20467.72
593.158	20693.26
593.517	20859.35
593.876	21274.93
594.235	21368.94
594.593	21808.93
594.952	22189.94
595.311	22405.07
595.67	22722.58
596.029	23059.29
596.387	23292.51
596.746	23680.75
597.104	23897.69
597.463	24156.44
597.822	24564.79
598.18	24710.78
598.538	25069.19
598.897	25465.11
599.255	25557.53
599.613	26238.87
599.972	26272.32
600.33	26625.75
600.688	26734
601.046	27143.26
601.404	27429.12
601.762	27685.16
602.12	28079.28
602.478	28378.48
602.836	28638.58
603.194	28746.6
603.552	29095.52
603.91	29172.35
604.268	29533.47
604.625	29690.53
604.983	30137.53
605.341	30276.96
605.698	30731.86
606.056	30887.79
606.413	31096.82
606.771	31426.08
607.128	31725.06
607.485	31742
607.843	31894.32
608.2	32215.89
608.557	32529.55
608.914	32597.58
609.272	32928.19
609.629	33378.8
609.986	33490.21
610.343	33580.83
610.7	34017.42
611.057	34172.9
611.414	34267.36
611.771	34384.65
612.127	34822.15
612.484	34879.32
612.841	35157.73
613.198	35185.08
613.554	35349.14
613.911	35715.23
614.267	35844.95
614.624	36032.06
614.98	36227.99
615.337	36525.38
615.693	36420.3
616.05	36662.1
616.406	37173.05
616.762	36984.35
617.118	37104.58
617.475	37275.42
617.831	37493.72
618.187	37558.35
618.543	37762.19
618.899	38051.22
619.255	38092.57
619.611	38094.15
619.967	38485.56
620.323	38484.43
620.678	38545.67
621.034	38515.16
621.39	38684.87
621.746	38627.93
622.101	39072.43
622.457	38813.91
622.812	39111.08
623.168	39294.57
623.523	39263.16
623.879	39590.16
624.234	39228.36
624.589	39532.53
624.945	39661.8
625.3	39807.56
625.655	39807.33
626.01	39988.12
626.365	39975.91
626.72	39907.89
627.075	40068.57
627.43	40066.08
627.785	40036.48
628.14	40281.44
628.495	40179.75
628.85	40244.61
629.205	40238.73
629.559	40459.52
629.914	40464.94
630.269	40456.58
630.623	40464.03
630.978	40403.7
631.332	40634.43
631.687	40640.75
632.041	40704.71
632.396	40786.29
632.75	40620.64
633.104	40698.83
633.459	40560.76
633.813	40633.52
634.167	40658.15
634.521	40725.95
634.875	40654.76
635.229	40791.48
635.583	40520.3
635.937	40644.82
636.291	40635.1
636.645	40681.2
636.999	40640.08
637.352	40734.76
637.706	40576.35
638.06	40709.9
638.413	40760.98
638.767	40683.92
639.121	40726.4
639.474	40393.53
639.828	40492.51
640.181	40647.08
640.534	40626.97
640.888	40590.13
641.241	40400.76
641.594	40526.63
641.947	40499.29
642.301	40371.16
642.654	40605.95
643.007	40547.2
643.36	40597.82
643.713	40538.61
644.066	40779.05
644.419	40400.31
644.771	40138.85
645.124	39939.53
645.477	39881.9
645.83	39568.01
646.182	39416.38
646.535	39261.81
646.888	39325.31
647.24	39252.77
647.593	39585.19
647.945	39311.75
648.298	39253.9
648.65	39344.52
649.002	39173.67
649.355	39385.65
649.707	39338.19
650.059	39437.85
650.411	39903.37
650.763	39892.75
651.115	40272.18
651.467	40287.32
651.819	40204.61
652.171	40102.01
652.523	40051.16
652.875	40098.17
653.227	39867.89
653.578	40274.66
653.93	40118.96
654.282	39948.34
654.633	39663.6
654.985	39856.59
655.337	39955.8
655.688	40001.67
656.039	40145.63
656.391	39746.54
656.742	39869.93
657.094	39964.39
657.445	40003.03
657.796	39948.12
658.147	39926.87
658.498	39841.23
658.849	39880.1
659.2	39865.41
659.551	39724.62
659.902	39939.08
660.253	39829.7
660.604	39896.14
660.955	39808.23
661.306	39836.03
661.656	39874.22
662.007	39805.52
662.358	39708.35
662.708	39701.34
663.059	39763.26
663.409	39598.52
663.76	39888.46
664.11	39792.41
664.461	39817.5
664.811	39781.12
665.161	39718.52
665.511	39797.84
665.862	39693.89
666.212	39681.23
666.562	39702.25
666.912	39652.76
667.262	39541.57
667.612	39516.94
667.962	39567.34
668.312	39522.82
668.662	39744.28
669.011	39680.78
669.361	39621.35
669.711	39588.58
670.06	39660.67
670.41	39473.55
670.76	39538.64
671.109	39553.32
671.459	39400.56
671.808	39485.76
672.157	39470.39
672.507	39426.55
672.856	39279.66
673.205	39347.91
673.554	39608.46
673.904	39422.03
674.253	39708.12
674.602	39492.31
674.951	38901.59
675.3	38759.67
675.649	39375.25
675.998	39318.08
676.346	39489.15
676.695	39466.55
677.044	39197.63
677.393	39304.97
677.741	39470.84
678.09	39290.28
678.438	39024.75
678.787	39167.12
679.135	39180.23
679.484	39014.13
679.832	39040.57
680.181	38773.46
680.529	39115.37
680.877	38788.15
681.225	38817.3
681.573	38986.56
681.922	38831.54
682.27	38484.88
682.618	38689.84
682.966	38583.63
683.314	38695.04
683.661	38515.84
684.009	38379.12
684.357	38260.25
684.705	38208.5
685.053	38297.99
685.4	38261.83
685.748	38168.05
686.095	38102.52
686.443	38017.09
686.79	38098.67
687.138	38125.34
687.485	38062.29
687.832	37885.12
688.18	37944.33
688.527	37805.35
688.874	37689.87
689.221	37640.15
689.568	37490.1
689.915	37454.62
690.262	37429.76
690.609	37220.5
690.956	37081.98
691.303	37052.6
691.65	36958.36
691.997	37031.36
692.344	36711.82
692.69	36727.41
693.037	36781.65
693.383	36431.37
693.73	36612.16
694.077	36477.47
694.423	36320.19
694.769	36081.55
695.116	36139.18
695.462	36131.72
695.808	36013.76
696.155	36051.72
696.501	35858.96
696.847	35854.44
697.193	35444.28
697.539	35676.14
697.885	35583.49
698.231	35376.49
698.577	35390.95
698.923	35501.68
699.269	35236.15
699.614	35166.55
699.96	34875.93
700.306	35080.67
700.651	34887.46
700.997	34774.47
701.342	34533.8
701.688	34658.99
702.033	34623.74
702.379	34404.53
702.724	34449.05
703.069	34569.5
703.415	34063.3
703.76	34055.39
704.105	34115.5
704.45	34102.39
704.795	33890.2
705.14	33818.11
705.485	33648.62
705.83	33563.88
706.175	33576.53
706.52	33517.78
706.865	33315.97
707.209	33318.23
707.554	33280.27
707.899	33278.24
708.243	33053.38
708.588	33019.94
708.932	32846.61
709.277	32906.04
709.621	32919.15
709.966	32691.13
710.31	32876.66
710.654	32368.43
710.998	32554.64
711.342	32529.33
711.687	32435.55
712.031	32331.59
712.375	32259.73
712.719	32326.4
713.063	32193.97
713.407	32307.87
713.75	32022.9
714.094	32173.86
714.438	31824.04
714.782	32008.89
715.125	31794.66
715.469	31820.42
715.812	31658.39
716.156	31430.6
716.499	31485.74
716.843	31588.34
717.186	31305.86
717.53	31474.89
717.873	31433.31
718.216	31465.18
718.559	31225.41
718.902	31069.71
719.246	31068.35
719.589	31059.31
719.932	30939.54
720.275	30913.33
720.617	30944.51
720.96	30811.63
721.303	30876.26
721.646	30776.83
721.989	30549.04
722.331	30714.69
722.674	30553.79
723.016	30697.51
723.359	30521.02
723.701	30514.69
724.044	30272.89
724.386	30209.39
724.729	30418.2
725.071	30299.33
725.413	30345.88
725.755	30295.94
726.097	30128.94
726.439	29935.72
726.782	29980.24
727.124	30104.31
727.465	29877.19
727.807	29794.94
728.149	29814.82
728.491	29768.27
728.833	29883.97
729.175	29654.83
729.516	29719.91
729.858	29697.09
730.199	29692.11
730.541	29681.27
730.882	29560.59
731.224	29598.11
731.565	29443.99
731.906	29474.27
732.248	29519.01
732.589	29316.08
732.93	29185.24
733.271	29256.87
733.612	29215.52
733.953	29295.29
734.294	29022.75
734.635	29090.1
734.976	29123.09
735.317	28975.07
735.658	28900.27
735.999	29034.28
736.339	28736.43
736.68	28858.46
737.021	28800.16
737.361	28568.08
737.702	28710.9
738.042	28573.95
738.383	28615.76
738.723	28575.08
739.063	28554.74
739.404	28711.58
739.744	28510.9
740.084	28404.69
740.424	28376.44
740.764	28347.29
741.104	28436.55
741.444	28168.54
741.784	28330.57
742.124	28289.21
742.464	28242.44
742.804	28153.62
743.143	28199.95
743.483	28160.4
743.823	27978.04
744.162	27901.88
744.502	28008.32
744.841	27816.01
745.181	27924.93
745.52	27813.75
745.86	27976
746.199	27878.83
746.538	27898.72
746.877	27812.62
747.216	27804.93
747.556	27591.15
747.895	27647.87
748.234	27606.07
748.573	27543.92
748.911	27567.2
749.25	27476.35
749.589	27420.31
749.928	27438.61
750.267	27544.37
750.605	27344.15
750.944	27293.99
751.283	27055.35
751.621	27355.91
751.96	27049.47
752.298	27099.19
752.636	27105.29
752.975	26877.27
753.313	26812.42
753.651	27075.01
753.989	26759.54
754.327	26760.21
754.666	26640.44
755.004	26762.93
755.342	26806.77
755.679	26631.18
756.017	26491.75
756.355	26516.61
756.693	26388.02
757.031	26476.83
757.368	26312.32
757.706	26276.61
758.044	26259.44
758.381	26166.56
758.719	26047.24
759.056	26081.59
759.394	26012.89
759.731	25904.87
