Data from hue_34_FLMS001491_00038.txt Node
Date: Tue Feb 07 17:25:33 GMT 2017
User: dcchb
Spectrometer: FLMS00149
Trigger mode: 0
Integration Time (sec): 2.000000E-2
Scans to average: 10
Electric dark correction enabled: true
Nonlinearity correction enabled: false
Boxcar width: 0
XAxis mode: Wavelengths
Number of Pixels in Spectrum: 2048
>>>>>Begin Spectral Data<<<<<
341.393	-6.23
341.776	-6.23
342.16	-6.23
342.543	-55.27
342.927	-57.53
343.31	-89.16
343.693	-69.28
344.077	-72.22
344.46	-66.79
344.843	-49.17
345.226	-46.23
345.61	-18.43
345.993	-7.81
346.376	-8.71
346.759	8.91
347.142	43.26
347.525	32.19
347.908	64.5
348.291	66.76
348.674	92.07
349.057	120.1
349.44	141.11
349.823	147.67
350.206	174.78
350.588	198.29
350.971	215.91
351.354	221.11
351.737	247.1
352.119	274.89
352.502	269.24
352.884	265.63
353.267	303.14
353.65	310.37
354.032	295.23
354.414	319.86
354.797	299.3
355.179	332.52
355.562	338.62
355.944	330.26
356.326	333.65
356.709	344.95
357.091	338.85
357.473	360.77
357.855	345.17
358.238	353.54
358.62	344.04
359.002	359.64
359.384	354.89
359.766	327.1
360.148	332.29
360.53	337.04
360.912	349.69
361.294	347.66
361.676	332.52
362.057	347.21
362.439	338.4
362.821	333.2
363.203	325.74
363.584	333.88
363.966	323.03
364.348	316.25
364.729	335.68
365.111	338.62
365.493	312.86
365.874	316.93
366.256	313.54
366.637	335.23
367.019	340.43
367.4	318.73
367.781	325.51
368.163	309.02
368.544	317.15
368.925	314.89
369.306	311.05
369.688	271.28
370.069	309.24
370.45	313.54
370.831	328.45
371.212	314.44
371.593	304.05
371.974	318.73
372.355	326.19
372.736	331.39
373.117	326.42
373.498	300.43
373.879	299.53
374.26	314.44
374.641	308.57
375.021	300.88
375.402	313.31
375.783	323.48
376.163	336.14
376.544	332.52
376.925	348.79
377.305	323.93
377.686	344.27
378.066	319.86
378.447	319.41
378.827	357.83
379.208	334.33
379.588	351.05
379.968	339.52
380.349	323.03
380.729	331.39
381.109	336.14
381.489	339.07
381.87	344.5
382.25	319.41
382.63	329.36
383.01	336.81
383.39	348.56
383.77	346.98
384.15	366.64
384.53	330.03
384.91	358.73
385.29	341.33
385.67	350.37
386.049	358.51
386.429	350.82
386.809	360.32
387.189	359.86
387.568	342.24
387.948	379.75
388.328	353.76
388.707	358.51
389.087	360.54
389.466	353.76
389.846	346.53
390.225	356.7
390.605	349.47
390.984	371.84
391.363	363.03
391.743	384.95
392.122	347.66
392.501	379.3
392.881	359.86
393.26	385.17
393.639	368.9
394.018	357.6
394.397	368.22
394.776	391.5
395.155	380.65
395.534	380.2
395.913	376.59
396.292	391.5
396.671	399.41
397.05	403.7
397.429	399.41
397.808	393.31
398.186	382.69
398.565	389.47
398.944	384.04
399.323	379.75
399.701	424.49
400.08	398.51
400.458	399.86
400.837	414.1
401.215	390.82
401.594	387.43
401.972	402.35
402.351	422.23
402.729	400.31
403.107	415.91
403.486	410.94
403.864	403.03
404.242	413.2
404.62	406.42
404.999	415.23
405.377	394.21
405.755	401.22
406.133	435.12
406.511	412.97
406.889	417.72
407.267	439.18
407.645	413.87
408.023	443.25
408.401	419.07
408.779	434.21
409.156	439.41
409.534	444.38
409.912	444.15
410.29	436.7
410.667	478.05
411.045	457.26
411.422	445.74
411.8	439.86
412.178	450.71
412.555	439.41
412.933	477.83
413.31	477.83
413.687	476.02
414.065	467.66
414.442	466.08
414.819	485.74
415.197	482.12
415.574	479.18
415.951	472.4
416.328	505.17
416.705	481.22
417.082	495.91
417.46	501.55
417.837	504.94
418.214	497.26
418.591	475.57
418.967	495.68
419.344	501.78
419.721	505.4
420.098	496.13
420.475	509.69
420.852	523.93
421.228	508.56
421.605	505.4
421.982	523.02
422.358	537.26
422.735	531.16
423.111	543.14
423.488	522.12
423.864	545.62
424.241	552.17
424.617	549.24
424.994	528.22
425.37	539.29
425.746	552.4
426.123	536.36
426.499	531.61
426.875	585.17
427.251	557.6
427.627	575.45
428.003	543.81
428.379	579.07
428.756	583.36
429.132	582.23
429.507	599.18
429.883	611.83
430.259	595.34
430.635	599.18
431.011	610.7
431.387	607.77
431.763	605.96
432.138	621.1
432.514	607.09
432.89	630.14
433.265	619.97
433.641	623.59
434.016	631.95
434.392	650.93
434.767	642.34
435.143	658.84
435.518	675.79
435.894	655.9
436.269	674.66
436.644	687.31
437.02	671.49
437.395	681.66
437.77	681.44
438.145	702.91
438.52	688.89
438.895	702
439.271	694.54
439.646	711.72
440.021	711.94
440.395	720.98
440.77	721.66
441.145	714.43
441.52	727.99
441.895	725.28
442.27	734.99
442.645	721.21
443.019	724.83
443.394	755.56
443.769	766.63
444.143	759.4
444.518	784.71
444.892	773.19
445.267	756.46
445.641	790.36
446.016	775.22
446.39	784.49
446.764	787.87
447.139	794.43
447.513	808.44
447.887	798.5
448.262	814.99
448.636	795.78
449.01	802.34
449.384	803.47
449.758	810.25
450.132	823.58
450.506	830.59
450.88	850.25
451.254	829
451.628	844.14
452.002	846.86
452.376	842.34
452.75	858.16
453.123	870.81
453.497	867.65
453.871	880.75
454.244	867.65
454.618	882.79
454.992	923.69
455.365	916.46
455.739	917.59
456.112	925.05
456.486	939.96
456.859	921.66
457.232	967.98
457.606	934.54
457.979	980.86
458.352	996.68
458.725	1013.41
459.099	984.25
459.472	1029.68
459.845	998.04
460.218	1040.3
460.591	1039.85
460.964	1033.74
461.337	1056.79
461.71	1058.6
462.083	1066.74
462.456	1096.12
462.829	1098.6
463.201	1112.39
463.574	1091.14
463.947	1147.19
464.32	1178.82
464.692	1179.28
465.065	1163.46
465.438	1181.99
465.81	1192.84
466.183	1203.23
466.555	1229.22
466.928	1219.73
467.3	1268.99
467.672	1247.52
468.045	1293.62
468.417	1289.1
468.789	1303.34
469.161	1318.93
469.534	1378.37
469.906	1361.19
470.278	1399.38
470.65	1405.71
471.022	1412.27
471.394	1451.81
471.766	1496.56
472.138	1494.07
472.51	1541.75
472.882	1554.41
473.253	1577.01
473.625	1609.55
473.997	1649.77
474.369	1665.14
474.74	1696.55
475.112	1713.27
475.484	1767.96
475.855	1830.33
476.227	1816.77
476.598	1843.44
476.97	1917.11
477.341	1940.84
477.713	1973.61
478.084	2015.41
478.455	2067.39
478.827	2079.82
479.198	2182.64
479.569	2186.26
479.94	2244.11
480.311	2314.16
480.682	2330.43
481.053	2428.96
481.424	2443.2
481.795	2518.9
482.166	2597.09
482.537	2653.59
482.908	2705.34
483.279	2759.12
483.65	2836.41
484.021	2909.85
484.391	2976.29
484.762	2988.95
485.133	3059.45
485.503	3145.55
485.874	3230.75
486.244	3320.01
486.615	3357.75
486.985	3421.93
487.356	3511.87
487.726	3601.36
488.097	3690.62
488.467	3730.17
488.837	3813.33
489.207	3878.87
489.578	4007.45
489.948	4044.29
490.318	4151.4
490.688	4199.08
491.058	4262.36
491.428	4372.64
491.798	4415.12
492.168	4567.44
492.538	4587.32
492.908	4625.29
493.278	4756.13
493.648	4792.06
494.017	4893.08
494.387	4951.16
494.757	5064.6
495.126	5088.33
495.496	5176.23
495.866	5243.8
496.235	5275.67
496.605	5418.26
496.974	5437.7
497.344	5528.32
497.713	5583
498.082	5639.27
498.452	5699.84
498.821	5776.67
499.19	5876.33
499.559	5910.23
499.928	5991.81
500.298	6034.74
500.667	6122.88
501.036	6099.83
501.405	6205.81
501.774	6242.65
502.143	6314.28
502.512	6349.99
502.88	6439.7
503.249	6441.06
503.618	6529.64
503.987	6582.75
504.356	6623.43
504.724	6678.12
505.093	6714.05
505.462	6778.68
505.83	6850.77
506.199	6900.71
506.567	6978.67
506.936	6989.07
507.304	6997.2
507.672	7088.05
508.041	7186.35
508.409	7189.74
508.777	7217.76
509.145	7361.26
509.514	7302.28
509.882	7343.18
510.25	7399.9
510.618	7450.3
510.986	7533.91
511.354	7612.33
511.722	7625.89
512.09	7672.44
512.458	7685.55
512.826	7822.94
513.193	7759.67
513.561	7916.95
513.929	7891.42
514.297	7985.43
514.664	7980.68
515.032	8013.9
515.4	8136.16
515.767	8175.25
516.135	8141.13
516.502	8131.86
516.869	8254.8
517.237	8256.6
517.604	8254.8
517.972	8345.87
518.339	8501.8
518.706	8443.49
519.073	8475.81
519.44	8503.83
519.808	8577.73
520.175	8620.66
520.542	8701.79
520.909	8723.94
521.276	8765.52
521.643	8808
522.009	8867.89
522.376	8878.74
522.743	8920.99
523.11	9054.78
523.477	9083.93
523.843	9147.65
524.21	9233.53
524.577	9258.39
524.943	9325.5
525.31	9280.98
525.676	9382.45
526.043	9487.08
526.409	9503.8
526.776	9559.85
527.142	9557.59
527.508	9731.59
527.874	9803.68
528.241	9786.28
528.607	9838.03
528.973	9963.9
529.339	9910.57
529.705	9984.47
530.071	10131.13
530.437	10044.81
530.803	10195.99
531.169	10179.49
531.535	10171.13
531.901	10220.62
532.267	10338.58
532.632	10394.85
532.998	10429.88
533.364	10459.48
533.73	10522.53
534.095	10566.37
534.461	10577
534.826	10662.64
535.192	10707.61
535.557	10857.21
535.923	10768.4
536.288	10854.95
536.653	10797.78
537.019	10823.09
537.384	10935.4
537.749	10979.25
538.114	10980.6
538.479	10978.79
538.845	11098.11
539.21	11052.92
539.575	11209.52
539.94	11195.51
540.305	11272.12
540.67	11315.06
541.034	11367.48
541.399	11459.91
541.764	11415.62
542.129	11439.35
542.494	11503.07
542.858	11556.41
543.223	11539.46
543.587	11653.58
543.952	11676.63
544.316	11752.56
544.681	11755.5
545.045	11838.88
545.41	11931.54
545.774	11995.49
546.138	11884.76
546.503	12067.13
546.867	11961.82
547.231	12120.01
547.595	12167.24
547.959	12204.3
548.324	12179.67
548.688	12179.89
549.052	12254.47
549.416	12317.29
549.779	12357.06
550.143	12404.74
550.507	12465.53
550.871	12560.45
551.235	12541.01
551.599	12673.66
551.962	12651.52
552.326	12689.26
552.689	12866.88
553.053	12689.93
553.417	12774.9
553.78	12979.64
554.143	12924.73
554.507	12924.96
554.87	13019.64
555.234	13085.18
555.597	12973.09
555.96	13104.61
556.323	13139.64
556.686	13108.45
557.05	13233.65
557.413	13195.91
557.776	13282.46
558.139	13430.03
558.502	13429.35
558.865	13465.51
559.228	13527.65
559.59	13572.4
559.953	13637.48
560.316	13680.19
560.679	13711.6
561.041	13779.17
561.404	13847.19
561.767	13889.23
562.129	13825.5
562.492	14022.78
562.854	14021.65
563.217	14028.2
563.579	14066.4
563.941	14194.08
564.304	14143.68
564.666	14310.91
565.028	14263.9
565.39	14343.45
565.753	14350.46
566.115	14437.01
566.477	14534.18
566.839	14531.24
567.201	14553.84
567.563	14614.18
567.925	14709.99
568.287	14714.06
568.648	14775.76
569.01	14816.66
569.372	14976.2
569.734	14864.79
570.095	15008.29
570.457	15072.92
570.819	15158.57
571.18	15125.8
571.542	15310.66
571.903	15312.01
572.265	15391.56
572.626	15472.69
572.987	15506.81
573.349	15561.72
573.71	15709.74
574.071	15852.34
574.432	15834.71
574.794	15983.86
575.155	16032.9
575.516	16006.46
575.877	16202.84
576.238	16354.25
576.599	16299.56
576.96	16547.46
577.32	16562.83
577.681	16657.74
578.042	16818.64
578.403	16910.39
578.763	17030.61
579.124	17217.73
579.485	17341.11
579.845	17505.85
580.206	17551.28
580.566	17623.82
580.927	17887.99
581.287	18181.99
581.648	18147.19
582.008	18322.55
582.368	18583.11
582.728	18711.7
583.089	18831.47
583.449	19057.68
583.809	19297.9
584.169	19430.1
584.529	19537.89
584.889	19895.39
585.249	20026.92
585.609	20142.62
585.969	20583.06
586.329	20700.12
586.688	20964.52
587.048	21181.01
587.408	21274.57
587.768	21578.97
588.127	21719.75
588.487	22011.05
588.846	22328.78
589.206	22354.99
589.565	22797.24
589.925	23112.49
590.284	23167.17
590.643	23620.27
591.003	23813.71
591.362	24172.57
591.721	24234.94
592.08	24617.98
592.44	24920.8
592.799	25131.64
593.158	25294.12
593.517	25600.78
593.876	25954.9
594.235	26090.94
594.593	26476.01
594.952	26721.2
595.311	26946.28
595.67	27253.85
596.029	27635.53
596.387	27756.43
596.746	28056.31
597.104	28182.18
597.463	28356.64
597.822	28761.83
598.18	28892.45
598.538	28987.81
598.897	29506.44
599.255	29547.57
599.613	30215.8
599.972	30199.76
600.33	30562.23
600.688	30500.54
601.046	31006.74
601.404	31241.99
601.762	31368.54
602.12	31726.72
602.478	31923.55
602.836	32104.34
603.194	32139.59
603.552	32485.57
603.91	32490.09
604.268	32872.23
604.625	33047.14
604.983	33236.51
605.341	33375.04
605.698	33724.41
606.056	33914.46
606.413	33977.74
606.771	34330.72
607.128	34539.53
607.485	34501.34
607.843	34805.51
608.2	35107.88
608.557	35270.58
608.914	35214.77
609.272	35628.54
609.629	35756.67
609.986	36072.82
610.343	35990.56
610.7	36264.91
611.057	36425.58
611.414	36562.53
611.771	36582.87
612.127	36996.64
612.484	37003.19
612.841	37228.27
613.198	37235.05
613.554	37419.91
613.911	37771.76
614.267	37821.25
614.624	37889.05
614.98	38074.13
615.337	38279.54
615.693	38264.18
616.05	38395.25
616.406	38668.46
616.762	38713.88
617.118	38750.27
617.475	38749.59
617.831	38967.89
618.187	39108.22
618.543	39292.4
618.899	39531.49
619.255	39501.66
619.611	39553.18
619.967	39833.85
620.323	39962.89
620.678	39961.53
621.034	39795.44
621.39	39938.48
621.746	39959.05
622.101	40420.28
622.457	40167.63
622.812	40349.77
623.168	40459.15
623.523	40473.16
623.879	40695.3
624.234	40600.39
624.589	40624.12
624.945	40749.54
625.3	40747.28
625.655	40810.78
626.01	40871.34
626.365	41025.01
626.72	40982.98
627.075	40985.01
627.43	41070.66
627.785	40963.54
628.14	41093.93
628.495	41266.13
628.85	41253.7
629.205	41125.8
629.559	41393.13
629.914	41215.96
630.269	41335.51
630.623	41235.4
630.978	41211.67
631.332	41376.64
631.687	41559.46
632.041	41382.74
632.396	41499.57
632.75	41321.95
633.104	41436.3
633.459	41297.54
633.813	41369.63
634.167	41422.96
634.521	41288.05
634.875	41514.71
635.229	41319.69
635.583	41164.67
635.937	41298
636.291	41350.2
636.645	41344.55
636.999	41148.17
637.352	41387.03
637.706	41107.94
638.06	41400.59
638.413	41276.3
638.767	41031.56
639.121	41326.02
639.474	41082.86
639.828	41201.05
640.181	41250.54
640.534	41210.99
640.888	41080.37
641.241	40926.93
641.594	41138.68
641.947	41098.45
642.301	40999.7
642.654	41013.26
643.007	41145.46
643.36	41018.23
643.713	40978.23
644.066	41224.55
644.419	40954.05
644.771	40644.23
645.124	40321.98
645.477	40169.21
645.83	39868.66
646.182	39905.49
646.535	39863.46
646.888	39792.95
647.24	39615.78
647.593	39911.37
647.945	39754.08
648.298	39709.11
648.65	39611.26
649.002	39362.68
649.355	39689.45
649.707	39773.97
650.059	39846.28
650.411	40322.88
650.763	40198.36
651.115	40761.51
651.467	40524.46
651.819	40557.68
652.171	40400.39
652.523	40523.78
652.875	40352.48
653.227	40270.45
653.578	40564
653.93	40413.73
654.282	40283.56
654.633	40259.61
654.985	40248.53
655.337	40448.75
655.688	40335.76
656.039	40422.31
656.391	40053.73
656.742	40214.18
657.094	40216.67
657.445	40373.27
657.796	40262.09
658.147	40161.98
658.498	40207.86
658.849	40305.03
659.2	40148.2
659.551	40031.59
659.902	40277.91
660.253	40189.1
660.604	40156.33
660.955	39965.83
661.306	40087.18
661.656	40071.59
662.007	40140.51
662.358	40089.21
662.708	40112.72
663.059	40054.86
663.409	39773.74
663.76	40028.65
664.11	40037.01
664.461	40022.55
664.811	40122.89
665.161	40091.25
665.511	39864.36
665.862	40044.7
666.212	40068.65
666.562	40093.96
666.912	40007.86
667.262	39915.43
667.612	39986.84
667.962	40108.2
668.312	39980.97
668.662	40103.68
669.011	40020.97
669.361	40024.58
669.711	39941.42
670.06	39907.98
670.41	39818.26
670.76	39646.29
671.109	39963.34
671.459	39869.79
671.808	39710.92
672.157	39850.58
672.507	39654.42
672.856	39580.53
673.205	39641.54
673.554	39829.56
673.904	39516.35
674.253	39767.19
674.602	39652.16
674.951	39164.27
675.3	39010.6
675.649	39586.4
675.998	39603.58
676.346	39479.51
676.695	39722.9
677.044	39458.27
677.393	39512.28
677.741	39562.9
678.09	39488.55
678.438	39334.21
678.787	39370.14
679.135	39438.61
679.484	39050.82
679.832	39267.09
680.181	39087.21
680.529	39195.68
680.877	39180.31
681.225	39078.17
681.573	39339.18
681.922	38966.76
682.27	38883.37
682.618	38946.87
682.966	38796.37
683.314	38830.94
683.661	38907.55
684.009	38712.53
684.357	38561.34
684.705	38518.18
685.053	38597.73
685.4	38455.13
685.748	38289.71
686.095	38228.25
686.443	38190.51
686.79	38158.87
687.138	38340.33
687.485	38188.93
687.832	38017.4
688.18	38168.81
688.527	37995.48
688.874	37887.01
689.221	37855.6
689.568	37765.66
689.915	37542.16
690.262	37698.54
690.609	37562.95
690.956	37327.03
691.303	37432.33
691.65	37189.86
691.997	37246.35
692.344	37047.94
692.69	36988.96
693.037	36873.25
693.383	36667.84
693.73	36842.29
694.077	36558.01
694.423	36673.71
694.769	36634.62
695.116	36467.61
695.462	36483.21
695.808	36192.82
696.155	36347.17
696.501	36002.09
696.847	35959.38
697.193	35804.13
697.539	35877.12
697.885	35725.94
698.231	35593.97
698.577	35663.34
698.923	35531.82
699.269	35449.34
699.614	35262.22
699.96	35133.41
700.306	35117.59
700.651	35099.97
700.997	34900.42
701.342	35034.88
701.688	34769.13
702.033	34631.05
702.379	34628.57
702.724	34561
703.069	34724.38
703.415	34182.02
703.76	34321.68
704.105	34258.41
704.45	34204.62
704.795	34074.01
705.14	33871.98
705.485	33875.59
705.83	33821.13
706.175	33908.36
706.52	33791.98
706.865	33616.84
707.209	33509.5
707.554	33464.76
707.899	33471.76
708.243	33331.65
708.588	33190.41
708.932	33044.2
709.277	33093.01
709.621	33098.44
709.966	32807.37
710.31	33107.25
710.654	32596.98
710.998	32705.68
711.342	32696.87
711.687	32675.4
712.031	32482.41
712.375	32461.17
712.719	32469.3
713.063	32400.15
713.407	32540.03
713.75	32245.8
714.094	32243.32
714.438	32132.59
714.782	32168.52
715.125	32090.1
715.469	32015.53
715.812	31964.23
716.156	31738.47
716.499	31595.2
716.843	31805.82
717.186	31629.32
717.53	31694.63
717.873	31623
718.216	31683.56
718.559	31437.46
718.902	31132.84
719.246	31312.5
719.589	31176.23
719.932	31155.66
720.275	31109.79
720.617	31023.92
720.96	30978.49
721.303	30918.83
721.646	30918.61
721.989	30767.43
722.331	30934.43
722.674	30659.63
723.016	30836.8
723.359	30746.86
723.701	30709.8
724.044	30607.66
724.386	30376.93
724.729	30529.69
725.071	30390.71
725.413	30372.41
725.755	30290.38
726.097	30307.55
726.439	30150.04
726.782	30121.34
727.124	30298.06
727.465	30090.38
727.807	30111.62
728.149	30031.85
728.491	29891.74
728.833	30046.09
729.175	29876.83
729.516	29806.77
729.858	29758.19
730.199	29885.87
730.541	29588.7
730.882	29617.85
731.224	29797.73
731.565	29490.4
731.906	29591.86
732.248	29531.75
732.589	29349.38
732.93	29353.45
733.271	29334.69
733.612	29257.18
733.953	29363.85
734.294	29233.23
734.635	29221.48
734.976	29193.46
735.317	29082.05
735.658	28986.91
735.999	29021.93
736.339	28908.72
736.68	29037.08
737.021	28907.81
737.361	28763.18
737.702	29032.1
738.042	28860.58
738.383	28743.07
738.723	28750.53
739.063	28671.66
739.404	28836.18
739.744	28738.55
740.084	28525
740.424	28646.35
740.764	28424.66
741.104	28663.75
741.444	28499.24
741.784	28304.21
742.124	28450.42
742.464	28386.25
742.804	28232.8
743.143	28239.36
743.483	28202.52
743.823	28155.97
744.162	28098.34
744.502	28216.08
744.841	27974.5
745.181	28075.74
745.52	28024.9
745.86	28058.34
746.199	27889.08
746.538	27890.89
746.877	27996.65
747.216	27924.11
747.556	27752.36
747.895	27721.86
748.234	27647.51
748.573	27574.97
748.911	27608.19
749.25	27530.9
749.589	27476.44
749.928	27487.29
750.267	27578.13
750.605	27476.89
750.944	27347.85
751.283	27301.53
751.621	27289.32
751.96	27068.77
752.298	27258.82
752.636	27164.58
752.975	26933.18
753.313	26954.19
753.651	27050.69
753.989	26814.08
754.327	26876.45
754.666	26706.06
755.004	26798.26
755.342	26689.11
755.679	26751.03
756.017	26662.22
756.355	26534.77
756.693	26495.67
757.031	26519.18
757.368	26400.08
757.706	26385.17
758.044	26283.25
758.381	26318.73
