Data from hue_00_FLMS001491_98.txt Node
Date: Mon Feb 06 15:30:42 GMT 2017
User: dcchb
Spectrometer: FLMS00149
Trigger mode: 0
Integration Time (sec): 2.000000E-2
Scans to average: 10
Electric dark correction enabled: true
Nonlinearity correction enabled: false
Boxcar width: 0
XAxis mode: Wavelengths
Number of Pixels in Spectrum: 2048
>>>>>Begin Spectral Data<<<<<
341.393	-2.61
341.776	-2.61
342.16	-2.61
342.543	-68.6
342.927	-79.9
343.31	-75.38
343.693	-65.44
344.077	-81.03
344.46	-59.33
344.843	-53.01
345.226	-29.5
345.61	-13.46
345.993	-28.37
346.376	-17.75
346.759	10.72
347.142	29.25
347.525	24.28
347.908	68.8
348.291	71.06
348.674	108.34
349.057	110.83
349.44	106.99
349.823	151.06
350.206	158.96
350.588	186.31
350.971	197.83
351.354	219.75
351.737	210.94
352.119	252.07
352.502	264.05
352.884	283.93
353.267	276.25
353.65	305.85
354.032	309.24
354.414	296.59
354.797	309.47
355.179	327.77
355.562	327.32
355.944	331.62
356.326	328.23
356.709	339.07
357.091	337.49
357.473	327.55
357.855	333.65
358.238	332.29
358.62	343.59
359.002	301.56
359.384	321.9
359.766	330.03
360.148	355.8
360.53	342.01
360.912	319.86
361.294	322.8
361.676	346.76
362.057	314.21
362.439	327.55
362.821	316.25
363.203	334.33
363.584	316.7
363.966	314.44
364.348	310.83
364.729	310.83
365.111	331.16
365.493	316.25
365.874	327.77
366.256	314.89
366.637	324.61
367.019	321.45
367.4	310.37
367.781	309.02
368.163	309.47
368.544	321.67
368.925	313.76
369.306	297.04
369.688	302.24
370.069	312.41
370.45	304.27
370.831	307.89
371.212	308.34
371.593	315.12
371.974	317.6
372.355	308.11
372.736	307.21
373.117	312.63
373.498	319.41
373.879	334.78
374.26	306.98
374.641	309.02
375.021	322.8
375.402	315.34
375.783	309.47
376.163	324.61
376.544	328.68
376.925	309.47
377.305	306.08
377.686	322.8
378.066	301.33
378.447	331.62
378.827	317.6
379.208	315.12
379.588	319.41
379.968	312.18
380.349	320.99
380.729	342.24
381.109	367.09
381.489	336.59
381.87	311.73
382.25	328.9
382.63	338.62
383.01	339.3
383.39	330.94
383.77	335.91
384.15	345.17
384.53	347.43
384.91	339.52
385.29	351.05
385.67	322.58
386.049	337.04
386.429	318.51
386.809	349.47
387.189	349.02
387.568	348.11
387.948	364.16
388.328	356.02
388.707	368.22
389.087	357.15
389.466	354.89
389.846	339.07
390.225	344.04
390.605	363.03
390.984	364.84
391.363	351.95
391.743	349.92
392.122	355.12
392.501	375.46
392.881	377.49
393.26	339.3
393.639	360.54
394.018	362.35
394.397	377.04
394.776	373.65
395.155	370.26
395.534	369.35
395.913	374.33
396.292	379.75
396.671	376.13
397.05	396.47
397.429	397.83
397.808	374.33
398.186	368.45
398.565	378.17
398.944	371.84
399.323	388.11
399.701	381.56
400.08	393.08
400.458	391.05
400.837	402.12
401.215	389.92
401.594	382.69
401.972	374.55
402.351	380.65
402.729	395.57
403.107	384.04
403.486	393.31
403.864	379.52
404.242	404.61
404.62	416.59
404.999	403.03
405.377	413.42
405.755	382.24
406.133	400.77
406.511	411.61
406.889	419.97
407.267	415.46
407.645	425.85
408.023	410.48
408.401	424.72
408.779	446.64
409.156	411.39
409.534	425.62
409.912	413.2
410.29	426.53
410.667	435.79
411.045	427.66
411.422	423.36
411.8	448.22
412.178	465.17
412.555	459.75
412.933	464.27
413.31	455.45
413.687	452.97
414.065	448.67
414.442	450.03
414.819	459.52
415.197	458.84
415.574	459.75
415.951	471.05
416.328	451.84
416.705	474.66
417.082	469.47
417.46	476.7
417.837	496.13
418.214	497.49
418.591	504.94
418.967	471.05
419.344	494.32
419.721	496.13
420.098	498.62
420.475	520.54
420.852	525.73
421.228	519.86
421.605	515.34
421.982	508.79
422.358	482.35
422.735	511.5
423.111	526.19
423.488	511.72
423.864	516.24
424.241	542.46
424.617	516.24
424.994	549.46
425.37	540.65
425.746	549.91
426.123	529.8
426.499	550.37
426.875	550.59
427.251	562.34
427.627	570.25
428.003	554.66
428.379	584.72
428.756	569.8
429.132	549.69
429.507	572.97
429.883	609.35
430.259	591.72
430.635	606.41
431.011	614.32
431.387	597.6
431.763	633.53
432.138	633.75
432.514	634.43
432.89	620.87
433.265	627.88
433.641	629.01
434.016	627.43
434.392	634.21
434.767	650.48
435.143	637.82
435.518	671.95
435.894	666.07
436.269	673.75
436.644	690.25
437.02	684.6
437.395	688.22
437.77	709.91
438.145	686.18
438.52	702.68
438.895	709.91
439.271	715.79
439.646	713.53
440.021	703.58
440.395	726.18
440.77	723.24
441.145	728.44
441.52	746.97
441.895	722.57
442.27	739.06
442.645	731.15
443.019	727.76
443.394	741.1
443.769	757.14
444.143	753.53
444.518	756.69
444.892	778.38
445.267	759.63
445.641	755.56
446.016	763.92
446.39	754.88
446.764	788.1
447.139	779.97
447.513	795.56
447.887	784.94
448.262	789.91
448.636	797.59
449.01	773.41
449.384	806.18
449.758	821.55
450.132	825.39
450.506	832.62
450.88	834.2
451.254	857.03
451.628	838.49
452.002	877.36
452.376	861.77
452.75	854.77
453.123	854.09
453.497	875.1
453.871	846.18
454.244	893.41
454.618	896.8
454.992	875.78
455.365	911.71
455.739	918.72
456.112	938.61
456.486	930.02
456.859	929.34
457.232	946.97
457.606	939.96
457.979	966.63
458.352	971.6
458.725	973.63
459.099	984.71
459.472	1016.34
459.845	1001.88
460.218	1004.82
460.591	1009.79
460.964	1015.89
461.337	1044.59
461.71	1079.39
462.083	1061.09
462.456	1064.25
462.829	1066.06
463.201	1081.2
463.574	1079.39
463.947	1104.7
464.32	1112.61
464.692	1120.52
465.065	1138.6
465.438	1156.68
465.81	1157.36
466.183	1173.85
466.555	1189.67
466.928	1214.53
467.3	1212.04
467.672	1220.63
468.045	1247.52
468.417	1245.26
468.789	1266.96
469.161	1293.4
469.534	1300.63
469.906	1310.57
470.278	1335.88
470.65	1351.93
471.022	1367.29
471.394	1415.2
471.766	1355.09
472.138	1442.77
472.51	1441.87
472.882	1466.95
473.253	1480.51
473.625	1487.52
473.997	1547.18
474.369	1531.58
474.74	1549.66
475.112	1559.38
475.484	1581.07
475.855	1648.87
476.227	1655.87
476.598	1699.04
476.97	1686.83
477.341	1719.38
477.713	1782.2
478.084	1793.95
478.455	1824.91
478.827	1861.74
479.198	1865.81
479.569	1908.75
479.94	1949.65
480.311	1939.71
480.682	1987.62
481.053	2040.27
481.424	2095.86
481.795	2089.76
482.166	2115.3
482.537	2134.96
482.908	2209.31
483.279	2242.07
483.65	2291.56
484.021	2298.8
484.391	2370.21
484.762	2369.08
485.133	2388.06
485.503	2432.13
485.874	2468.51
486.244	2513.25
486.615	2588.05
486.985	2627.15
487.356	2622.63
487.726	2661.72
488.097	2730.42
488.467	2742.17
488.837	2804.54
489.207	2817.2
489.578	2826.24
489.948	2906.46
490.318	2941.26
490.688	2950.98
491.058	3008.83
491.428	3056.74
491.798	3096.51
492.168	3087.7
492.538	3125.89
492.908	3183.29
493.278	3236.62
493.648	3237.3
494.017	3282.95
494.387	3320.46
494.757	3365.21
495.126	3386.45
495.496	3383.29
495.866	3414.02
496.235	3509.61
496.605	3509.16
496.974	3529.72
497.344	3562.72
497.713	3556.39
498.082	3590.96
498.452	3620.79
498.821	3688.36
499.19	3675.48
499.559	3744.63
499.928	3757.97
500.298	3748.25
500.667	3796.38
501.036	3770.62
501.405	3839.55
501.774	3843.16
502.143	3864.86
502.512	3878.41
502.88	3968.58
503.249	3921.13
503.618	3934.68
503.987	3986.21
504.356	4004.06
504.724	4030.73
505.093	4001.12
505.462	4080.9
505.83	4084.96
506.199	4081.35
506.567	4136.04
506.936	4142.59
507.304	4131.29
507.672	4144.85
508.041	4200.89
508.409	4246.09
508.777	4238.18
509.145	4279.53
509.514	4265.52
509.882	4334.45
510.25	4306.43
510.618	4380.77
510.986	4362.02
511.354	4388.68
511.722	4449.7
512.09	4393.43
512.458	4440.66
512.826	4491.28
513.193	4479.76
513.561	4485.18
513.929	4514.56
514.297	4569.92
514.664	4583.71
515.032	4577.15
515.4	4591.62
515.767	4626.42
516.135	4638.85
516.502	4602.24
516.869	4640.43
517.237	4684.04
517.604	4651.5
517.972	4729.69
518.339	4748.45
518.706	4783.93
519.073	4753.19
519.44	4819.18
519.808	4826.64
520.175	4823.02
520.542	4892.4
520.909	4899.63
521.276	4900.53
521.643	4898.95
522.009	4957.26
522.376	4972.62
522.743	4999.97
523.11	5028.67
523.477	5060.08
523.843	5091.49
524.21	5134.88
524.577	5144.37
524.943	5177.59
525.31	5216.91
525.676	5281.54
526.043	5196.35
526.409	5282.67
526.776	5336.68
527.142	5386.4
527.508	5362.22
527.874	5416.91
528.241	5437.24
528.607	5443.35
528.973	5442.22
529.339	5466.17
529.705	5524.02
530.071	5557.01
530.437	5599.95
530.803	5586.39
531.169	5623.68
531.535	5587.75
531.901	5637.46
532.267	5714.07
532.632	5688.08
532.998	5745.03
533.364	5803.79
533.73	5768.53
534.095	5830.45
534.461	5838.14
534.826	5906.61
535.192	5922.2
535.557	5923.78
535.923	5905.93
536.288	5955.65
536.653	5988.64
537.019	5972.15
537.384	5979.83
537.749	6058.7
538.114	6049.88
538.479	6079.26
538.845	6120.39
539.21	6103.89
539.575	6148.86
539.94	6149.77
540.305	6210.33
540.67	6124.46
541.034	6241.97
541.399	6295.98
541.764	6279.03
542.129	6345.92
542.494	6306.15
542.858	6370.55
543.223	6377.56
543.587	6436.09
543.952	6436.54
544.316	6482.41
544.681	6483.54
545.045	6495.3
545.41	6528.29
545.774	6569.64
546.138	6586.82
546.503	6591.34
546.867	6603.77
547.231	6697.32
547.595	6642.86
547.959	6656.87
548.324	6740.71
548.688	6705.69
549.052	6735.51
549.416	6768.73
549.779	6808.73
550.143	6834.04
550.507	6938.67
550.871	6902.06
551.235	6909.52
551.599	6969.86
551.962	6960.59
552.326	7032
552.689	7006.69
553.053	6984.1
553.417	7004.21
553.78	7074.72
554.143	7106.35
554.507	7082.4
554.87	7125.34
555.234	7239.68
555.597	7167.59
555.96	7182.28
556.323	7223.19
556.686	7283.75
557.05	7262.05
557.413	7261.6
557.776	7283.3
558.139	7372.79
558.502	7394.03
558.865	7386.57
559.228	7419.34
559.59	7471.77
559.953	7421.37
560.316	7472.22
560.679	7500.47
561.041	7576.17
561.404	7574.59
561.767	7595.38
562.129	7641.03
562.492	7691.87
562.854	7651.65
563.217	7678.77
563.579	7680.8
563.941	7742.95
564.304	7754.47
564.666	7798.99
565.028	7801.93
565.39	7878.54
565.753	7880.34
566.115	7869.04
566.477	7966.22
566.839	7978.19
567.201	8003.73
567.563	7993.34
567.925	8044.86
568.287	8067.01
568.648	8050.06
569.01	8167.57
569.372	8152.2
569.734	8141.58
570.095	8232.65
570.457	8289.6
570.819	8357.85
571.18	8370.5
571.542	8432.87
571.903	8385.64
572.265	8444.17
572.626	8530.04
572.987	8568.91
573.349	8582.47
573.71	8629.7
574.071	8637.16
574.432	8722.81
574.794	8799.42
575.155	8816.82
575.516	8866.98
575.877	8900.2
576.238	8965.51
576.599	9085.06
576.96	9093.65
577.32	9113.98
577.681	9262.23
578.042	9339.74
578.403	9322.57
578.763	9445.73
579.124	9490.24
579.485	9651.14
579.845	9692.5
580.206	9765.04
580.566	9871.7
580.927	9964.58
581.287	10069.21
581.648	10264.24
582.008	10254.52
582.368	10403.44
582.728	10587.84
583.089	10671.46
583.449	10834.39
583.809	10934.27
584.169	11045.91
584.529	11256.3
584.889	11540.81
585.249	11475.05
585.609	11747.36
585.969	11857.41
586.329	12041.36
586.688	12250.4
587.048	12412.2
587.408	12548.24
587.768	12859.2
588.127	13015.58
588.487	13158.85
588.846	13453.08
589.206	13585.96
589.565	13825.72
589.925	14050.8
590.284	14365.37
590.643	14542.32
591.003	14848.07
591.362	15048.74
591.721	15307.72
592.08	15448.73
592.44	15766.46
592.799	15926.69
593.158	16229.28
593.517	16453
593.876	16792.88
594.235	16951.74
594.593	17255.46
594.952	17651.61
595.311	17789.46
595.67	18073.52
596.029	18437.81
596.387	18768.19
596.746	18916.44
597.104	19171.35
597.463	19361.4
597.822	19772.69
598.18	19912.34
598.538	20267.14
598.897	20529.5
599.255	20735.6
599.613	21234.79
599.972	21395.92
600.33	21697.83
600.688	21743.71
601.046	22078.39
601.404	22495.55
601.762	22657.58
602.12	23059.83
602.478	23204.46
602.836	23377.34
603.194	23510.89
603.552	23840.15
603.91	24110.2
604.268	24365.11
604.625	24552.45
604.983	24829.5
605.341	24958.09
605.698	25362.14
606.056	25551.97
606.413	25707.67
606.771	26090.26
607.128	26272.85
607.485	26308.33
607.843	26630.59
608.2	27015.21
608.557	27192.38
608.914	27341.98
609.272	27494.74
609.629	27859.93
609.986	28132.24
610.343	28075.29
610.7	28628.05
611.057	28580.82
611.414	28798.89
611.771	29025.32
612.127	29326.56
612.484	29362.72
612.841	29653.1
613.198	29671.41
613.554	29852.42
613.911	30139.87
614.267	30174.22
614.624	30388.23
614.98	30594.77
615.337	30826.63
615.693	30838.16
616.05	30830.93
616.406	31302.55
616.762	31305.72
617.118	31312.5
617.475	31506.39
617.831	31794.52
618.187	31935.08
618.543	32041.74
618.899	32390.66
619.255	32330.77
619.611	32514.27
619.967	32676.53
620.323	32862.51
620.678	32721.72
621.034	32783.64
621.39	33020.7
621.746	32965.33
622.101	33477.18
622.457	33286.91
622.812	33444.64
623.168	33449.61
623.523	33559.44
623.879	33761.02
624.234	33691.19
624.589	33843.28
624.945	33943.61
625.3	34034.23
625.655	34124.85
626.01	34235.58
626.365	34162.82
626.72	34216.37
627.075	34329.59
627.43	34385.18
627.785	34387.44
628.14	34465.18
628.495	34647.55
628.85	34608.23
629.205	34542.24
629.559	34745.17
629.914	34589.47
630.269	34749.69
630.623	34730.94
630.978	34553.09
631.332	34896.58
631.687	34842.8
632.041	34923.47
632.396	34964.38
632.75	34896.58
633.104	34819.3
633.459	34721.67
633.813	34959.41
634.167	34817.71
634.521	34924.83
634.875	35007.31
635.229	34981.55
635.583	34804.16
635.937	34820.2
636.291	34892.29
636.645	34981.78
636.999	34877.37
637.352	35016.81
637.706	34862.91
638.06	35031.27
638.413	35049.57
638.767	34903.14
639.121	35046.63
639.474	34885.51
639.828	34894.55
640.181	34826.53
640.534	34842.35
640.888	34664.95
641.241	34671.96
641.594	34716.25
641.947	34834.44
642.301	34800.54
642.654	34949.91
643.007	34839.86
643.36	34936.36
643.713	34728.9
644.066	34895.45
644.419	34796.7
644.771	34518.51
645.124	34187.67
645.477	34207.79
645.83	34043.5
646.182	34017.28
646.535	33890.96
646.888	33833.11
647.24	33700.68
647.593	33752.21
647.945	33720.12
648.298	33643.51
648.65	33543.85
649.002	33512.66
649.355	33627.46
649.707	33562.38
650.059	33726.22
650.411	34072.2
650.763	34298.18
651.115	34475.58
651.467	34409.36
651.819	34352.87
652.171	34310.38
652.523	34341.79
652.875	34420.66
653.227	34130.95
653.578	34414.34
653.93	34369.59
654.282	34130.05
654.633	34127.11
654.985	34227.9
655.337	34281.91
655.688	34173.44
656.039	34396.48
656.391	34045.53
656.742	34100.67
657.094	34153.78
657.445	34161.69
657.796	34213.89
658.147	34162.59
658.498	34080.33
658.849	34175.7
659.2	34034.68
659.551	34046.44
659.902	34191.74
660.253	34084.17
660.604	34151.74
660.955	33994.01
661.306	34113.1
661.656	34005.76
662.007	34052.76
662.358	33994.23
662.708	34071.52
663.059	34083.5
663.409	33920.56
663.76	34149.48
664.11	34036.49
664.461	34027
664.811	34015.25
665.161	33942.94
665.511	33907.91
665.862	33906.55
666.212	34052.31
666.562	34131.18
666.912	33980.45
667.262	33927.57
667.612	33948.13
667.962	34005.08
668.312	33908.59
668.662	34119.43
669.011	33977.28
669.361	33927.57
669.711	33861.58
670.06	33758.99
670.41	33671.08
670.76	33672.21
671.109	34017.06
671.459	33799.44
671.808	33765.31
672.157	33925.53
672.507	33613
672.856	33716.5
673.205	33808.02
673.554	33790.4
673.904	33654.58
674.253	33786.56
674.602	33746.56
674.951	33305.21
675.3	33091.88
675.649	33762.83
675.998	33692.09
676.346	33570.06
676.695	33681.93
677.044	33424.08
677.393	33608.71
677.741	33609.84
678.09	33527.35
678.438	33463.85
678.787	33587.24
679.135	33426.79
679.484	33248.72
679.832	33440.12
680.181	33257.98
680.529	33305.66
680.877	33230.64
681.225	33121.04
681.573	33416.4
681.922	33054.6
682.27	32944.54
682.618	33092.34
682.966	32896.18
683.314	33100.92
683.661	32844.66
684.009	32785.9
684.357	32791.33
684.705	32739.8
685.053	32819.12
685.4	32711.56
685.748	32566.47
686.095	32498.68
686.443	32592.46
686.79	32439.02
687.138	32447.83
687.485	32457.1
687.832	32274.05
688.18	32270.66
688.527	32017.79
688.874	32034.74
689.221	32055.98
689.568	32050.33
689.915	31874.97
690.262	31951.58
690.609	31713.62
690.956	31680.4
691.303	31705.25
691.65	31579.61
691.997	31527.18
692.344	31266.4
692.69	31367.41
693.037	31394.08
693.383	31004.48
693.73	31232.05
694.077	31056.91
694.423	30993.86
694.769	30944.37
695.116	30860.3
695.462	30779.18
695.808	30763.81
696.155	30795.9
696.501	30488.34
696.847	30489.92
697.193	30329.92
697.539	30421.45
697.885	30209.25
698.231	30101.23
698.577	30173.77
698.923	30005.41
699.269	29882.25
699.614	29879.77
699.96	29663.27
700.306	29832.08
700.651	29662.6
700.997	29482.26
701.342	29477.29
701.688	29492.43
702.033	29405.43
702.379	29401.36
702.724	29262.83
703.069	29316.16
703.415	28905.1
703.76	29028.94
704.105	29055.15
704.45	29073.91
704.795	28834.37
705.14	28718.21
705.485	28753.02
705.83	28630.53
706.175	28696.97
706.52	28625.11
706.865	28365.45
707.209	28490.2
707.554	28297.43
707.899	28342.18
708.243	28287.72
708.588	28184.67
708.932	27987.39
709.277	27970.89
709.621	28028.51
709.966	27735.19
710.31	27911
710.654	27588.07
710.998	27680.05
711.342	27701.97
711.687	27546.95
712.031	27419.04
712.375	27410.45
712.719	27500.84
713.063	27220.85
713.407	27422.88
713.75	27211.36
714.094	27246.16
714.438	27056.11
714.782	27149.22
715.125	26968.66
715.469	27068.77
715.812	26887.3
716.156	26763.24
716.499	26852.95
716.843	26838.49
717.186	26680.98
717.53	26800.07
717.873	26760.98
718.216	26713.07
718.559	26534.32
718.902	26403.02
719.246	26522.11
719.589	26338.39
719.932	26413.19
720.275	26376.13
720.617	26363.25
720.96	26214.1
721.303	26191.05
721.646	26259.52
721.989	26018.85
722.331	26141.33
722.674	26004.61
723.016	26097.72
723.359	25994.9
723.701	25982.24
724.044	25848.46
724.386	25634
724.729	25859.08
725.071	25765.07
725.413	25651.4
725.755	25667.9
726.097	25599.2
726.439	25365.53
726.782	25504.06
727.124	25536.6
727.465	25433.55
727.807	25335.7
728.149	25389.94
728.491	25302.48
728.833	25282.15
729.175	25215.26
729.516	25174.35
729.858	25157.18
730.199	25083.06
730.541	25046.67
730.882	25032.89
731.224	25134.81
731.565	24953.57
731.906	24917.41
732.248	24913.34
732.589	24768.26
732.93	24798.99
733.271	24729.62
733.612	24779.33
733.953	24676.51
734.294	24647.13
734.635	24737.53
734.976	24707.7
735.317	24447.82
735.658	24572.56
735.999	24566.46
736.339	24389.06
736.68	24553.13
737.021	24411.21
737.361	24225.9
737.702	24467.25
738.042	24262.51
738.383	24267.26
738.723	24248.05
739.063	24274.49
739.404	24212.34
739.744	24220.25
740.084	24078.79
740.424	24201.27
740.764	24013.03
741.104	24112.91
741.444	24062.97
741.784	23905.46
742.124	24040.14
742.464	23894.84
742.804	23888.06
743.143	23764.22
743.483	23788.4
743.823	23648.97
744.162	23717.67
744.502	23726.93
744.841	23580.27
745.181	23690.55
745.52	23555.86
745.86	23547.95
746.199	23567.61
746.538	23537.56
746.877	23578.24
747.216	23471.57
747.556	23454.62
747.895	23487.84
748.234	23314.74
748.573	23342.31
748.911	23211.01
749.25	23263.89
749.589	23251.24
749.928	23203.33
750.267	23230.67
750.605	23103.67
750.944	23070.23
751.283	23003.56
751.621	22969.66
751.96	22812.38
752.298	22905.03
752.636	22785.26
752.975	22696
753.313	22759.73
753.651	22819.61
753.989	22640.41
754.327	22715.66
754.666	22555.89
755.004	22455.1
755.342	22491.03
755.679	22506.85
756.017	22324.94
756.355	22434.31
756.693	22326.74
757.031	22337.59
757.368	22185.5
757.706	22156.8
758.044	22110.7
758.381	22095.79
758.719	22002.68
759.056	22071.38
759.394	21918.17
759.731	21811.73
760.068	21862.8
760.405	21684.95
760.743	21722.92
