Data from hue_330_FLMS001491_97.txt Node
Date: Mon Feb 06 15:46:11 GMT 2017
User: dcchb
Spectrometer: FLMS00149
Trigger mode: 0
Integration Time (sec): 2.000000E-2
Scans to average: 10
Electric dark correction enabled: true
Nonlinearity correction enabled: false
Boxcar width: 0
XAxis mode: Wavelengths
Number of Pixels in Spectrum: 2048
>>>>>Begin Spectral Data<<<<<
341.393	-6.88
341.776	-6.88
342.16	-6.88
342.543	-57.05
342.927	-53.2
343.31	-79.19
343.693	-81
344.077	-83.49
344.46	-71.28
344.843	-37.61
345.226	-22.92
345.61	-16.6
345.993	-19.31
346.376	8.26
346.759	6.91
347.142	30.41
347.525	30.41
347.908	67.24
348.291	65.44
348.674	89.16
349.057	113.57
349.44	119.22
349.823	156.51
350.206	196.96
350.588	200.8
350.971	196.05
351.354	231.08
351.737	235.15
352.119	257.07
352.502	259.33
352.884	274.92
353.267	304.98
353.65	304.53
354.032	304.98
354.414	322.38
354.797	324.41
355.179	326.22
355.562	328.03
355.944	323.51
356.326	335.49
356.709	331.42
357.091	334.81
357.473	349.04
357.855	358.31
358.238	342.49
358.62	341.36
359.002	346.33
359.384	352.21
359.766	336.39
360.148	341.14
360.53	327.58
360.912	330.06
361.294	355.15
361.676	362.38
362.057	348.82
362.439	330.06
362.821	323.28
363.203	330.29
363.584	348.37
363.966	321.93
364.348	310.85
364.729	332.32
365.111	342.27
365.493	315.37
365.874	309.95
366.256	317.41
366.637	309.05
367.019	337.52
367.4	319.67
367.781	325.99
368.163	340.68
368.544	308.37
368.925	328.25
369.306	331.64
369.688	347.46
370.069	316.28
370.45	324.19
370.831	335.94
371.212	307.46
371.593	316.28
371.974	320.57
372.355	308.14
372.736	314.92
373.117	327.35
373.498	322.6
373.879	329.84
374.26	318.76
374.641	326.22
375.021	301.36
375.402	319.89
375.783	310.85
376.163	344.98
376.544	342.94
376.925	328.03
377.305	318.08
377.686	326.67
378.066	325.09
378.447	328.25
378.827	347.69
379.208	334.13
379.588	338.2
379.968	334.13
380.349	324.86
380.729	321.02
381.109	363.28
381.489	334.81
381.87	357.86
382.25	313.57
382.63	342.49
383.01	332.1
383.39	333.45
383.77	331.87
384.15	367.35
384.53	356.28
384.91	348.37
385.29	350.63
385.67	339.55
386.049	362.38
386.429	366.22
386.809	343.17
387.189	346.78
387.568	359.67
387.948	356.5
388.328	348.82
388.707	378.87
389.087	372.77
389.466	354.92
389.846	366.45
390.225	355.82
390.605	384.98
390.984	363.73
391.363	360.12
391.743	385.88
392.122	358.08
392.501	362.38
392.881	387.01
393.26	365.32
393.639	372.32
394.018	383.62
394.397	392.66
394.776	410.51
395.155	365.09
395.534	395.6
395.913	390.63
396.292	360.34
396.671	383.85
397.05	391.08
397.429	389.95
397.808	387.01
398.186	393.79
398.565	404.18
398.944	400.12
399.323	380
399.701	405.99
400.08	398.99
400.458	417.74
400.837	402.15
401.215	391.98
401.594	389.95
401.972	413
402.351	406.44
402.729	408.7
403.107	423.17
403.486	425.2
403.864	418.2
404.242	420.23
404.62	428.59
404.999	432.88
405.377	438.31
405.755	425.43
406.133	439.66
406.511	436.05
406.889	445.77
407.267	478.98
407.645	468.36
408.023	462.26
408.401	476.95
408.779	444.86
409.156	466.1
409.534	465.2
409.912	450.74
410.29	489.83
410.667	480.79
411.045	476.95
411.422	497.74
411.8	497.29
412.178	493.9
412.555	514.46
412.933	514.92
413.31	523.05
413.687	508.36
414.065	539.1
414.442	533.22
414.819	536.38
415.197	523.73
415.574	547.68
415.951	554.69
416.328	550.62
416.705	563.28
417.082	561.24
417.46	582.71
417.837	615.93
418.214	579.77
418.591	600.34
418.967	619.77
419.344	596.95
419.721	606.66
420.098	617.06
420.475	617.96
420.852	637.17
421.228	638.53
421.605	640.56
421.982	673.56
422.358	630.62
422.735	650.05
423.111	656.16
423.488	673.78
423.864	654.8
424.241	683.95
424.617	659.54
424.994	677.17
425.37	693.44
425.746	698.19
426.123	711.97
426.499	707.23
426.875	704.97
427.251	720.11
427.627	718.07
428.003	757.85
428.379	761.01
428.756	763.04
429.132	753.1
429.507	768.92
429.883	783.16
430.259	769.37
430.635	781.58
431.011	796.72
431.387	820.44
431.763	806.43
432.138	823.16
432.514	857.51
432.89	827.68
433.265	860.22
433.641	847.34
434.016	883.72
434.392	890.73
434.767	882.82
435.143	888.47
435.518	902.93
435.894	901.12
436.269	916.94
436.644	938.41
437.02	957.84
437.395	954.68
437.77	955.13
438.145	994.45
438.52	967.11
438.895	975.69
439.271	964.85
439.646	999.2
440.021	973.43
440.395	1002.13
440.77	978.86
441.145	1027.22
441.52	1024.05
441.895	1042.36
442.27	1063.38
442.645	1048.24
443.019	1041
443.394	1061.34
443.769	1035.81
444.143	1047.33
444.518	1071.51
444.892	1069.48
445.267	1067.22
445.641	1061.79
446.016	1071.96
446.39	1098.18
446.764	1117.84
447.139	1078.97
447.513	1093.43
447.887	1100.44
448.262	1085.07
448.636	1106.99
449.01	1102.7
449.384	1098.63
449.758	1132.75
450.132	1129.14
450.506	1156.48
450.88	1131.85
451.254	1127.56
451.628	1139.98
452.002	1159.42
452.376	1157.38
452.75	1170.27
453.123	1175.24
453.497	1176.82
453.871	1193.77
454.244	1243.48
454.618	1210.04
454.992	1241.9
455.365	1228.12
455.739	1237.61
456.112	1249.81
456.486	1289.13
456.859	1253.65
457.232	1260.88
457.606	1293.43
457.979	1298.4
458.352	1337.49
458.725	1296.59
459.099	1306.53
459.472	1336.14
459.845	1323.03
460.218	1351.73
460.591	1360.32
460.964	1357.61
461.337	1398.73
461.71	1404.16
462.083	1419.52
462.456	1416.81
462.829	1421.56
463.201	1450.48
463.574	1424.95
463.947	1466.98
464.32	1490.71
464.692	1504.04
465.065	1486.64
465.438	1491.61
465.81	1548.56
466.183	1523.02
466.555	1601.44
466.928	1592.63
467.3	1583.59
467.672	1600.31
468.045	1611.38
468.417	1612.97
468.789	1632.17
469.161	1645.28
469.534	1675.79
469.906	1706.52
470.278	1703.36
470.65	1739.06
471.022	1737.03
471.394	1770.93
471.766	1769.35
472.138	1801.21
472.51	1820.87
472.882	1842.11
473.253	1852.28
473.625	1882.34
473.997	1925.95
474.369	1921.43
474.74	1940.19
475.112	1981.54
475.484	1967.76
475.855	2022.22
476.227	2014.99
476.598	2056.8
476.97	2097.7
477.341	2132.73
477.713	2130.92
478.084	2151.48
478.455	2201.2
478.827	2203.68
479.198	2256.79
479.569	2296.56
479.94	2324.36
480.311	2335.21
480.682	2358.03
481.053	2384.02
481.424	2435.54
481.795	2457.24
482.166	2498.14
482.537	2514.64
482.908	2596.89
483.279	2565.26
483.65	2658.59
484.021	2660.85
484.391	2675.99
484.762	2728.87
485.133	2706.27
485.503	2749.43
485.874	2774.52
486.244	2841.86
486.615	2848.41
486.985	2909.66
487.356	2950.78
487.726	2936.32
488.097	2998.24
488.467	3009.31
488.837	3095.86
489.207	3045.24
489.578	3105.81
489.948	3148.07
490.318	3224
490.688	3216.99
491.058	3247.73
491.428	3312.13
491.798	3322.07
492.168	3390.32
492.538	3371.56
492.908	3394.84
493.278	3437.78
493.648	3455.4
494.017	3486.36
494.387	3495.4
494.757	3535.63
495.126	3561.84
495.496	3583.54
495.866	3601.39
496.235	3640.48
496.605	3669.18
496.974	3697.43
497.344	3690.65
497.713	3706.24
498.082	3769.07
498.452	3790.31
498.821	3775.62
499.19	3761.38
499.559	3816.75
499.928	3858.1
500.298	3861.72
500.667	3871.66
501.036	3861.49
501.405	3923.87
501.774	3922.74
502.143	3914.6
502.512	3986.46
502.88	3992.34
503.249	3988.04
503.618	4018.78
503.987	4053.81
504.356	4024.2
504.724	4093.58
505.093	4093.58
505.462	4077.99
505.83	4101.49
506.199	4144.65
506.567	4164.54
506.936	4146.91
507.304	4195.05
507.672	4188.04
508.041	4227.81
508.409	4225.78
508.777	4215.16
509.145	4259.9
509.514	4236.4
509.882	4292.67
510.25	4290.18
510.618	4297.87
510.986	4269.62
511.354	4362.5
511.722	4408.15
512.09	4385.32
512.458	4376.28
512.826	4414.02
513.193	4442.27
513.561	4467.13
513.929	4444.76
514.297	4428.26
514.664	4494.02
515.032	4476.39
515.4	4480.91
515.767	4487.47
516.135	4564.75
516.502	4484.75
516.869	4596.39
517.237	4579.22
517.604	4583.51
517.972	4615.15
518.339	4639.33
518.706	4614.02
519.073	4659.21
519.44	4641.59
519.808	4634.36
520.175	4653.34
520.542	4726.78
520.909	4726.56
521.276	4717.52
521.643	4777.18
522.009	4777.63
522.376	4815.59
522.743	4779.21
523.11	4832.32
523.477	4883.16
523.843	4886.33
524.21	4891.75
524.577	4963.16
524.943	4955.7
525.31	4991.86
525.676	4990.73
526.043	5003.39
526.409	5002.26
526.776	5074.8
527.142	5085.19
527.508	5112.54
527.874	5158.18
528.241	5132.42
528.607	5210.39
528.973	5209.71
529.339	5184.4
529.705	5257.39
530.071	5261.68
530.437	5301.91
530.803	5336.03
531.169	5375.13
531.535	5342.36
531.901	5364.73
532.267	5379.42
532.632	5428.91
532.998	5454
533.364	5447.67
533.73	5467.33
534.095	5553.88
534.461	5614.22
534.826	5577.61
535.192	5598.85
535.557	5658.51
535.923	5669.13
536.288	5640.66
536.653	5692.18
537.019	5659.41
537.384	5715.91
537.749	5765.63
538.114	5764.27
538.479	5762.01
538.845	5771.5
539.21	5817.6
539.575	5855.34
539.94	5835.91
540.305	5877.03
540.67	5899.18
541.034	5921.33
541.399	5951.38
541.764	5998.84
542.129	5963.59
542.494	6025.28
542.858	6066.63
543.223	6047.43
543.587	6115.45
543.952	6114.32
544.316	6074.09
544.681	6124.71
545.045	6239.06
545.41	6248.55
545.774	6236.35
546.138	6264.6
546.503	6273.63
546.867	6291.71
547.231	6305.72
547.595	6335.33
547.959	6380.07
548.324	6383.24
548.688	6357.25
549.052	6482.89
549.416	6458.26
549.779	6475.89
550.143	6528.77
550.507	6546.85
550.871	6571.93
551.235	6561.31
551.599	6639.95
551.962	6667.52
552.326	6572.38
552.689	6666.17
553.053	6643.79
553.417	6646.96
553.78	6711.14
554.143	6727.63
554.507	6726.73
554.87	6743.9
555.234	6828.2
555.597	6816.67
555.96	6820.29
556.323	6847.4
556.686	6852.38
557.05	6889.89
557.413	6924.01
557.776	6884.01
558.139	6996.55
558.502	6966.95
558.865	6993.39
559.228	7077.68
559.59	7018.47
559.953	7083.33
560.316	7137.11
560.679	7148.19
561.041	7091.01
561.404	7140.96
561.767	7234.74
562.129	7242.87
562.492	7257.79
562.854	7200.39
563.217	7240.61
563.579	7308.64
563.941	7298.69
564.304	7312.48
564.666	7398.58
565.028	7359.26
565.39	7385.7
565.753	7374.17
566.115	7479.48
566.477	7551.34
566.839	7502.53
567.201	7554.73
567.563	7552.24
567.925	7611
568.287	7627.5
568.648	7606.48
569.01	7620.94
569.372	7751.79
569.734	7721.96
570.095	7774.61
570.457	7836.31
570.819	7832.01
571.18	7847.38
571.542	7881.05
571.903	7968.73
572.265	8009.18
572.626	8075.17
572.987	8122.17
573.349	8150.65
573.71	8172.79
574.071	8225.22
574.432	8192.45
574.794	8299.34
575.155	8394.03
575.516	8443.97
575.877	8458.89
576.238	8498.66
576.599	8636.51
576.96	8714.25
577.32	8757.18
577.681	8825.21
578.042	8916.28
578.403	8968.7
578.763	9053
579.124	9222.71
579.485	9328.47
579.845	9387.9
580.206	9535.92
580.566	9568.24
580.927	9735.92
581.287	9874.44
581.648	9992.41
582.008	10160.99
582.368	10268.78
582.728	10433.53
583.089	10535.44
583.449	10733.86
583.809	10903.12
584.169	11055.2
584.529	11230.79
584.889	11574.74
585.249	11632.14
585.609	11760.72
585.969	12077.78
586.329	12308.73
586.688	12445.22
587.048	12756.63
587.408	12928.37
587.768	13088.82
588.127	13350.51
588.487	13548.7
588.846	13939.42
589.206	14017.16
589.565	14257.38
589.925	14679.52
590.284	14831.38
590.643	15061.65
591.003	15370.57
591.362	15778.92
591.721	15976.88
592.08	16228.17
592.44	16619.35
592.799	16865.9
593.158	17126
593.517	17417.97
593.876	17738.19
594.235	17979.09
594.593	18285.3
594.952	18665.63
595.311	18897.03
595.67	19198.49
596.029	19636.9
596.387	19968.42
596.746	20228.07
597.104	20414.73
597.463	20808.85
597.822	21116.41
598.18	21305.33
598.538	21628.03
598.897	21990.28
599.255	22107.57
599.613	22673.66
599.972	22882.24
600.33	23220.31
600.688	23464.59
601.046	23820.97
601.404	24139.38
601.762	24420.95
602.12	24795.86
602.478	24983.2
602.836	25134.61
603.194	25364.66
603.552	25761.26
603.91	25974.36
604.268	26336.16
604.625	26395.59
604.983	26853.43
605.341	26999.19
605.698	27299.75
606.056	27586.75
606.413	27824.03
606.771	28144.47
607.128	28253.17
607.485	28445.93
607.843	28756.89
608.2	29143.99
608.557	29418.34
608.914	29471.67
609.272	29779.68
609.629	29979.68
609.986	30447.01
610.343	30476.39
610.7	30826.66
611.057	30984.17
611.414	31208.8
611.771	31386.19
612.127	31586.64
612.484	31731.72
612.841	32128.77
613.198	32051.49
613.554	32302.1
613.911	32637.01
614.267	32789.55
614.624	32861.41
614.98	33079.94
615.337	33441.73
615.693	33422.75
616.05	33482.86
616.406	33912.46
616.762	33907.03
617.118	33958.1
617.475	34069.97
617.831	34461.82
618.187	34591.76
618.543	34712.66
618.899	35005.31
619.255	35071.3
619.611	35077.4
619.967	35375.69
620.323	35577.72
620.678	35400.1
621.034	35526.88
621.39	35728.68
621.746	35727.1
622.101	36235.78
622.457	36027.65
622.812	36245.73
623.168	36378.15
623.523	36448.66
623.879	36565.49
624.234	36405.05
624.589	36630.12
624.945	36760.74
625.3	36885.94
625.655	36830.8
626.01	36986.95
626.365	36989.21
626.72	36907.18
627.075	37180.84
627.43	37178.13
627.785	37228.98
628.14	37322.99
628.495	37433.49
628.85	37386.71
629.205	37364.34
629.559	37690.44
629.914	37598.23
630.269	37589.65
630.623	37597.33
630.978	37588.07
631.332	37683.2
631.687	37931.33
632.041	37728.4
632.396	37975.63
632.75	37755.29
633.104	38009.3
633.459	37835.74
633.813	37790.77
634.167	37817.89
634.521	37767.95
634.875	38021.95
635.229	37920.26
635.583	37726.37
635.937	37827.83
636.291	37776.99
636.645	37833.93
636.999	37760.04
637.352	37911.9
637.706	37758.46
638.06	37878.91
638.413	37913.93
638.767	37804.78
639.121	37928.4
639.474	37784.67
639.828	37785.35
640.181	37778.79
640.534	37863.54
640.888	37702.64
641.241	37610.89
641.594	37799.36
641.947	37877.55
642.301	37770.66
642.654	37695.41
643.007	37769.98
643.36	37765.69
643.713	37688.63
644.066	37894.5
644.419	37564.56
644.771	37362.53
645.124	37170.22
645.477	37118.02
645.83	36811.59
646.182	36753.51
646.535	36641.88
646.888	36761.65
647.24	36565.27
647.593	36824.24
647.945	36753.29
648.298	36525.72
648.65	36514.65
649.002	36350.36
649.355	36527.3
649.707	36478.94
650.059	36630.58
650.411	36993.73
650.763	37177.23
651.115	37573.15
651.467	37493.15
651.819	37438.69
652.171	37317.79
652.523	37257.9
652.875	37292.71
653.227	37121.64
653.578	37476.88
653.93	37315.98
654.282	37079.38
654.633	37068.08
654.985	37128.19
655.337	37255.64
655.688	37189.66
656.039	37237.11
656.391	36959.83
656.742	37164.8
657.094	37098.36
657.445	37271.24
657.796	37205.7
658.147	37042.54
658.498	36926.39
658.849	37205.48
659.2	37005.03
659.551	36876.45
659.902	37162.77
660.253	36917.57
660.604	37101.75
660.955	36865.82
661.306	37056.33
661.656	36972.26
662.007	36932.49
662.358	36810.01
662.708	37024.24
663.059	36932.26
663.409	36781.76
663.76	36919.61
664.11	36992.15
664.461	36993.73
664.811	37013.17
665.161	37039.83
665.511	36885.94
665.862	36885.94
666.212	36989.66
666.562	36939.27
666.912	36894.3
667.262	36797.8
667.612	36808.65
667.962	36782.44
668.312	36794.19
668.662	36985.14
669.011	36906.95
669.361	36772.04
669.711	36714.19
670.06	36730.23
670.41	36774.53
670.76	36701.53
671.109	36763
671.459	36730.46
671.808	36759.84
672.157	36813.4
672.507	36541.31
672.856	36712.83
673.205	36683.46
673.554	36759.39
673.904	36651.59
674.253	36975.2
674.602	36727.75
674.951	36185.84
675.3	36030.59
675.649	36693.4
675.998	36516.46
676.346	36565.04
676.695	36667.64
677.044	36337.48
677.393	36499.96
677.741	36552.16
678.09	36449.34
678.438	36378.15
678.787	36362.56
679.135	36397.36
679.484	36069.01
679.832	36348.55
680.181	36017.71
680.529	36162.11
680.877	36066.52
681.225	36066.07
681.573	36266.29
681.922	35973.42
682.27	35863.82
682.618	35918.73
682.966	35904.04
683.314	35848.45
683.661	35742.92
684.009	35615.46
684.357	35523.94
684.705	35520.32
685.053	35469.25
685.4	35550.38
685.748	35330.72
686.095	35362.81
686.443	35191.52
686.79	35189.94
687.138	35232.87
687.485	35322.81
687.832	35102.71
688.18	35270.84
688.527	34904.29
688.874	34880.79
689.221	35028.81
689.568	34655.71
689.915	34697.07
690.262	34694.13
690.609	34540.24
690.956	34545.43
691.303	34522.84
691.65	34370.3
691.997	34371.88
692.344	34122.17
692.69	34237.42
693.037	34020.93
693.383	33888.95
693.73	33836.07
694.077	33792.91
694.423	33819.8
694.769	33700.03
695.116	33574.84
695.462	33635.63
695.808	33383.43
696.155	33493.26
696.501	33221.63
696.847	33222.3
697.193	32967.17
697.539	33138.24
697.885	32898.25
698.231	32810.56
698.577	32902.76
698.923	32683.79
699.269	32596.56
699.614	32490.8
699.96	32464.81
700.306	32397.24
700.651	32265.04
700.997	32151.82
701.342	32152.28
701.688	32213.52
702.033	32057.82
702.379	32009.45
702.724	31843.81
703.069	31854.66
703.415	31520.65
703.76	31597.04
704.105	31599.07
704.45	31559.52
704.795	31279.98
705.14	31295.58
705.485	31256.93
705.83	30996.37
706.175	31165.18
706.52	31165.41
706.865	30971.06
707.209	30999.09
707.554	30688.13
707.899	30898.07
708.243	30720.68
708.588	30645.65
708.932	30443.39
709.277	30424.86
709.621	30388.25
709.966	30278.88
710.31	30373.79
710.654	30260.12
710.998	30111.43
711.342	30159.11
711.687	30055.83
712.031	29889.28
712.375	29727.71
712.719	29979.9
713.063	29757.08
713.407	29870.08
713.75	29738.1
714.094	29612
714.438	29590.08
714.782	29695.62
715.125	29439.13
715.469	29437.09
715.812	29309.41
716.156	29228.06
716.499	29228.96
716.843	29206.14
717.186	28953.04
717.53	29205.01
717.873	29155.29
718.216	29061.06
718.559	28954.85
718.902	28754.85
719.246	28770.22
719.589	28715.76
719.932	28634.4
720.275	28723.67
720.617	28647.06
720.96	28520.73
721.303	28541.98
721.646	28517.57
721.989	28343.79
722.331	28462.43
722.674	28370.45
723.016	28472.15
723.359	28314.41
723.701	28198.48
724.044	28051.82
724.386	27981.76
724.729	28110.57
725.071	28066.96
725.413	27990.35
725.755	27939.51
726.097	27864.71
726.439	27718.95
726.782	27751.26
727.124	27903.8
727.465	27697.03
727.807	27761.43
728.149	27646.63
728.491	27513.98
728.833	27595.56
729.175	27482.34
729.516	27482.34
729.858	27434.21
730.199	27545.17
730.541	27316.7
730.882	27276.7
731.224	27516.69
731.565	27160.32
731.906	27223.59
732.248	27101.34
732.589	27137.94
732.93	26895.92
733.271	27074.67
733.612	27117.15
733.953	26985.63
734.294	26897.95
734.635	26771.85
734.976	26930.04
735.317	26800.78
735.658	26821.79
735.999	26706.54
736.339	26718.75
736.68	26784.51
737.021	26628.81
737.361	26402.82
737.702	26606.66
738.042	26645.75
738.383	26361.47
738.723	26605.76
739.063	26364.86
739.404	26474.46
739.744	26302.49
740.084	26188.37
740.424	26179.55
740.764	26168.7
741.104	26294.8
741.444	26115.6
741.784	25918.77
742.124	26018.65
742.464	25903.4
742.804	25970.29
743.143	25898.2
743.483	25932.55
743.823	25698.89
744.162	25791.09
744.502	25735.27
744.841	25725.78
745.181	25709.28
745.52	25617.08
745.86	25646.01
746.199	25514.71
746.538	25455.73
746.877	25600.58
747.216	25534.14
747.556	25455.73
747.895	25387.93
748.234	25276.52
748.573	25240.14
748.911	25266.36
749.25	25215.06
749.589	25178.9
749.928	25063.87
750.267	25118.34
750.605	25077.43
750.944	24974.39
751.283	24930.55
751.621	24930.77
751.96	24803.09
752.298	24742.08
752.636	24814.62
752.975	24686.03
753.313	24622.3
753.651	24712.25
753.989	24547.05
754.327	24535.98
754.666	24425.02
755.004	24506.38
755.342	24409.43
755.679	24385.7
756.017	24237
756.355	24274.97
756.693	24146.61
757.031	24205.59
757.368	24023.22
757.706	23992.04
758.044	23923.11
758.381	23884.02
758.719	23896.9
759.056	23872.49
759.394	23794.08
759.731	23676.11
