Data from hue_38_FLMS001491_00031.txt Node
Date: Tue Feb 07 17:31:24 GMT 2017
User: dcchb
Spectrometer: FLMS00149
Trigger mode: 0
Integration Time (sec): 2.000000E-2
Scans to average: 10
Electric dark correction enabled: true
Nonlinearity correction enabled: false
Boxcar width: 0
XAxis mode: Wavelengths
Number of Pixels in Spectrum: 2048
>>>>>Begin Spectral Data<<<<<
341.393	-12.94
341.776	-12.94
342.16	-12.94
342.543	-72.6
342.927	-55.42
343.31	-76.21
343.693	-78.92
344.077	-40.28
344.46	-71.02
344.843	-58.13
345.226	-33.5
345.61	-37.57
345.993	-17.23
346.376	-2.54
346.759	20.51
347.142	41.98
347.525	17.57
347.908	44.46
348.291	72.94
348.674	87.62
349.057	130.34
349.44	124.01
349.823	148.87
350.206	171.69
350.588	223.44
350.971	227.06
351.354	241.97
351.737	233.16
352.119	246.04
352.502	275.64
352.884	275.19
353.267	280.39
353.65	293.04
354.032	284
354.414	316.32
354.797	320.39
355.179	310.44
355.562	317
355.944	319.48
356.326	340.95
356.709	337.11
357.091	358.58
357.473	325.13
357.855	338.24
358.238	336.66
358.62	356.54
359.002	353.15
359.384	336.88
359.766	359.26
360.148	366.94
360.53	346.38
360.912	344.34
361.294	339.14
361.676	334.17
362.057	342.53
362.439	337.11
362.821	323.55
363.203	335.75
363.584	317.68
363.966	323.55
364.348	315.19
364.729	320.39
365.111	315.42
365.493	308.64
365.874	327.39
366.256	325.81
366.637	304.57
367.019	295.53
367.4	334.62
367.781	335.75
368.163	326.49
368.544	316.77
368.925	327.84
369.306	325.58
369.688	319.03
370.069	316.09
370.45	316.09
370.831	332.59
371.212	323.55
371.593	317
371.974	306.6
372.355	292.59
372.736	331.23
373.117	336.43
373.498	317
373.879	330.33
374.26	322.65
374.641	312.03
375.021	317.9
375.402	314.51
375.783	345.25
376.163	325.58
376.544	315.87
376.925	320.84
377.305	305.92
377.686	359.93
378.066	328.75
378.447	348.63
378.827	320.16
379.208	344.12
379.588	345.7
379.968	343.21
380.349	341.18
380.729	349.76
381.109	333.95
381.489	331.46
381.87	344.12
382.25	353.15
382.63	345.7
383.01	345.92
383.39	337.11
383.77	337.79
384.15	347.96
384.53	343.66
384.91	362.65
385.29	345.92
385.67	340.27
386.049	363.78
386.429	360.61
386.809	354.74
387.189	351.8
387.568	368.07
387.948	364.23
388.328	365.81
388.707	366.94
389.087	365.81
389.466	374.17
389.846	357
390.225	371.01
390.605	346.6
390.984	372.82
391.363	361.74
391.743	376.43
392.122	371.01
392.501	365.13
392.881	365.58
393.26	376.2
393.639	364.68
394.018	380.5
394.397	377.79
394.776	393.61
395.155	384.79
395.534	381.85
395.913	352.02
396.292	394.28
396.671	383.44
397.05	391.8
397.429	385.92
397.808	389.09
398.186	387.05
398.565	399.03
398.944	382.08
399.323	401.51
399.701	413.04
400.08	397
400.458	400.61
400.837	415.75
401.215	401.51
401.594	424.79
401.972	404.23
402.351	419.59
402.729	381.85
403.107	417.33
403.486	418.01
403.864	391.57
404.242	413.27
404.62	412.36
404.999	416.66
405.377	410.55
405.755	429.76
406.133	407.16
406.511	419.82
406.889	442.64
407.267	440.16
407.645	423.66
408.023	435.86
408.401	433.15
408.779	444.45
409.156	457.56
409.534	454.85
409.912	448.29
410.29	457.33
410.667	475.64
411.045	453.49
411.422	468.86
411.8	477.22
412.178	469.99
412.555	469.31
412.933	477.67
413.31	491.23
413.687	477.45
414.065	477.67
414.442	471.57
414.819	461.85
415.197	500.72
415.574	485.13
415.951	487.16
416.328	500.5
416.705	483.55
417.082	509.99
417.46	511.34
417.837	508.63
418.214	507.05
418.591	521.96
418.967	487.39
419.344	504.79
419.721	514.73
420.098	521.51
420.475	521.96
420.852	527.16
421.228	504.56
421.605	558.35
421.982	508.63
422.358	541.62
422.735	558.12
423.111	528.29
423.488	551.12
423.864	533.94
424.241	572.36
424.617	570.78
424.994	547.73
425.37	573.94
425.746	568.74
426.123	583.43
426.499	559.93
426.875	582.08
427.251	578.69
427.627	589.08
428.003	596.31
428.379	598.35
428.756	627.5
429.132	617.78
429.507	619.14
429.883	589.76
430.259	616.2
430.635	634.28
431.011	615.52
431.387	614.62
431.763	647.38
432.138	633.6
432.514	654.84
432.89	669.3
433.265	666.14
433.641	671.56
434.016	668.4
434.392	677.67
434.767	688.06
435.143	673.37
435.518	711.34
435.894	681.96
436.269	688.74
436.644	727.61
437.02	715.18
437.395	722.64
437.77	723.31
438.145	717.21
438.52	725.35
438.895	729.87
439.271	735.97
439.646	764.67
440.021	744.56
440.395	732.35
440.77	753.14
441.145	766.93
441.52	782.97
441.895	790.66
442.27	783.43
442.645	807.61
443.019	792.24
443.394	789.75
443.769	814.39
444.143	779.13
444.518	791.56
444.892	813.26
445.267	801.28
445.641	799.24
446.016	815.29
446.39	816.65
446.764	808.74
447.139	808.06
447.513	833.82
447.887	826.36
448.262	830.2
448.636	842.18
449.01	840.6
449.384	874.95
449.758	862.07
450.132	863.88
450.506	878.11
450.88	868.17
451.254	890.77
451.628	884.21
452.002	896.42
452.376	920.82
452.75	911.78
453.123	906.59
453.497	968.28
453.871	921.73
454.244	950.43
454.618	972.8
454.992	956.98
455.365	976.87
455.739	973.25
456.112	999.92
456.486	980.48
456.859	1006.02
457.232	1029.52
457.606	1035.17
457.979	1017.54
458.352	1070.65
458.725	1044.66
459.099	1067.03
459.472	1069.29
459.845	1072.01
460.218	1110.42
460.591	1095.96
460.964	1101.16
461.337	1166.01
461.71	1180.7
462.083	1191.55
462.456	1159.01
462.829	1174.38
463.201	1198.33
463.574	1213.02
463.947	1215.5
464.32	1235.84
464.692	1246.69
465.065	1282.17
465.438	1290.76
465.81	1309.97
466.183	1330.98
466.555	1350.19
466.928	1362.39
467.3	1353.13
467.672	1378.66
468.045	1446.23
468.417	1427.02
468.789	1455.05
469.161	1488.27
469.534	1493.92
469.906	1535.27
470.278	1526.46
470.65	1565.1
471.022	1578.43
471.394	1623.63
471.766	1649.17
472.138	1667.47
472.51	1705.44
472.882	1749.5
473.253	1794.7
473.625	1805.55
473.997	1833.79
474.369	1874.92
474.74	1911.31
475.112	1943.17
475.484	1991.53
475.855	2041.7
476.227	2030.62
476.598	2145.88
476.97	2167.34
477.341	2211.64
477.713	2265.87
478.084	2316.72
478.455	2370.5
478.827	2398.52
479.198	2493.89
479.569	2538.86
479.94	2611.17
480.311	2641.91
480.682	2772.53
481.053	2845.29
481.424	2890.26
481.795	2980.2
482.166	2976.14
482.537	3094.55
482.908	3192.4
483.279	3243.47
483.65	3319.86
484.021	3407.76
484.391	3475.56
484.762	3503.58
485.133	3639.4
485.503	3705.61
485.874	3823.12
486.244	3896.34
486.615	4024.24
486.985	4127.74
487.356	4235.99
487.726	4304.92
488.097	4404.35
488.467	4466.27
488.837	4565.02
489.207	4684.34
489.578	4835.07
489.948	4913.26
490.318	5043.43
490.688	5093.37
491.058	5166.36
491.428	5262.18
491.798	5441.61
492.168	5569.97
492.538	5611.1
492.908	5732.22
493.278	5893.12
493.648	5964.76
494.017	6061.03
494.387	6156.17
494.757	6286.56
495.126	6340.79
495.496	6436.38
495.866	6502.6
496.235	6661.24
496.605	6771.29
496.974	6823.72
497.344	6918.18
497.713	6971.74
498.082	7066.88
498.452	7131.51
498.821	7317.27
499.19	7392.52
499.559	7439.97
499.928	7512.06
500.298	7600.87
500.667	7687.2
501.036	7760.87
501.405	7862.11
501.774	7885.84
502.143	8066.17
502.512	7994.08
502.88	8191.14
503.249	8245.38
503.618	8345.71
503.987	8414.86
504.356	8508.87
504.724	8535.09
505.093	8665.03
505.462	8702.99
505.83	8815.53
506.199	8919.26
506.567	8972.59
506.936	9063.66
507.304	9146.82
507.672	9160.38
508.041	9269.53
508.409	9335.97
508.777	9438.11
509.145	9488.06
509.514	9540.26
509.882	9667.94
510.25	9724.43
510.618	9737.77
510.986	9808.05
511.354	9876.29
511.722	9955.16
512.09	10055.5
512.458	10064.09
512.826	10187.92
513.193	10250.97
513.561	10316.06
513.929	10465.21
514.297	10479.67
514.664	10571.42
515.032	10655.71
515.4	10669.04
515.767	10737.29
516.135	10812.77
516.502	10779.77
516.869	10906.32
517.237	10925.31
517.604	10986.1
517.972	11073.55
518.339	11185.41
518.706	11187.22
519.073	11223.38
519.44	11303.38
519.808	11445.74
520.175	11386.31
520.542	11576.14
520.909	11697.49
521.276	11702.69
521.643	11777.71
522.009	11883.02
522.376	11912.62
522.743	11994.88
523.11	12058.84
523.477	12218.15
523.843	12300.41
524.21	12413.63
524.577	12418.83
524.943	12553.96
525.31	12634.41
525.676	12767.07
526.043	12816.1
526.409	12888.64
526.776	12995.53
527.142	13024.23
527.508	13069.2
527.874	13121.18
528.241	13220.84
528.607	13252.02
528.973	13453.38
529.339	13425.35
529.705	13479.14
530.071	13612.69
530.437	13705.8
530.803	13752.35
531.169	13810.88
531.535	13828.51
531.901	13950.09
532.267	13911.67
532.632	14082.96
532.998	14105.56
533.364	14249.96
533.73	14246.8
534.095	14318.44
534.461	14440.69
534.826	14526.57
535.192	14551.43
535.557	14626.9
535.923	14616.28
536.288	14699.44
536.653	14733.57
537.019	14704.42
537.384	14774.24
537.749	14919.33
538.114	14882.26
538.479	14958.19
538.845	15055.37
539.21	15023.73
539.575	15105.54
539.94	15216.72
540.305	15314.12
540.67	15340.33
541.034	15363.83
541.399	15420.1
541.764	15421.46
542.129	15568.12
542.494	15669.36
542.858	15665.75
543.223	15705.29
543.587	15769.7
543.952	15781.68
544.316	15896.93
544.681	15837.04
545.045	16016.47
545.41	16041.56
545.774	16164.72
546.138	16163.13
546.503	16254.66
546.867	16219.86
547.231	16427.31
547.595	16417.36
547.959	16455.33
548.324	16465.95
548.688	16526.97
549.052	16682.89
549.416	16769.67
549.779	16591.6
550.143	16704.36
550.507	16898.48
550.871	16907.97
551.235	16904.36
551.599	17088.99
551.962	17092.38
552.326	17165.82
552.689	17177.12
553.053	17182.32
553.417	17280.17
553.78	17459.6
554.143	17399.26
554.507	17500.05
554.87	17543.21
555.234	17782.53
555.597	17593.38
555.96	17669.76
556.323	17819.59
556.686	17793.37
557.05	17897.78
557.413	17935.97
557.776	17988.4
558.139	18172.12
558.502	18104.1
558.865	18172.35
559.228	18304.09
559.59	18329.41
559.953	18399.23
560.316	18595.61
560.679	18590.42
561.041	18617.99
561.404	18827.7
561.767	18886.9
562.129	18636.52
562.492	19026.79
562.854	18971.87
563.217	19004.42
563.579	19118.08
563.941	19184.3
564.304	19272.43
564.666	19446.66
565.028	19485.98
565.39	19533.89
565.753	19572.31
566.115	19666.09
566.477	19686.88
566.839	19701.35
567.201	19848.69
567.563	19879.19
567.925	19965.29
568.287	20054.33
568.648	20034.22
569.01	20219.3
569.372	20315.34
569.734	20249.13
570.095	20474.66
570.457	20528.67
570.819	20604.83
571.18	20667.2
571.542	20768.44
571.903	20801.88
572.265	20883.24
572.626	20994.87
572.987	21057.47
573.349	21148.77
573.71	21267.41
574.071	21406.84
574.432	21563.22
574.794	21571.81
575.155	21689.09
575.516	21691.12
575.877	21802.99
576.238	21878.46
576.599	22094.05
576.96	22111.68
577.32	22259.25
577.681	22281.39
578.042	22521.61
578.403	22532.91
578.763	22601.61
579.124	22860.59
579.485	23134.25
579.845	23286.79
580.206	23365.88
580.566	23421.47
580.927	23593
581.287	23920.67
581.648	23805.19
582.008	24170.38
582.368	24183.49
582.728	24378.06
583.089	24447.21
583.449	24745.28
583.809	24978.72
584.169	25176
584.529	25273.4
584.889	25419.16
585.249	25600.63
585.609	25639.95
585.969	26052.82
586.329	26216.2
586.688	26475.18
587.048	26596.53
587.408	26702.07
587.768	26984.32
588.127	27123.98
588.487	27224.99
588.846	27702.72
589.206	27584.3
589.565	27932.54
589.925	28241.91
590.284	28305.64
590.643	28504.05
591.003	28854.33
591.362	29079.63
591.721	29232.85
592.08	29265.16
592.44	29663.8
592.799	29911.93
593.158	29930
593.517	30224.46
593.876	30497.45
594.235	30548.52
594.593	30862.63
594.952	31024.44
595.311	31137.43
595.67	31444.54
596.029	31798.2
596.387	31947.8
596.746	32174.01
597.104	32276.16
597.463	32357.96
597.822	32704.39
598.18	32892.41
598.538	32938.29
598.897	33415.79
599.255	33263.25
599.613	33782.56
599.972	33793.18
600.33	34001.76
600.688	33995.43
601.046	34247.4
601.404	34593.84
601.762	34683.33
602.12	34931.45
602.478	35165.8
602.836	35221.39
603.194	35204.22
603.552	35415.96
603.91	35558.1
604.268	35665.22
604.625	35875.38
604.983	36159.44
605.341	36079.45
605.698	36392.21
606.056	36569.38
606.413	36629.26
606.771	36902.25
607.128	37024.05
607.485	36889.14
607.843	37042.36
608.2	37377.72
608.557	37596.02
608.914	37410.71
609.272	37680.99
609.629	37932.28
609.986	38197.36
610.343	38045.04
610.7	38442.32
611.057	38401.65
611.414	38478.93
611.771	38583.11
612.127	38890.45
612.484	39009.99
612.841	39181.29
613.198	39178.12
613.554	39231.91
613.911	39491.56
614.267	39544.67
614.624	39587.15
614.98	39785.79
615.337	39896.07
615.693	39922.28
616.05	39899.46
616.406	40279.34
616.762	40225.1
617.118	40319.56
617.475	40353.46
617.831	40553.45
618.187	40549.39
618.543	40659.67
618.899	41013.33
619.255	40872.77
619.611	41091.29
619.967	41041.58
620.323	41275.47
620.678	41107.56
621.034	41135.13
621.39	41185.53
621.746	41143.72
622.101	41738.28
622.457	41376.26
622.812	41449.93
623.168	41678.85
623.523	41636.81
623.879	41844.27
624.234	41641.56
624.589	41863.48
624.945	41742.57
625.3	42016.69
625.655	41920.2
626.01	41903.93
626.365	42124.49
626.72	41887.2
627.075	41922.91
627.43	42071.38
627.785	42139.85
628.14	42255.33
628.495	42310.47
628.85	42153.64
629.205	42089.91
629.559	42456
629.914	42310.7
630.269	42278.38
630.623	42173.75
630.978	42087.88
631.332	42468.43
631.687	42538.94
632.041	42162.9
632.396	42358.15
632.75	42193.41
633.104	42214.2
633.459	42213.52
633.813	42166.74
634.167	42259.62
634.521	42196.12
634.875	42337.59
635.229	42310.7
635.583	42144.15
635.937	42153.41
636.291	42147.31
636.645	42194.09
636.999	42004.49
637.352	42202.9
637.706	41961.78
638.06	42107.99
638.413	41902.12
638.767	41841.78
639.121	42076.13
639.474	41999.07
639.828	41951.61
640.181	41944.83
640.534	42037.26
640.888	41866.41
641.241	41705.29
641.594	41843.14
641.947	41961.33
642.301	41748.45
642.654	41843.14
643.007	41865.28
643.36	41856.24
643.713	41626.42
644.066	41911.16
644.419	41597.49
644.771	41407.22
645.124	41080.67
645.477	41047.68
645.83	40819.89
646.182	40683.17
646.535	40435.49
646.888	40750.96
647.24	40534.92
647.593	40627.35
647.945	40534.47
648.298	40311.65
648.65	40341.93
649.002	40314.59
649.355	40439.11
649.707	40386.45
650.059	40645.2
650.411	40965.87
650.763	41143.72
651.115	41390.49
651.467	41244.51
651.819	41349.82
652.171	41324.96
652.523	41132.2
652.875	41099.88
653.227	41089.48
653.578	41295.13
653.93	41094
654.282	41005.87
654.633	41000
654.985	41056.72
655.337	41052.42
655.688	40958.64
656.039	41154.34
656.391	40806.55
656.742	40923.61
657.094	40901.69
657.445	41157.28
657.796	40980.56
658.147	41013.1
658.498	40865.31
658.849	40997.96
659.2	40957.06
659.551	40771.53
659.902	40988.02
660.253	40859.89
660.604	40980.33
660.955	40874.57
661.306	40920.45
661.656	40919.32
662.007	40887.23
662.358	40762.94
662.708	40984.63
663.059	40900.34
663.409	40568.82
663.76	40891.3
664.11	40741.7
664.461	40731.08
664.811	40705.54
665.161	40737.63
665.511	40659.44
665.862	40518.2
666.212	40827.12
666.562	40815.14
666.912	40632.77
667.262	40739.21
667.612	40637.75
667.962	40611.53
668.312	40756.61
668.662	40913.9
669.011	40711.42
669.361	40619.21
669.711	40638.65
670.06	40518.65
670.41	40398.43
670.76	40395.49
671.109	40510.52
671.459	40440.91
671.808	40345.32
672.157	40531.99
672.507	40363.4
672.856	40359.79
673.205	40473.91
673.554	40436.39
673.904	40319.56
674.253	40494.7
674.602	40341.93
674.951	39948.27
675.3	39672.12
675.649	40322.27
675.998	40367.7
676.346	40381.48
676.695	40371.54
677.044	40024.88
677.393	40216.51
677.741	40311.65
678.09	40281.82
678.438	40020.81
678.787	40209.28
679.135	40150.98
679.484	39932.68
679.832	40045.9
680.181	39812.68
680.529	40061.49
680.877	39817.65
681.225	39847.03
681.573	39962.96
681.922	39644.78
682.27	39538.56
682.618	39773.36
682.966	39438.68
683.314	39626.47
683.661	39539.47
684.009	39146.94
684.357	39202.3
684.705	39202.98
685.053	39049.99
685.4	39074.62
685.748	38897.45
686.095	39078.46
686.443	38845.48
686.79	38705.82
687.138	38807.28
687.485	38807.06
687.832	38697.68
688.18	38689.32
688.527	38626.5
688.874	38484.13
689.221	38414.53
689.568	38280.52
689.915	38276
690.262	38436
690.609	38289.33
690.956	37951.04
691.303	37946.06
691.65	37962.34
691.997	37932.05
692.344	37667.65
692.69	37673.98
693.037	37749.91
693.383	37452.74
693.73	37544.04
694.077	37286.42
694.423	37219.08
694.769	37088.46
695.116	37155.8
695.462	37055.92
695.808	36961.46
696.155	36974.34
696.501	36543.62
696.847	36682.59
697.193	36484.86
697.539	36507.91
697.885	36394.47
698.231	36269.27
698.577	36271.31
698.923	36094.59
699.269	36006.23
699.614	35869.96
699.96	35782.28
700.306	35880.36
700.651	35655.73
700.997	35506.81
701.342	35471.55
701.688	35415.51
702.033	35352.01
702.379	35409.86
702.724	35224.55
703.069	35241.73
703.415	34910.89
703.76	34939.59
704.105	34944.56
704.45	34779.37
704.795	34649.65
705.14	34440.85
705.485	34573.5
705.83	34378.93
706.175	34440.62
706.52	34383.22
706.865	34238.37
707.209	34283.11
707.554	34152.04
707.899	34047.41
708.243	33931.48
708.588	33951.14
708.932	33745.04
709.277	33667.31
709.621	33706.18
709.966	33424.15
710.31	33552.06
710.654	33269.35
710.998	33347.99
711.342	33270.48
711.687	33299.41
712.031	33045.63
712.375	32872.3
712.719	32934.67
713.063	33015.12
713.407	32889.25
713.75	32957.27
714.094	32767.67
714.438	32573.78
714.782	32633.66
715.125	32393.67
715.469	32610.16
715.812	32343.73
716.156	32342.14
716.499	32256.95
716.843	32350.28
717.186	32159.32
717.53	32157.06
717.873	32215.37
718.216	32040.23
718.559	31968.82
718.902	31783.74
719.246	31820.58
719.589	31663.07
719.932	31702.39
720.275	31656.74
720.617	31576.97
720.96	31495.61
721.303	31342.62
721.646	31598.21
721.989	31369.74
722.331	31428.5
722.674	31306.24
723.016	31360.47
723.359	31323.87
723.701	31367.48
724.044	31107.37
724.386	30836.65
724.729	31048.62
725.071	30988.73
725.413	31003.42
725.755	30926.59
726.097	30814.95
726.439	30681.85
726.782	30697.67
727.124	30725.92
727.465	30553.49
727.807	30700.15
728.149	30642.3
728.491	30421.74
728.833	30521.85
729.175	30396.66
729.516	30344
729.858	30294.06
730.199	30398.01
730.541	30150.11
730.882	30212.03
731.224	30245.93
731.565	30070.79
731.906	30078.02
732.248	30033.96
732.589	29942.66
732.93	29815.88
733.271	29797.8
733.612	29940.4
733.953	29850.46
734.294	29808.43
734.635	29706.51
734.976	29741.76
735.317	29569.79
735.658	29482.33
735.999	29584.25
736.339	29506.51
736.68	29609.56
737.021	29469.23
737.361	29386.97
737.702	29582.22
738.042	29273.07
738.383	29308.55
738.723	29388.1
739.063	29249.8
739.404	29283.24
739.744	29280.76
740.084	28983.59
740.424	29077.82
740.764	29036.92
741.104	29132.51
741.444	28863.37
741.784	28837.15
742.124	28913.08
742.464	28803.25
742.804	28754.67
743.143	28790.82
743.483	28778.85
743.823	28591.51
744.162	28578.18
744.502	28667.66
744.841	28363.49
745.181	28555.58
745.52	28398.52
745.86	28569.14
746.199	28368.92
746.538	28328.24
746.877	28426.54
747.216	28241.01
747.556	28203.72
747.895	28219.77
748.234	28017.74
748.573	28135.7
748.911	28007.79
749.25	28084.85
749.589	27782.26
749.928	27845.31
750.267	27882.6
750.605	27873.56
750.944	27796.5
751.283	27582.27
751.621	27748.37
751.96	27621.59
752.298	27711.31
752.636	27581.82
752.975	27549.5
753.313	27291.66
753.651	27444.42
753.989	27225.89
754.327	27298.66
754.666	27106.8
755.004	27253.01
755.342	27227.7
755.679	27125.78
756.017	26969.63
756.355	27010.08
756.693	26851.67
757.031	26937.31
