Data from hue_330_FLMS001491_22.txt Node
Date: Mon Feb 06 15:45:09 GMT 2017
User: dcchb
Spectrometer: FLMS00149
Trigger mode: 0
Integration Time (sec): 2.000000E-2
Scans to average: 10
Electric dark correction enabled: true
Nonlinearity correction enabled: false
Boxcar width: 0
XAxis mode: Wavelengths
Number of Pixels in Spectrum: 2048
>>>>>Begin Spectral Data<<<<<
341.393	-14.34
341.776	-14.34
342.16	-14.34
342.543	-41
342.927	-63.83
343.31	-59.31
343.693	-66.31
344.077	-69.7
344.46	-42.58
344.843	-59.08
345.226	-48.91
345.61	-29.48
345.993	-37.39
346.376	1.71
346.759	10.07
347.142	17.75
347.525	30.63
347.908	60.01
348.291	74.02
348.674	106.79
349.057	111.76
349.44	144.08
349.823	151.99
350.206	166.9
350.588	193.57
350.971	206.68
351.354	219.78
351.737	246.67
352.119	266.33
352.502	251.42
352.884	279.44
353.267	274.47
353.65	292.55
354.032	299.33
354.414	308.82
354.797	293.9
355.179	288.71
355.562	334.58
355.944	329.16
356.326	350.17
356.709	318.54
357.091	351.98
357.473	331.64
357.855	344.98
358.238	346.33
358.62	355.82
359.002	331.64
359.384	337.75
359.766	345.88
360.148	345.2
360.53	333.23
360.912	336.39
361.294	352.89
361.676	329.61
362.057	334.13
362.439	341.81
362.821	322.83
363.203	325.09
363.584	316.28
363.966	344.98
364.348	324.64
364.729	313.79
365.111	310.85
365.493	328.48
365.874	316.05
366.256	330.29
366.637	310.85
367.019	311.31
367.4	302.72
367.781	305.66
368.163	310.18
368.544	288.93
368.925	310.63
369.306	322.38
369.688	295.26
370.069	291.64
370.45	299.33
370.831	311.31
371.212	306.11
371.593	308.82
371.974	331.64
372.355	314.7
372.736	304.3
373.117	321.7
373.498	312.21
373.879	326.22
374.26	333.68
374.641	307.92
375.021	312.44
375.402	339.78
375.783	332.32
376.163	315.83
376.544	331.64
376.925	325.32
377.305	309.72
377.686	329.61
378.066	324.64
378.447	314.7
378.827	332.32
379.208	326.22
379.588	340.91
379.968	316.5
380.349	324.19
380.729	326.45
381.109	337.29
381.489	322.83
381.87	336.16
382.25	318.54
382.63	337.07
383.01	335.71
383.39	340.23
383.77	343.85
384.15	327.35
384.53	327.12
384.91	340.46
385.29	339.78
385.67	331.64
386.049	361.93
386.429	342.49
386.809	322.83
387.189	352.66
387.568	344.75
387.948	325.09
388.328	326.45
388.707	347.46
389.087	353.11
389.466	356.73
389.846	370.74
390.225	349.72
390.605	353.34
390.984	343.39
391.363	373.9
391.743	378.42
392.122	354.02
392.501	370.06
392.881	358.54
393.26	361.93
393.639	338.42
394.018	363.06
394.397	377.74
394.776	380.68
395.155	380
395.534	369.16
395.913	367.12
396.292	383.39
396.671	375.26
397.05	366.22
397.429	381.59
397.808	373.9
398.186	384.07
398.565	400.34
398.944	379.1
399.323	394.47
399.701	383.62
400.08	387.24
400.458	385.88
400.837	373.22
401.215	393.79
401.594	403.05
401.972	405.54
402.351	398.31
402.729	394.24
403.107	398.99
403.486	418.87
403.864	422.26
404.242	417.74
404.62	425.2
404.999	406.67
405.377	406.44
405.755	424.07
406.133	416.39
406.511	436.95
406.889	437.4
407.267	432.43
407.645	440.79
408.023	451.19
408.401	467.01
408.779	462.04
409.156	460.23
409.534	450.06
409.912	465.65
410.29	470.4
410.667	507.23
411.045	455.48
411.422	488.48
411.8	476.27
412.178	500.45
412.555	508.36
412.933	500
413.31	477.18
413.687	495.03
414.065	495.71
414.442	514.24
414.819	527.8
415.197	554.91
415.574	550.4
415.951	522.83
416.328	548.14
416.705	537.74
417.082	552.88
417.46	566.89
417.837	583.39
418.214	582.71
418.591	564.41
418.967	576.16
419.344	568.02
419.721	589.49
420.098	601.02
420.475	618.64
420.852	624.29
421.228	608.7
421.605	645.31
421.982	640.79
422.358	650.73
422.735	627
423.111	660.67
423.488	664.52
423.864	648.7
424.241	658.19
424.617	678.98
424.994	674.91
425.37	696.38
425.746	662.48
426.123	710.16
426.499	683.95
426.875	705.87
427.251	709.26
427.627	739.77
428.003	722.59
428.379	733.22
428.756	711.52
429.132	764.4
429.507	738.19
429.883	777.06
430.259	784.51
430.635	777.51
431.011	772.31
431.387	785.19
431.763	816.15
432.138	799.65
432.514	825.19
432.89	815.02
433.265	859.31
433.641	840.11
434.016	864.51
434.392	864.74
434.767	881.69
435.143	866.55
435.518	912.19
435.894	892.98
436.269	895.02
436.644	914.45
437.02	898.86
437.395	907.9
437.77	917.17
438.145	927.56
438.52	908.35
438.895	970.95
439.271	964.85
439.646	990.16
440.021	1005.52
440.395	973.43
440.77	974.34
441.145	993.32
441.52	1018.86
441.895	1008.46
442.27	999.65
442.645	1035.13
443.019	1010.72
443.394	1038.07
443.769	1039.65
444.143	1035.13
444.518	1035.58
444.892	1035.13
445.267	1055.47
445.641	1056.14
446.016	1083.49
446.39	1084.62
446.764	1084.84
447.139	1085.3
447.513	1077.84
447.887	1049.59
448.262	1066.09
448.636	1086.65
449.01	1074.9
449.384	1092.53
449.758	1110.83
450.132	1104.05
450.506	1101.57
450.88	1116.93
451.254	1116.48
451.628	1140.89
452.002	1130.49
452.376	1140.89
452.75	1126.65
453.123	1155.35
453.497	1200.1
453.871	1185.41
454.244	1187.44
454.618	1182.24
454.992	1201.68
455.365	1191.06
455.739	1255.69
456.112	1237.61
456.486	1244.61
456.859	1235.57
457.232	1260.66
457.606	1253.65
457.979	1283.48
458.352	1290.71
458.725	1296.36
459.099	1323.26
459.472	1308.34
459.845	1318.06
460.218	1307.21
460.591	1342.46
460.964	1361.22
461.337	1379.53
461.71	1414.33
462.083	1393.54
462.456	1393.08
462.829	1448.45
463.201	1430.6
463.574	1413.42
463.947	1428.56
464.32	1463.82
464.692	1469.24
465.065	1467.43
465.438	1492.97
465.81	1501.1
466.183	1534.55
466.555	1563.25
466.928	1581.33
467.3	1544.95
467.672	1568
468.045	1596.47
468.417	1607.99
468.789	1607.09
469.161	1656.35
469.534	1641.67
469.906	1672.4
470.278	1705.17
470.65	1706.75
471.022	1720.99
471.394	1750.59
471.766	1774.09
472.138	1776.35
472.51	1807.76
472.882	1825.39
473.253	1850.47
473.625	1880.98
473.997	1873.3
474.369	1866.07
474.74	1870.13
475.112	1930.7
475.484	1941.32
475.855	1988.1
476.227	1976.8
476.598	2027.87
476.97	2060.41
477.341	2077.59
477.713	2130.01
478.084	2122.78
478.455	2168.21
478.827	2186.74
479.198	2262.89
479.569	2235.77
479.94	2330.91
480.311	2318.94
480.682	2353.29
481.053	2340.18
481.424	2431.25
481.795	2441.19
482.166	2453.4
482.537	2508.31
482.908	2524.81
483.279	2591.25
483.65	2595.54
484.021	2621.98
484.391	2667.18
484.762	2669.66
485.133	2708.3
485.503	2730
485.874	2791.92
486.244	2802.77
486.615	2829.66
486.985	2823.33
487.356	2906.27
487.726	2905.14
488.097	2964.57
488.467	2974.96
488.837	3015.19
489.207	3063.32
489.578	3121.63
489.948	3092.25
490.318	3156.43
490.688	3110.33
491.058	3187.84
491.428	3223.55
491.798	3297.22
492.168	3339.25
492.538	3353.71
492.908	3356.42
493.278	3374.05
493.648	3396.65
494.017	3426.25
494.387	3454.05
494.757	3495.85
495.126	3492.24
495.496	3529.07
495.866	3590.99
496.235	3564.55
496.605	3553.48
496.974	3598.45
497.344	3618.79
497.713	3644.55
498.082	3684.32
498.452	3722.97
498.821	3717.09
499.19	3690.65
499.559	3761.16
499.928	3816.3
500.298	3779.46
500.667	3801.61
501.036	3865.79
501.405	3814.26
501.774	3868.95
502.143	3880.93
502.512	3888.84
502.88	3923.87
503.249	3943.07
503.618	3929.06
503.987	3930.19
504.356	3980.59
504.724	3971.1
505.093	4016.52
505.462	4049.29
505.83	4020.59
506.199	4077.76
506.567	4082.51
506.936	4074.82
507.304	4123.86
507.672	4095.61
508.041	4135.84
508.409	4196.4
508.777	4189.17
509.145	4231.65
509.514	4183.07
509.882	4202.05
510.25	4233.01
510.618	4281.14
510.986	4229.85
511.354	4279.11
511.722	4318.66
512.09	4362.05
512.458	4342.16
512.826	4370.18
513.193	4333.57
513.561	4362.95
513.929	4405.66
514.297	4443.63
514.664	4425.55
515.032	4442.5
515.4	4487.69
515.767	4516.17
516.135	4481.37
516.502	4471.2
516.869	4533.34
517.237	4548.26
517.604	4479.78
517.972	4571.53
518.339	4530.63
518.706	4571.76
519.073	4585.09
519.44	4594.36
519.808	4640.46
520.175	4619.44
520.542	4684.07
520.909	4695.6
521.276	4698.76
521.643	4771.53
522.009	4717.52
522.376	4764.07
522.743	4817.4
523.11	4747.8
523.477	4835.03
523.843	4829.6
524.21	4883.61
524.577	4882.48
524.943	4903.5
525.31	4960.45
525.676	4988.92
526.043	4960.22
526.409	4991.18
526.776	5028.92
527.142	5052.65
527.508	5068.47
527.874	5083.84
528.241	5148.01
528.607	5155.92
528.973	5162.03
529.339	5161.8
529.705	5190.27
530.071	5222.81
530.437	5258.97
530.803	5278.86
531.169	5305.3
531.535	5296.26
531.901	5336.48
532.267	5346.65
532.632	5418.29
532.998	5397.73
533.364	5445.86
533.73	5462.81
534.095	5525.63
534.461	5530.38
534.826	5546.87
535.192	5520.66
535.557	5552.52
535.923	5601.56
536.288	5591.84
536.653	5714.1
537.019	5616.25
537.384	5653.54
537.749	5673.2
538.114	5675.23
538.479	5678.17
538.845	5748.22
539.21	5720.43
539.575	5779.64
539.94	5766.98
540.305	5859.18
540.67	5820.54
541.034	5851.05
541.399	5861.44
541.764	5895.34
542.129	5924.04
542.494	5951.16
542.858	6003.59
543.223	5998.61
543.587	6098.5
543.952	6059.18
544.316	6056.24
544.681	6052.17
545.045	6165.16
545.41	6201.77
545.774	6157.48
546.138	6145.28
546.503	6240.64
546.867	6220.53
547.231	6283.8
547.595	6279.51
547.959	6272.28
548.324	6362.45
548.688	6321.54
549.052	6387.76
549.416	6428.43
549.779	6372.61
550.143	6386.17
550.507	6453.97
550.871	6509.11
551.235	6491.71
551.599	6570.8
551.962	6521.54
552.326	6560.63
552.689	6595.89
553.053	6589.56
553.417	6605.6
553.78	6657.13
554.143	6663
554.507	6683.79
554.87	6659.16
555.234	6759.05
555.597	6776.9
555.96	6764.47
556.323	6774.64
556.686	6804.92
557.05	6883.79
557.413	6870.91
557.776	6871.81
558.139	6901.41
558.502	6941.19
558.865	6886.27
559.228	6960.17
559.59	6966.95
559.953	6993.16
560.316	7031.58
560.679	7008.08
561.041	7079.49
561.404	7061.86
561.767	7102.09
562.129	7100.73
562.492	7223.44
562.854	7177.11
563.217	7185.25
563.579	7227.06
563.941	7239.26
564.304	7286.04
564.666	7364.45
565.028	7367.62
565.39	7332.36
565.753	7397.45
566.115	7385.7
566.477	7408.07
566.839	7420.5
567.201	7442.64
567.563	7429.08
567.925	7546.37
568.287	7541.17
568.648	7596.31
569.01	7595.41
569.372	7623.43
569.734	7670.43
570.095	7645.58
570.457	7733.94
570.819	7752.69
571.18	7766.7
571.542	7805.57
571.903	7900.26
572.265	7981.39
572.626	7951.1
572.987	7991.78
573.349	8070.65
573.71	8101.61
574.071	8134.6
574.432	8147.03
574.794	8264.77
575.155	8281.49
575.516	8288.5
575.877	8339.12
576.238	8473.12
576.599	8515.61
576.96	8566.46
577.32	8625.44
577.681	8741.59
578.042	8765.55
578.403	8889.16
578.763	8994.24
579.124	9060.68
579.485	9156.72
579.845	9246.21
580.206	9336.38
580.566	9485.98
580.927	9539.09
581.287	9781.34
581.648	9805.52
582.008	10068.56
582.368	10127.32
582.728	10298.61
583.089	10439.63
583.449	10550.81
583.809	10739.51
584.169	10892.5
584.529	11026.05
584.889	11271.24
585.249	11355.31
585.609	11524.34
585.969	11890.66
586.329	12008.62
586.688	12217.66
587.048	12373.59
587.408	12617.65
587.768	12851.09
588.127	13082.27
588.487	13263.28
588.846	13608.81
589.206	13726.55
589.565	13990.72
589.925	14263.48
590.284	14552.74
590.643	14798.38
591.003	15032.05
591.362	15406.28
591.721	15591.81
592.08	15828.41
592.44	16098.91
592.799	16395.85
593.158	16667.26
593.517	16851.89
593.876	17298.43
594.235	17507.24
594.593	17840.11
594.952	18076.26
595.311	18277.84
595.67	18634.89
596.029	18998.05
596.387	19351.71
596.746	19618.82
597.104	19862.43
597.463	20162.08
597.822	20520.04
598.18	20668.51
598.538	20828.51
598.897	21297.42
599.255	21449.28
599.613	22084.74
599.972	22103.5
600.33	22377.62
600.688	22695.58
601.046	23040.43
601.404	23351.38
601.762	23674.53
602.12	23945.49
602.478	24200.39
602.836	24447.85
603.194	24504.34
603.552	24944.78
603.91	25044.67
604.268	25406.01
604.625	25593.13
604.983	25941.37
605.341	26082.15
605.698	26332.99
606.056	26733.21
606.413	26855.24
606.771	27177.72
607.128	27381.78
607.485	27482.57
607.843	27729.34
608.2	28098.37
608.557	28568.19
608.914	28436.89
609.272	28816.32
609.629	29100.83
609.986	29260.15
610.343	29368.62
610.7	29801.38
611.057	29899.23
611.414	30028.72
611.771	30190.75
612.127	30490.17
612.484	30623.73
612.841	30945.75
613.198	30985.98
613.554	31131.06
613.911	31438.4
614.267	31618.96
614.624	31649.01
614.98	31935.56
615.337	32105.05
615.693	32217.81
616.05	32343.01
616.406	32561.98
616.762	32679.27
617.118	32814.41
617.475	33028.64
617.831	33170.55
618.187	33342.53
618.543	33313.6
618.899	33865.45
619.255	33798.33
619.611	33809.63
619.967	34089.4
620.323	34203.3
620.678	34193.8
621.034	34265.89
621.39	34272.9
621.746	34375.72
622.101	34860.91
622.457	34725.54
622.812	34888.7
623.168	35093.22
623.523	34986.1
623.879	35234.68
624.234	35144.97
624.589	35320.78
624.945	35433.32
625.3	35559.64
625.655	35537.72
626.01	35809.13
626.365	35865.17
626.72	35876.92
627.075	35862.91
627.43	35927.54
627.785	35979.97
628.14	36021.33
628.495	36137.48
628.85	36181.55
629.205	36043.47
629.559	36413.86
629.914	36219.51
630.269	36266.97
630.623	36276.69
630.978	36251.38
631.332	36417.47
631.687	36600.07
632.041	36542.22
632.396	36579.28
632.75	36462.22
633.104	36626.73
633.459	36435.33
633.813	36665.15
634.167	36555.55
634.521	36736.11
634.875	36734.53
635.229	36607.53
635.583	36549.67
635.937	36529.56
636.291	36629.9
636.645	36642.78
636.999	36546.06
637.352	36740.18
637.706	36614.76
638.06	36653.85
638.413	36697.24
638.767	36462.22
639.121	36539.28
639.474	36539.96
639.828	36562.1
640.181	36593.97
640.534	36516.68
640.888	36534.31
641.241	36419.28
641.594	36465.61
641.947	36562.56
642.301	36488.43
642.654	36566.62
643.007	36420.86
643.36	36487.08
643.713	36333.86
644.066	36653.4
644.419	36362.56
644.771	36245.28
645.124	35913.76
645.477	35857.26
645.83	35519.42
646.182	35503.83
646.535	35321.46
646.888	35392.87
647.24	35269.71
647.593	35439.65
647.945	35398.07
648.298	35291.18
648.65	35314.23
649.002	35190.39
649.355	35404.39
649.707	35287.11
650.059	35376.37
650.411	35754.89
650.763	35828.11
651.115	36377.02
651.467	36158.72
651.819	36211.38
652.171	36089.35
652.523	36038.95
652.875	36096.58
653.227	35983.81
653.578	36189.91
653.93	35967.99
654.282	35957.83
654.633	35815.68
654.985	36007.32
655.337	35998.95
655.688	35964.61
656.039	36153.07
656.391	35812.29
656.742	35782.01
657.094	35867.88
657.445	36024.04
657.796	35792.86
658.147	35824.04
658.498	35703.6
658.849	35815.23
659.2	35814.55
659.551	35796.7
659.902	35840.77
660.253	35695.91
660.604	35828.79
660.955	35724.61
661.306	35854.55
661.656	35709.24
662.007	35803.25
662.358	35685.06
662.708	35699.53
663.059	35720.77
663.409	35473.77
663.76	35835.8
664.11	35755.57
664.461	35684.61
664.811	35789.02
665.161	35650.94
665.511	35543.6
665.862	35670.15
666.212	35848.22
666.562	35814.1
666.912	35705.4
667.262	35737.94
667.612	35519.87
667.962	35534.79
668.312	35652.97
668.662	35761.9
669.011	35696.82
669.361	35607.1
669.711	35568.91
670.06	35569.81
670.41	35451.17
670.76	35478.29
671.109	35649.13
671.459	35612.98
671.808	35562.13
672.157	35583.15
672.507	35311.97
672.856	35216.6
673.205	35418.4
673.554	35499.76
673.904	35460.66
674.253	35513.09
674.602	35410.72
674.951	34994.01
675.3	34845.31
675.649	35380.21
675.998	35248.92
676.346	35368.91
676.695	35407.33
677.044	35222.48
677.393	35274.68
677.741	35297.28
678.09	35104.29
678.438	35171.86
678.787	35221.57
679.135	35172.08
679.484	34985.65
679.832	35235.81
680.181	34898.64
680.529	34965.76
680.877	34979.77
681.225	34950.85
681.573	35144.97
681.922	34764.18
682.27	34710.17
682.618	34693.68
682.966	34699.55
683.314	34750.63
683.661	34553.34
684.009	34429.73
684.357	34430.41
684.705	34295.04
685.053	34347.92
685.4	34389.96
685.748	34187.48
686.095	34211.43
686.443	34127.82
686.79	34011.89
687.138	34169.17
687.485	34045.56
687.832	33935.51
688.18	33951.32
688.527	33709.75
688.874	33800.14
689.221	33763.99
689.568	33560.83
689.915	33467.04
690.262	33576.42
690.609	33425.24
690.956	33332.81
691.303	33292.59
691.65	33249.87
691.997	33231.12
692.344	32975.31
692.69	33027.96
693.037	33106.83
693.383	32721.07
693.73	32870.68
694.077	32667.29
694.423	32653.51
694.769	32557.69
695.116	32584.58
695.462	32412.38
695.808	32344.59
696.155	32436.79
696.501	32239.05
696.847	32148.66
697.193	31937.14
697.539	32083.8
697.885	31906.18
698.231	31680.65
698.577	31885.84
698.923	31705.51
699.269	31621.89
699.614	31406.76
699.96	31487.66
700.306	31487.21
700.651	31234.56
700.997	31091.51
701.342	31056.03
701.688	30992.08
702.033	31068.46
702.379	30987.11
702.724	30847.23
703.069	30810.39
703.415	30545.99
703.76	30706.21
704.105	30630.51
704.45	30538.31
704.795	30313.68
705.14	30252.66
705.485	30189.84
705.83	30256.28
706.175	30202.72
706.52	30063.97
706.865	29933.35
707.209	29809.51
707.554	29839.34
707.899	29809.51
708.243	29754.37
708.588	29583.3
708.932	29485
709.277	29473.02
709.621	29550.08
709.966	29326.14
710.31	29393.48
710.654	29077.33
710.998	29192.13
711.342	29187.16
711.687	29079.59
712.031	28938.12
712.375	28829.88
712.719	28942.64
713.063	28854.96
713.407	28957.11
713.75	28805.47
714.094	28660.39
714.438	28645.48
714.782	28632.14
715.125	28403.9
715.469	28545.82
715.812	28276.45
716.156	28174.53
716.499	28338.37
716.843	28345.37
717.186	28083.68
717.53	28260.4
717.873	28243.9
718.216	28142.66
718.559	28057.47
718.902	27901.09
719.246	27833.97
719.589	27777.93
719.932	27722.11
720.275	27661.77
720.617	27680.76
720.96	27708.55
721.303	27619.51
721.646	27614.99
721.989	27478.5
722.331	27505.17
722.674	27498.84
723.016	27471.27
723.359	27468.33
723.701	27535.45
724.044	27299.75
724.386	27119.64
724.729	27227.89
725.071	27252.97
725.413	27159.86
725.755	27156.25
726.097	26970.72
726.439	26943.83
726.782	26866.77
727.124	26944.28
727.465	26851.85
727.807	26869.48
728.149	26794
728.491	26753.77
728.833	26829.48
729.175	26652.31
729.516	26634
729.858	26563.95
730.199	26495.7
730.541	26502.48
730.882	26420.9
731.224	26408.47
731.565	26347.68
731.906	26336.38
732.248	26328.25
732.589	26210.74
732.93	26149.04
733.271	26145.65
733.612	26044.87
733.953	26118.31
734.294	25927.35
734.635	26038.99
734.976	26048.03
735.317	25845.78
735.658	25978.43
735.999	25943.4
736.339	25657.98
736.68	25821.6
737.021	25804.19
737.361	25663.86
737.702	25838.32
738.042	25713.8
738.383	25607.82
738.723	25735.5
739.063	25507.48
739.404	25580.47
739.744	25592
740.084	25437.2
740.424	25473.13
740.764	25449.85
741.104	25493.24
741.444	25211.22
741.784	25279.91
742.124	25250.08
742.464	25254.38
742.804	25102.97
743.143	25090.99
743.483	25246.24
743.823	25098
744.162	25010.09
744.502	25090.99
744.841	24817.55
745.181	24870.43
745.52	24947.72
745.86	24865.46
746.199	24883.77
746.538	24728.74
746.877	24763.09
747.216	24819.59
747.556	24710.21
747.895	24702.08
748.234	24536.21
748.573	24446.49
748.911	24465.7
749.25	24491.23
749.589	24398.13
749.928	24388.41
750.267	24423.21
750.605	24294.18
750.944	24380.05
751.283	24218.7
751.621	24254.86
751.96	24142.54
752.298	24039.5
752.636	24159.49
752.975	23913.17
753.313	23860.74
753.651	23898.48
753.989	23824.36
754.327	23849.67
754.666	23753.17
755.004	23746.4
755.342	23657.36
755.679	23661.43
756.017	23587.98
756.355	23599.96
756.693	23496.23
757.031	23497.81
757.368	23255.56
757.706	23332.17
758.044	23286.75
758.381	23259.4
758.719	23118.39
759.056	23174.21
759.394	23116.13
759.731	22868.9
760.068	22895.8
