Data from hue_240_FLMS001491_00042.txt Node
Date: Tue Feb 07 16:35:31 GMT 2017
User: dcchb
Spectrometer: FLMS00149
Trigger mode: 0
Integration Time (sec): 2.000000E-2
Scans to average: 10
Electric dark correction enabled: true
Nonlinearity correction enabled: false
Boxcar width: 0
XAxis mode: Wavelengths
Number of Pixels in Spectrum: 2048
>>>>>Begin Spectral Data<<<<<
341.393	-5.71
341.776	-5.71
342.16	-5.71
342.543	-73.95
342.927	-59.94
343.31	-59.04
343.693	-65.59
344.077	-64.69
344.46	-65.59
344.843	-34.41
345.226	-59.26
345.61	-16.33
345.993	-35.54
346.376	1.75
346.759	8.76
347.142	24.12
347.525	37.91
347.908	51.92
348.291	58.47
348.674	93.5
349.057	124.01
349.44	113.39
349.823	142.09
350.206	178.92
350.588	171.24
350.971	204.68
351.354	218.02
351.737	218.69
352.119	242.42
352.502	234.74
352.884	246.04
353.267	266.6
353.65	274.29
354.032	278.35
354.414	282.65
354.797	311.8
355.179	299.82
355.562	324.91
355.944	322.19
356.326	317
356.709	323.55
357.091	318.13
357.473	314.74
357.855	315.64
358.238	318.81
358.62	318.35
359.002	326.26
359.384	339.14
359.766	311.57
360.148	327.17
360.53	335.08
360.912	323.1
361.294	322.42
361.676	326.94
362.057	332.36
362.439	307.05
362.821	324.23
363.203	307.28
363.584	310.67
363.966	323.32
364.348	314.06
364.729	295.98
365.111	288.3
365.493	292.82
365.874	321.74
366.256	294.4
366.637	316.09
367.019	291.01
367.4	296.21
367.781	309.54
368.163	305.92
368.544	294.17
368.925	295.53
369.306	320.16
369.688	307.51
370.069	291.46
370.45	288.52
370.831	289.2
371.212	322.19
371.593	284.91
371.974	306.38
372.355	292.37
372.736	321.29
373.117	324.68
373.498	304.34
373.879	296.43
374.26	309.09
374.641	311.12
375.021	313.38
375.402	308.18
375.783	307.73
376.163	296.21
376.544	314.51
376.925	310.22
377.305	305.47
377.686	296.66
378.066	317.45
378.447	329.88
378.827	315.87
379.208	320.61
379.588	310.9
379.968	330.33
380.349	321.74
380.729	325.36
381.109	307.05
381.489	324.68
381.87	314.74
382.25	333.04
382.63	318.35
383.01	332.59
383.39	315.19
383.77	328.97
384.15	333.72
384.53	310.9
384.91	322.65
385.29	318.81
385.67	348.18
386.049	358.13
386.429	334.4
386.809	347.96
387.189	350.44
387.568	352.93
387.948	348.86
388.328	353.83
388.707	354.51
389.087	349.31
389.466	343.21
389.846	351.8
390.225	362.65
390.605	355.41
390.984	353.38
391.363	339.6
391.743	366.26
392.122	340.95
392.501	366.71
392.881	350.89
393.26	368.3
393.639	378.24
394.018	361.29
394.397	366.71
394.776	364.91
395.155	369.43
395.534	369.65
395.913	379.14
396.292	384.57
396.671	387.5
397.05	371.23
397.429	375.98
397.808	378.46
398.186	360.61
398.565	391.57
398.944	383.21
399.323	401.97
399.701	389.09
400.08	409.88
400.458	394.74
400.837	386.83
401.215	378.69
401.594	401.51
401.972	418.24
402.351	404.9
402.729	412.36
403.107	418.69
403.486	422.98
403.864	415.98
404.242	415.98
404.62	429.99
404.999	425.47
405.377	420.5
405.755	424.79
406.133	450.1
406.511	431.8
406.889	433.15
407.267	433.15
407.645	449.42
408.023	467.5
408.401	473.15
408.779	452.81
409.156	469.08
409.534	471.8
409.912	472.25
410.29	506.37
410.667	464.11
411.045	504.79
411.422	498.91
411.8	498.91
412.178	519.25
412.555	532.36
412.933	524
413.31	541.85
413.687	542.3
414.065	543.43
414.442	542.08
414.819	545.01
415.197	560.61
415.574	571.91
415.951	568.97
416.328	581.17
416.705	579.14
417.082	585.46
417.46	591.34
417.837	608.29
418.214	582.08
418.591	632.02
418.967	607.39
419.344	584.33
419.721	614.84
420.098	611.45
420.475	654.84
420.852	641.73
421.228	639.25
421.605	686.93
421.982	664.33
422.358	688.74
422.735	684.9
423.111	677.89
423.488	724.44
423.864	713.6
424.241	727.16
424.617	726.48
424.994	720.38
425.37	765.8
425.746	764.9
426.123	777.55
426.499	754.05
426.875	775.52
427.251	797.21
427.627	819.36
428.003	807.15
428.379	801.73
428.756	833.82
429.132	843.09
429.507	849.86
429.883	854.61
430.259	867.27
430.635	879.24
431.011	890.09
431.387	916.98
431.763	890.32
432.138	905.91
432.514	905.23
432.89	951.56
433.265	953.14
433.641	974.61
434.016	980.71
434.392	989.52
434.767	1015.96
435.143	1013.02
435.518	1036.98
435.894	1050.54
436.269	1041.72
436.644	1093.7
437.02	1080.14
437.395	1086.69
437.77	1122.85
438.145	1145.68
438.52	1173.02
438.895	1174.6
439.271	1180.25
439.646	1215.73
440.021	1187.93
440.395	1224.32
440.77	1232.45
441.145	1224.09
441.52	1250.31
441.895	1257.54
442.27	1269.29
442.645	1284.2
443.019	1315.84
443.394	1291.43
443.769	1324.65
444.143	1328.95
444.518	1318.1
444.892	1319.91
445.267	1354.26
445.641	1378.66
446.016	1374.6
446.39	1395.16
446.764	1385.67
447.139	1379.57
447.513	1393.13
447.887	1392.68
448.262	1406.69
448.636	1417.53
449.01	1460.24
449.384	1455.72
449.758	1450.53
450.132	1479.9
450.506	1483.29
450.88	1502.73
451.254	1506.34
451.628	1524.42
452.002	1552.22
452.376	1546.12
452.75	1595.38
453.123	1595.61
453.497	1599
453.871	1606.68
454.244	1633.8
454.618	1624.99
454.992	1667.02
455.365	1655.04
455.739	1701.82
456.112	1714.02
456.486	1726.9
456.859	1731.42
457.232	1746.56
457.606	1813
457.979	1799.67
458.352	1813.91
458.725	1828.14
459.099	1836.51
459.472	1853.23
459.845	1891.87
460.218	1894.81
460.591	1923.96
460.964	1918.54
461.337	1991.3
461.71	1985.88
462.083	2012.55
462.456	2030.4
462.829	2031.75
463.201	2063.39
463.574	2064.97
463.947	2099.78
464.32	2156.72
464.692	2129.15
465.065	2184.97
465.438	2175.25
465.81	2244.63
466.183	2256.16
466.555	2255.25
466.928	2302.93
467.3	2292.99
467.672	2358.3
468.045	2388.13
468.417	2400.78
468.789	2398.75
469.161	2436.49
469.534	2451.63
469.906	2529.14
470.278	2531.4
470.65	2555.58
471.022	2608.46
471.394	2639.65
471.766	2645.07
472.138	2679.42
472.51	2720.1
472.882	2761.45
473.253	2798.74
473.625	2823.82
473.997	2889.13
474.369	2922.58
474.74	2902.92
475.112	2937.72
475.484	2978.62
475.855	2995.12
476.227	3088.45
476.598	3143.59
476.97	3151.27
477.341	3226.07
477.713	3287.77
478.084	3260.65
478.455	3342.23
478.827	3385.62
479.198	3483.02
479.569	3443.69
479.94	3553.75
480.311	3564.14
480.682	3664.03
481.053	3744.25
481.424	3785.15
481.795	3788.09
482.166	3885.72
482.537	3891.82
482.908	3974.08
483.279	3983.34
483.65	4080.74
484.021	4115.99
484.391	4165.48
484.762	4148.99
485.133	4245.48
485.503	4281.19
485.874	4310.79
486.244	4391.69
486.615	4432.37
486.985	4524.34
487.356	4551.69
487.726	4564.57
488.097	4633.95
488.467	4725.47
488.837	4731.8
489.207	4782.87
489.578	4879.36
489.948	4887.72
490.318	4980.6
490.688	4954.84
491.058	5040.04
491.428	5115.74
491.798	5132.92
492.168	5258.56
492.538	5242.29
492.908	5268.05
493.278	5340.59
493.648	5340.37
494.017	5406.81
494.387	5443.19
494.757	5530.87
495.126	5520.48
495.496	5492.68
495.866	5583.3
496.235	5658.78
496.605	5685.9
496.974	5706.46
497.344	5741.49
497.713	5734.71
498.082	5761.6
498.452	5841.37
498.821	5845.21
499.19	5916.62
499.559	5868.72
499.928	5945.55
500.298	5998.66
500.667	6024.64
501.036	5941.93
501.405	6046.56
501.774	6040.46
502.143	6137.18
502.512	6141.25
502.88	6160.46
503.249	6166.79
503.618	6216.05
503.987	6194.13
504.356	6202.72
504.724	6268.03
505.093	6235.94
505.462	6294.47
505.83	6327.46
506.199	6373.11
506.567	6386.67
506.936	6432.99
507.304	6486.1
507.672	6486.78
508.041	6447.23
508.409	6527.46
508.777	6550.28
509.145	6605.42
509.514	6566.55
509.882	6575.14
510.25	6630.28
510.618	6631.86
510.986	6696.49
511.354	6658.07
511.722	6725.42
512.09	6792.76
512.458	6764.29
512.826	6797.96
513.193	6823.04
513.561	6781.69
513.929	6846.54
514.297	6870.5
514.664	6874.34
515.032	6860.55
515.4	6973.32
515.767	6971.74
516.135	7002.92
516.502	6894.9
516.869	6985.75
517.237	6989.14
517.604	7001.57
517.972	7112.07
518.339	7070.94
518.706	7057.16
519.073	7062.13
519.44	7089.25
519.808	7142.81
520.175	7145.52
520.542	7183.94
520.909	7210.83
521.276	7150.49
521.643	7114.56
522.009	7264.61
522.376	7196.59
522.743	7270.71
523.11	7281.11
523.477	7336.93
523.843	7407.88
524.21	7350.71
524.577	7454.89
524.943	7399.97
525.31	7436.36
525.676	7425.28
526.043	7555.23
526.409	7483.14
526.776	7576.24
527.142	7515.45
527.508	7569.24
527.874	7583.7
528.241	7595
528.607	7594.55
528.973	7614.43
529.339	7563.13
529.705	7651.49
530.071	7626.41
530.437	7709.57
530.803	7687.2
531.169	7685.39
531.535	7693.98
531.901	7722.9
532.267	7708.67
532.632	7759.29
532.998	7768.55
533.364	7708.44
533.73	7755.9
534.095	7778.04
534.461	7705.73
534.826	7744.82
535.192	7788.67
535.557	7839.06
535.923	7750.93
536.288	7781.43
536.653	7751.6
537.019	7750.25
537.384	7806.97
537.749	7759.29
538.114	7733.75
538.479	7639.52
538.845	7731.72
539.21	7772.62
539.575	7734.2
539.94	7720.87
540.305	7779.4
540.67	7661.89
541.034	7764.71
541.399	7736.01
541.764	7703.47
542.129	7706.41
542.494	7654.43
542.858	7652.85
543.223	7670.93
543.587	7721.32
543.952	7614.43
544.316	7648.56
544.681	7643.81
545.045	7659.63
545.41	7639.29
545.774	7599.74
546.138	7624.83
546.503	7600.42
546.867	7599.74
547.231	7632.29
547.595	7636.58
547.959	7696.46
548.324	7673.87
548.688	7670.7
549.052	7602.91
549.416	7578.95
549.779	7597.94
550.143	7573.53
550.507	7616.69
550.871	7540.08
551.235	7523.14
551.599	7606.98
551.962	7589.35
552.326	7573.3
552.689	7566.98
553.053	7552.29
553.417	7568.78
553.78	7599.97
554.143	7550.03
554.507	7571.27
554.87	7600.2
555.234	7616.69
555.597	7539.63
555.96	7559.97
556.323	7591.16
556.686	7589.57
557.05	7596.13
557.413	7580.31
557.776	7609.69
558.139	7636.35
558.502	7552.51
558.865	7548.67
559.228	7639.29
559.59	7622.57
559.953	7643.58
560.316	7689.68
560.679	7678.61
561.041	7714.09
561.404	7739.4
561.767	7812.62
562.129	7682
562.492	7767.2
562.854	7728.78
563.217	7746.86
563.579	7745.28
563.941	7803.13
564.304	7780.76
564.666	7904.59
565.028	7857.36
565.39	7850.58
565.753	7907.31
566.115	7929.68
566.477	7924.93
566.839	7955.89
567.201	7966.97
567.563	7931.94
567.925	8010.58
568.287	8036.57
568.648	8036.79
569.01	8053.97
569.372	8095.55
569.734	8044.25
570.095	8156.11
570.457	8134.64
570.819	8066.4
571.18	8145.49
571.542	8124.7
571.903	8167.64
572.265	8181.88
572.626	8239.05
572.987	8223
573.349	8226.85
573.71	8248.77
574.071	8294.87
574.432	8304.13
574.794	8333.96
575.155	8338.03
575.516	8332.61
575.877	8276.34
576.238	8355.88
576.599	8424.13
576.96	8399.72
577.32	8420.29
577.681	8457.35
578.042	8479.27
578.403	8449.21
578.763	8515.88
579.124	8494.86
579.485	8480.17
579.845	8541.64
580.206	8545.03
580.566	8610.79
580.927	8512.04
581.287	8612.37
581.648	8597.91
582.008	8610.79
582.368	8637
582.728	8628.19
583.089	8642.65
583.449	8694.86
583.809	8670.68
584.169	8675.65
584.529	8641.3
584.889	8745.02
585.249	8691.47
585.609	8712.71
585.969	8794.74
586.329	8746.38
586.688	8761.97
587.048	8744.8
587.408	8705.93
587.768	8703.9
588.127	8770.33
588.487	8730.56
588.846	8856.89
589.206	8732.82
589.565	8760.62
589.925	8830.22
590.284	8825.7
590.643	8793.38
591.003	8943.66
591.362	8879.26
591.721	8913.16
592.08	8936.66
592.44	8943.21
592.799	8912.93
593.158	8900.95
593.517	8934.85
593.876	8915.87
594.235	8867.28
594.593	8909.99
594.952	8937.34
595.311	8945.02
595.67	8947.73
596.029	8988.86
596.387	8999.71
596.746	8983.44
597.104	8949.31
597.463	8945.02
597.822	9011.68
598.18	8967.62
598.538	9000.16
598.897	9061.4
599.255	8986.6
599.613	9113.83
599.972	8989.76
600.33	9021.85
600.688	8995.19
601.046	8988.18
601.404	9134.84
601.762	9097.78
602.12	9094.17
602.478	9102.53
602.836	9088.29
603.194	9060.04
603.552	9095.98
603.91	9046.94
604.268	9054.17
604.625	9108.86
604.983	9125.81
605.341	9045.58
605.698	9194.05
606.056	9138.91
606.413	9151.79
606.771	9098.46
607.128	9144.56
607.485	9124
607.843	9109.53
608.2	9134.17
608.557	9168.29
608.914	9225.24
609.272	9228.63
609.629	9208.74
609.986	9161.06
610.343	9233.37
610.7	9247.61
611.057	9193.6
611.414	9159.25
611.771	9167.84
612.127	9241.28
612.484	9228.4
612.841	9308.4
613.198	9244.45
613.554	9320.15
613.911	9300.49
614.267	9330.77
614.624	9249.19
614.98	9284.45
615.337	9393.82
615.693	9336.87
616.05	9375.97
616.406	9339.36
616.762	9405.35
617.118	9333.94
617.475	9265.01
617.831	9406.7
618.187	9399.7
618.543	9371
618.899	9473.59
619.255	9459.58
619.611	9439.02
619.967	9446.7
620.323	9473.59
620.678	9426.59
621.034	9376.42
621.39	9415.74
621.746	9453.48
622.101	9430.2
622.457	9420.26
622.812	9458.9
623.168	9449.86
623.523	9460.03
623.879	9421.39
624.234	9407.38
624.589	9496.87
624.945	9430.66
625.3	9487.38
625.655	9502.07
626.01	9427.27
626.365	9367.15
626.72	9416.65
627.075	9384.33
627.43	9432.24
627.785	9394.27
628.14	9383.2
628.495	9461.62
628.85	9422.29
629.205	9290.09
629.559	9451.22
629.914	9407.15
630.269	9374.16
630.623	9333.03
630.978	9304.33
631.332	9397.66
631.687	9380.94
632.041	9317.66
632.396	9403.31
632.75	9312.02
633.104	9356.08
633.459	9315.63
633.813	9320.6
634.167	9262.98
634.521	9248.51
634.875	9257.55
635.229	9309.53
635.583	9304.33
635.937	9238.34
636.291	9216.42
636.645	9228.63
636.999	9220.49
637.352	9201.96
637.706	9107.73
638.06	9176.65
638.413	9158.35
638.767	9120.83
639.121	9123.77
639.474	9111.12
639.828	9114.51
640.181	9126.71
640.534	9067.5
640.888	9085.81
641.241	9065.47
641.594	9055.98
641.947	9021.18
642.301	9025.02
642.654	8977.11
643.007	9046.49
643.36	9013.72
643.713	8954.06
644.066	9088.97
644.419	8947.28
644.771	8897.56
645.124	8877
645.477	8891.69
645.83	8739.6
646.182	8779.6
646.535	8636.1
646.888	8733.73
647.24	8700.51
647.593	8729.21
647.945	8666.16
648.298	8652.15
648.65	8670.68
649.002	8646.27
649.355	8667.06
649.707	8717.45
650.059	8714.97
650.411	8818.47
650.763	8762.2
651.115	8868.41
651.467	8870.67
651.819	8872.48
652.171	8864.34
652.523	8792.48
652.875	8856.21
653.227	8803.33
653.578	8872.7
653.93	8811.24
654.282	8776.89
654.633	8782.09
654.985	8846.72
655.337	8854.85
655.688	8815.76
656.039	8933.04
656.391	8788.64
656.742	8889.2
657.094	8817.79
657.445	8852.82
657.796	8836.32
658.147	8771.69
658.498	8817.34
658.849	8807.17
659.2	8826.6
659.551	8797
659.902	8874.74
660.253	8817.34
660.604	8832.71
660.955	8826.38
661.306	8898.92
661.656	8845.59
662.007	8845.59
662.358	8826.15
662.708	8869.54
663.059	8848.3
663.409	8784.12
663.76	8867.05
664.11	8844.23
664.461	8819.82
664.811	8855.3
665.161	8824.12
665.511	8805.14
665.862	8808.75
666.212	8910.67
666.562	8887.62
666.912	8845.13
667.262	8878.81
667.612	8846.94
667.962	8796.32
668.312	8805.59
668.662	8823.67
669.011	8901.63
669.361	8837.9
669.711	8788.19
670.06	8784.35
670.41	8841.74
670.76	8790.22
671.109	8817.79
671.459	8832.93
671.808	8808.3
672.157	8812.82
672.507	8722.43
672.856	8645.82
673.205	8668.42
673.554	8784.35
673.904	8721.75
674.253	8763.78
674.602	8777.79
674.951	8635.87
675.3	8560.17
675.649	8745.93
675.998	8720.17
676.346	8719.04
676.695	8738.24
677.044	8685.14
677.393	8699.6
677.741	8720.39
678.09	8671.58
678.438	8662.99
678.787	8634.74
679.135	8631.35
679.484	8566.95
679.832	8594.97
680.181	8533.28
680.529	8552.71
680.877	8533.73
681.225	8491.92
681.573	8585.48
681.922	8503.22
682.27	8543.67
682.618	8443.11
682.966	8549.1
683.314	8465.48
683.661	8438.37
684.009	8371.47
684.357	8412.83
684.705	8367.41
685.053	8331.02
685.4	8337.58
685.748	8260.52
686.095	8343.23
686.443	8304.13
686.79	8280.4
687.138	8327.63
687.485	8306.62
687.832	8231.14
688.18	8270.23
688.527	8255.32
688.874	8211.48
689.221	8203.8
689.568	8140.97
689.915	8109.79
690.262	8162.89
690.609	8090.8
690.956	8044.48
691.303	8007.64
691.65	8005.16
691.997	7981.88
692.344	7921.09
692.69	7917.25
693.037	7895.56
693.383	7874.76
693.73	7952.28
694.077	7834.77
694.423	7838.83
694.769	7811.49
695.116	7679.06
695.462	7760.19
695.808	7721.77
696.155	7703.92
696.501	7666.41
696.847	7654.88
697.193	7585.73
697.539	7603.81
697.885	7580.54
698.231	7531.04
698.577	7508.67
698.923	7472.97
699.269	7439.52
699.614	7454.89
699.96	7378.05
700.306	7412.4
700.651	7411.73
700.997	7321.56
701.342	7330.6
701.688	7263.71
702.033	7320.2
702.379	7243.37
702.724	7206.76
703.069	7226.42
703.415	7134.45
703.76	7190.71
704.105	7144.84
704.45	7155.01
704.795	7068.46
705.14	7070.27
705.485	7078.85
705.83	7007.67
706.175	7037.27
706.52	7011.74
706.865	6941.91
707.209	6942.13
707.554	6960.66
707.899	6911.4
708.243	6887.67
708.588	6886.54
708.932	6876.15
709.277	6813.1
709.621	6795.25
709.966	6767.68
710.31	6855.36
710.654	6709.15
710.998	6811.97
711.342	6763.38
711.687	6724.06
712.031	6691.07
712.375	6664.4
712.719	6676.38
713.063	6612.88
713.407	6661.69
713.75	6624.85
714.094	6674.34
714.438	6616.04
714.782	6643.16
715.125	6596.38
715.469	6635.48
715.812	6558.19
716.156	6543.5
716.499	6551.18
716.843	6554.35
717.186	6449.04
717.53	6548.92
717.873	6506.21
718.216	6490.39
718.559	6515.03
718.902	6465.99
719.246	6509.6
719.589	6456.5
719.932	6418.31
720.275	6451.07
720.617	6422.83
720.96	6450.4
721.303	6413.33
721.646	6434.12
721.989	6352.32
722.331	6373.34
722.674	6401.36
723.016	6406.1
723.359	6372.66
723.701	6396.16
724.044	6392.32
724.386	6321.81
724.729	6362.71
725.071	6291.76
725.413	6334.92
725.755	6275.71
726.097	6315.71
726.439	6245.2
726.782	6286.11
727.124	6290.63
727.465	6318.2
727.807	6287.46
728.149	6334.92
728.491	6248.37
728.833	6281.59
729.175	6240.23
729.516	6228.03
729.858	6174.02
730.199	6228.71
730.541	6248.82
730.882	6190.74
731.224	6244.98
731.565	6290.17
731.906	6260.8
732.248	6207.69
732.589	6194.81
732.93	6167.01
733.271	6197.07
733.612	6214.92
733.953	6244.07
734.294	6214.47
734.635	6178.99
734.976	6202.04
735.317	6171.98
735.658	6220.8
735.999	6180.8
736.339	6182.83
736.68	6255.37
737.021	6170.18
737.361	6219.44
737.702	6237.75
738.042	6239.33
738.383	6188.71
738.723	6237.07
739.063	6178.09
739.404	6241.59
739.744	6180.35
740.084	6179.67
740.424	6244.98
740.764	6221.47
741.104	6298.76
741.444	6234.13
741.784	6265.32
742.124	6295.6
742.464	6307.12
742.804	6264.64
743.143	6299.66
743.483	6266.9
743.823	6302.15
744.162	6300.12
744.502	6348.93
744.841	6383.05
745.181	6395.71
745.52	6475.25
745.86	6391.19
746.199	6437.51
746.538	6475.93
746.877	6539.88
747.216	6558.64
747.556	6516.16
747.895	6551.41
748.234	6569.71
748.573	6592.99
748.911	6643.84
749.25	6658.75
749.589	6682.25
749.928	6748.01
750.267	6839.76
750.605	6843.15
750.944	6822.81
751.283	6934
751.621	6997.73
751.96	6988.01
752.298	7048.8
752.636	7155.24
752.975	7143.03
753.313	7167.66
753.651	7302.58
753.989	7291.73
754.327	7407.66
754.666	7416.7
755.004	7565.39
755.342	7601.33
755.679	7715.67
756.017	7725.39
756.355	7834.54
756.693	7911.6
757.031	8049.22
757.368	8070.47
757.706	8139.16
758.044	8227.52
758.381	8349.78
758.719	8338.48
759.056	8532.6
759.394	8633.61
759.731	8686.72
760.068	8740.73
760.405	8819.6
760.743	8910.9
761.08	9054.17
761.417	9095.3
761.754	9237.67
762.091	9282.64
762.428	9373.93
762.765	9409.19
763.102	9570.54
763.438	9652.12
763.775	9695.51
764.112	9862.96
764.449	9928.04
764.785	9974.82
765.122	10053.69
765.458	10119.23
765.795	10193.57
766.131	10256.85
766.467	10354.02
766.804	10382.04
767.14	10474.92
767.476	10602.38
767.812	10611.42
768.148	10702.03
768.485	10766.44
768.821	10777.06
769.157	10879.21
769.492	10801.69
769.828	10994.68
