Data from hue_150_FLMS001491_00032.txt Node
Date: Tue Feb 07 16:53:57 GMT 2017
User: dcchb
Spectrometer: FLMS00149
Trigger mode: 0
Integration Time (sec): 2.000000E-2
Scans to average: 10
Electric dark correction enabled: true
Nonlinearity correction enabled: false
Boxcar width: 0
XAxis mode: Wavelengths
Number of Pixels in Spectrum: 2048
>>>>>Begin Spectral Data<<<<<
341.393	-26.48
341.776	-26.48
342.16	-26.48
342.543	-57.22
342.927	-71.9
343.31	-82.75
343.693	-65.35
344.077	-54.5
344.46	-61.51
344.843	-51.57
345.226	-47.95
345.61	-33.94
345.993	-17.44
346.376	3.8
346.759	23.23
347.142	28.66
347.525	45.38
347.908	57.36
348.291	73.4
348.674	93.74
349.057	89.45
349.44	86.74
349.823	137.81
350.206	151.14
350.588	203.57
350.971	202.21
351.354	223.91
351.737	243.34
352.119	239.73
352.502	270.23
352.884	291.25
353.267	280.63
353.65	295.09
354.032	313.4
354.414	314.07
354.797	291.48
355.179	304.13
355.562	320.63
355.944	318.82
356.326	322.21
356.709	327.86
357.091	335.54
357.473	333.73
357.855	326.28
358.238	346.16
358.62	337.58
359.002	344.81
359.384	317.24
359.766	336.45
360.148	335.09
360.53	349.55
360.912	325.37
361.294	319.27
361.676	330.34
362.057	322.44
362.439	322.44
362.821	330.57
363.203	313.85
363.584	331.25
363.966	313.62
364.348	302.32
364.729	305.71
365.111	316.11
365.493	322.44
365.874	321.76
366.256	313.17
366.637	328.54
367.019	306.39
367.4	321.08
367.781	331.02
368.163	311.36
368.544	303.68
368.925	321.76
369.306	321.76
369.688	309.78
370.069	297.8
370.45	301.42
370.831	307.07
371.212	319.05
371.593	322.44
371.974	299.16
372.355	314.98
372.736	308.2
373.117	316.33
373.498	306.84
373.879	315.43
374.26	312.27
374.641	322.21
375.021	285.6
375.402	320.63
375.783	314.53
376.163	339.38
376.544	306.62
376.925	322.21
377.305	307.29
377.686	332.83
378.066	337.58
378.447	337.8
378.827	345.94
379.208	324.69
379.588	336.9
379.968	320.4
380.349	331.7
380.729	334.19
381.109	317.69
381.489	351.36
381.87	335.54
382.25	324.69
382.63	340.51
383.01	325.6
383.39	344.58
383.77	343
384.15	338.71
384.53	353.17
384.91	334.19
385.29	364.02
385.67	351.36
386.049	342.77
386.429	352.26
386.809	347.07
387.189	366.28
387.568	345.71
387.948	359.5
388.328	343
388.707	357.01
389.087	349.1
389.466	348.2
389.846	378.25
390.225	354.98
390.605	371.93
390.984	372.6
391.363	362.66
391.743	339.61
392.122	357.91
392.501	377.57
392.881	379.38
393.26	389.55
393.639	378.93
394.018	378.93
394.397	375.31
394.776	377.12
395.155	372.38
395.534	389.33
395.913	399.5
396.292	403.56
396.671	393.62
397.05	374.86
397.429	375.77
397.808	389.55
398.186	384.35
398.565	403.79
398.944	393.17
399.323	382.77
399.701	389.33
400.08	375.99
400.458	407.18
400.837	398.82
401.215	402.43
401.594	406.5
401.972	430
402.351	401.53
402.729	403.56
403.107	404.24
403.486	414.41
403.864	441.75
404.242	423
404.62	417.35
404.999	419.38
405.377	403.11
405.755	419.83
406.133	443.11
406.511	430.45
406.889	432.26
407.267	439.49
407.645	446.95
408.023	432.71
408.401	439.49
408.779	436.78
409.156	453.51
409.534	460.06
409.912	444.24
410.29	448.08
410.667	476.56
411.045	461.41
411.422	484.69
411.8	484.46
412.178	454.18
412.555	469.1
412.933	490.79
413.31	484.01
413.687	490.57
414.065	502.54
414.442	493.05
414.819	498.02
415.197	491.7
415.574	511.36
415.951	512.49
416.328	512.26
416.705	510.45
417.082	507.97
417.46	523.11
417.837	480.85
418.214	540.96
418.591	537.57
418.967	536.44
419.344	538.93
419.721	539.38
420.098	540.96
420.475	530.34
420.852	571.24
421.228	557.46
421.605	542.09
421.982	559.04
422.358	583.22
422.735	564.69
423.111	553.62
423.488	577.34
423.864	570.34
424.241	599.04
424.617	578.93
424.994	595.42
425.37	589.55
425.746	580.06
426.123	578.02
426.499	599.04
426.875	604.01
427.251	625.25
427.627	605.59
428.003	635.65
428.379	619.83
428.756	630.22
429.132	648.98
429.507	648.53
429.883	645.59
430.259	680.39
430.635	673.61
431.011	656.44
431.387	674.97
431.763	681.75
432.138	690.56
432.514	703.67
432.89	690.56
433.265	696.89
433.641	709.32
434.016	717.23
434.392	736.21
434.767	738.24
435.143	748.64
435.518	729.43
435.894	764.68
436.269	762.65
436.644	791.12
437.02	775.08
437.395	781.41
437.77	792.25
438.145	789.32
438.52	799.03
438.895	802.65
439.271	801.97
439.646	821.86
440.021	818.69
440.395	842.42
440.77	822.99
441.145	824.34
441.52	867.05
441.895	843.33
442.27	862.99
442.645	853.49
443.019	875.19
443.394	894.4
443.769	846.72
444.143	855.98
444.518	897.79
444.892	884.45
445.267	916.77
445.641	921.52
446.016	912.48
446.39	924.68
446.764	946.6
447.139	924.91
447.513	948.86
447.887	965.36
448.262	952.25
448.636	934.17
449.01	961.29
449.384	950.89
449.758	957.22
450.132	995.86
450.506	978.91
450.88	1004.9
451.254	994.28
451.628	1020.95
452.002	1040.16
452.376	1027.73
452.75	1039.03
453.123	1027.28
453.497	1098.69
453.871	1068.4
454.244	1077.67
454.618	1100.04
454.992	1122.19
455.365	1102.75
455.739	1118.12
456.112	1131.23
456.486	1142.07
456.859	1171.9
457.232	1157.22
457.606	1165.35
457.979	1211.9
458.352	1212.58
458.725	1253.94
459.099	1251.45
459.472	1258.68
459.845	1295.52
460.218	1271.11
460.591	1279.7
460.964	1314.95
461.337	1311.11
461.71	1342.52
462.083	1371
462.456	1381.16
462.829	1382.29
463.201	1423.42
463.574	1430.88
463.947	1472.24
464.32	1505.23
464.692	1507.94
465.065	1484.89
465.438	1563.31
465.81	1550.2
466.183	1592.23
466.555	1607.6
466.928	1652.12
467.3	1665.45
467.672	1658.45
468.045	1705
468.417	1693.92
468.789	1745
469.161	1754.71
469.534	1794.71
469.906	1841.94
470.278	1879.46
470.65	1889.85
471.022	1914.71
471.394	1993.35
471.766	1990.19
472.138	2037.64
472.51	2086.91
472.882	2137.75
473.253	2181.37
473.625	2168.94
473.997	2300.91
474.369	2296.39
474.74	2340.01
475.112	2409.84
475.484	2420.91
475.855	2516.05
476.227	2547.91
476.598	2613.9
476.97	2681.02
477.341	2771.64
477.713	2850.28
478.084	2878.98
478.455	2956.49
478.827	3017.28
479.198	3149.03
479.569	3178.41
479.94	3295.92
480.311	3361
480.682	3446.87
481.053	3599.41
481.424	3648.9
481.795	3739.97
482.166	3829.69
482.537	3944.26
482.908	4032.39
483.279	4168.66
483.65	4260.18
484.021	4313.97
484.391	4477.58
484.762	4565.04
485.133	4671.7
485.503	4774.3
485.874	4930.22
486.244	5040.05
486.615	5150.33
486.985	5279.82
487.356	5392.36
487.726	5497.89
488.097	5706.47
488.467	5731.56
488.837	5875.28
489.207	6055.39
489.578	6202.51
489.948	6316.18
490.318	6483.4
490.688	6576.51
491.058	6724.07
491.428	6932.88
491.798	7054.01
492.168	7211.75
492.538	7282.48
492.908	7440.21
493.278	7583.49
493.648	7706.42
494.017	7832.75
494.387	7974.66
494.757	8037.49
495.126	8246.97
495.496	8279.51
495.866	8404.03
496.235	8569
496.605	8675.44
496.974	8788.2
497.344	8935.54
497.713	9069.78
498.082	9149.55
498.452	9347.28
498.821	9388.64
499.19	9389.99
499.559	9634.51
499.928	9745.69
500.298	9830.89
500.667	9907.95
501.036	9965.8
501.405	10110.88
501.774	10209.18
502.143	10234.26
502.512	10382.96
502.88	10470.19
503.249	10539.79
503.618	10584.09
503.987	10635.84
504.356	10771.65
504.724	10853.68
505.093	10931.42
505.462	11005.54
505.83	11075.37
506.199	11208.25
506.567	11302.03
506.936	11351.52
507.304	11454.35
507.672	11468.58
508.041	11521.24
508.409	11691.85
508.777	11739.99
509.145	11828.57
509.514	11808.91
509.882	11887.55
510.25	11898.63
510.618	12041
510.986	12065.18
511.354	12163.03
511.722	12217.26
512.09	12305.17
512.458	12234.44
512.826	12393.3
513.193	12467.65
513.561	12493.64
513.929	12495
514.297	12608.44
514.664	12651.15
515.032	12674.2
515.4	12683.92
515.767	12716.01
516.135	12863.8
516.502	12697.02
516.869	12970.01
517.237	12942.22
517.604	12890.24
517.972	13008.88
518.339	13014.98
518.706	13116
519.073	13127.97
519.44	13093.62
519.808	13193.06
520.175	13233.28
520.542	13268.99
520.909	13347.4
521.276	13311.25
521.643	13468.53
522.009	13460.62
522.376	13511.92
522.743	13492.48
523.11	13575.19
523.477	13638.7
523.843	13710.33
524.21	13778.58
524.577	13786.04
524.943	13761.18
525.31	13808.86
525.676	13912.81
526.043	13866.94
526.409	13879.14
526.776	14011.79
527.142	13980.16
527.508	13999.36
527.874	14073.26
528.241	14094.28
528.607	14051.79
528.973	14134.73
529.339	14054.28
529.705	14084.11
530.071	14165.91
530.437	14222.18
530.803	14224.89
531.169	14236.87
531.535	14152.35
531.901	14066.25
532.267	14134.5
532.632	14115.97
532.998	14210.66
533.364	14166.14
533.73	14147.83
534.095	14218.11
534.461	14153.71
534.826	14205.01
535.192	14166.82
535.557	14193.71
535.923	14153.94
536.288	14155.07
536.653	14028.74
537.019	14044.56
537.384	14061.51
537.749	14098.57
538.114	13996.65
538.479	13926.37
538.845	14086.82
539.21	13911.23
539.575	13915.52
539.94	13800.05
540.305	13917.78
540.67	13781.29
541.034	13871.68
541.399	13818.58
541.764	13744.68
542.129	13616.77
542.494	13627.17
542.858	13783.1
543.223	13670.56
543.587	13735.19
543.952	13645.47
544.316	13624.23
544.681	13596.21
545.045	13579.04
545.41	13626.49
545.774	13496.55
546.138	13475.08
546.503	13386.95
546.867	13349.44
547.231	13430.79
547.595	13342.21
547.959	13366.39
548.324	13267.86
548.688	13284.81
549.052	13221.3
549.416	13220.85
549.779	13193.06
550.143	13158.71
550.507	13144.02
550.871	13137.47
551.235	13080.97
551.599	13070.12
551.962	13064.92
552.326	13075.32
552.689	13144.47
553.053	12991.93
553.417	12925.95
553.78	13061.31
554.143	12934.08
554.507	13018.6
554.87	12874.65
555.234	12983.35
555.597	12900.64
555.96	12838.49
556.323	12930.24
556.686	12845.5
557.05	12881.2
557.413	12864.48
557.776	12835.55
558.139	12847.98
558.502	12892.5
558.865	12801.2
559.228	12868.09
559.59	12865.61
559.953	12870.13
560.316	12869.68
560.679	12833.52
561.041	12933.4
561.404	12916.68
561.767	12980.18
562.129	12820.19
562.492	12891.14
562.854	12843.69
563.217	12802.56
563.579	12871.71
563.941	12929.11
564.304	12901.77
564.666	12930.92
565.028	12886.85
565.39	12948.32
565.753	13019.05
566.115	12995.77
566.477	12944.48
566.839	12975.21
567.201	13058.6
567.563	12962.78
567.925	13031.03
568.287	12990.8
568.648	13019.05
569.01	13156.45
569.372	13188.09
569.734	13102.89
570.095	13147.18
570.457	13201.42
570.819	13220.17
571.18	13263.11
571.542	13256.33
571.903	13233.28
572.265	13258.37
572.626	13284.81
572.987	13249.33
573.349	13209.33
573.71	13293.39
574.071	13276.22
574.432	13283.22
574.794	13383.33
575.155	13297.01
575.516	13233.06
575.877	13241.64
576.238	13351.7
576.599	13357.35
576.96	13372.71
577.32	13328.42
577.681	13417.46
578.042	13456.33
578.403	13354.18
578.763	13356.44
579.124	13354.63
579.485	13417.01
579.845	13445.25
580.206	13464.01
580.566	13439.38
580.927	13386.72
581.287	13495.65
581.648	13340.85
582.008	13507.85
582.368	13401.19
582.728	13414.52
583.089	13276.22
583.449	13377.46
583.809	13349.66
584.169	13342.66
584.529	13340.85
584.889	13435.31
585.249	13368.65
585.609	13228.31
585.969	13424.46
586.329	13297.46
586.688	13325.93
587.048	13221.08
587.408	13241.87
587.768	13310.34
588.127	13279.38
588.487	13281.87
588.846	13281.42
589.206	13166.39
589.565	13229.67
589.925	13302.88
590.284	13240.06
590.643	13252.72
591.003	13274.18
591.362	13316.67
591.721	13228.99
592.08	13186.28
592.44	13261.76
592.799	13222.66
593.158	13213.17
593.517	13148.76
593.876	13200.29
594.235	13192.38
594.593	13113.96
594.952	13197.58
595.311	13134.3
595.67	13177.01
596.029	13250.91
596.387	13194.19
596.746	13198.03
597.104	13128.43
597.463	13054.08
597.822	13155.32
598.18	13064.25
598.538	13170.01
598.897	13141.31
599.255	13056.79
599.613	13208.2
599.972	13159.84
600.33	13228.99
600.688	13032.61
601.046	13072.16
601.404	13209.78
601.762	13121.42
602.12	13184.02
602.478	13172.72
602.836	13166.84
603.194	13148.99
603.552	13175.2
603.91	13053.4
604.268	13183.34
604.625	13066.28
604.983	13168.2
605.341	13094.98
605.698	13206.39
606.056	13221.53
606.413	13158.48
606.771	13103.57
607.128	13158.03
607.485	13170.68
607.843	13145.6
608.2	13237.35
608.557	13262.43
608.914	13254.07
609.272	13248.42
609.629	13270.57
609.986	13330.23
610.343	13183.11
610.7	13276.9
611.057	13332.94
611.414	13275.99
611.771	13299.27
612.127	13295.2
612.484	13330.91
612.841	13328.65
613.198	13278.7
613.554	13343.11
613.911	13443.45
614.267	13311.25
614.624	13392.6
614.98	13375.88
615.337	13459.72
615.693	13414.97
616.05	13461.3
616.406	13485.93
616.762	13384.24
617.118	13480.73
617.475	13411.36
617.831	13518.25
618.187	13506.5
618.543	13486.38
618.899	13581.75
619.255	13519.6
619.611	13550.34
619.967	13554.86
620.323	13585.14
620.678	13555.53
621.034	13499.72
621.39	13459.26
621.746	13504.01
622.101	13614.29
622.457	13518.25
622.812	13549.88
623.168	13466.72
623.523	13518.7
623.879	13582.65
624.234	13490.45
624.589	13613.84
624.945	13568.64
625.3	13570
625.655	13533.61
626.01	13605.25
626.365	13533.84
626.72	13485.7
627.075	13530.22
627.43	13523.22
627.785	13439.15
628.14	13532.94
628.495	13582.43
628.85	13566.38
629.205	13473.95
629.559	13528.42
629.914	13473.05
630.269	13477.12
630.623	13482.09
630.978	13424.69
631.332	13495.87
631.687	13561.18
632.041	13475.76
632.396	13328.42
632.75	13381.53
633.104	13464.69
633.459	13342.43
633.813	13281.64
634.167	13312.38
634.521	13358.93
634.875	13424.92
635.229	13298.14
635.583	13212.04
635.937	13225.6
636.291	13209.78
636.645	13254.75
636.999	13175.2
637.352	13196.45
637.706	13131.36
638.06	13225.15
638.413	13184.24
638.767	13127.07
639.121	13104.7
639.474	13042.55
639.828	13072.38
640.181	13108.31
640.534	13007.98
640.888	13076.68
641.241	12960.29
641.594	13015.43
641.947	13059.73
642.301	13125.49
642.654	13078.26
643.007	13063.12
643.36	12928.21
643.713	12967.07
644.066	13023.8
644.419	12938.37
644.771	12943.35
645.124	12771.6
645.477	12781.32
645.83	12712.39
646.182	12727.08
646.535	12573.19
646.888	12617.93
647.24	12533.87
647.593	12603.69
647.945	12531.83
648.298	12466.07
648.65	12450.25
649.002	12406.86
649.355	12562.34
649.707	12517.59
650.059	12516.24
650.411	12756.91
650.763	12689.79
651.115	12861.99
651.467	12797.14
651.819	12842.33
652.171	12794.65
652.523	12769.79
652.875	12755.55
653.227	12741.32
653.578	12836.46
653.93	12813.63
654.282	12710.58
654.633	12736.12
654.985	12718.27
655.337	12800.98
655.688	12760.3
656.039	12818.83
656.391	12691.15
656.742	12743.13
657.094	12674.65
657.445	12764.14
657.796	12723.46
658.147	12755.33
658.498	12776.34
658.849	12762.33
659.2	12742.9
659.551	12744.93
659.902	12789.9
660.253	12720.08
660.604	12858.15
660.955	12746.97
661.306	12825.38
661.656	12798.72
662.007	12792.62
662.358	12786.74
662.708	12799.85
663.059	12852.28
663.409	12697.48
663.76	12850.69
664.11	12738.83
664.461	12835.1
664.811	12810.24
665.161	12814.08
665.511	12813.18
665.862	12799.17
666.212	12855.44
666.562	12761.43
666.912	12812.73
667.262	12762.56
667.612	12801.65
667.962	12853.4
668.312	12788.77
668.662	12883.91
669.011	12829.22
669.361	12801.88
669.711	12770.47
670.06	12744.03
670.41	12732.73
670.76	12761.43
671.109	12794.2
671.459	12763.01
671.808	12702.22
672.157	12766.63
672.507	12739.06
672.856	12694.77
673.205	12695.22
673.554	12690.25
673.904	12643.69
674.253	12737.7
674.602	12670.13
674.951	12522.57
675.3	12446.41
675.649	12620.42
675.998	12616.35
676.346	12615.45
676.695	12635.11
677.044	12465.84
677.393	12575.67
677.741	12521.21
678.09	12546.29
678.438	12553.53
678.787	12533.19
679.135	12537.26
679.484	12525.05
679.832	12486.63
680.181	12507.88
680.529	12401.44
680.877	12413.87
681.225	12374.55
681.573	12447.31
681.922	12351.05
682.27	12350.82
682.618	12293.19
682.966	12245.96
683.314	12278.28
683.661	12261.33
684.009	12222.69
684.357	12215.23
684.705	12134.1
685.053	12175.23
685.4	12155.8
685.748	12110.6
686.095	12046.87
686.443	11974.33
686.79	12055.91
687.138	12067.66
687.485	12009.81
687.832	11920.77
688.18	11966.65
688.527	11895.01
688.874	11899.53
689.221	11825.18
689.568	11808.23
689.915	11751.97
690.262	11759.42
690.609	11784.96
690.956	11693.21
691.303	11676.03
691.65	11533.21
691.997	11655.24
692.344	11527.79
692.69	11456.15
693.037	11466.77
693.383	11366.21
693.73	11415.93
694.077	11230.85
694.423	11325.08
694.769	11285.31
695.116	11229.49
695.462	11208.48
695.808	11172.09
696.155	11178.19
696.501	11082.38
696.847	11122.6
697.193	11007.8
697.539	11044.64
697.885	11024.75
698.231	10923.96
698.577	10906.56
698.923	10915.83
699.269	10863.17
699.614	10779.11
699.96	10766.45
700.306	10758.09
700.651	10676.97
700.997	10677.64
701.342	10587.48
701.688	10564.43
702.033	10490.3
702.379	10412.11
702.724	10451.43
703.069	10489.4
703.415	10400.59
703.76	10366.24
704.105	10366.92
704.45	10300.25
704.795	10265.22
705.14	10225.68
705.485	10210.76
705.83	10128.96
706.175	10153.81
706.52	10132.35
706.865	10062.07
707.209	10023.42
707.554	10036.3
707.899	10097.77
708.243	9913.14
708.588	9945.01
708.932	9888.51
709.277	9871.11
709.621	9834.73
709.966	9801.51
710.31	9822.3
710.654	9763.54
710.998	9692.81
711.342	9753.83
711.687	9716.99
712.031	9668.63
712.375	9580.27
712.719	9605.13
713.063	9652.81
713.407	9647.61
713.75	9583.66
714.094	9540.5
714.438	9510.44
714.782	9541.4
715.125	9469.99
715.469	9479.71
715.812	9456.66
716.156	9389.77
716.499	9423.21
716.843	9429.54
717.186	9448.52
717.53	9407.17
717.873	9391.12
718.216	9386.38
718.559	9344.34
718.902	9304.57
719.246	9257.34
719.589	9309.54
719.932	9287.62
720.275	9254.86
720.617	9289.43
720.96	9214.4
721.303	9169.43
721.646	9212.82
721.989	9166.72
722.331	9210.11
722.674	9131.24
723.016	9186.83
723.359	9140.51
723.701	9135.08
724.044	9087.4
724.386	9002.88
724.729	9120.4
725.071	9043.79
725.413	9090.57
725.755	9070.91
726.097	8953.17
726.439	9018.03
726.782	8989.55
727.124	9029.55
727.465	9030.23
727.807	9018.93
728.149	9012.15
728.491	8940.06
728.833	9005.14
729.175	8986.84
729.516	9050.57
729.858	8973.96
730.199	8983.68
730.541	8924.92
730.882	8876.79
731.224	8988.2
731.565	8887.63
731.906	8942.1
732.248	8900.51
732.589	8863.91
732.93	8906.62
733.271	8925.37
733.612	8909.55
733.953	8998.14
734.294	8846.96
734.635	8938.25
734.976	8885.37
735.317	8897.12
735.658	8897.8
735.999	8821.87
736.339	8890.57
736.68	8943.23
737.021	8881.08
737.361	8897.58
737.702	8954.98
738.042	8908.88
738.383	8898.03
738.723	8994.3
739.063	8939.84
739.404	8953.85
739.744	8910.68
740.084	8975.54
740.424	8962.43
740.764	8958.14
741.104	9038.59
741.444	8996.33
741.784	9020.29
742.124	9045.14
742.464	9023.9
742.804	9080.62
743.143	9074.07
743.483	9055.54
743.823	9082.2
744.162	9110.68
744.502	9185.93
744.841	9134.63
745.181	9230.22
745.52	9215.99
745.86	9315.64
746.199	9272.26
746.538	9372.82
746.877	9445.13
747.216	9422.31
747.556	9524.9
747.895	9563.77
748.234	9481.97
748.573	9604.68
748.911	9633.38
749.25	9733.94
749.589	9768.74
749.928	9849.87
750.267	9911.56
750.605	9989.07
750.944	10006.25
751.283	10057.09
751.621	10247.6
751.96	10272.23
752.298	10346.58
752.636	10455.73
752.975	10426.8
753.313	10596.74
753.651	10714.48
753.989	10786.34
754.327	10847.13
754.666	10887.13
755.004	11093.9
755.342	11171.64
755.679	11273.11
756.017	11455.93
756.355	11554.68
756.693	11614.12
757.031	11867.44
757.368	11890.94
757.706	12043.26
758.044	12092.3
758.381	12375
758.719	12470.36
