Data from hue_28_FLMS001491_00074.txt Node
Date: Tue Feb 07 17:17:47 GMT 2017
User: dcchb
Spectrometer: FLMS00149
Trigger mode: 0
Integration Time (sec): 2.000000E-2
Scans to average: 10
Electric dark correction enabled: true
Nonlinearity correction enabled: false
Boxcar width: 0
XAxis mode: Wavelengths
Number of Pixels in Spectrum: 2048
>>>>>Begin Spectral Data<<<<<
341.393	-1.71
341.776	-1.71
342.16	-1.71
342.543	-62.05
342.927	-76.28
343.31	-74.02
343.693	-71.31
344.077	-67.47
344.46	-49.62
344.843	-50.97
345.226	-59.56
345.61	-21.14
345.993	-3.97
346.376	-9.17
346.759	15.69
347.142	37.61
347.525	47.56
347.908	57.27
348.291	65.41
348.674	76.71
349.057	106.99
349.44	121.68
349.823	122.13
350.206	166.42
350.588	189.47
350.971	201.9
351.354	229.47
351.737	243.26
352.119	247.1
352.502	254.78
352.884	285.29
353.267	273.09
353.65	285.97
354.032	301.11
354.414	299.3
354.797	296.36
355.179	340.2
355.562	317.83
355.944	311.28
356.326	338.17
356.709	325.29
357.091	340.2
357.473	357.6
357.855	332.07
358.238	326.64
358.62	350.6
359.002	342.69
359.384	333.42
359.766	336.14
360.148	325.97
360.53	330.94
360.912	359.86
361.294	339.07
361.676	353.31
362.057	339.07
362.439	322.8
362.821	331.84
363.203	343.14
363.584	313.08
363.966	318.28
364.348	336.81
364.729	317.15
365.111	328.45
365.493	339.52
365.874	316.47
366.256	315.57
366.637	312.86
367.019	309.47
367.4	341.56
367.781	329.58
368.163	315.57
368.544	325.51
368.925	316.25
369.306	304.05
369.688	290.71
370.069	301.79
370.45	328.68
370.831	293.88
371.212	319.41
371.593	313.76
371.974	333.88
372.355	314.21
372.736	313.76
373.117	300.66
373.498	327.55
373.879	328.23
374.26	306.31
374.641	298.62
375.021	322.35
375.402	324.84
375.783	331.62
376.163	359.86
376.544	329.36
376.925	318.96
377.305	342.91
377.686	306.76
378.066	330.03
378.447	338.62
378.827	324.84
379.208	321.9
379.588	345.85
379.968	326.87
380.349	347.89
380.729	340.65
381.109	339.52
381.489	318.51
381.87	323.48
382.25	347.66
382.63	340.2
383.01	352.18
383.39	322.35
383.77	346.3
384.15	354.44
384.53	354.44
384.91	325.97
385.29	350.82
385.67	331.62
386.049	358.96
386.429	350.6
386.809	358.28
387.189	344.5
387.568	355.8
387.948	344.95
388.328	358.28
388.707	343.37
389.087	342.46
389.466	373.87
389.846	363.93
390.225	359.41
390.605	382.46
390.984	367.09
391.363	363.71
391.743	359.86
392.122	374.55
392.501	350.37
392.881	358.51
393.26	378.39
393.639	358.96
394.018	366.87
394.397	358.96
394.776	389.47
395.155	381.56
395.534	390.15
395.913	370.03
396.292	384.5
396.671	374.1
397.05	392.18
397.429	398.05
397.808	402.12
398.186	408.45
398.565	370.03
398.944	393.76
399.323	390.15
399.701	399.41
400.08	397.83
400.458	394.89
400.837	391.73
401.215	387.89
401.594	379.07
401.972	405.51
402.351	387.21
402.729	410.03
403.107	388.56
403.486	422.46
403.864	396.47
404.242	409.13
404.62	417.94
404.999	434.21
405.377	423.14
405.755	405.06
406.133	431.73
406.511	436.7
406.889	430.37
407.267	429.69
407.645	426.98
408.023	429.47
408.401	435.79
408.779	431.95
409.156	429.01
409.534	450.71
409.912	454.32
410.29	466.75
410.667	465.4
411.045	467.21
411.422	461.78
411.8	460.2
412.178	466.53
412.555	472.63
412.933	460.2
413.31	476.7
413.687	457.04
414.065	484.38
414.442	478.96
414.819	488.67
415.197	484.61
415.574	501.55
415.951	492.52
416.328	495.91
416.705	497.03
417.082	491.84
417.46	481.89
417.837	485.51
418.214	517.37
418.591	529.58
418.967	511.5
419.344	505.17
419.721	510.37
420.098	516.47
420.475	531.38
420.852	532.97
421.228	538.39
421.605	548.11
421.982	543.14
422.358	525.06
422.735	525.73
423.111	543.81
423.488	550.37
423.864	553.3
424.241	549.01
424.617	541.55
424.994	566.41
425.37	561.21
425.746	579.52
426.123	556.69
426.499	567.09
426.875	572.97
427.251	578.84
427.627	604.83
428.003	576.13
428.379	581.33
428.756	592.17
429.132	616.58
429.507	618.16
429.883	589.46
430.259	610.03
430.635	624.04
431.011	637.14
431.387	639.86
431.763	639.18
432.138	650.93
432.514	647.99
432.89	650.25
433.265	669.46
433.641	680.31
434.016	655.45
434.392	679.63
434.767	671.72
435.143	669.69
435.518	679.4
435.894	689.57
436.269	668.56
436.644	707.2
437.02	713.75
437.395	704.04
437.77	716.69
438.145	710.14
438.52	716.24
438.895	719.18
439.271	728.44
439.646	720.08
440.021	751.04
440.395	772.73
440.77	717.37
441.145	767.31
441.52	753.98
441.895	758.72
442.27	795.33
442.645	776.35
443.019	788.78
443.394	797.59
443.769	790.81
444.143	793.52
444.518	811.15
444.892	804.82
445.267	785.84
445.641	835.11
446.016	816.8
446.39	834.88
446.764	834.43
447.139	840.98
447.513	822.45
447.887	834.65
448.262	831.94
448.636	845.27
449.01	842.11
449.384	866.52
449.758	861.77
450.132	856.8
450.506	872.84
450.88	885.27
451.254	899.74
451.628	900.87
452.002	889.57
452.376	893.41
452.75	933.86
453.123	917.59
453.497	928.44
453.871	915.78
454.244	962.11
454.618	940.41
454.992	968.43
455.365	972.5
455.739	998.26
456.112	1000.98
456.486	970.47
456.859	1007.76
457.232	1033.52
457.606	1027.64
457.979	1040.3
458.352	1071.94
458.725	1056.34
459.099	1060.86
459.472	1086.17
459.845	1078.04
460.218	1114.42
460.591	1099.28
460.964	1122.78
461.337	1124.14
461.71	1157.36
462.083	1158.94
462.456	1168.66
462.829	1180.86
463.201	1174.53
463.574	1205.94
463.947	1230.8
464.32	1230.35
464.692	1225.6
465.065	1288.65
465.438	1242.1
465.81	1306.05
466.183	1319.84
466.555	1305.83
466.928	1335.43
467.3	1370.23
467.672	1377.92
468.045	1391.25
468.417	1398.25
468.789	1440.51
469.161	1440.51
469.534	1443.45
469.906	1454.3
470.278	1477.12
470.65	1499.95
471.022	1514.64
471.394	1584.92
471.766	1558.25
472.138	1571.81
472.51	1617.46
472.882	1646.38
473.253	1666.04
473.625	1711.69
473.997	1742.43
474.369	1741.07
474.74	1769.09
475.112	1792.14
475.484	1795.53
475.855	1866.94
476.227	1849.32
476.598	1924.57
476.97	1952.82
477.341	1986.49
477.713	2050.67
478.084	2049.08
478.455	2133.83
478.827	2128.4
479.198	2206.82
479.569	2226.26
479.94	2273.49
480.311	2336.08
480.682	2346.25
481.053	2420.83
481.424	2462.63
481.795	2499.69
482.166	2536.76
482.537	2605.23
482.908	2691.55
483.279	2694.72
483.65	2732.91
484.021	2830.98
484.391	2854.94
484.762	2893.36
485.133	2912.56
485.503	2982.39
485.874	3105.55
486.244	3125.89
486.615	3154.37
486.985	3255.61
487.356	3302.61
487.726	3395.94
488.097	3419.67
488.467	3451.76
488.837	3551.87
489.207	3601.36
489.578	3625.31
489.948	3699.66
490.318	3745.31
490.688	3829.38
491.058	3883.16
491.428	3905.31
491.798	3964.97
492.168	4051.74
492.538	4095.13
492.908	4155.47
493.278	4246.54
493.648	4211.51
494.017	4266.43
494.387	4350.72
494.757	4399.31
495.126	4486.31
495.496	4444.28
495.866	4553.43
496.235	4573.54
496.605	4610.6
496.974	4741.67
497.344	4780.54
497.713	4787.32
498.082	4781.44
498.452	4876.58
498.821	4875.22
499.19	4970.82
499.559	5052.62
499.928	5043.58
500.298	5087.42
500.667	5130.36
501.036	5137.82
501.405	5197.25
501.774	5222.79
502.143	5247.19
502.512	5271.6
502.88	5362.44
503.249	5380.52
503.618	5358.6
503.987	5378.49
504.356	5431.37
504.724	5420.52
505.093	5539.16
505.462	5532.16
505.83	5669.55
506.199	5636.56
506.567	5737.58
506.936	5710.46
507.304	5735.09
507.672	5794.07
508.041	5823.45
508.409	5845.37
508.777	5899.6
509.145	5884.01
509.514	5946.16
509.882	5969.89
510.25	5957
510.618	5999.26
510.986	6019.38
511.354	6109.77
511.722	6175.08
512.09	6209.88
512.458	6197.68
512.826	6182.08
513.193	6269.09
513.561	6286.94
513.929	6328.97
514.297	6385.24
514.664	6415.52
515.032	6425.47
515.4	6504.33
515.767	6435.64
516.135	6516.09
516.502	6473.15
516.869	6565.12
517.237	6585.69
517.604	6595.63
517.972	6610.32
518.339	6680.83
518.706	6622.07
519.073	6711.56
519.44	6727.61
519.808	6836.98
520.175	6759.02
520.542	6835.85
520.909	6883.31
521.276	6902.97
521.643	6924.89
522.009	7017.32
522.376	7040.37
522.743	7033.81
523.11	7135.05
523.477	7195.62
523.843	7224.09
524.21	7316.29
524.577	7342.28
524.943	7373.69
525.31	7397.87
525.676	7392.45
526.043	7453.46
526.409	7496.62
526.776	7603.29
527.142	7584.98
527.508	7641.25
527.874	7679.67
528.241	7756.73
528.607	7705.88
528.973	7797.63
529.339	7825.66
529.705	7924.41
530.071	7940
530.437	7924.86
530.803	7997.63
531.169	7986.1
531.535	8043.05
531.901	8090.73
532.267	8109.26
532.632	8131.18
532.998	8134.12
533.364	8203.05
533.73	8240.33
534.095	8309.26
534.461	8286.21
534.826	8429.48
535.192	8398.07
535.557	8514.23
535.923	8479.42
536.288	8551.29
536.653	8532.3
537.019	8545.86
537.384	8576.37
537.749	8633.32
538.114	8649.36
538.479	8743.6
538.845	8767.78
539.21	8743.37
539.575	8810.04
539.94	8819.75
540.305	8928.45
540.67	8878.51
541.034	8988.79
541.399	8959.19
541.764	8960.54
542.129	8975
542.494	8964.83
542.858	9043.25
543.223	9148.11
543.587	9146.3
543.952	9165.73
544.316	9219.74
544.681	9244.15
545.045	9378.38
545.41	9453.18
545.774	9358.27
546.138	9456.12
546.503	9442.11
546.867	9423.35
547.231	9574.54
547.595	9524.82
547.959	9571.82
548.324	9633.52
548.688	9631.71
549.052	9673.06
549.416	9740.86
549.779	9744.25
550.143	9703.12
550.507	9762.33
550.871	9808.65
551.235	9854.76
551.599	9913.74
551.962	9923.91
552.326	9971.14
552.689	10062.89
553.053	9974.75
553.417	10076.9
553.78	10152.37
554.143	10143.11
554.507	10174.07
554.87	10233.95
555.234	10247.06
555.597	10261.98
555.96	10294.74
556.323	10451.12
556.686	10338.13
557.05	10436.43
557.413	10483.67
557.776	10459.94
558.139	10534.74
558.502	10558.69
558.865	10548.75
559.228	10645.47
559.59	10628.07
559.953	10671.91
560.316	10817.67
560.679	10759.14
561.041	10720.49
561.404	10844.56
561.767	10896.54
562.129	10859.7
562.492	11034.39
562.854	11005.69
563.217	10925.01
563.579	10986.25
563.941	11029.64
564.304	11170.65
564.666	11171.56
565.028	11181.95
565.39	11109.41
565.753	11266.47
566.115	11304.89
566.477	11380.59
566.839	11425.56
567.201	11433.47
567.563	11531.77
567.925	11561.6
568.287	11632.79
568.648	11559.12
569.01	11646.57
569.372	11779.9
569.734	11710.98
570.095	11778.32
570.457	11873.23
570.819	11927.69
571.18	12004.53
571.542	11990.52
571.903	12004.75
572.265	12135.6
572.626	12058.99
572.987	12218.53
573.349	12305.54
573.71	12305.31
574.071	12452.65
574.432	12464.4
574.794	12622.59
575.155	12729.93
575.516	12659.43
575.877	12724.28
576.238	12824.62
576.599	12916.14
576.96	13000.44
577.32	13096.48
577.681	13320.43
578.042	13273.65
578.403	13407.88
578.763	13465.73
579.124	13593.19
579.485	13763.58
579.845	13883.35
580.206	13916.12
580.566	14060.97
580.927	14197.24
581.287	14378.03
581.648	14510.45
582.008	14753.61
582.368	14897.56
582.728	14924.45
583.089	15120.38
583.449	15277.21
583.809	15547.71
584.169	15787.48
584.529	15914.71
584.889	16231.08
585.249	16261.14
585.609	16430.63
585.969	16778.64
586.329	16805.98
586.688	17142.02
587.048	17304.5
587.408	17539.52
587.768	17780.87
588.127	18042.34
588.487	18168.21
588.846	18580.63
589.206	18694.3
589.565	18972.48
589.925	19334.28
590.284	19634.61
590.643	19778.11
591.003	20090.19
591.362	20601.59
591.721	20729.05
592.08	21030.51
592.44	21375.58
592.799	21647.89
593.158	21816.93
593.517	22156.58
593.876	22534.87
594.235	22744.59
594.593	22978.03
594.952	23309.54
595.311	23566.94
595.67	23809.87
596.029	24328.27
596.387	24480.36
596.746	24911.76
597.104	25034.24
597.463	25326.21
597.822	25625.41
598.18	25765.98
598.538	26225.62
598.897	26581.77
599.255	26573.64
599.613	27335.88
599.972	27429.21
600.33	27924.11
600.688	27926.6
601.046	28279.58
601.404	28680.47
601.762	28910.75
602.12	29359.55
602.478	29623.95
602.836	29704.18
603.194	29911.85
603.552	30211.51
603.91	30348.68
604.268	30838.61
604.625	30929
604.983	31408.54
605.341	31397.01
605.698	31781.41
606.056	32054.4
606.413	32183.21
606.771	32471.11
607.128	32811.89
607.485	32913.81
607.843	33095.73
608.2	33528.26
608.557	33719.44
608.914	33946.55
609.272	34177.96
609.629	34464.96
609.986	34719.41
610.343	34803.03
610.7	35093.64
611.057	35225.39
611.414	35408.43
611.771	35577.47
612.127	35887.74
612.484	36004.35
612.841	36313.27
613.198	36483.43
613.554	36591.23
613.911	36756.65
614.267	36983.76
614.624	37059.46
614.98	37324.77
615.337	37617.87
615.693	37743.29
616.05	37773.57
616.406	38118.64
616.762	37966.78
617.118	38236.16
617.475	38382.59
617.831	38498.52
618.187	38680.66
618.543	38818.51
618.899	39172.63
619.255	39217.82
619.611	39243.13
619.967	39411.72
620.323	39530.58
620.678	39526.29
621.034	39578.27
621.39	39751.6
621.746	39676.34
622.101	40207.4
622.457	40027.07
622.812	40173.05
623.168	40313.16
623.523	40416.66
623.879	40564
624.234	40356.55
624.589	40726.94
624.945	40849.42
625.3	40892.58
625.655	40920.83
626.01	41093.93
626.365	41072.69
626.72	41070.88
627.075	41186.13
627.43	41154.5
627.785	41208.05
628.14	41441.27
628.495	41342.51
628.85	41440.14
629.205	41205.8
629.559	41552.45
629.914	41519.01
630.269	41515.62
630.623	41485.56
630.978	41567.82
631.332	41815.04
631.687	41781.6
632.041	41589.51
632.396	41686.91
632.75	41757.42
633.104	41742.28
633.459	41694.37
633.813	41674.48
634.167	41761.49
634.521	41803.29
634.875	41836.29
635.229	41815.04
635.583	41727.14
635.937	41723.07
636.291	41684.43
636.645	41750.19
636.999	41590.87
637.352	41724.43
637.706	41594.26
638.06	41686.91
638.413	41687.59
638.767	41565.56
639.121	41708.15
639.474	41533.47
639.828	41546.58
640.181	41661.6
640.534	41653.01
640.888	41581.83
641.241	41527.82
641.594	41497.09
641.947	41586.12
642.301	41512.23
642.654	41589.06
643.007	41550.87
643.36	41543.64
643.713	41504.32
644.066	41674.94
644.419	41335.06
644.771	41237.66
645.124	40746.82
645.477	40878.12
645.83	40449.88
646.182	40475.64
646.535	40324.69
646.888	40375.08
647.24	40134.64
647.593	40487.62
647.945	40429.77
648.298	40238.36
648.65	40203.34
649.002	40008.09
649.355	40185.26
649.707	40149.78
650.059	40368.53
650.411	40799.25
650.763	40923.77
651.115	41203.76
651.467	41086.25
651.819	41244.44
652.171	41022.98
652.523	40910.21
652.875	40941.17
653.227	40764.22
653.578	41128.96
653.93	40960.83
654.282	40910.89
654.633	40780.72
654.985	40831.34
655.337	40960.15
655.688	40948.17
656.039	41069.53
656.391	40792.7
656.742	40812.59
657.094	40991.34
657.445	40911.79
657.796	40940.27
658.147	40834.51
658.498	40814.62
658.849	40838.35
659.2	40819.36
659.551	40652.36
659.902	40944.11
660.253	40825.92
660.604	40858.69
660.955	40572.82
661.306	40831.57
661.656	40684
662.007	40708.41
662.358	40635.64
662.708	40788.4
663.059	40722.19
663.409	40450.79
663.76	40660.27
664.11	40725.13
664.461	40733.49
664.811	40789.99
665.161	40691.23
665.511	40574.63
665.862	40574.85
666.212	40799.93
666.562	40691.23
666.912	40697.11
667.262	40603.33
667.612	40595.64
667.962	40685.36
668.312	40606.71
668.662	40903.2
669.011	40677.22
669.361	40575.53
669.711	40633.15
670.06	40643.78
670.41	40480.39
670.76	40392.94
671.109	40517.9
671.459	40496.89
671.808	40401.07
672.157	40490.11
672.507	40268.87
672.856	40345.7
673.205	40472.93
673.554	40524.23
673.904	40472.03
674.253	40538.69
674.602	40466.15
674.951	39855.77
675.3	39594.31
675.649	40206.95
675.998	40149.78
676.346	40218.48
676.695	40253.5
677.044	40229.1
677.393	40337.8
677.741	40187.06
678.09	40088.76
678.438	39978.03
678.787	40017.35
679.135	40117.69
679.484	39792.5
679.832	40024.58
680.181	39732.61
680.529	39891.71
680.877	39780.75
681.225	39765.38
681.573	40019.61
681.922	39541.88
682.27	39585.27
682.618	39663.91
682.966	39440.19
683.314	39564.93
683.661	39366.07
684.009	39296.24
684.357	39127.66
684.705	39204.27
685.053	39273.64
685.4	39244.26
685.748	39032.07
686.095	39023.71
686.443	38947.55
686.79	38955.46
687.138	39045.63
687.485	38863.26
687.832	38833.88
688.18	38777.61
688.527	38521.8
688.874	38628.01
689.221	38485.87
689.568	38429.6
689.915	38382.14
690.262	38340.33
690.609	38257.17
690.956	38141.02
691.303	38190.73
691.65	37850.18
691.997	37903.06
692.344	37677.3
692.69	37653.8
693.037	37661.48
693.383	37278.67
693.73	37392.11
694.077	37232.34
694.423	37293.36
694.769	37098.56
695.116	37068.28
695.462	37043.19
695.808	36901.28
696.155	36975.17
696.501	36591.91
696.847	36713.94
697.193	36580.83
697.539	36515.3
697.885	36414.96
698.231	36163.44
698.577	36263.33
698.923	36198.02
699.269	35976.78
699.614	35824.02
699.96	35858.14
700.306	35860.62
700.651	35767.07
700.997	35615.89
701.342	35587.41
701.688	35469.67
702.033	35407.3
702.379	35313.75
702.724	35181.09
703.069	35297.48
703.415	34911.5
703.76	34963.7
704.105	34971.61
704.45	34899.29
704.795	34726.64
705.14	34541.79
705.485	34505.18
705.83	34287.78
706.175	34351.51
706.52	34355.35
706.865	34236.94
707.209	34100.45
707.554	34096.38
707.899	34226.09
708.243	33787.69
708.588	33842.37
708.932	33663.62
709.277	33643.06
709.621	33747.23
709.966	33432.67
710.31	33641.47
710.654	33269.73
710.998	33301.82
711.342	33376.4
711.687	33328.94
712.031	33018.44
712.375	33019.12
712.719	32981.83
713.063	32976.41
713.407	33139.57
713.75	32735.96
714.094	32782.29
714.438	32606.93
714.782	32730.31
715.125	32535.74
715.469	32685.34
715.812	32358.12
716.156	32308.85
716.499	32319.48
716.843	32330.1
717.186	32122.42
717.53	32241.51
717.873	32233.15
718.216	32105.7
718.559	32060.95
718.902	31759.04
719.246	31967.17
719.589	31815.31
719.932	31745.03
720.275	31715.42
720.617	31640.4
720.96	31468.88
721.303	31597.46
721.646	31547.97
721.989	31361.76
722.331	31498.71
722.674	31246.51
723.016	31328.77
723.359	31242.44
723.701	31376.9
724.044	31199.5
724.386	30997.25
724.729	31144.36
725.071	31082.45
725.413	31057.14
725.755	30960.64
726.097	30893.52
726.439	30631.61
726.782	30772.4
727.124	30815.79
727.465	30660.54
727.807	30744.6
728.149	30526.3
728.491	30545.28
728.833	30546.64
729.175	30366.53
729.516	30446.76
729.858	30416.7
730.199	30492.4
730.541	30199.98
730.882	30183.26
731.224	30359.75
731.565	30213.54
731.906	30164.96
732.248	30198.85
732.589	30045.41
732.93	29918.63
733.271	29918.18
733.612	29903.04
733.953	30046.99
734.294	29917.73
734.635	29786.89
734.976	29824.85
735.317	29610.85
735.658	29709.37
735.999	29537.4
736.339	29521.58
736.68	29675.02
737.021	29476.39
737.361	29393
737.702	29490.62
738.042	29459.21
738.383	29348.25
738.723	29395.26
739.063	29240.46
739.404	29270.97
739.744	29188.48
740.084	29089.05
740.424	29176.28
740.764	29056.96
741.104	29172.21
741.444	29037.98
741.784	28869.85
742.124	29019
742.464	28915.27
742.804	28803.86
743.143	28768.38
743.483	28755.05
743.823	28631.89
744.162	28652.45
744.502	28757.76
744.841	28475.96
745.181	28639.35
745.52	28520.03
745.86	28512.34
746.199	28553.92
746.538	28426.02
746.877	28525
747.216	28443.42
747.556	28408.84
747.895	28400.93
748.234	28263.76
748.573	28236.64
748.911	28219.47
749.25	28147.16
749.589	28043.66
749.928	28023.99
750.267	28087.04
750.605	28020.83
750.944	27948.97
751.283	27756.43
751.621	27935.41
751.96	27677.56
752.298	27747.17
752.636	27688.86
752.975	27638.69
753.313	27518.25
753.651	27531.58
753.989	27396.44
754.327	27458.81
754.666	27290.91
755.004	27394.18
755.342	27370.9
755.679	27304.92
756.017	27136.11
756.355	27224.47
756.693	27047.07
757.031	27090.46
757.368	26795.55
757.706	26926.4
758.044	26828.55
758.381	26861.31
758.719	26929.79
