Data from hue_100_FLMS001491_00022.txt Node
Date: Tue Feb 07 17:02:55 GMT 2017
User: dcchb
Spectrometer: FLMS00149
Trigger mode: 0
Integration Time (sec): 2.000000E-2
Scans to average: 10
Electric dark correction enabled: true
Nonlinearity correction enabled: false
Boxcar width: 0
XAxis mode: Wavelengths
Number of Pixels in Spectrum: 2048
>>>>>Begin Spectral Data<<<<<
341.393	-22.43
341.776	-22.43
342.16	-22.43
342.543	-60.17
342.927	-87.74
343.31	-85.93
343.693	-67.63
344.077	-56.78
344.46	-38.47
344.843	-54.07
345.226	-51.13
345.61	-5.25
345.993	-26.5
346.376	-22.88
346.759	21.19
347.142	21.64
347.525	35.65
347.908	46.72
348.291	71.81
348.674	89.88
349.057	121.75
349.44	107.96
349.823	157.68
350.206	179.83
350.588	205.59
350.971	211.69
351.354	215.98
351.737	225.02
352.119	243.78
352.502	259.15
352.884	267.51
353.267	281.52
353.65	297.11
354.032	293.5
354.414	308.64
354.797	299.82
355.179	317
355.562	327.39
355.944	320.61
356.326	333.27
356.709	337.56
357.091	320.84
357.473	347.05
357.855	335.75
358.238	342.99
358.62	330.1
359.002	345.25
359.384	359.03
359.766	346.6
360.148	342.53
360.53	346.15
360.912	333.27
361.294	339.37
361.676	343.21
362.057	312.25
362.439	326.94
362.821	343.44
363.203	330.78
363.584	344.34
363.966	329.65
364.348	333.04
364.729	308.64
365.111	337.79
365.493	335.08
365.874	326.04
366.256	327.62
366.637	314.51
367.019	317
367.4	322.65
367.781	312.48
368.163	332.82
368.544	318.58
368.925	305.7
369.306	331.91
369.688	316.77
370.069	298.01
370.45	320.61
370.831	325.58
371.212	322.87
371.593	333.95
371.974	333.27
372.355	305.25
372.736	314.51
373.117	325.36
373.498	316.32
373.879	315.64
374.26	332.36
374.641	328.75
375.021	338.24
375.402	317.22
375.783	337.56
376.163	302.08
376.544	338.92
376.925	350.67
377.305	324.45
377.686	326.26
378.066	352.02
378.447	339.82
378.827	342.53
379.208	342.76
379.588	356.09
379.968	323.32
380.349	343.44
380.729	352.93
381.109	335.3
381.489	330.1
381.87	344.12
382.25	341.86
382.63	351.35
383.01	351.35
383.39	347.5
383.77	351.8
384.15	349.99
384.53	347.05
384.91	365.58
385.29	342.08
385.67	336.43
386.049	348.86
386.429	363.78
386.809	368.3
387.189	373.27
387.568	358.13
387.948	354.74
388.328	361.74
388.707	383.44
389.087	376.43
389.466	370.78
389.846	368.52
390.225	382.98
390.605	369.43
390.984	380.5
391.363	370.56
391.743	387.05
392.122	384.11
392.501	389.54
392.881	393.15
393.26	391.12
393.639	408.29
394.018	410.55
394.397	418.92
394.776	390.89
395.155	372.59
395.534	408.97
395.913	405.58
396.292	406.26
396.671	402.87
397.05	404.45
397.429	393.15
397.808	432.47
398.186	417.56
398.565	406.49
398.944	397.22
399.323	393.38
399.701	424.11
400.08	420.27
400.458	417.56
400.837	433.38
401.215	432.7
401.594	427.28
401.972	423.21
402.351	427.73
402.729	402.42
403.107	440.38
403.486	436.54
403.864	427.05
404.242	419.14
404.62	455.3
404.999	418.24
405.377	441.74
405.755	440.16
406.133	427.28
406.511	462.76
406.889	447.16
407.267	469.08
407.645	458.01
408.023	465.02
408.401	481.29
408.779	477.9
409.156	491.91
409.534	458.46
409.912	485.13
410.29	493.72
410.667	509.76
411.045	490.33
411.422	491.68
411.8	499.59
412.178	502.76
412.555	503.43
412.933	512.7
413.31	507.73
413.687	535.52
414.065	514.05
414.442	518.35
414.819	535.75
415.197	553.83
415.574	531.68
415.951	551.57
416.328	547.95
416.705	553.15
417.082	550.89
417.46	558.35
417.837	551.12
418.214	576.65
418.591	555.41
418.967	567.84
419.344	571.45
419.721	592.7
420.098	574.62
420.475	580.04
420.852	591.57
421.228	581.17
421.605	612.81
421.982	609.19
422.358	599.7
422.735	612.13
423.111	582.75
423.488	601.96
423.864	613.49
424.241	616.42
424.617	646.25
424.994	631.11
425.37	639.25
425.746	665.24
426.123	642.41
426.499	660.72
426.875	636.08
427.251	650.77
427.627	667.72
428.003	655.52
428.379	694.61
428.756	686.93
429.132	688.51
429.507	704.78
429.883	671.79
430.259	710.43
430.635	744.33
431.011	732.81
431.387	715.63
431.763	727.61
432.138	759.7
432.514	743.65
432.89	750.66
433.265	773.26
433.641	776.65
434.016	769.19
434.392	799.92
434.767	787.04
435.143	803.31
435.518	806.02
435.894	810.54
436.269	831.56
436.644	836.53
437.02	855.29
437.395	823.88
437.77	835.4
438.145	835.85
438.52	861.16
438.895	874.72
439.271	868.17
439.646	875.63
440.021	894.38
440.395	880.15
440.77	885.8
441.145	902.97
441.52	905.68
441.895	916.08
442.27	917.43
442.645	927.38
443.019	944.1
443.394	918.11
443.769	955.17
444.143	949.98
444.518	951.1
444.892	953.36
445.267	990.65
445.641	961.73
446.016	995.85
446.39	1003.76
446.764	978.67
447.139	983.87
447.513	1021.61
447.887	1014.61
448.262	991.33
448.636	1044.21
449.01	1040.59
449.384	1019.58
449.758	1047.83
450.132	1065.23
450.506	1074.27
450.88	1088.73
451.254	1066.13
451.628	1079.01
452.002	1108.39
452.376	1115.85
452.75	1111.78
453.123	1115.39
453.497	1151.1
453.871	1161.72
454.244	1178.67
454.618	1205.34
454.992	1190.65
455.365	1169.4
455.739	1215.5
456.112	1230.42
456.486	1249.85
456.859	1277.2
457.232	1294.15
457.606	1284.66
457.979	1310.64
458.352	1348.38
458.725	1355.84
459.099	1362.39
459.472	1359
459.845	1408.04
460.218	1399
460.591	1404.2
460.964	1420.7
461.337	1457.31
461.71	1448.94
462.083	1489.4
462.456	1492.79
462.829	1537.08
463.201	1547.93
463.574	1548.15
463.947	1572.11
464.32	1630.18
464.692	1638.32
465.065	1640.8
465.438	1645.1
465.81	1698.88
466.183	1737.3
466.555	1763.96
466.928	1764.19
467.3	1804.87
467.672	1812.55
468.045	1884.87
468.417	1876.05
468.789	1890.52
469.161	1920.8
469.534	1952.43
469.906	2014.35
470.278	2046.9
470.65	2076.05
471.022	2099.78
471.394	2169.15
471.766	2208.02
472.138	2223.39
472.51	2281.47
472.882	2337.28
473.253	2369.6
473.625	2427
473.997	2491.63
474.369	2521.69
474.74	2556.26
475.112	2626.99
475.484	2672.64
475.855	2754.9
476.227	2770.04
476.598	2853.88
476.97	2939.3
477.341	3046.42
477.713	3092.74
478.084	3117.6
478.455	3279.86
478.827	3308.56
479.198	3441.21
479.569	3493.41
479.94	3590.81
480.311	3708.55
480.682	3784.48
481.053	3906.73
481.424	4030.35
481.795	4125.48
482.166	4200.29
482.537	4286.16
482.908	4400.73
483.279	4497.23
483.65	4650.22
484.021	4809.99
484.391	4907.16
484.762	5007.72
485.133	5098.57
485.503	5273.7
485.874	5421.5
486.244	5527.26
486.615	5580.14
486.985	5774.48
487.356	6003.85
487.726	6069.16
488.097	6258.99
488.467	6365.2
488.837	6540.34
489.207	6744.62
489.578	6913.66
489.948	7021
490.318	7202.69
490.688	7296.47
491.058	7438.39
491.428	7658.5
491.798	7801.55
492.168	8009
492.538	8176.9
492.908	8250.57
493.278	8456.9
493.648	8571.47
494.017	8780.5
494.387	8840.16
494.757	9040.61
495.126	9171.68
495.496	9231.11
495.866	9417.55
496.235	9593.36
496.605	9717.43
496.974	9925.78
497.344	10083.97
497.713	10173.46
498.082	10282.39
498.452	10444.64
498.821	10496.84
499.19	10665.65
499.559	10826.1
499.928	10911.52
500.298	11154.23
500.667	11166.2
501.036	11264.05
501.405	11521
501.774	11505.18
502.143	11584.95
502.512	11698.62
502.88	11857.26
503.249	12016.58
503.618	12104.94
503.987	12118.04
504.356	12211.6
504.724	12294.31
505.093	12378.15
505.462	12495.21
505.83	12621.08
506.199	12847.97
506.567	12894.52
506.936	12964.8
507.304	13113.72
507.672	13152.14
508.041	13306.94
508.409	13319.37
508.777	13456.54
509.145	13530.89
509.514	13528.4
509.882	13670.09
510.25	13685.46
510.618	13817.89
510.986	13849.97
511.354	13993.25
511.722	14067.37
512.09	14238.67
512.458	14146.69
512.826	14246.35
513.193	14354.59
513.561	14403.41
513.929	14446.57
514.297	14557.53
514.664	14680.46
515.032	14729.27
515.4	14815.83
515.767	14868.71
516.135	14834.36
516.502	14871.42
516.869	15057.85
517.237	15027.57
517.604	14985.99
517.972	15155.48
518.339	15191.41
518.706	15255.36
519.073	15254.68
519.44	15376.26
519.808	15412.87
520.175	15446.32
520.542	15630.04
520.909	15637.5
521.276	15687.89
521.643	15719.76
522.009	15832.75
522.376	15809.25
522.743	15866.19
523.11	16004.72
523.477	15943.25
523.843	16096.92
524.21	16263.24
524.577	16291.94
524.943	16233.87
525.31	16298.5
525.676	16426.86
526.043	16473.63
526.409	16422.79
526.776	16554.54
527.142	16627.98
527.508	16552.73
527.874	16632.5
528.241	16714.98
528.607	16588.66
528.973	16683.8
529.339	16746.85
529.705	16866.62
530.071	16852.38
530.437	16933.96
530.803	16807.64
531.169	16896.9
531.535	16818.26
531.901	16819.16
532.267	16925.15
532.632	16989.55
532.998	16912.04
533.364	16935.54
533.73	17029.78
534.095	17081.75
534.461	16953.62
534.826	16974.64
535.192	17008.54
535.557	17128.76
535.923	16998.14
536.288	17010.34
536.653	17013.96
537.019	16822.78
537.384	16921.31
537.749	16846.51
538.114	16934.64
538.479	16823.46
538.845	16810.57
539.21	16776.68
539.575	16705.49
539.94	16840.4
540.305	16847.64
540.67	16803.12
541.034	16723.35
541.399	16756.57
541.764	16719.05
542.129	16758.15
542.494	16673.86
542.858	16663.01
543.223	16583.01
543.587	16698.94
543.952	16562.22
544.316	16615.1
544.681	16532.39
545.045	16491.71
545.41	16554.54
545.774	16444.03
546.138	16427.76
546.503	16409.68
546.867	16276.8
547.231	16396.57
547.595	16389.12
547.959	16380.98
548.324	16334.88
548.688	16207.43
549.052	16233.19
549.416	16231.61
549.779	16213.3
550.143	16227.77
550.507	16158.16
550.871	16109.8
551.235	16160.65
551.599	16183.7
551.962	16123.81
552.326	16072.29
552.689	15996.59
553.053	15976.47
553.417	15938.06
553.78	16180.08
554.143	16059.86
554.507	16027.77
554.87	15938.06
555.234	16055.57
555.597	15894.44
555.96	15919.3
556.323	15985.74
556.686	15865.29
557.05	15954.33
557.413	15871.84
557.776	15928.56
558.139	15981.9
558.502	15979.41
558.865	15943.93
559.228	16039.97
559.59	15997.94
559.953	15937.15
560.316	16099.63
560.679	15937.6
561.041	15990.03
561.404	16046.98
561.767	16103.47
562.129	16082.46
562.492	16084.27
562.854	16072.52
563.217	16029.58
563.579	16116.13
563.941	16166.52
564.304	16035
564.666	16178.28
565.028	16151.16
565.39	16159.52
565.753	16242.68
566.115	16241.78
566.477	16277.93
566.839	16245.39
567.201	16363.58
567.563	16300.53
567.925	16363.36
568.287	16357.48
568.648	16378.04
569.01	16442.45
569.372	16496.01
569.734	16430.7
570.095	16436.35
570.457	16511.83
570.819	16533.07
571.18	16465.5
571.542	16511.37
571.903	16533.75
572.265	16518.83
572.626	16536.68
572.987	16559.51
573.349	16651.94
573.71	16578.26
574.071	16668.21
574.432	16628.21
574.794	16835.21
575.155	16716.57
575.516	16660.3
575.877	16689.22
576.238	16662.33
576.599	16733.74
576.96	16819.39
577.32	16750.46
577.681	16836.34
578.042	16864.36
578.403	16839.73
578.763	16801.54
579.124	16844.92
579.485	16892.15
579.845	16861.2
580.206	16846.51
580.566	16809.45
580.927	16826.17
581.287	16850.35
581.648	16778.71
582.008	16880.18
582.368	16821.42
582.728	16841.31
583.089	16831.59
583.449	16812.16
583.809	16808.99
584.169	16780.07
584.529	16623.91
584.889	16799.5
585.249	16781.88
585.609	16626.4
585.969	16813.74
586.329	16656
586.688	16771.03
587.048	16570.81
587.408	16708.2
587.768	16680.18
588.127	16656.91
588.487	16641.77
588.846	16729.22
589.206	16553.86
589.565	16560.86
589.925	16644.7
590.284	16552.73
590.643	16699.84
591.003	16620.3
591.362	16614.42
591.721	16560.19
592.08	16578.94
592.44	16569.23
592.799	16576.68
593.158	16586.17
593.517	16528.55
593.876	16549.79
594.235	16503.69
594.593	16488.1
594.952	16505.05
595.311	16489.23
595.67	16483.13
596.029	16468.89
596.387	16542.33
596.746	16610.35
597.104	16536.01
597.463	16474.99
597.822	16459.62
598.18	16418.72
598.538	16505.95
598.897	16498.94
599.255	16379.85
599.613	16532.84
599.972	16406.07
600.33	16517.48
600.688	16433.64
601.046	16625.04
601.404	16516.57
601.762	16495.55
602.12	16538.04
602.478	16588.21
602.836	16564.03
603.194	16488.1
603.552	16556.8
603.91	16479.96
604.268	16545.27
604.625	16466.63
604.983	16584.59
605.341	16400.42
605.698	16564.71
606.056	16534.88
606.413	16534.42
606.771	16592.05
607.128	16636.79
607.485	16534.88
607.843	16526.74
608.2	16612.16
608.557	16670.01
608.914	16515.44
609.272	16627.3
609.629	16688.32
609.986	16706.62
610.343	16592.73
610.7	16740.97
611.057	16770.35
611.414	16712.05
611.771	16665.27
612.127	16740.97
612.484	16773.06
612.841	16855.77
613.198	16674.08
613.554	16825.26
613.911	16889.44
614.267	16873.4
614.624	16885.6
614.98	16884.25
615.337	16888.54
615.693	16929.44
616.05	16718.37
616.406	16895.77
616.762	16924.24
617.118	16839.95
617.475	16972.83
617.831	16850.57
618.187	16831.37
618.543	16912.72
618.899	17042.66
619.255	17051.25
619.611	17069.1
619.967	17142.09
620.323	17032.26
620.678	17045.6
621.034	17015.54
621.39	17008.54
621.746	16895.54
622.101	17186.38
622.457	16933.51
622.812	16977.35
623.168	17111.58
623.523	17087.86
623.879	17113.17
624.234	16993.39
624.589	17049.21
624.945	17055.77
625.3	17006.28
625.655	17078.82
626.01	17003.79
626.365	17050.79
626.72	17040.85
627.075	17033.39
627.43	17071.59
627.785	17089.21
628.14	17019.61
628.495	17120.4
628.85	17025.03
629.205	16908.2
629.559	17001.53
629.914	16889.44
630.269	16960.4
630.623	16818.03
630.978	16803.34
631.332	16879.73
631.687	16861.65
632.041	16843.57
632.396	16816.9
632.75	16778.26
633.104	16816.45
633.459	16832.27
633.813	16801.76
634.167	16723.8
634.521	16754.76
634.875	16764.47
635.229	16752.95
635.583	16714.98
635.937	16632.5
636.291	16573.07
636.645	16613.29
636.999	16559.73
637.352	16577.59
637.706	16527.87
638.06	16579.62
638.413	16612.84
638.767	16510.02
639.121	16526.74
639.474	16367.2
639.828	16418.04
640.181	16469.11
640.534	16402.45
640.888	16305.5
641.241	16221.89
641.594	16280.19
641.947	16323.13
642.301	16304.37
642.654	16271.83
643.007	16303.02
643.36	16292.4
643.713	16279.29
644.066	16351.6
644.419	16160.87
644.771	16109.35
645.124	16013.99
645.477	15990.94
645.83	15816.02
646.182	15872.07
646.535	15745.29
646.888	15802.01
647.24	15714.56
647.593	15781.45
647.945	15694.67
648.298	15714.33
648.65	15604.05
649.002	15571.51
649.355	15731.73
649.707	15766.31
650.059	15775.57
650.411	16021.44
650.763	16026.87
651.115	16143.93
651.467	16040.88
651.819	16175.56
652.171	16035.68
652.523	16057.37
652.875	16065.96
653.227	15932.18
653.578	16037.94
653.93	16083.59
654.282	15971.73
654.633	15949.81
654.985	16100.54
655.337	15997.26
655.688	16085.62
656.039	16032.74
656.391	15944.16
656.742	16011.05
657.094	16031.39
657.445	16077.71
657.796	16070.26
658.147	16059.63
658.498	16107.77
658.849	16046.98
659.2	16090.37
659.551	16058.28
659.902	16120.42
660.253	16079.29
660.604	16127.66
660.955	16033.42
661.306	16050.14
661.656	16031.61
662.007	16050.37
662.358	16080.42
662.708	16044.04
663.059	15959.07
663.409	15976.25
663.76	16007.66
664.11	15998.39
664.461	16092.18
664.811	16074.1
665.161	16036.36
665.511	15995
665.862	16120.88
666.212	16129.91
666.562	16141.67
666.912	16074.55
667.262	16075.68
667.612	16118.62
667.962	16185.96
668.312	16104.6
668.662	16096.92
669.011	16137.6
669.361	16075.23
669.711	16008.34
670.06	15972.86
670.41	16063.93
670.76	15948
671.109	16022.8
671.459	16007.88
671.808	15926.76
672.157	16114.1
672.507	15861.22
672.856	15918.17
673.205	15970.15
673.554	15870.03
673.904	15944.38
674.253	16096.92
674.602	15887.21
674.951	15731.06
675.3	15628.01
675.649	15833.88
675.998	15816.02
676.346	15882.46
676.695	15838.17
677.044	15778.06
677.393	15842.24
677.741	15880.43
678.09	15812.41
678.438	15706.88
678.787	15806.76
679.135	15783.48
679.484	15651.06
679.832	15700.32
680.181	15590.72
680.529	15609.93
680.877	15476.82
681.225	15507.56
681.573	15609.93
681.922	15490.38
682.27	15477.5
682.618	15430.5
682.966	15414
683.314	15448.12
683.661	15442.7
684.009	15333.33
684.357	15272.08
684.705	15319.31
685.053	15245.19
685.4	15168.13
685.748	15165.65
686.095	15139.66
686.443	15091.52
686.79	15049.04
687.138	15045.2
687.485	15041.58
687.832	15018.53
688.18	14990.74
688.527	14905.99
688.874	14920.68
689.221	14875.48
689.568	14791.42
689.915	14805.2
690.262	14799.55
690.609	14743.06
690.956	14720.46
691.303	14644.53
691.65	14552.1
691.997	14545.32
692.344	14417.19
692.69	14556.85
693.037	14429.85
693.383	14249.51
693.73	14327.02
694.077	14196.86
694.423	14171.77
694.769	14134.26
695.116	14100.59
695.462	14080.25
695.808	13999.35
696.155	14000.03
696.501	13932.91
696.847	13917.32
697.193	13772.01
697.539	13741.73
697.885	13739.7
698.231	13637.55
698.577	13668.96
698.923	13758.68
699.269	13547.84
699.614	13486.82
699.96	13493.83
700.306	13507.16
700.651	13411.79
700.997	13267.39
701.342	13290.67
701.688	13203.44
702.033	13190.11
702.379	13166.83
702.724	13221.29
703.069	13082.31
703.415	13009.54
703.76	13009.09
704.105	12947.85
704.45	12917.34
704.795	12861.3
705.14	12763.45
705.485	12745.82
705.83	12695.88
706.175	12727.74
706.52	12620.63
706.865	12574.75
707.209	12633.74
707.554	12484.14
707.899	12545.15
708.243	12445.72
708.588	12374.76
708.932	12367.53
709.277	12316.46
709.621	12307.87
709.966	12240.98
710.31	12296.8
710.654	12155.78
710.998	12140.19
711.342	12176.57
711.687	12087.99
712.031	12086.41
712.375	12056.12
712.719	12000.08
713.063	11947.43
713.407	11991.04
713.75	11947.2
714.094	12001.89
714.438	11871.72
714.782	11877.6
715.125	11831.04
715.469	11813.64
715.812	11695.91
716.156	11752.85
716.499	11691.39
716.843	11722.57
717.186	11654.33
717.53	11717.6
717.873	11650.03
718.216	11695.68
718.559	11679.64
718.902	11512.41
719.246	11586.98
719.589	11539.08
719.932	11500.88
720.275	11565.52
720.617	11478.29
720.96	11494.78
721.303	11503.37
721.646	11508.57
721.989	11422.47
722.331	11451.39
722.674	11445.97
723.016	11435.8
723.359	11430.6
723.701	11352.87
724.044	11342.24
724.386	11301.34
724.729	11389.02
725.071	11284.17
725.413	11270.83
725.755	11274
726.097	11221.34
726.439	11195.36
726.782	11224.73
727.124	11283.71
727.465	11226.99
727.807	11246.43
728.149	11184.51
728.491	11181.8
728.833	11251.85
729.175	11234.45
729.516	11188.35
729.858	11126.88
730.199	11173.21
730.541	11211.17
730.882	11210.5
731.224	11270.16
731.565	11082.14
731.906	11138.63
732.248	11139.54
732.589	11088.24
732.93	11073.32
733.271	11194.45
733.612	11142.25
733.953	11199.2
734.294	11121.46
734.635	11068.13
734.976	11188.35
735.317	11137.28
735.658	11173.66
735.999	11098.86
736.339	11070.84
736.68	11123.49
737.021	11181.34
737.361	11142.93
737.702	11121.68
738.042	11106.77
738.383	11123.27
738.723	11112.19
739.063	11125.3
739.404	11107.45
739.744	11126.88
740.084	11142.02
740.424	11260.89
740.764	11192.64
741.104	11236.03
741.444	11201.23
741.784	11132.98
742.124	11263.38
742.464	11290.95
742.804	11288.23
743.143	11297.05
743.483	11335.24
743.823	11282.81
744.162	11314.45
744.502	11438.96
744.841	11485.52
745.181	11458.17
745.52	11438.29
745.86	11540.21
746.199	11466.31
746.538	11600.09
746.877	11643.03
747.216	11639.19
747.556	11732.52
747.895	11808.22
748.234	11834.43
748.573	11873.08
748.911	11866.3
749.25	12025.84
749.589	12076.24
749.928	12156.69
750.267	12332.05
750.605	12330.69
750.944	12387.87
751.283	12404.14
751.621	12601.42
751.96	12587.86
752.298	12697.69
752.636	12868.76
752.975	12854.52
753.313	12974.07
753.651	13146.72
753.989	13156.66
754.327	13267.17
754.666	13353.49
755.004	13556.65
755.342	13707.83
755.679	13818.34
756.017	13974.27
756.355	14080.25
