Data from hue_170_FLMS001491_00083.txt Node
Date: Tue Feb 07 16:49:18 GMT 2017
User: dcchb
Spectrometer: FLMS00149
Trigger mode: 0
Integration Time (sec): 2.000000E-2
Scans to average: 10
Electric dark correction enabled: true
Nonlinearity correction enabled: false
Boxcar width: 0
XAxis mode: Wavelengths
Number of Pixels in Spectrum: 2048
>>>>>Begin Spectral Data<<<<<
341.393	-11.92
341.776	-11.92
342.16	-11.92
342.543	-65.7
342.927	-58.25
343.31	-93.27
343.693	-67.29
344.077	-68.19
344.46	-47.85
344.843	-43.33
345.226	-45.82
345.61	-43.78
345.993	-2.43
346.376	13.39
346.759	-4.92
347.142	19.49
347.525	38.02
347.908	53.39
348.291	82.99
348.674	99.04
349.057	110.56
349.44	127.96
349.823	129.54
350.206	173.39
350.588	216.55
350.971	219.26
351.354	231.69
351.737	236.66
352.119	241.63
352.502	258.13
352.884	287.28
353.267	278.02
353.65	299.03
354.032	306.04
354.414	326.6
354.797	309.2
355.179	313.72
355.562	328.41
355.944	330.22
356.326	318.24
356.709	352.36
357.091	349.43
357.473	342.42
357.855	342.87
358.238	343.32
358.62	345.36
359.002	338.13
359.384	340.61
359.766	342.19
360.148	331.12
360.53	328.86
360.912	330.22
361.294	310.56
361.676	346.94
362.057	341.52
362.439	323.89
362.821	325.25
363.203	336.54
363.584	319.14
363.966	318.69
364.348	330.22
364.729	336.77
365.111	309.65
365.493	321.63
365.874	322.08
366.256	323.66
366.637	312.59
367.019	323.89
367.4	302.2
367.781	320.5
368.163	305.59
368.544	318.92
368.925	310.1
369.306	343.32
369.688	332.93
370.069	331.8
370.45	322.31
370.831	327.05
371.212	302.87
371.593	320.05
371.974	318.92
372.355	313.95
372.736	331.8
373.117	340.84
373.498	317.79
373.879	331.8
374.26	326.6
374.641	299.26
375.021	307.85
375.402	311.01
375.783	322.53
376.163	298.13
376.544	327.96
376.925	339.03
377.305	329.54
377.686	338.35
378.066	325.47
378.447	351.69
378.827	351.46
379.208	339.93
379.588	318.24
379.968	335.87
380.349	335.87
380.729	338.35
381.109	344.91
381.489	345.13
381.87	341.52
382.25	333.61
382.63	334.74
383.01	359.37
383.39	360.72
383.77	347.39
384.15	359.14
384.53	346.94
384.91	360.95
385.29	340.16
385.67	347.39
386.049	353.04
386.429	358.01
386.809	341.74
387.189	350.78
387.568	350.78
387.948	386.49
388.328	367.28
388.707	354.4
389.087	377.67
389.466	378.8
389.846	354.17
390.225	365.24
390.605	386.04
390.984	397.33
391.363	387.16
391.743	374.74
392.122	387.39
392.501	383.1
392.881	381.29
393.26	373.83
393.639	372.93
394.018	371.57
394.397	391.68
394.776	378.13
395.155	406.15
395.534	403.21
395.913	398.24
396.292	409.54
396.671	387.62
397.05	420.84
397.429	412.93
397.808	403.89
398.186	401.18
398.565	414.73
398.944	409.09
399.323	416.54
399.701	390.78
400.08	411.8
400.458	405.47
400.837	419.03
401.215	424.68
401.594	421.74
401.972	425.13
402.351	437.79
402.729	436.88
403.107	421.51
403.486	445.47
403.864	431.01
404.242	436.43
404.62	441.85
404.999	434.17
405.377	443.43
405.755	429.2
406.133	448.86
406.511	454.51
406.889	462.87
407.267	474.39
407.645	482.76
408.023	502.19
408.401	471.91
408.779	482.53
409.156	511
409.534	504.22
409.912	507.16
410.29	506.94
410.667	499.03
411.045	492.92
411.422	499.93
411.8	521.17
412.178	547.39
412.555	520.27
412.933	528.86
413.31	544.22
413.687	541.74
414.065	551
414.442	570.21
414.819	572.47
415.197	544
415.574	554.84
415.951	582.87
416.328	573.15
416.705	585.58
417.082	583.77
417.46	606.37
417.837	605.92
418.214	586.03
418.591	613.37
418.967	606.37
419.344	609.08
419.721	595.97
420.098	613.83
420.475	623.99
420.852	642.75
421.228	667.61
421.605	660.83
421.982	668.74
422.358	658.57
422.735	684.11
423.111	671.68
423.488	703.99
423.864	687.95
424.241	704.22
424.617	696.31
424.994	696.99
425.37	730.88
425.746	721.17
426.123	732.69
426.499	742.64
426.875	749.19
427.251	747.16
427.627	740.83
428.003	765.01
428.379	780.37
428.756	798.68
429.132	775.86
429.507	815.4
429.883	827.83
430.259	831.9
430.635	816.76
431.011	820.6
431.387	855.85
431.763	832.8
432.138	855.85
432.514	886.81
432.89	881.39
433.265	866.93
433.641	897.21
434.016	922.52
434.392	927.94
434.767	974.49
435.143	938.34
435.518	962.29
435.894	949.64
436.269	989.41
436.644	979.69
437.02	986.25
437.395	1011.56
437.77	1033.48
438.145	1039.35
438.52	1057.2
438.895	1070.31
439.271	1104.21
439.646	1092.01
440.021	1099.01
440.395	1097.88
440.77	1077.77
441.145	1139.24
441.52	1161.83
441.895	1137.65
442.27	1173.81
442.645	1169.29
443.019	1176.97
443.394	1181.04
443.769	1206.35
444.143	1159.35
444.518	1220.82
444.892	1199.35
445.267	1233.92
445.641	1219.46
446.016	1231.66
446.39	1252.68
446.764	1283.64
447.139	1296.97
447.513	1271.66
447.887	1268.27
448.262	1301.04
448.636	1311.66
449.01	1328.16
449.384	1324.77
449.758	1340.81
450.132	1365.22
450.506	1382.84
450.88	1380.13
451.254	1367.7
451.628	1399.79
452.002	1424.65
452.376	1437.76
452.75	1431.88
453.123	1452
453.497	1469.85
453.871	1462.62
454.244	1520.69
454.618	1536.06
454.992	1539.9
455.365	1525.67
455.739	1599.56
456.112	1572.9
456.486	1599.56
456.859	1659.9
457.232	1635.95
457.606	1654.93
457.979	1689.28
458.352	1689.5
458.725	1723.63
459.099	1758.2
459.472	1812.21
459.845	1791.42
460.218	1809.05
460.591	1790.29
460.964	1844.08
461.337	1898.54
461.71	1953.45
462.083	1965.2
462.456	1957.97
462.829	1959.55
463.201	2026.22
463.574	2026.22
463.947	2067.57
464.32	2094.92
464.692	2143.5
465.065	2163.39
465.438	2220.79
465.81	2235.7
466.183	2282.48
466.555	2326.55
466.928	2316.83
467.3	2317.96
467.672	2370.39
468.045	2443.38
468.417	2476.15
468.789	2510.5
469.161	2538.07
469.534	2587.56
469.906	2639.99
470.278	2666.65
470.65	2723.83
471.022	2800.21
471.394	2829.36
471.766	2820.32
472.138	2888.12
472.51	2955.46
472.882	3008.11
473.253	3100.09
473.625	3135.57
473.997	3213.98
474.369	3264.83
474.74	3318.84
475.112	3404.03
475.484	3452.85
475.855	3522.68
476.227	3583.69
476.598	3727.42
476.97	3734.2
477.341	3854.19
477.713	3939.16
478.084	3975.77
478.455	4098.71
478.827	4202.66
479.198	4311.13
479.569	4360.62
479.94	4533.5
480.311	4583.21
480.682	4722.19
481.053	4833.15
481.424	4966.71
481.795	5006.25
482.166	5148.62
482.537	5189.75
482.908	5356.53
483.279	5493.92
483.65	5651.43
484.021	5706.57
484.391	5909.28
484.762	5976.17
485.133	6062.27
485.503	6150.18
485.874	6356.27
486.244	6423.62
486.615	6579.77
486.985	6743.38
487.356	6864.06
487.726	6907.22
488.097	7189.47
488.467	7255.01
488.837	7418.62
489.207	7541.55
489.578	7675.56
489.948	7802.56
490.318	7966.4
490.688	8024.93
491.058	8246.62
491.428	8335.66
491.798	8435.31
492.168	8716.89
492.538	8729.77
492.908	8830.78
493.278	9018.12
493.648	9080.04
494.017	9263.99
494.387	9333.82
494.757	9440.94
495.126	9508.73
495.496	9621.27
495.866	9786.69
496.235	9880.93
496.605	9956.86
496.974	10100.81
497.344	10215.83
497.713	10283.4
498.082	10365.66
498.452	10510.97
498.821	10570.17
499.19	10604.75
499.559	10713.45
499.928	10869.38
500.298	10925.64
500.667	11075.92
501.036	11060.56
501.405	11204.96
501.774	11171.74
502.143	11316.6
502.512	11341
502.88	11450.38
503.249	11378.06
503.618	11560.43
503.987	11613.76
504.356	11680.88
504.724	11766.3
505.093	11776.92
505.462	11854.66
505.83	11951.15
506.199	11959.97
506.567	12058.04
506.936	12170.81
507.304	12241.09
507.672	12222.56
508.041	12304.37
508.409	12456.23
508.777	12464.81
509.145	12521.31
509.514	12509.56
509.882	12667.29
510.25	12657.58
510.618	12703.9
510.986	12696.9
511.354	12849.89
511.722	12858.7
512.09	12937.34
512.458	12874.75
512.826	13048.98
513.193	13005.82
513.561	13035.42
513.929	13088.53
514.297	13161.29
514.664	13255.3
515.032	13275.64
515.4	13280.16
515.767	13351.12
516.135	13327.39
516.502	13380.5
516.869	13454.62
517.237	13378.69
517.604	13446.48
517.972	13521.51
518.339	13580.04
518.706	13568.51
519.073	13600.38
519.44	13647.38
519.808	13638.79
520.175	13639.47
520.542	13820.71
520.909	13807.15
521.276	13734.61
521.643	13847.6
522.009	13935.74
522.376	13893.48
522.743	13982.74
523.11	13981.16
523.477	14091.44
523.843	14116.75
524.21	14216.86
524.577	14177.31
524.943	14190.87
525.31	14186.12
525.676	14275.84
526.043	14229.74
526.409	14309.06
526.776	14443.52
527.142	14278.33
527.508	14388.83
527.874	14509.28
528.241	14484.42
528.607	14352
528.973	14465.44
529.339	14387.7
529.705	14408.04
530.071	14502.95
530.437	14484.87
530.803	14448.94
531.169	14470.86
531.535	14433.58
531.901	14502.5
532.267	14454.14
532.632	14516.74
532.998	14465.66
533.364	14386.12
533.73	14453.46
534.095	14446.23
534.461	14376.63
534.826	14383.86
535.192	14351.09
535.557	14380.92
535.923	14338.44
536.288	14314.71
536.653	14315.84
537.019	14246.91
537.384	14224.77
537.749	14288.04
538.114	14234.26
538.479	14065.68
538.845	14167.14
539.21	14058.44
539.575	14148.16
539.94	14065.9
540.305	14051.66
540.67	13954.49
541.034	13927.15
541.399	13911.33
541.764	13838.34
542.129	13858.68
542.494	13784.1
542.858	13721.28
543.223	13681.28
543.587	13712.01
543.952	13760.37
544.316	13669.98
544.681	13619.59
545.045	13652.8
545.41	13565.35
545.774	13544.79
546.138	13575.74
546.503	13491.23
546.867	13465.24
547.231	13455.52
547.595	13302.53
547.959	13380.04
548.324	13374.62
548.688	13326.94
549.052	13189.77
549.416	13242.42
549.779	13143.67
550.143	13056.21
550.507	13182.31
550.871	13157.22
551.235	12965.37
551.599	13062.54
551.962	12948.19
552.326	12966.04
552.689	12977.12
553.053	12876.55
553.417	12925.59
553.78	13006.95
554.143	12901.19
554.507	12830.45
554.87	12784.35
555.234	12807.4
555.597	12757.46
555.96	12847.85
556.323	12743.22
556.686	12683.56
557.05	12721.98
557.413	12805.82
557.776	12682.43
558.139	12737.57
558.502	12731.02
558.865	12685.37
559.228	12758.14
559.59	12641.98
559.953	12708.2
560.316	12709.1
560.679	12725.15
561.041	12731.7
561.404	12728.08
561.767	12772.6
562.129	12646.73
562.492	12783.68
562.854	12659.84
563.217	12617.35
563.579	12688.31
563.941	12743.45
564.304	12687.63
564.666	12762.43
565.028	12636.79
565.39	12745.26
565.753	12728.54
566.115	12773.28
566.477	12752.04
566.839	12784.13
567.201	12893.05
567.563	12792.49
567.925	12877.23
568.287	12889.89
568.648	12900.96
569.01	12913.16
569.372	12926.72
569.734	12845.82
570.095	12890.57
570.457	12980.96
570.819	12925.14
571.18	12901.86
571.542	12968.76
571.903	12943.44
572.265	13003.33
572.626	13000.39
572.987	12990.9
573.349	12954.52
573.71	13002.65
574.071	12903.22
574.432	12991.35
574.794	13159.48
575.155	13108.41
575.516	12987.96
575.877	13044.69
576.238	13098.02
576.599	13027.51
576.96	13060.28
577.32	13062.54
577.681	13116.55
578.042	13064.12
578.403	13049.2
578.763	13061.63
579.124	12976.44
579.485	13076.77
579.845	13178.24
580.206	13042.65
580.566	13027.06
580.927	13098.47
581.287	13045.59
581.648	13067.28
582.008	13047.4
582.368	13034.52
582.728	13093.95
583.089	12930.79
583.449	13006.04
583.809	13048.3
584.169	12990
584.529	13018.25
584.889	13057.57
585.249	12992.48
585.609	12955.2
585.969	13028.19
586.329	12970.79
586.688	13030.9
587.048	12918.59
587.408	12911.36
587.768	12961.07
588.127	12905.25
588.487	12941.64
588.846	13019.6
589.206	12818.48
589.565	12907.74
589.925	12958.36
590.284	12898.93
590.643	12868.42
591.003	12898.25
591.362	12903.22
591.721	12860.28
592.08	12822.77
592.44	12926.72
592.799	12906.16
593.158	12845.59
593.517	12788.19
593.876	12762.21
594.235	12768.08
594.593	12804.47
594.952	12846.95
595.311	12671.59
595.67	12756.11
596.029	12786.84
596.387	12754.07
596.746	12816.67
597.104	12763.11
597.463	12756.33
597.822	12841.98
598.18	12685.82
598.538	12741.42
598.897	12775.77
599.255	12696.45
599.613	12827.29
599.972	12775.77
600.33	12782.09
600.688	12712.26
601.046	12729.89
601.404	12809.89
601.762	12691.47
602.12	12783.68
602.478	12762.66
602.836	12760.17
603.194	12760.17
603.552	12740.06
603.91	12748.65
604.268	12695.54
604.625	12686.73
604.983	12801.3
605.341	12726.95
605.698	12761.75
606.056	12826.84
606.413	12781.19
606.771	12829.78
607.128	12881.75
607.485	12648.31
607.843	12732.38
608.2	12800.4
608.557	12802.21
608.914	12766.95
609.272	12844.69
609.629	12835.43
609.986	12997.23
610.343	12849.21
610.7	12931.24
611.057	12875.2
611.414	12915.42
611.771	12871.81
612.127	12929.43
612.484	12901.86
612.841	12892.15
613.198	12853.28
613.554	12947.96
613.911	12978.02
614.267	12960.62
614.624	12898.47
614.98	12883.11
615.337	13046.04
615.693	12970.79
616.05	12942.09
616.406	13106.38
616.762	12947.74
617.118	13008.08
617.475	13071.13
617.831	12995.2
618.187	13048.75
618.543	12957.46
618.899	13128.75
619.255	13013.27
619.611	12954.97
619.967	13070.9
620.323	13107.51
620.678	13129.2
621.034	12977.12
621.39	13044.69
621.746	13013.5
622.101	13121.75
622.457	13075.64
622.812	13171.24
623.168	13148.19
623.523	13181.63
623.879	13187.28
624.234	13072.48
624.589	13049.2
624.945	13125.59
625.3	13101.63
625.655	13148.64
626.01	13128.75
626.365	13117.23
626.72	13054.85
627.075	13022.31
627.43	12972.6
627.785	13025.7
628.14	13062.54
628.495	13038.58
628.85	13034.52
629.205	13033.39
629.559	13062.76
629.914	12990.9
630.269	12980.73
630.623	12937.12
630.978	12956.33
631.332	13022.76
631.687	13015.53
632.041	12949.55
632.396	13061.86
632.75	12921.07
633.104	12904.35
633.459	12868.87
633.813	12925.37
634.167	12793.17
634.521	12838.81
634.875	12785.48
635.229	12849.44
635.583	12773.73
635.937	12733.73
636.291	12725.6
636.645	12756.11
636.999	12694.19
637.352	12788.65
637.706	12685.6
638.06	12808.99
638.413	12638.37
638.767	12638.59
639.121	12669.55
639.474	12616.9
639.828	12545.72
640.181	12609.67
640.534	12592.27
640.888	12497.81
641.241	12480.63
641.594	12525.15
641.947	12591.82
642.301	12577.58
642.654	12512.95
643.007	12506.62
643.36	12481.08
643.713	12469.56
644.066	12558.82
644.419	12436.79
644.771	12437.02
645.124	12323.57
645.477	12279.06
645.83	12183.69
646.182	12178.49
646.535	12095.56
646.888	12114.31
647.24	12010.36
647.593	12119.74
647.945	12087.65
648.298	11995.9
648.65	11928.33
649.002	11960.19
649.355	12036.12
649.707	12056.24
650.059	12077.25
650.411	12239.28
650.763	12234.54
651.115	12371.93
651.467	12270.02
651.819	12341.2
652.171	12242.45
652.523	12284.03
652.875	12280.19
653.227	12246.97
653.578	12273.86
653.93	12243.8
654.282	12314.76
654.633	12256.23
654.985	12223.01
655.337	12250.81
655.688	12304.82
656.039	12384.82
656.391	12152.28
656.742	12321.09
657.094	12346.85
657.445	12373.06
657.796	12299.39
658.147	12310.02
658.498	12204.26
658.849	12295.33
659.2	12276.34
659.551	12274.99
659.902	12377.81
660.253	12324.25
660.604	12270.47
660.955	12251.03
661.306	12286.97
661.656	12316.34
662.007	12421.88
662.358	12334.65
662.708	12295.33
663.059	12329
663.409	12206.52
663.76	12332.84
664.11	12430.92
664.461	12355.44
664.811	12384.36
665.161	12380.52
665.511	12314.31
665.862	12357.02
666.212	12385.49
666.562	12425.94
666.912	12421.2
667.262	12452.38
667.612	12422.55
667.962	12295.33
668.312	12414.19
668.662	12512.04
669.011	12363.8
669.361	12353.4
669.711	12327.87
670.06	12365.16
670.41	12383.23
670.76	12281.09
671.109	12378.26
671.459	12397.02
671.808	12248.55
672.157	12301.43
672.507	12234.31
672.856	12258.94
673.205	12205.84
673.554	12354.31
673.904	12274.54
674.253	12332.39
674.602	12248.77
674.951	12097.82
675.3	12081.32
675.649	12170.81
675.998	12168.1
676.346	12205.39
676.695	12212.84
677.044	12130.58
677.393	12150.92
677.741	12165.61
678.09	12105.5
678.438	12080.42
678.787	12050.36
679.135	12072.73
679.484	12008.33
679.832	12037.25
680.181	11985.28
680.529	12049.91
680.877	11970.59
681.225	11993.64
681.573	12065.5
681.922	11989.8
682.27	11906.86
682.618	11835.23
682.966	11869.35
683.314	11764.04
683.661	11787.09
684.009	11779.41
684.357	11734.44
684.705	11686.98
685.053	11782.12
685.4	11659.18
685.748	11550.26
686.095	11663.93
686.443	11574.44
686.79	11503.26
687.138	11586.87
687.485	11619.64
687.832	11500.55
688.18	11492.64
688.527	11490.15
688.874	11442.24
689.221	11389.36
689.568	11398.85
689.915	11302.81
690.262	11306.2
690.609	11278.63
690.956	11221.46
691.303	11178.75
691.65	11112.08
691.997	11239.31
692.344	11065.75
692.69	11061.01
693.037	11047.68
693.383	10935.59
693.73	11054.91
694.077	10950.95
694.423	10871.18
694.769	10862.37
695.116	10739.21
695.462	10823.73
695.808	10714.13
696.155	10793.67
696.501	10716.61
696.847	10692.43
697.193	10647.01
697.539	10585.77
697.885	10561.59
698.231	10528.59
698.577	10463.06
698.923	10444.53
699.269	10411.31
699.614	10297.86
699.96	10256.96
700.306	10257.87
700.651	10277.3
700.997	10284.08
701.342	10200.69
701.688	10138.1
702.033	10082.28
702.379	9992.56
702.724	10021.71
703.069	10032.79
703.415	9909.85
703.76	9946.69
704.105	9948.27
704.45	9928.83
704.795	9832.34
705.14	9804.77
705.485	9733.81
705.83	9725
706.175	9670.08
706.52	9720.03
706.865	9647.03
707.209	9628.96
707.554	9592.12
707.899	9604.55
708.243	9608.17
708.588	9513.03
708.932	9452.24
709.277	9484.55
709.621	9469.41
709.966	9433.25
710.31	9423.76
710.654	9381.28
710.998	9354.84
711.342	9394.61
711.687	9312.81
712.031	9256.31
712.375	9190.32
712.719	9253.82
713.063	9228.97
713.407	9252.47
713.75	9176.76
714.094	9197.33
714.438	9165.24
714.782	9189.42
715.125	9108.07
715.469	9093.15
715.812	9052.47
716.156	9041.63
716.499	9087.28
716.843	9098.35
717.186	8984.9
717.53	9042.53
717.873	9043.66
718.216	9019.03
718.559	8905.81
718.902	8897.68
719.246	8920.73
719.589	8874.85
719.932	8873.95
720.275	8839.37
720.617	8843.89
720.96	8865.13
721.303	8830.33
721.646	8831.91
721.989	8763.22
722.331	8866.72
722.674	8824.91
723.016	8770.22
723.359	8807.96
723.701	8803.44
724.044	8731.58
724.386	8713.73
724.729	8711.01
725.071	8680.51
725.413	8770.9
725.755	8739.49
726.097	8656.78
726.439	8595.54
726.782	8643.22
727.124	8681.64
727.465	8659.04
727.807	8672.82
728.149	8674.86
728.491	8660.39
728.833	8661.52
729.175	8621.07
729.516	8645.03
729.858	8662.2
730.199	8594.41
730.541	8620.17
730.882	8568.42
731.224	8627.4
731.565	8593.95
731.906	8583.56
732.248	8578.14
732.589	8524.58
732.93	8556.89
733.271	8588.31
733.612	8585.37
733.953	8589.66
734.294	8574.75
734.635	8564.8
734.976	8569.1
735.317	8547.85
735.658	8530.45
735.999	8535.88
736.339	8617.68
736.68	8609.55
737.021	8583.33
737.361	8559.61
737.702	8576.55
738.042	8530.45
738.383	8600.73
738.723	8605.93
739.063	8621.3
739.404	8650.45
739.744	8658.36
740.084	8585.37
740.424	8631.69
740.764	8671.24
741.104	8714.63
741.444	8672.14
741.784	8672.37
742.124	8756.21
742.464	8717.79
742.804	8725.02
743.143	8706.27
743.483	8773.84
743.823	8817.23
744.162	8812.93
744.502	8814.74
744.841	8805.93
745.181	8945.81
745.52	8933.61
745.86	8989.2
746.199	9028.52
746.538	9093.6
746.877	9126.6
747.216	9145.58
747.556	9121.85
747.895	9262.41
748.234	9311.22
748.573	9250.89
748.911	9386.25
749.25	9432.8
749.589	9475.51
749.928	9533.82
750.267	9627.6
750.605	9677.32
750.944	9753.02
751.283	9802.74
751.621	9885.9
751.96	9923.64
752.298	10079.34
752.636	10154.37
752.975	10216.74
753.313	10335.83
753.651	10549.84
753.989	10478.43
754.327	10642.04
754.666	10782.15
755.004	10837.96
755.342	11050.39
755.679	11169.25
756.017	11269.14
756.355	11439.3
756.693	11517.04
757.031	11716.36
757.368	11838.62
757.706	11942.34
