Data from hue_00_FLMS001491_25.txt Node
Date: Mon Feb 06 15:29:29 GMT 2017
User: dcchb
Spectrometer: FLMS00149
Trigger mode: 0
Integration Time (sec): 2.000000E-2
Scans to average: 10
Electric dark correction enabled: true
Nonlinearity correction enabled: false
Boxcar width: 0
XAxis mode: Wavelengths
Number of Pixels in Spectrum: 2048
>>>>>Begin Spectral Data<<<<<
341.393	-17.09
341.776	-17.09
342.16	-17.09
342.543	-46.02
342.927	-56.41
343.31	-78.56
343.693	-37.43
344.077	-59.35
344.46	-60.93
344.843	-52.12
345.226	-39.91
345.61	-41.27
345.993	-16.19
346.376	-1.72
346.759	12.06
347.142	26.52
347.525	40.08
347.908	31.27
348.291	89.35
348.674	95
349.057	93.19
349.44	118.27
349.823	134.77
350.206	164.15
350.588	196.24
350.971	212.06
351.354	210.25
351.737	226.97
352.119	235.56
352.502	269.23
352.884	283.02
353.267	290.02
353.65	298.38
354.032	292.28
354.414	297.25
354.797	305.84
355.179	323.69
355.562	329.34
355.944	330.25
356.326	326.18
356.709	335.44
357.091	339.28
357.473	334.09
357.855	351.26
358.238	344.03
358.62	356.69
359.002	335.67
359.384	354.88
359.766	341.77
360.148	344.03
360.53	349.45
360.912	347.87
361.294	351.26
361.676	349.23
362.057	337.48
362.439	343.35
362.821	308.33
363.203	325.73
363.584	332.05
363.966	333.18
364.348	320.53
364.729	320.75
365.111	322.11
365.493	337.7
365.874	336.57
366.256	330.47
366.637	324.37
367.019	319.17
367.4	338.83
367.781	308.33
368.163	320.08
368.544	325.73
368.925	328.66
369.306	332.51
369.688	307.42
370.069	319.4
370.45	333.18
370.831	306.29
371.212	312.17
371.593	309.68
371.974	315.1
372.355	307.87
372.736	314.88
373.117	316.46
373.498	330.7
373.879	330.47
374.26	325.05
374.641	313.52
375.021	334.77
375.402	322.56
375.783	332.51
376.163	313.52
376.544	338.15
376.925	330.02
377.305	324.6
377.686	321.66
378.066	346.06
378.447	312.17
378.827	333.41
379.208	315.33
379.588	319.62
379.968	339.96
380.349	337.03
380.729	324.37
381.109	336.57
381.489	333.64
381.87	334.77
382.25	328.89
382.63	346.29
383.01	336.35
383.39	338.38
383.77	353.3
384.15	361.21
384.53	325.5
384.91	360.53
385.29	340.64
385.67	341.54
386.049	353.75
386.429	355.56
386.809	373.63
387.189	344.48
387.568	348.1
387.948	353.3
388.328	366.4
388.707	376.57
389.087	354.65
389.466	354.65
389.846	351.04
390.225	371.15
390.605	359.85
390.984	367.08
391.363	360.98
391.743	352.17
392.122	369.57
392.501	382.45
392.881	396.23
393.26	367.53
393.639	384.93
394.018	356.91
394.397	371.6
394.776	383.35
395.155	379.28
395.534	375.89
395.913	393.97
396.292	378.83
396.671	377.7
397.05	373.86
397.429	393.29
397.808	399.17
398.186	375.44
398.565	390.36
398.944	407.08
399.323	382.22
399.701	381.77
400.08	397.36
400.458	400.3
400.837	384.93
401.215	422.9
401.594	391.26
401.972	383.13
402.351	404.59
402.729	402.79
403.107	392.62
403.486	410.7
403.864	411.6
404.242	408.44
404.62	422.22
404.999	397.81
405.377	412.5
405.755	413.63
406.133	431.94
406.511	415.22
406.889	429.23
407.267	408.44
407.645	428.55
408.023	416.8
408.401	435.1
408.779	416.8
409.156	443.46
409.534	449.56
409.912	429.45
410.29	442.11
410.667	455.89
411.045	440.98
411.422	445.72
411.8	456.34
412.178	445.5
412.555	470.13
412.933	482.56
413.31	473.52
413.687	481.43
414.065	475.55
414.442	483.46
414.819	493.18
415.197	470.81
415.574	485.5
415.951	483.91
416.328	471.26
416.705	498.15
417.082	494.99
417.46	511.71
417.837	502.22
418.214	508.55
418.591	507.64
418.967	496.79
419.344	509.68
419.721	537.02
420.098	541.09
420.475	538.38
420.852	515.33
421.228	529.34
421.605	510.35
421.982	553.74
422.358	530.92
422.735	552.84
423.111	540.18
423.488	553.97
423.864	536.79
424.241	565.72
424.617	586.74
424.994	548.77
425.37	559.39
425.746	561.65
426.123	554.65
426.499	559.17
426.875	571.37
427.251	565.04
427.627	574.31
428.003	587.64
428.379	595.78
428.756	596
429.132	625.61
429.507	609.33
429.883	616.57
430.259	634.19
430.635	620.41
431.011	634.19
431.387	627.41
431.763	645.04
432.138	666.06
432.514	648.43
432.89	658.82
433.265	629.9
433.641	678.94
434.016	703.57
434.392	715.55
434.767	679.16
435.143	699.95
435.518	713.74
435.894	697.69
436.269	678.94
436.644	705.6
437.02	712.38
437.395	727.3
437.77	718.26
438.145	743.79
438.52	728.2
438.895	732.95
439.271	733.62
439.646	756.22
440.021	770.91
440.395	759.61
440.77	761.87
441.145	768.65
441.52	766.17
441.895	800.29
442.27	775.66
442.645	777.69
443.019	783.12
443.394	801.87
443.769	785.15
444.143	779.73
444.518	806.62
444.892	806.84
445.267	791.25
445.641	797.35
446.016	819.05
446.39	814.75
446.764	845.71
447.139	851.81
447.513	806.62
447.887	838.93
448.262	845.71
448.636	850.46
449.01	876.22
449.384	866.05
449.758	848.65
450.132	870.12
450.506	868.08
450.88	864.02
451.254	862.89
451.628	894.52
452.002	866.28
452.376	867.63
452.75	921.87
453.123	925.71
453.497	908.31
453.871	907.41
454.244	940.62
454.618	922.55
454.992	914.86
455.365	944.01
455.739	965.94
456.112	977.23
456.486	976.56
456.859	978.59
457.232	1000.51
457.606	997.57
457.979	988.08
458.352	1014.07
458.725	1019.49
459.099	1030.57
459.472	1049.55
459.845	1056.55
460.218	1060.85
460.591	1042.09
460.964	1081.86
461.337	1135.2
461.71	1115.99
462.083	1110.11
462.456	1134.97
462.829	1132.94
463.201	1117.12
463.574	1153.27
463.947	1168.87
464.32	1181.97
464.692	1182.43
465.065	1223.56
465.438	1227.85
465.81	1230.11
466.183	1229.88
466.555	1278.7
466.928	1231.92
467.3	1270.11
467.672	1260.39
468.045	1327.06
468.417	1310.78
468.789	1341.74
469.161	1318.02
469.534	1353.5
469.906	1394.62
470.278	1405.92
470.65	1423.1
471.022	1452.48
471.394	1452.93
471.766	1456.09
472.138	1526.15
472.51	1540.61
472.882	1555.98
473.253	1558.91
473.625	1552.36
473.997	1626.48
474.369	1634.39
474.74	1645.01
475.112	1675.07
475.484	1704.45
475.855	1734.95
476.227	1715.07
476.598	1768.63
476.97	1769.53
477.341	1841.39
477.713	1848.4
478.084	1871.22
478.455	1906.25
478.827	1959.36
479.198	2000.48
479.569	2009.07
479.94	2069.18
480.311	2077.32
480.682	2145.57
481.053	2185.79
481.424	2217.2
481.795	2207.94
482.166	2252.23
482.537	2294.26
482.908	2327.71
483.279	2362.28
483.65	2416.74
484.021	2459.23
484.391	2495.16
484.762	2527.02
485.133	2547.14
485.503	2609.06
485.874	2621.71
486.244	2646.79
486.615	2713.01
486.985	2811.99
487.356	2837.52
487.726	2827.81
488.097	2876.39
488.467	2903.96
488.837	2979.44
489.207	2991.19
489.578	3021.7
489.948	3082.49
490.318	3143.05
490.688	3151.87
491.058	3195.03
491.428	3249.04
491.798	3265.54
492.168	3319.77
492.538	3327
492.908	3377.17
493.278	3415.81
493.648	3408.36
494.017	3474.12
494.387	3502.59
494.757	3526.77
495.126	3602.25
495.496	3606.32
495.866	3619.88
496.235	3658.07
496.605	3732.42
496.974	3701.46
497.344	3784.39
497.713	3832.98
498.082	3824.16
498.452	3842.24
498.821	3856.71
499.19	3896.48
499.559	3910.72
499.928	3950.04
500.298	3976.93
500.667	4018.74
501.036	3998.17
501.405	4120.88
501.774	4052.41
502.143	4109.13
502.512	4114.78
502.88	4164.04
503.249	4138.06
503.618	4210.82
503.987	4212.4
504.356	4208.11
504.724	4248.11
505.093	4236.58
505.462	4278.62
505.83	4271.38
506.199	4321.55
506.567	4338.95
506.936	4388.9
507.304	4389.57
507.672	4402.91
508.041	4413.75
508.409	4503.92
508.777	4500.31
509.145	4512.73
509.514	4570.13
509.882	4566.07
510.25	4609
510.618	4596.35
510.986	4630.92
511.354	4688.78
511.722	4696.68
512.09	4724.03
512.458	4731.71
512.826	4741.88
513.193	4745.95
513.561	4801.77
513.929	4784.37
514.297	4842.9
514.664	4874.31
515.032	4896.68
515.4	4866.62
515.767	4894.65
516.135	4897.13
516.502	4886.74
516.869	4969.67
517.237	4942.33
517.604	4942.1
517.972	4996.34
518.339	5048.54
518.706	5057.58
519.073	5040.18
519.44	5039.27
519.808	5115.88
520.175	5065.71
520.542	5097.8
520.909	5144.81
521.276	5145.03
521.643	5228.42
522.009	5209.89
522.376	5250.79
522.743	5236.78
523.11	5309.55
523.477	5359.72
523.843	5342.77
524.21	5363.56
524.577	5440.62
524.943	5444.91
525.31	5480.62
525.676	5524.69
526.043	5533.95
526.409	5594.06
526.776	5582.08
527.142	5658.24
527.508	5666.6
527.874	5670.9
528.241	5727.17
528.607	5752.02
528.973	5824.56
529.339	5784.11
529.705	5821.85
530.071	5885.13
530.437	5905.01
530.803	5931
531.169	5898.46
531.535	5929.42
531.901	5990.66
532.267	5932.81
532.632	6049.64
532.998	6081.28
533.364	6102.07
533.73	6119.7
534.095	6130.55
534.461	6150.88
534.826	6171.67
535.192	6233.14
535.557	6262.74
535.923	6223.42
536.288	6349.52
536.653	6292.35
537.019	6286.02
537.384	6402.63
537.749	6406.47
538.114	6369.18
538.479	6392.46
538.845	6410.09
539.21	6433.14
539.575	6468.16
539.94	6492.12
540.305	6573.92
540.67	6542.74
541.034	6636.97
541.399	6646.92
541.764	6595.62
542.129	6647.59
542.494	6766.46
542.858	6684.2
543.223	6747.93
543.587	6737.76
543.952	6819.11
544.316	6862.05
544.681	6820.92
545.045	6862.5
545.41	6915.84
545.774	6915.84
546.138	7016.85
546.503	7016.17
546.867	6975.72
547.231	7028.37
547.595	7059.56
547.959	7089.84
548.324	7050.07
548.688	7077.86
549.052	7141.82
549.416	7167.58
549.779	7220.69
550.143	7203.74
550.507	7229.05
550.871	7242.38
551.235	7331.42
551.599	7316.28
551.962	7329.84
552.326	7370.51
552.689	7420.91
553.053	7448.48
553.417	7415.93
553.78	7503.62
554.143	7496.16
554.507	7495.48
554.87	7500.68
555.234	7604.18
555.597	7514.01
555.96	7547.68
556.323	7585.42
556.686	7601.92
557.05	7644.18
557.413	7707.9
557.776	7742.71
558.139	7764.4
558.502	7821.35
558.865	7807.34
559.228	7839.2
559.59	7796.94
559.953	7910.16
560.316	7932.76
560.679	7975.69
561.041	8066.09
561.404	8015.47
561.767	8061.79
562.129	8092.3
562.492	8130.04
562.854	8087.33
563.217	8100.21
563.579	8172.53
563.941	8258.4
564.304	8272.64
564.666	8302.92
565.028	8268.57
565.39	8333.88
565.753	8379.75
566.115	8412.97
566.477	8461.78
566.839	8453.65
567.201	8497.26
567.563	8511.5
567.925	8536.13
568.287	8577.49
568.648	8589.46
569.01	8662
569.372	8721.21
569.734	8693.87
570.095	8770.48
570.457	8822.23
570.819	8827.65
571.18	8824.03
571.542	8925.5
571.903	9009.34
572.265	8938.38
572.626	8971.37
572.987	9048.21
573.349	9034.2
573.71	9166.85
574.071	9191.48
574.432	9212.5
574.794	9331.14
575.155	9401.65
575.516	9443.45
575.877	9478.48
576.238	9597.35
576.599	9675.54
576.96	9563.9
577.32	9734.52
577.681	9818.58
578.042	9923.44
578.403	9969.77
578.763	10030.56
579.124	10145.13
579.485	10327.27
579.845	10412.92
580.206	10403.88
580.566	10487.27
580.927	10616.75
581.287	10790.76
581.648	10856.97
582.008	10996.41
582.368	11021.04
582.728	11314.36
583.089	11400.91
583.449	11511.65
583.809	11698.76
584.169	11873.22
584.529	11968.81
584.889	12320.21
585.249	12362.47
585.609	12538.74
585.969	12805.4
586.329	13006.97
586.688	13169.46
587.048	13338.72
587.408	13499.84
587.768	13812.6
588.127	13904.13
588.487	14238.35
588.846	14504.56
589.206	14604.9
589.565	14928.96
589.925	15142.29
590.284	15371.66
590.643	15707.69
591.003	15948.59
591.362	16293.22
591.721	16497.05
592.08	16703.37
592.44	17026.3
592.799	17341.1
593.158	17527.08
593.517	17823.34
593.876	18122.32
594.235	18330
594.593	18625.36
594.952	18998
595.311	19121.16
595.67	19575.16
596.029	19962.05
596.387	20112.1
596.746	20501.69
597.104	20667.34
597.463	20990.72
597.822	21464.38
598.18	21508.9
598.538	21789.79
598.897	22263.45
599.255	22302.78
599.613	23051.46
599.972	23140.27
600.33	23485.12
600.688	23622.29
601.046	23910.19
601.404	24344.08
601.762	24492.77
602.12	24920.33
602.478	25084.85
602.836	25316.26
603.194	25501.11
603.552	25870.82
603.91	26089.34
604.268	26463.8
604.625	26558.03
604.983	26966.38
605.341	27056.1
605.698	27506.71
606.056	27847.04
606.413	27818.56
606.771	28268.27
607.128	28614.25
607.485	28555.04
607.843	28861.25
608.2	29207
608.557	29482.25
608.914	29512.76
609.272	29964.72
609.629	30055.34
609.986	30259.18
610.343	30540.75
610.7	30927.18
611.057	31035.2
611.414	31181.19
611.771	31324.23
612.127	31703.66
612.484	31679.03
612.841	32139.13
613.198	32130.99
613.554	32392
613.911	32611.43
614.267	32662.28
614.624	32961.03
614.98	33045.32
615.337	33366.67
615.693	33486.66
616.05	33644.62
616.406	33952.41
616.762	33852.08
617.118	34050.94
617.475	34201.22
617.831	34409.8
618.187	34586.97
618.543	34793.29
618.899	34914.42
619.255	35043.68
619.611	35188.54
619.967	35317.12
620.323	35440.73
620.678	35419.27
621.034	35565.03
621.39	35530.22
621.746	35771.35
622.101	36265.57
622.457	36022.19
622.812	36295.18
623.168	36325.23
623.523	36478.67
623.879	36614.72
624.234	36425.34
624.589	36723.86
624.945	36826.24
625.3	36826.91
625.655	36979
626.01	37109.62
626.365	37149.39
626.72	37145.55
627.075	37318.2
627.43	37272.55
627.785	37201.82
628.14	37476.39
628.495	37522.04
628.85	37565.42
629.205	37409.72
629.559	37703.95
629.914	37556.61
630.269	37709.15
630.623	37682.26
630.978	37570.62
631.332	37747.79
631.687	37889.71
632.041	37704.63
632.396	37886.32
632.75	37626.67
633.104	37957.28
633.459	37820.79
633.813	37856.72
634.167	37790.05
634.521	37815.36
634.875	37964.06
635.229	37840.22
635.583	37733.56
635.937	37870.28
636.291	37760.45
636.645	37818.07
636.999	37687.91
637.352	38016.94
637.706	37810.39
638.06	37994.79
638.413	37890.16
638.767	37733.78
639.121	37926.09
639.474	37654.69
639.828	37666.21
640.181	37830.73
640.534	37797.96
640.888	37763.16
641.241	37614.01
641.594	37733.33
641.947	37881.12
642.301	37712.09
642.654	37590.73
643.007	37769.49
643.36	37783.95
643.713	37635.03
644.066	37792.76
644.419	37551.64
644.771	37320.46
645.124	37073.23
645.477	37010.19
645.83	36799.57
646.182	36636.64
646.535	36572.91
646.888	36685.22
647.24	36555.06
647.593	36575.62
647.945	36512.12
648.298	36480.03
648.65	36420.6
649.002	36344.67
649.355	36595.73
649.707	36425.34
650.059	36615.62
650.411	36919.11
650.763	37046.79
651.115	37449.5
651.467	37199.11
651.819	37227.81
652.171	37285.43
652.523	37195.04
652.875	37151.2
653.227	37074.36
653.578	37445.65
653.93	37216.28
654.282	37125.66
654.633	37068.49
654.985	37162.72
655.337	36959.11
655.688	37143.51
656.039	37089.28
656.391	36944.2
656.742	36979.23
657.094	37033.24
657.445	37028.94
657.796	37003.18
658.147	36882.5
658.498	36976.74
658.849	36996.63
659.2	37084.08
659.551	36960.24
659.902	37033.69
660.253	36838.89
660.604	36976.06
660.955	36916.63
661.306	36875.27
661.656	36940.58
662.007	36784.43
662.358	37011.77
662.708	36870.3
663.059	36882.5
663.409	36578.56
663.76	36935.38
664.11	36923.86
664.461	36967.47
664.811	36832.56
665.161	36873.92
665.511	36771.55
665.862	36841.83
666.212	36936.29
666.562	36970.64
666.912	36951.43
667.262	36811.55
667.612	36819.91
667.962	36814.71
668.312	36743.07
668.662	36862.39
669.011	36802.05
669.361	36533.14
669.711	36802.96
670.06	36655.39
670.41	36604.09
670.76	36650.42
671.109	36844.54
671.459	36668.95
671.808	36604.09
672.157	36624.88
672.507	36439.58
672.856	36502.4
673.205	36528.62
673.554	36651.55
673.904	36559.12
674.253	36719.8
674.602	36539.46
674.951	36001.4
675.3	35871.91
675.649	36388.51
675.998	36308.96
676.346	36342.63
676.695	36474.15
677.044	36160.72
677.393	36380.37
677.741	36331.11
678.09	36273.93
678.438	36242.97
678.787	36399.81
679.135	36140.83
679.484	35811.35
679.832	36138.8
680.181	35819.03
680.529	36030.78
680.877	36005.47
681.225	35830.1
681.573	36246.14
681.922	35800.73
682.27	35817.9
682.618	35790.78
682.966	35685.02
683.314	35825.13
683.661	35683.89
684.009	35514.41
684.357	35532.48
684.705	35374.97
685.053	35555.99
685.4	35453.84
685.748	35198.93
686.095	35227.63
686.443	35020.63
686.79	35115.32
687.138	35186.05
687.485	35154.19
687.832	34959.62
688.18	35017.24
688.527	34904.93
688.874	34757.36
689.221	34744.71
689.568	34674.43
689.915	34582.68
690.262	34575.22
690.609	34586.75
690.956	34484.15
691.303	34479.4
691.65	34222.69
691.997	34107.44
692.344	34020.21
692.69	34008.23
693.037	33983.82
693.383	33606.21
693.73	33679.88
694.077	33579.09
694.423	33448.24
694.769	33460
695.116	33377.96
695.462	33463.84
695.808	33168.25
696.155	33248.25
696.501	33099.55
696.847	33092.1
697.193	32761.26
697.539	33034.02
697.885	32756.29
698.231	32569.17
698.577	32622.96
698.923	32619.34
699.269	32531.88
699.614	32287.37
699.96	32203.08
700.306	32314.94
700.651	32229.07
700.997	32125.34
701.342	32078.56
701.688	31946.14
702.033	31928.51
702.379	31828.17
702.724	31802.19
703.069	31778.46
703.415	31443.1
703.76	31497.11
704.105	31483.1
704.45	31354.97
704.795	31272.71
705.14	31065.93
705.485	31074.07
705.83	30984.13
706.175	31043.11
706.52	30888.31
706.865	30968.08
707.209	30750.24
707.554	30513.18
707.899	30757.24
708.243	30624.82
708.588	30479.74
708.932	30301.66
709.277	30190.93
709.621	30217.82
709.966	29999.3
710.31	30245.84
710.654	29996.13
710.998	29969.92
711.342	30050.82
711.687	29789.36
712.031	29719.53
712.375	29636.14
712.719	29768.79
713.063	29618.97
713.407	29661.9
713.75	29519.99
714.094	29445.19
714.438	29306.21
714.782	29319.09
715.125	29071.86
715.469	29288.13
715.812	29209.03
716.156	29070.96
716.499	28972.43
716.843	29028.47
717.186	28824.41
717.53	29043.84
717.873	28968.59
718.216	28854.69
718.559	28659.22
718.902	28552.33
719.246	28664.42
719.589	28555.72
719.932	28468.26
720.275	28555.94
720.617	28588.94
720.96	28395.27
721.303	28409.96
721.646	28342.62
721.989	28243.86
722.331	28269.85
722.674	28200.47
723.016	28243.41
723.359	28133.36
723.701	28138.1
724.044	28022.17
724.386	27893.81
724.729	27997.31
725.071	27844.78
725.413	27759.13
725.755	27863.76
726.097	27814.95
726.439	27508.97
726.782	27589.42
727.124	27717.32
727.465	27439.82
727.807	27486.82
728.149	27479.36
728.491	27356.43
728.833	27458.8
729.175	27254.51
729.516	27320.04
729.858	27253.15
730.199	27242.98
730.541	27168.18
730.882	27201.18
731.224	27261.29
731.565	27045.48
731.906	27060.16
732.248	27047.74
732.589	26882.32
732.93	26951.24
733.271	26889.55
733.612	26939.94
733.953	26880.96
734.294	26765.03
734.635	26693.62
734.976	26790.34
735.317	26561.65
735.658	26649.55
735.999	26608.88
736.339	26577.92
736.68	26532.49
737.021	26393.29
737.361	26399.39
737.702	26418.6
738.042	26468.99
738.383	26315.78
738.723	26443.46
739.063	26322.78
739.404	26367.75
739.744	26197.59
740.084	25940.19
740.424	26080.3
740.764	26131.38
741.104	26127.08
741.444	25840.54
741.784	25857.26
742.124	25897.26
742.464	25892.96
742.804	25815
743.143	25828.78
743.483	25856.81
743.823	25500.88
744.162	25638.73
744.502	25710.6
744.841	25589.92
745.181	25719.63
745.52	25437.83
745.86	25555.12
746.199	25545.63
746.538	25393.99
746.877	25520.77
747.216	25417.72
747.556	25490.26
747.895	25319.64
748.234	25190.16
748.573	25260.21
748.911	25281.45
749.25	25182.47
749.589	25191.96
749.928	25022.25
750.267	25107.45
750.605	24997.17
750.944	24980.22
751.283	24909.71
751.621	25025.64
751.96	24811.86
752.298	24731.64
752.636	24791.75
752.975	24670.4
753.313	24602.38
753.651	24706.33
753.989	24533.22
754.327	24493.9
754.666	24435.15
755.004	24493.9
755.342	24451.42
755.679	24396.05
756.017	24225.44
756.355	24244.19
756.693	24222.72
757.031	24235.83
757.368	24059.34
757.706	24060.02
758.044	23975.05
758.381	23914.94
758.719	23910.64
759.056	23876.97
759.394	23731.21
759.731	23624.77
760.068	23618.67
760.405	23634.72
