Data from hue_290_FLMS001491_00075.txt Node
Date: Tue Feb 07 15:53:13 GMT 2017
User: dcchb
Spectrometer: FLMS00149
Trigger mode: 0
Integration Time (sec): 2.000000E-2
Scans to average: 10
Electric dark correction enabled: true
Nonlinearity correction enabled: false
Boxcar width: 0
XAxis mode: Wavelengths
Number of Pixels in Spectrum: 2048
>>>>>Begin Spectral Data<<<<<
341.393	-19.77
341.776	-19.77
342.16	-19.77
342.543	-63.39
342.927	-59.55
343.31	-60.68
343.693	-77.85
344.077	-60.68
344.46	-61.81
344.843	-39.89
345.226	-34.69
345.61	-22.26
345.993	-35.82
346.376	1.24
346.759	-4.41
347.142	21.81
347.525	46.67
347.908	69.49
348.291	44.18
348.674	98.19
349.057	116.49
349.44	120.56
349.823	132.54
350.206	172.76
350.588	197.17
350.971	204.4
351.354	219.54
351.737	219.77
352.119	241.24
352.502	261.35
352.884	251.86
353.267	295.47
353.65	289.82
354.032	299.77
354.414	305.42
354.797	297.05
355.179	296.6
355.562	316.49
355.944	311.97
356.326	337.28
356.709	316.49
357.091	319.88
357.473	322.59
357.855	323.95
358.238	318.52
358.62	330.5
359.002	335.02
359.384	330.73
359.766	335.47
360.148	338.86
360.53	325.53
360.912	331.4
361.294	326.21
361.676	314.91
362.057	341.12
362.439	349.71
362.821	324.4
363.203	316.71
363.584	333.44
363.966	316.04
364.348	323.95
364.729	323.95
365.111	303.61
365.493	325.98
365.874	308.35
366.256	292.08
366.637	330.73
367.019	322.82
367.4	309.71
367.781	304.96
368.163	311.74
368.544	288.47
368.925	304.29
369.306	293.21
369.688	325.3
370.069	286.21
370.45	302.93
370.831	295.47
371.212	304.06
371.593	323.95
371.974	305.42
372.355	328.69
372.736	322.14
373.117	310.39
373.498	305.64
373.879	300.67
374.26	300.22
374.641	315.13
375.021	323.72
375.402	308.13
375.783	302.25
376.163	304.06
376.544	314.23
376.925	309.94
377.305	316.49
377.686	330.27
378.066	316.04
378.447	328.47
378.827	345.41
379.208	320.78
379.588	315.13
379.968	321.46
380.349	340.22
380.729	331.86
381.109	319.88
381.489	322.14
381.87	328.47
382.25	323.27
382.63	346.32
383.01	318.52
383.39	330.27
383.77	344.51
384.15	344.51
384.53	333.21
384.91	342.25
385.29	342.48
385.67	347.67
386.049	347.22
386.429	349.48
386.809	356.26
387.189	341.35
387.568	329.6
387.948	347.22
388.328	351.52
388.707	351.97
389.087	344.28
389.466	348.58
389.846	354.23
390.225	368.01
390.605	354.45
390.984	338.64
391.363	349.71
391.743	384.28
392.122	372.31
392.501	358.07
392.881	378.41
393.26	345.64
393.639	394.68
394.018	360.56
394.397	385.41
394.776	386.54
395.155	370.5
395.534	383.15
395.913	387.22
396.292	384.06
396.671	392.87
397.05	391.52
397.429	413.21
397.808	396.94
398.186	389.93
398.565	394.68
398.944	396.71
399.323	360.33
399.701	414.11
400.08	386.77
400.458	397.39
400.837	422.25
401.215	419.76
401.594	434.68
401.972	416.15
402.351	431.74
402.729	414.79
403.107	434.23
403.486	446.88
403.864	422.02
404.242	438.52
404.62	458.63
404.999	439.42
405.377	427.22
405.755	438.07
406.133	466.32
406.511	444.4
406.889	459.99
407.267	473.32
407.645	475.13
408.023	481.68
408.401	465.41
408.779	478.97
409.156	463.15
409.534	509.7
409.912	516.71
410.29	517.61
410.667	522.13
411.045	513.77
411.422	518.29
411.8	532.53
412.178	560.32
412.555	534.79
412.933	541.34
413.31	552.87
413.687	568.46
414.065	583.15
414.442	588.12
414.819	597.84
415.197	607.1
415.574	604.39
415.951	636.25
416.328	611.4
416.705	623.83
417.082	645.52
417.46	641.23
417.837	651.62
418.214	662.69
418.591	661.79
418.967	664.95
419.344	692.98
419.721	700.21
420.098	701.79
420.475	709.92
420.852	715.57
421.228	721.45
421.605	721.45
421.982	735.46
422.358	754.44
422.735	764.61
423.111	743.82
423.488	763.71
423.864	798.06
424.241	771.84
424.617	804.61
424.994	795.8
425.37	823.59
425.746	820.2
426.123	836.7
426.499	842.35
426.875	836.7
427.251	848
427.627	866.76
428.003	873.08
428.379	896.81
428.756	920.77
429.132	920.09
429.507	922.12
429.883	932.07
430.259	963.93
430.635	956.7
431.011	956.47
431.387	988.11
431.763	977.71
432.138	1015.91
432.514	1014.1
432.89	1007.09
433.265	1053.87
433.641	1072.63
434.016	1050.48
434.392	1081.67
434.767	1113.3
435.143	1117.82
435.518	1136.58
435.894	1124.83
436.269	1122.34
436.644	1157.37
437.02	1173.87
437.395	1149.69
437.77	1217.93
438.145	1227.88
438.52	1200.31
438.895	1219.97
439.271	1231.95
439.646	1270.14
440.021	1277.82
440.395	1276.01
440.77	1267.88
441.145	1305.16
441.52	1339.51
441.895	1338.83
442.27	1300.19
442.645	1319.85
443.019	1318.72
443.394	1332.28
443.769	1331.15
444.143	1353.3
444.518	1342.22
444.892	1358.5
445.267	1362.34
445.641	1398.04
446.016	1379.74
446.39	1397.14
446.764	1408.66
447.139	1396.23
447.513	1423.13
447.887	1408.89
448.262	1416.35
448.636	1437.82
449.01	1466.06
449.384	1453.63
449.758	1464.93
450.132	1474.65
450.506	1448.89
450.88	1473.52
451.254	1506.97
451.628	1504.48
452.002	1493.18
452.376	1516.91
452.75	1532.5
453.123	1525.5
453.497	1550.13
453.871	1564.37
454.244	1608.43
454.618	1602.1
454.992	1605.49
455.365	1624.93
455.739	1664.7
456.112	1652.95
456.486	1640.3
456.859	1666.96
457.232	1697.7
457.606	1677.36
457.979	1729.56
458.352	1731.37
458.725	1735.66
459.099	1763
459.472	1801.2
459.845	1781.08
460.218	1815.66
460.591	1823.12
460.964	1813.62
461.337	1869.44
461.71	1858.6
462.083	1882.1
462.456	1846.39
462.829	1879.16
463.201	1907.18
463.574	1936.33
463.947	1963.9
464.32	1965.49
464.692	1982.21
465.065	1976.78
465.438	1998.93
465.81	2027.86
466.183	2063.34
466.555	2097.68
466.928	2110.57
467.3	2080.74
467.672	2120.28
468.045	2166.38
468.417	2142.88
468.789	2164.12
469.161	2215.87
469.534	2220.39
469.906	2244.57
470.278	2242.77
470.65	2233.05
471.022	2304.23
471.394	2367.06
471.766	2351.46
472.138	2374.29
472.51	2414.29
472.882	2408.19
473.253	2438.92
473.625	2515.08
473.997	2576.09
474.369	2525.24
474.74	2558.24
475.112	2609.08
475.484	2627.84
475.855	2646.6
476.227	2625.13
476.598	2731.79
476.97	2750.1
477.341	2756.65
477.713	2814.05
478.084	2776.31
478.455	2833.03
478.827	2872.13
479.198	2956.19
479.569	2938.57
479.94	3020.37
480.311	3007.72
480.682	3063.99
481.053	3179.24
481.424	3155.51
481.795	3186.24
482.166	3226.69
482.537	3248.62
482.908	3355.05
483.279	3358.89
483.65	3366.13
484.021	3422.85
484.391	3415.62
484.762	3493.13
485.133	3521.6
485.503	3532.9
485.874	3611.09
486.244	3551.88
486.615	3663.52
486.985	3661.94
487.356	3713.69
487.726	3744.2
488.097	3821.26
488.467	3776.96
488.837	3899.67
489.207	3891.54
489.578	3959.1
489.948	3984.19
490.318	4011.98
490.688	4035.49
491.058	4075.94
491.428	4131.98
491.798	4106.9
492.168	4209.04
492.538	4199.32
492.908	4259.66
493.278	4261.7
493.648	4292.43
494.017	4359.09
494.387	4350.51
494.757	4397.51
495.126	4385.08
495.496	4458.98
495.866	4498.53
496.235	4491.75
496.605	4499.2
496.974	4534.01
497.344	4560.9
497.713	4609.94
498.082	4646.54
498.452	4633.21
498.821	4657.84
499.19	4655.58
499.559	4682.48
499.928	4720.67
500.298	4724.06
500.667	4769.48
501.036	4738.29
501.405	4792.76
501.774	4791.63
502.143	4797.95
502.512	4837.05
502.88	4931.96
503.249	4893.09
503.618	4905.07
503.987	4944.16
504.356	4958.4
504.724	4969.7
505.093	4998.4
505.462	5037.04
505.83	4996.37
506.199	5044.73
506.567	5090.37
506.936	5108.91
507.304	5118.4
507.672	5161.79
508.041	5153.65
508.409	5161.56
508.777	5184.61
509.145	5203.82
509.514	5263.93
509.882	5268.45
510.25	5277.49
510.618	5267.55
510.986	5268.68
511.354	5303.93
511.722	5335.11
512.09	5371.95
512.458	5382.57
512.826	5381.44
513.193	5420.76
513.561	5391.38
513.929	5460.53
514.297	5480.65
514.664	5504.83
515.032	5515.22
515.4	5534.66
515.767	5519.29
516.135	5559.06
516.502	5532.62
516.869	5578.72
517.237	5577.14
517.604	5585.5
517.972	5661.43
518.339	5644.48
518.706	5641.32
519.073	5649.68
519.44	5667.76
519.808	5730.13
520.175	5715.67
520.542	5823.01
520.909	5804.71
521.276	5770.58
521.643	5795.21
522.009	5814.88
522.376	5858.94
522.743	5866.4
523.11	5887.19
523.477	5972.84
523.843	5945.04
524.21	5980.75
524.577	6045.6
524.943	6059.16
525.31	6086.51
525.676	6133.51
526.043	6123.57
526.409	6154.3
526.776	6218.71
527.142	6227.07
527.508	6184.36
527.874	6281.08
528.241	6278.59
528.607	6305.94
528.973	6364.47
529.339	6311.81
529.705	6404.01
530.071	6422.54
530.437	6451.47
530.803	6492.15
531.169	6506.38
531.535	6511.35
531.901	6524.46
532.267	6552.48
532.632	6584.12
532.998	6609.66
533.364	6615.76
533.73	6615.53
534.095	6699.6
534.461	6667.73
534.826	6696.89
535.192	6706.15
535.557	6756.09
535.923	6765.81
536.288	6782.08
536.653	6776.21
537.019	6786.38
537.384	6807.17
537.749	6812.82
538.114	6872.25
538.479	6848.97
538.845	6890.55
539.21	6934.62
539.575	6920.16
539.94	6957.22
540.305	6984.56
540.67	6934.85
541.034	6998.35
541.399	7007.61
541.764	7036.31
542.129	7034.73
542.494	7093.49
542.858	7088.51
543.223	7107.72
543.587	7173.71
543.952	7141.17
544.316	7180.26
544.681	7207.16
545.045	7246.02
545.41	7241.5
545.774	7291.9
546.138	7304.1
546.503	7258.68
546.867	7345.23
547.231	7332.58
547.595	7392.91
547.959	7354.95
548.324	7370.77
548.688	7351.33
549.052	7483.08
549.416	7449.63
549.779	7489.18
550.143	7479.24
550.507	7513.36
550.871	7432.69
551.235	7480.59
551.599	7545.23
551.962	7593.59
552.326	7569.63
552.689	7575.73
553.053	7596.52
553.417	7555.17
553.78	7663.19
554.143	7606.69
554.507	7714.94
554.87	7742.06
555.234	7780.02
555.597	7747.93
555.96	7788.83
556.323	7783.86
556.686	7794.48
557.05	7830.42
557.413	7847.14
557.776	7878.1
558.139	7876.97
558.502	7783.64
558.865	7886.23
559.228	7964.42
559.59	7940.24
559.953	7982.5
560.316	8048.49
560.679	8060.47
561.041	8050.52
561.404	8034.48
561.767	8094.36
562.129	8137.75
562.492	8166.68
562.854	8103.85
563.217	8131.42
563.579	8165.55
563.941	8230.86
564.304	8244.42
564.666	8266.79
565.028	8266.34
565.39	8282.61
565.753	8339.55
566.115	8411.42
566.477	8404.86
566.839	8411.87
567.201	8459.1
567.563	8455.03
567.925	8502.26
568.287	8490.96
568.648	8581.81
569.01	8558.53
569.372	8671.3
569.734	8610.73
570.095	8635.59
570.457	8762.82
570.819	8752.65
571.18	8710.17
571.542	8817.96
571.903	8808.69
572.265	8839.43
572.626	8865.19
572.987	8937.73
573.349	8972.53
573.71	9045.07
574.071	9007.56
574.432	9046.65
574.794	9119.65
575.155	9166.43
575.516	9127.78
575.877	9183.37
576.238	9297.5
576.599	9388.34
576.96	9408.68
577.32	9467.66
577.681	9497.49
578.042	9560.09
578.403	9604.38
578.763	9650.25
579.124	9700.42
579.485	9798.5
579.845	9881.21
580.206	9910.13
580.566	9968.66
580.927	10023.8
581.287	10154.87
581.648	10159.17
582.008	10365.94
582.368	10325.94
582.728	10421.76
583.089	10504.24
583.449	10644.35
583.809	10754.86
584.169	10863.78
584.529	10938.13
584.889	11067.39
585.249	11085.02
585.609	11141.97
585.969	11375.86
586.329	11395.52
586.688	11544.89
587.048	11650.43
587.408	11769.3
587.768	11902.85
588.127	12033.92
588.487	12166.12
588.846	12349.17
589.206	12426
589.565	12508.71
589.925	12764.75
590.284	12740.12
590.643	12905.76
591.003	13081.58
591.362	13351.17
591.721	13321.57
592.08	13410.38
592.44	13656.93
592.799	13861.44
593.158	13875
593.517	14019.86
593.876	14162.45
594.235	14330.81
594.593	14421.88
594.952	14578.26
595.311	14579.39
595.67	14872.26
596.029	15045.14
596.387	15227.06
596.746	15238.58
597.104	15380.05
597.463	15439.03
597.822	15768.29
598.18	15678.57
598.538	15829.3
598.897	15994.49
599.255	15944.33
599.613	16460.02
599.972	16359
600.33	16556.51
600.688	16592.67
601.046	16770.97
601.404	16860.91
601.762	16964.41
602.12	17169.83
602.478	17191.98
602.836	17317.4
603.194	17351.3
603.552	17428.36
603.91	17517.17
604.268	17634.23
604.625	17667.45
604.983	17774.79
605.341	17768.46
605.698	18020.2
606.056	18175.91
606.413	18242.8
606.771	18350.36
607.128	18392.62
607.485	18447.99
607.843	18469.68
608.2	18676.68
608.557	18836.23
608.914	18790.13
609.272	18950.58
609.629	18996.68
609.986	19103.34
610.343	19102.44
610.7	19331.81
611.057	19336.1
611.414	19395.08
611.771	19460.62
612.127	19590.33
612.484	19644.57
612.841	19853.83
613.198	19693.83
613.554	19797.11
613.911	19950.32
614.267	19954.84
614.624	19977.89
614.98	20136.53
615.337	20127.72
615.693	20241.16
616.05	20250.43
616.406	20306.7
616.762	20392.12
617.118	20447.26
617.475	20410.2
617.831	20512.34
618.187	20597.31
618.543	20574.49
618.899	20742.39
619.255	20721.83
619.611	20703.52
619.967	20891.77
620.323	20971.99
620.678	20966.12
621.034	20976.96
621.39	20921.6
621.746	20955.49
622.101	21295.37
622.457	21028.49
622.812	21116.17
623.168	21240.68
623.523	21223.51
623.879	21273.45
624.234	21155.94
624.589	21299.67
624.945	21222.61
625.3	21365.65
625.655	21312.32
626.01	21345.31
626.365	21384.41
626.72	21298.76
627.075	21463.5
627.43	21387.57
627.785	21333.34
628.14	21376.73
628.495	21449.27
628.85	21432.32
629.205	21292.66
629.559	21441.36
629.914	21349.16
630.269	21458.08
630.623	21444.97
630.978	21329.95
631.332	21450.4
631.687	21475.93
632.041	21408.36
632.396	21426.89
632.75	21376.27
633.104	21555.48
633.459	21358.42
633.813	21437.29
634.167	21377.18
634.521	21355.71
634.875	21382.6
635.229	21221.02
635.583	21238.42
635.937	21300.12
636.291	21301.7
636.645	21282.04
636.999	21229.16
637.352	21210.85
637.706	21227.8
638.06	21301.02
638.413	21205.66
638.767	21133.12
639.121	21333.11
639.474	21072.55
639.828	21134.47
640.181	21193
640.534	21165.66
640.888	21151.2
641.241	21045.89
641.594	21103.06
641.947	21032.33
642.301	21060.12
642.654	21122.95
643.007	21106.45
643.36	21118.2
643.713	21043.63
644.066	21154.81
644.419	21023.29
644.771	20904.2
645.124	20717.53
645.477	20696.74
645.83	20603.64
646.182	20474.6
646.535	20526.13
646.888	20500.14
647.24	20313.7
647.593	20460.82
647.945	20382.18
648.298	20250.65
648.65	20327.49
649.002	20320.03
649.355	20462.85
649.707	20383.08
650.059	20518.9
650.411	20742.39
650.763	20809.74
651.115	20992.56
651.467	20831.2
651.819	20981.48
652.171	20889.28
652.523	20896.74
652.875	20804.99
653.227	20709.17
653.578	20938.09
653.93	20875.04
654.282	20808.61
654.633	20681.38
654.985	20778.1
655.337	20893.57
655.688	20986.45
656.039	20989.84
656.391	20814.71
656.742	20907.59
657.094	20903.52
657.445	20943.07
657.796	20985.1
658.147	20843.41
658.498	20891.54
658.849	20957.08
659.2	20944.65
659.551	20742.39
659.902	20958.66
660.253	20938.09
660.604	20904.87
660.955	20799.57
661.306	20864.65
661.656	20932.22
662.007	20888.38
662.358	20974.25
662.708	20978.09
663.059	21014.93
663.409	20857.64
663.76	21040.01
664.11	20936.96
664.461	20987.58
664.811	20979.67
665.161	20967.92
665.511	20933.8
665.862	20882.5
666.212	21017.19
666.562	21007.7
666.912	20975.61
667.262	20935.83
667.612	20946
667.962	21017.41
668.312	20957.75
668.662	21078.65
669.011	20939.22
669.361	20897.64
669.711	20949.17
670.06	20916.63
670.41	20887.7
670.76	20829.17
671.109	20943.52
671.459	20839.11
671.808	20810.41
672.157	20819
672.507	20693.81
672.856	20796.4
673.205	20843.18
673.554	20951.65
673.904	20739.68
674.253	20909.85
674.602	20830.53
674.951	20501.95
675.3	20363.87
675.649	20715.05
675.998	20678.44
676.346	20662.17
676.695	20838.66
677.044	20551.66
677.393	20659.46
677.741	20655.16
678.09	20565.22
678.438	20529.74
678.787	20692.9
679.135	20601.61
679.484	20503.08
679.832	20512.57
680.181	20378.79
680.529	20568.84
680.877	20369.75
681.225	20437.54
681.573	20413.14
681.922	20301.95
682.27	20190.09
682.618	20300.37
682.966	20183.31
683.314	20282.07
683.661	20179.02
684.009	20014.73
684.357	19986.93
684.705	19928.18
685.053	19940.61
685.4	19979.02
685.748	19981.73
686.095	19845.24
686.443	19792.13
686.79	19757.79
687.138	19825.81
687.485	19700.16
687.832	19652.7
688.18	19673.72
688.527	19511.24
688.874	19617.45
689.221	19552.59
689.568	19389.66
689.915	19407.51
690.262	19365.03
690.609	19319.83
690.956	19213.62
691.303	19237.57
691.65	19057.47
691.997	19090.01
692.344	19025.38
692.69	19036.22
693.037	18883.23
693.383	18806.85
693.73	18878.03
694.077	18757.13
694.423	18698.38
694.769	18637.59
695.116	18546.07
695.462	18577.7
695.808	18532.96
696.155	18485.73
696.501	18348.33
696.847	18423.36
697.193	18252.97
697.539	18237.83
697.885	18195.57
698.231	18063.82
698.577	18099.3
698.923	18057.27
699.269	17958.96
699.614	17864.5
699.96	17866.31
700.306	17755.35
700.651	17685.98
700.997	17618.18
701.342	17715.13
701.688	17572.76
702.033	17538.86
702.379	17527.11
702.724	17476.94
703.069	17342.71
703.415	17213.67
703.76	17209.15
704.105	17188.81
704.45	17127.35
704.795	17070.62
705.14	17065.43
705.485	16934.13
705.83	16811.42
706.175	16842.16
706.52	16849.61
706.865	16784.53
707.209	16746.79
707.554	16646.91
707.899	16645.55
708.243	16591.54
708.588	16620.92
708.932	16397.2
709.277	16458.89
709.621	16501.83
709.966	16337.08
710.31	16427.93
710.654	16126.47
710.998	16210.76
711.342	16293.02
711.687	16104.1
712.031	16140.48
712.375	16060.71
712.719	16068.17
713.063	16043.98
713.407	16046.7
713.75	15958.79
714.094	15936.64
714.438	15804.9
714.782	15873.82
715.125	15776.42
715.469	15785.01
715.812	15747.5
716.156	15716.31
716.499	15626.82
716.843	15712.24
717.186	15548.18
717.53	15590.89
717.873	15670.66
718.216	15572.58
718.559	15545.92
718.902	15416.66
719.246	15505.69
719.589	15447.39
719.932	15387.96
720.275	15379.14
720.617	15427.96
720.96	15321.52
721.303	15402.42
721.646	15414.4
721.989	15213.5
722.331	15285.81
722.674	15220.96
723.016	15307.06
723.359	15300.95
723.701	15149.32
724.044	15164.69
724.386	15175.53
724.729	15119.94
725.071	15080.85
725.413	15141.64
725.755	15132.6
726.097	15079.04
726.439	15021.41
726.782	15006.5
727.124	15119.49
727.465	15020.28
727.807	15024.12
728.149	15007.85
728.491	14942.77
728.833	14920.85
729.175	14944.58
729.516	14926.05
729.858	14846.95
730.199	14894.41
730.541	14806.28
730.882	14924.01
731.224	14930.79
731.565	14748.43
731.906	14773.06
732.248	14834.75
732.589	14743.23
732.93	14758.82
733.271	14730.35
733.612	14771.93
733.953	14885.82
734.294	14780.97
734.635	14746.39
734.976	14843.56
735.317	14683.79
735.658	14792.72
735.999	14786.16
736.339	14712.49
736.68	14834.3
737.021	14690.57
737.361	14723.79
737.702	14853.28
738.042	14776
738.383	14721.08
738.723	14830.46
739.063	14763.79
739.404	14771.02
739.744	14861.64
740.084	14731.93
740.424	14761.76
740.764	14811.25
741.104	14903.68
741.444	14785.03
741.784	14772.83
742.124	14782.1
742.464	14823.23
742.804	14821.19
743.143	14855.77
743.483	14905.26
743.823	14875.2
744.162	14911.13
744.502	14926.27
744.841	14888.08
745.181	15075.65
745.52	15056.67
745.86	15087.4
746.199	15032.94
746.538	15139.38
746.877	15255.76
747.216	15255.98
747.556	15234.51
747.895	15337.56
748.234	15325.36
748.573	15422.76
748.911	15386.38
749.25	15452.14
749.589	15489.65
749.928	15640.83
750.267	15754.05
750.605	15660.49
750.944	15777.78
751.283	15791.79
751.621	15945
751.96	15870.43
752.298	16009.64
752.636	16131.89
752.975	16157.88
753.313	16180.7
753.651	16330.08
753.989	16346.58
754.327	16442.17
754.666	16568.26
755.004	16665.44
755.342	16846
755.679	16931.65
756.017	16970.06
756.355	17103.62
756.693	17184.75
757.031	17259.09
757.368	17381.58
757.706	17518.97
758.044	17583.15
758.381	17736.37
758.719	17788.12
759.056	18017.27
759.394	17946.99
