Data from hue_340_FLMS001491_65.txt Node
Date: Mon Feb 06 15:43:26 GMT 2017
User: dcchb
Spectrometer: FLMS00149
Trigger mode: 0
Integration Time (sec): 2.000000E-2
Scans to average: 10
Electric dark correction enabled: true
Nonlinearity correction enabled: false
Boxcar width: 0
XAxis mode: Wavelengths
Number of Pixels in Spectrum: 2048
>>>>>Begin Spectral Data<<<<<
341.393	-14.12
341.776	-14.12
342.16	-14.12
342.543	-88.7
342.927	-69.49
343.31	-73.56
343.693	-63.61
344.077	-68.36
344.46	-63.84
344.843	-43.28
345.226	-54.12
345.61	-18.42
345.993	-14.12
346.376	-14.12
346.759	15.03
347.142	24.97
347.525	41.24
347.908	46.21
348.291	68.59
348.674	97.96
349.057	119.43
349.44	112.43
349.823	153.1
350.206	163.95
350.588	175.7
350.971	188.81
351.354	216.38
351.737	230.84
352.119	232.88
352.502	257.73
352.884	278.98
353.267	282.82
353.65	279.88
354.032	300.22
354.414	292.99
354.797	300.22
355.179	325.75
355.562	310.16
355.944	322.82
356.326	317.17
356.709	340.89
357.091	318.3
357.473	321.23
357.855	345.64
358.238	342.93
358.62	326.43
359.002	338.86
359.384	318.07
359.766	335.7
360.148	343.83
360.53	340.89
360.912	329.14
361.294	323.27
361.676	307.9
362.057	319.43
362.439	324.85
362.821	330.05
363.203	331.63
363.584	310.16
363.966	328.47
364.348	317.17
364.729	322.59
365.111	304.51
365.493	309.48
365.874	321.23
366.256	307.9
366.637	298.86
367.019	307.9
367.4	314
367.781	299.99
368.163	280.33
368.544	325.3
368.925	315.13
369.306	302.48
369.688	300.67
370.069	298.18
370.45	323.72
370.831	321.46
371.212	326.21
371.593	293.66
371.974	336.83
372.355	312.87
372.736	309.48
373.117	339.09
373.498	312.2
373.879	309.48
374.26	309.94
374.641	319.2
375.021	323.72
375.402	306.55
375.783	309.26
376.163	311.97
376.544	302.7
376.925	320.33
377.305	313.78
377.686	308.13
378.066	310.16
378.447	321.46
378.827	320.33
379.208	324.4
379.588	340.22
379.968	333.21
380.349	318.97
380.729	330.5
381.109	318.52
381.489	326.21
381.87	345.41
382.25	319.88
382.63	320.56
383.01	331.4
383.39	344.06
383.77	332.76
384.15	309.48
384.53	343.38
384.91	354.91
385.29	334.12
385.67	332.99
386.049	349.26
386.429	323.72
386.809	362.36
387.189	356.49
387.568	339.99
387.948	326.88
388.328	350.84
388.707	350.16
389.087	360.33
389.466	361.69
389.846	342.93
390.225	360.56
390.605	348.8
390.984	335.92
391.363	358.3
391.743	363.95
392.122	352.42
392.501	361.69
392.881	365.3
393.26	365.53
393.639	363.49
394.018	360.56
394.397	373.89
394.776	393.55
395.155	375.02
395.534	388.13
395.913	364.62
396.292	376.15
396.671	361.69
397.05	361.23
397.429	391.29
397.808	367.33
398.186	385.41
398.565	372.08
398.944	378.86
399.323	378.41
399.701	390.39
400.08	375.24
400.458	382.02
400.837	394.68
401.215	386.77
401.594	381.35
401.972	397.16
402.351	393.32
402.729	396.03
403.107	399.65
403.486	407.11
403.864	384.74
404.242	412.08
404.62	431.29
404.999	390.16
405.377	418.18
405.755	404.62
406.133	402.36
406.511	414.57
406.889	430.38
407.267	427.67
407.645	433.55
408.023	412.31
408.401	430.61
408.779	426.99
409.156	451.63
409.534	432.19
409.912	452.98
410.29	465.19
410.667	436.26
411.045	437.62
411.422	441.68
411.8	446.2
412.178	434.23
412.555	453.89
412.933	482.81
413.31	477.61
413.687	468.8
414.065	471.29
414.442	481.23
414.819	463.6
415.197	475.35
415.574	501.12
415.951	496.6
416.328	497.5
416.705	505.86
417.082	534.79
417.46	521.46
417.837	503.6
418.214	516.26
418.591	525.07
418.967	534.11
419.344	557.61
419.721	513.32
420.098	531.85
420.475	555.13
420.852	546.31
421.228	552.19
421.605	553.54
421.982	561.23
422.358	561.45
422.735	564.84
423.111	580.89
423.488	572.08
423.864	568.91
424.241	582.47
424.617	599.19
424.994	589.93
425.37	603.49
425.746	595.13
426.123	588.8
426.499	609.59
426.875	625.41
427.251	628.8
427.627	616.59
428.003	614.11
428.379	635.35
428.756	639.64
429.132	629.47
429.507	666.99
429.883	654.56
430.259	655.69
430.635	669.93
431.011	670.15
431.387	688.91
431.763	676.25
432.138	691.85
432.514	733.65
432.89	678.29
433.265	710.15
433.641	731.85
434.016	725.29
434.392	709.25
434.767	744.5
435.143	714.9
435.518	744.05
435.894	752.64
436.269	763.71
436.644	772.07
437.02	769.58
437.395	770.04
437.77	760.54
438.145	782.69
438.52	800.32
438.895	775.23
439.271	805.97
439.646	802.8
440.021	840.54
440.395	800.32
440.77	784.5
441.145	818.17
441.52	831.73
441.895	831.96
442.27	841.9
442.645	836.48
443.019	864.5
443.394	841.9
443.769	873.54
444.143	876.25
444.518	871.73
444.892	862.69
445.267	862.01
445.641	852.29
446.016	866.08
446.39	860.88
446.764	882.58
447.139	848
447.513	899.98
447.887	890.94
448.262	884.16
448.636	902.24
449.01	910.82
449.384	932.52
449.758	928.9
450.132	899.3
450.506	921.22
450.88	928.45
451.254	923.7
451.628	927.77
452.002	938.62
452.376	950.82
452.75	956.7
453.123	960.77
453.497	981.33
453.871	958.96
454.244	955.12
454.618	991.73
454.992	965.29
455.365	1004.61
455.739	1002.12
456.112	1020.65
456.486	1042.57
456.859	1029.92
457.232	1066.07
457.606	1060.2
457.979	1053.42
458.352	1073.98
458.725	1077.37
459.099	1077.82
459.472	1099.07
459.845	1091.16
460.218	1119.63
460.591	1104.49
460.964	1125.28
461.337	1141.1
461.71	1140.42
462.083	1163.25
462.456	1149.91
462.829	1148.78
463.201	1182.68
463.574	1178.84
463.947	1193.08
464.32	1212.74
464.692	1240.53
465.065	1236.69
465.438	1252.51
465.81	1249.57
466.183	1270.81
466.555	1303.58
466.928	1287.99
467.3	1264.94
467.672	1309.46
468.045	1357.82
468.417	1346.97
468.789	1342.68
469.161	1375.44
469.534	1372.28
469.906	1401.21
470.278	1394.2
470.65	1422.9
471.022	1437.36
471.394	1465.61
471.766	1464.71
472.138	1456.57
472.51	1544.93
472.882	1527.76
473.253	1528.66
473.625	1564.59
473.997	1587.64
474.369	1589.68
474.74	1614.31
475.112	1615.66
475.484	1667.64
475.855	1670.35
476.227	1675.55
476.598	1726.62
476.97	1713.51
477.341	1761.2
477.713	1799.61
478.084	1792.16
478.455	1803.91
478.827	1876
479.198	1876.45
479.569	1915.32
479.94	1925.94
480.311	1945.37
480.682	2024.47
481.053	2040.29
481.424	2058.36
481.795	2110.79
482.166	2108.98
482.537	2139.49
482.908	2177
483.279	2202.31
483.65	2273.5
484.021	2277.79
484.391	2293.39
484.762	2320.96
485.133	2310.56
485.503	2355.31
485.874	2422.2
486.244	2423.33
486.615	2459.71
486.985	2491.12
487.356	2532.02
487.726	2557.79
488.097	2574.96
488.467	2603.43
488.837	2648.18
489.207	2657.9
489.578	2688.63
489.948	2700.38
490.318	2788.97
490.688	2786.93
491.058	2809.53
491.428	2797.33
491.798	2872.81
492.168	2923.2
492.538	2894.95
492.908	2944.44
493.278	3009.3
493.648	3033.03
494.017	3022.18
494.387	3053.59
494.757	3024.44
495.126	3091.56
495.496	3084.33
495.866	3151.44
496.235	3167.04
496.605	3197.09
496.974	3183.08
497.344	3220.37
497.713	3278.22
498.082	3272.8
498.452	3301.5
498.821	3291.33
499.19	3339.69
499.559	3359.57
499.928	3334.04
500.298	3387.59
500.667	3437.99
501.036	3404.32
501.405	3448.61
501.774	3440.47
502.143	3491.77
502.512	3505.78
502.88	3530.19
503.249	3474.82
503.618	3542.39
503.987	3559.12
504.356	3560.92
504.724	3564.77
505.093	3563.64
505.462	3608.83
505.83	3630.3
506.199	3657.87
506.567	3724.76
506.936	3672.56
507.304	3696.51
507.672	3745.55
508.041	3734.7
508.409	3737.64
508.777	3745.55
509.145	3762.27
509.514	3783.29
509.882	3767.25
510.25	3803.85
510.618	3823.74
510.986	3859.9
511.354	3870.29
511.722	3877.75
512.09	3904.42
512.458	3893.34
512.826	3883.85
513.193	3914.81
513.561	3916.62
513.929	3949.16
514.297	4034.81
514.664	4024.41
515.032	3988.71
515.4	4039.33
515.767	4039.55
516.135	4055.6
516.502	4027.8
516.869	4036.39
517.237	4087.01
517.604	4064.41
517.972	4110.51
518.339	4027.8
518.706	4161.81
519.073	4141.7
519.44	4195.03
519.808	4215.6
520.175	4199.78
520.542	4247.46
520.909	4285.2
521.276	4251.98
521.643	4239.55
522.009	4310.06
522.376	4276.61
522.743	4278.87
523.11	4315.93
523.477	4385.31
523.843	4326.33
524.21	4400.22
524.577	4412.65
524.943	4410.17
525.31	4442.03
525.676	4451.3
526.043	4557.06
526.409	4546.21
526.776	4578.52
527.142	4556.6
527.508	4654.23
527.874	4616.26
528.241	4630.95
528.607	4671.85
528.973	4684.51
529.339	4682.48
529.705	4749.37
530.071	4744.62
530.437	4747.56
530.803	4756.82
531.169	4797.05
531.535	4816.26
531.901	4831.85
532.267	4826.2
532.632	4912.53
532.998	4846.54
533.364	4953.2
533.73	4911.62
534.095	4970.6
534.461	4970.38
534.826	5034.1
535.192	5020.77
535.557	5046.08
535.923	5051.28
536.288	5085.63
536.653	5103.48
537.019	5130.15
537.384	5119.75
537.749	5159.75
538.114	5147.77
538.479	5152.29
538.845	5241.11
539.21	5204.27
539.575	5202.46
539.94	5272.97
540.305	5271.84
540.67	5309.58
541.034	5370.82
541.399	5351.61
541.764	5362.46
542.129	5387.99
542.494	5385.51
542.858	5439.74
543.223	5485.84
543.587	5496.47
543.952	5451.04
544.316	5518.61
544.681	5447.43
545.045	5618.04
545.41	5576.46
545.774	5556.58
546.138	5607.88
546.503	5677.48
546.867	5631.38
547.231	5671.6
547.595	5726.29
547.959	5778.04
548.324	5725.16
548.688	5728.55
549.052	5772.62
549.416	5754.09
549.779	5788.21
550.143	5850.13
550.507	5841.54
550.871	5863.69
551.235	5868.89
551.599	5940.3
551.962	5937.81
552.326	5899.17
552.689	6013.51
553.053	5996.34
553.417	5964.02
553.78	6058.71
554.143	6012.61
554.507	6061.87
554.87	6094.42
555.234	6135.77
555.597	6113.62
555.96	6150.01
556.323	6146.84
556.686	6199.5
557.05	6152.95
557.413	6254.19
557.776	6179.61
558.139	6295.54
558.502	6226.39
558.865	6291.25
559.228	6338.93
559.59	6329.44
559.953	6361.75
560.316	6425.48
560.679	6381.19
561.041	6504.8
561.404	6450.56
561.767	6506.38
562.129	6473.39
562.492	6559.94
562.854	6543.44
563.217	6512.48
563.579	6569.43
563.941	6578.7
564.304	6662.54
564.666	6684.91
565.028	6707.28
565.39	6686.94
565.753	6675.87
566.115	6743.89
566.477	6705.93
566.839	6772.59
567.201	6801.06
567.563	6800.61
567.925	6858.46
568.287	6863.66
568.648	6888.07
569.01	6938.69
569.372	6991.57
569.734	6985.01
570.095	6993.38
570.457	7065.92
570.819	7028.85
571.18	7073.83
571.542	7195.18
571.903	7174.39
572.265	7196.08
572.626	7239.7
572.987	7291.22
573.349	7333.03
573.71	7349.75
574.071	7419.8
574.432	7426.58
574.794	7612.34
575.155	7641.04
575.516	7547.49
575.877	7587.03
576.238	7724.2
576.599	7797.87
576.96	7867.93
577.32	7875.39
577.681	7991.77
578.042	7998.77
578.403	8068.15
578.763	8132.55
579.124	8277.64
579.485	8408.71
579.845	8475.6
580.206	8501.58
580.566	8613.67
580.927	8681.01
581.287	8802.82
581.648	8890.73
582.008	9108.57
582.368	9205.97
582.728	9270.6
583.089	9359.41
583.449	9575.91
583.809	9714.43
584.169	9900.64
584.529	9948.55
584.889	10233.97
585.249	10351.48
585.609	10471.48
585.969	10664.24
586.329	10833.73
586.688	11082.31
587.048	11176.54
587.408	11434.84
587.768	11578.34
588.127	11807.71
588.487	11983.98
588.846	12393.46
589.206	12496.06
589.565	12729.5
589.925	13043.16
590.284	13173.33
590.643	13463.71
591.003	13727.44
591.362	14037.71
591.721	14234.54
592.08	14550.69
592.44	14726.51
592.799	15122.43
593.158	15290.11
593.517	15561.51
593.876	15900.49
594.235	16077.66
594.593	16343.19
594.952	16684.42
595.311	16899.33
595.67	17146.33
596.029	17510.16
596.387	17816.37
596.746	18110.37
597.104	18371.83
597.463	18552.85
597.822	18924.36
598.18	19215.43
598.538	19487.06
598.897	19830.78
599.255	19864.45
599.613	20522.06
599.972	20660.36
600.33	20913.24
600.688	21145.32
601.046	21561.81
601.404	21838.63
601.762	22028.46
602.12	22467.32
602.478	22710.93
602.836	22897.59
603.194	23161.31
603.552	23400.85
603.91	23595.2
604.268	23940.05
604.625	24043.1
604.983	24362.41
605.341	24496.19
605.698	24919.91
606.056	25114.48
606.413	25363.29
606.771	25642.38
607.128	25893.9
607.485	25929.6
607.843	26267.9
608.2	26550.38
608.557	26896.81
608.914	27008.67
609.272	27454.76
609.629	27606.84
609.986	27808.2
610.343	27864.47
610.7	28325.92
611.057	28381.29
611.414	28627.16
611.771	28710.32
612.127	29092
612.484	29356.4
612.841	29536.96
613.198	29587.13
613.554	29770.4
613.911	30090.85
614.267	30252.88
614.624	30241.58
614.98	30456.71
615.337	30792.75
615.693	30829.81
616.05	30955.68
616.406	31337.82
616.762	31196.81
617.118	31370.81
617.475	31660.07
617.831	31835.43
618.187	31853.29
618.543	32054.64
618.899	32396.32
619.255	32436.77
619.611	32601.29
619.967	32733.72
620.323	32721.96
620.678	32871.34
621.034	32914.95
621.39	33050.77
621.746	33051
622.101	33590.42
622.457	33429.29
622.812	33530.98
623.168	33731.2
623.523	33766.91
623.879	33982.27
624.234	33916.74
624.589	34014.81
624.945	34204.86
625.3	34074.47
625.655	34159.89
626.01	34236.95
626.365	34487.12
626.72	34580.67
627.075	34472.65
627.43	34555.14
627.785	34531.63
628.14	34693.66
628.495	34693.44
628.85	34754.23
629.205	34815.02
629.559	35012.07
629.914	34788.8
630.269	34928.91
630.623	34935.01
630.978	35059.98
631.332	35163.26
631.687	35338.39
632.041	35246.64
632.396	35295
632.75	35180.2
633.104	35192.63
633.459	35074.22
633.813	35156.02
634.167	35156.02
634.521	35215.68
634.875	35316.7
635.229	35213.2
635.583	35138.17
635.937	35169.13
636.291	35268.11
636.645	35205.51
636.999	35112.86
637.352	35313.76
637.706	35209.13
638.06	35340.88
638.413	35157.15
638.767	35157.83
639.121	35251.62
639.474	35190.15
639.828	35030.38
640.181	35322.57
640.534	35333.65
640.888	35174.33
641.241	35201
641.594	35223.59
641.947	35237.38
642.301	35168.68
642.654	35174.33
643.007	35340.65
643.36	35251.62
643.713	35143.14
644.066	35197.83
644.419	35155.57
644.771	34805.53
645.124	34576.15
645.477	34470.85
645.83	34468.81
646.182	34219.78
646.535	34151.08
646.888	34334.58
647.24	34059.1
647.593	34380
647.945	34177.07
648.298	34010.07
648.65	34110.4
649.002	33887.81
649.355	34135.26
649.707	34061.14
650.059	34075.15
650.411	34535.48
650.763	34610.73
651.115	34900.44
651.467	34826.09
651.819	34814.34
652.171	34787.45
652.523	34823.38
652.875	34711.06
653.227	34560.33
653.578	34737.5
653.93	34689.37
654.282	34545.65
654.633	34504.29
654.985	34577.28
655.337	34611.18
655.688	34600.79
656.039	34762.59
656.391	34487.34
656.742	34528.24
657.094	34488.92
657.445	34732.08
657.796	34542.48
658.147	34515.36
658.498	34410.28
658.849	34640.78
659.2	34514.23
659.551	34480.56
659.902	34572.54
660.253	34411.64
660.604	34547.45
660.955	34422.71
661.306	34407.57
661.656	34336.61
662.007	34516.72
662.358	34533.22
662.708	34477.17
663.059	34458.64
663.409	34196.28
663.76	34507.45
664.11	34381.36
664.461	34530.28
664.811	34459.77
665.161	34418.19
665.511	34197.63
665.862	34419.09
666.212	34440.56
666.562	34522.14
666.912	34386.55
667.262	34377.06
667.612	34422.94
667.962	34415.71
668.312	34309.49
668.662	34532.09
669.011	34458.64
669.361	34321.02
669.711	34291.41
670.06	34296.84
670.41	34282.38
670.76	34277.63
671.109	34386.55
671.459	34292.32
671.808	34192.89
672.157	34340.68
672.507	34096.39
672.856	34126.22
673.205	34112.89
673.554	34272.43
673.904	34138.88
674.253	34264.3
674.602	34038.77
674.951	33582.51
675.3	33470.87
675.649	34011.87
675.998	34060.23
676.346	33942.72
676.695	34058.65
677.044	33876.74
677.393	33903.85
677.741	34050.52
678.09	33901.59
678.438	33888.94
678.787	33830.18
679.135	33874.25
679.484	33653.01
679.832	33782.28
680.181	33662.5
680.529	33650.75
680.877	33484.2
681.225	33635.39
681.573	33759.9
681.922	33562.39
682.27	33516.29
682.618	33469.29
682.966	33467.26
683.314	33479.01
683.661	33394.26
684.009	33206.7
684.357	33130.99
684.705	33207.6
685.053	33121.73
685.4	33154.72
685.748	32942.3
686.095	32950.43
686.443	32891.9
686.79	32882.41
687.138	32859.14
687.485	32833.83
687.832	32749.08
688.18	32749.31
688.527	32563.32
688.874	32594.74
689.221	32400.62
689.568	32425.25
689.915	32365.36
690.262	32395.87
690.609	32218.02
690.956	32083.34
691.303	32159.95
691.65	32030.91
691.997	31949.33
692.344	31819.16
692.69	31772.61
693.037	31778.71
693.383	31557.48
693.73	31759.05
694.077	31434.31
694.423	31538.72
694.769	31390.25
695.116	31426.18
695.462	31269.57
695.808	31033.65
696.155	31205.17
696.501	31010.82
696.847	31060.09
697.193	30682.7
697.539	31062.35
697.885	30770.38
698.231	30616.26
698.577	30610.61
698.923	30565.86
699.269	30401.35
699.614	30195.03
699.96	30149.15
700.306	30242.48
700.651	30072.99
700.997	29992.32
701.342	30002.71
701.688	29870.29
702.033	29870.51
702.379	29740.57
702.724	29642.05
703.069	29894.47
703.415	29456.29
703.76	29417.87
704.105	29464.2
704.45	29438.43
704.795	29123.19
705.14	29229.85
705.485	29144.43
705.83	29029.63
706.175	28953.48
706.52	28968.84
706.865	28812.01
707.209	28878.45
707.554	28677.55
707.899	28829.64
708.243	28595.29
708.588	28542.87
708.932	28329.31
709.277	28352.81
709.621	28357.33
709.966	28256.32
710.31	28262.65
710.654	28067.85
710.998	28181.74
711.342	28133.84
711.687	27984.69
712.031	27940.62
712.375	27836.44
712.719	27909.89
713.063	27832.15
713.407	27890.23
713.75	27649.1
714.094	27630.12
714.438	27651.82
714.782	27612.27
715.125	27391.48
715.469	27470.35
715.812	27394.19
716.156	27171.15
716.499	27214.54
716.843	27225.16
717.186	27041.21
717.53	27291.15
717.873	27198.49
718.216	26998.27
718.559	27034.66
718.902	26806.87
719.246	26944.72
719.589	26734.78
719.932	26714.21
720.275	26714.89
720.617	26687.09
720.96	26528
721.303	26587.21
721.646	26668.11
721.989	26353.77
722.331	26493.43
722.674	26327.33
723.016	26395.35
723.359	26359.65
723.701	26342.02
724.044	26130.27
724.386	26026.77
724.729	26224.96
725.071	26039.65
725.413	26073.78
725.755	25963.95
726.097	25951.07
726.439	25836.72
726.782	25848.02
727.124	25881.01
727.465	25748.36
727.807	25768.93
728.149	25731.87
728.491	25558.99
728.833	25631.08
729.175	25690.96
729.516	25539.78
729.858	25539.33
730.199	25609.61
730.541	25609.16
730.882	25413.91
731.224	25491.42
731.565	25338.66
731.906	25343.63
732.248	25299.11
732.589	25142.95
732.93	25195.61
733.271	25116.29
733.612	25138.21
733.953	25285.32
734.294	25018.21
734.635	25031.09
734.976	25036.74
735.317	24766.24
735.658	24919.46
735.999	24828.16
736.339	24856.18
736.68	24850.53
737.021	24766.92
737.361	24665.45
737.702	24792.91
738.042	24726.69
738.383	24580.26
738.723	24700.03
739.063	24549.98
739.404	24619.13
739.744	24560.82
740.084	24470.66
740.424	24578.9
740.764	24371.9
741.104	24526.02
741.444	24342.98
741.784	24352.69
742.124	24298.91
742.464	24235.18
742.804	24240.38
743.143	24219.36
743.483	24233.6
743.823	24074.73
744.162	24058.69
744.502	24065.02
744.841	23939.6
745.181	24148.18
745.52	23909.77
745.86	24009.43
746.199	23926.72
746.538	23801.75
746.877	23910.22
747.216	23841.97
747.556	23772.6
747.895	23874.51
748.234	23786.83
748.573	23637.91
748.911	23609.21
749.25	23612.6
749.589	23487.41
749.928	23535.31
750.267	23583.67
750.605	23439.27
750.944	23417.35
751.283	23308.88
751.621	23367.18
751.96	23157.24
752.298	23269.33
752.636	23135.55
752.975	23027.3
753.313	22988.89
753.651	23145.49
753.989	22957.02
754.327	22904.82
754.666	22714.54
755.004	22913.41
755.342	22925.39
755.679	22701.66
756.017	22692.17
756.355	22762.68
756.693	22633.19
757.031	22607.65
757.368	22433.87
757.706	22303.93
758.044	22365.63
758.381	22410.15
758.719	22226.2
759.056	22304.16
759.394	22199.3
759.731	22051.96
760.068	21968.8
760.405	22005.41
760.743	21904.62
