Data from hue_50_FLMS001491_2.txt Node
Date: Mon Feb 06 15:09:29 GMT 2017
User: dcchb
Spectrometer: FLMS00149
Trigger mode: 0
Integration Time (sec): 2.000000E-2
Scans to average: 10
Electric dark correction enabled: true
Nonlinearity correction enabled: false
Boxcar width: 0
XAxis mode: Wavelengths
Number of Pixels in Spectrum: 2048
>>>>>Begin Spectral Data<<<<<
341.393	17.03
341.776	17.03
342.16	17.03
342.543	-52.8
342.927	-60.93
343.31	-72.46
343.693	-72.23
344.077	-45.79
344.46	-69.07
344.843	-60.7
345.226	-48.5
345.61	-21.84
345.993	-11.44
346.376	-10.54
346.759	10.71
347.142	10.93
347.525	41.89
347.908	64.04
348.291	86.64
348.674	85.05
349.057	113.3
349.44	116.01
349.823	144.04
350.206	147.65
350.588	172.06
350.971	222.45
351.354	217.93
351.737	232.17
352.119	258.84
352.502	267.65
352.884	253.19
353.267	287.53
353.65	280.08
354.032	299.29
354.414	306.74
354.797	306.29
355.179	292.73
355.562	325.5
355.944	314.88
356.326	325.73
356.709	322.79
357.091	350.81
357.473	309
357.855	342.45
358.238	349.91
358.62	335.22
359.002	350.58
359.384	347.65
359.766	327.76
360.148	336.57
360.53	341.32
360.912	338.38
361.294	332.73
361.676	338.61
362.057	317.82
362.439	323.92
362.821	352.62
363.203	324.82
363.584	350.36
363.966	330.92
364.348	329.34
364.729	316.23
365.111	330.25
365.493	343.58
365.874	328.89
366.256	325.05
366.637	311.26
367.019	300.87
367.4	306.29
367.781	309
368.163	331.83
368.544	323.47
368.925	321.66
369.306	312.84
369.688	324.14
370.069	313.52
370.45	302.45
370.831	306.52
371.212	302.68
371.593	310.59
371.974	306.52
372.355	313.07
372.736	319.4
373.117	310.13
373.498	308.33
373.879	308.78
374.26	331.15
374.641	296.57
375.021	308.78
375.402	315.78
375.783	321.43
376.163	324.37
376.544	334.09
376.925	351.04
377.305	328.44
377.686	325.73
378.066	302.9
378.447	325.27
378.827	324.82
379.208	332.05
379.588	313.07
379.968	339.74
380.349	313.97
380.729	319.85
381.109	335.9
381.489	318.95
381.87	318.72
382.25	328.21
382.63	330.92
383.01	339.28
383.39	337.03
383.77	322.56
384.15	325.27
384.53	335.44
384.91	330.47
385.29	330.92
385.67	345.61
386.049	327.31
386.429	333.64
386.809	330.25
387.189	358.27
387.568	356.23
387.948	359.62
388.328	354.2
388.707	336.57
389.087	342
389.466	353.07
389.846	361.88
390.225	353.52
390.605	360.98
390.984	344.48
391.363	341.77
391.743	370.7
392.122	352.17
392.501	379.51
392.881	351.71
393.26	360.75
393.639	375.67
394.018	373.41
394.397	372.28
394.776	363.24
395.155	346.52
395.534	375.67
395.913	385.39
396.292	368.66
396.671	354.65
397.05	370.24
397.429	366.4
397.808	373.41
398.186	382.22
398.565	391.49
398.944	368.44
399.323	361.66
399.701	374.99
400.08	385.16
400.458	386.29
400.837	387.87
401.215	394.42
401.594	383.13
401.972	375.22
402.351	385.39
402.729	386.97
403.107	381.54
403.486	396.01
403.864	378.38
404.242	391.26
404.62	397.14
404.999	423.12
405.377	387.87
405.755	409.34
406.133	386.97
406.511	421.77
406.889	414.09
407.267	400.3
407.645	389.23
408.023	392.84
408.401	413.41
408.779	403.69
409.156	427.19
409.534	419.51
409.912	438.27
410.29	425.16
410.667	439.62
411.045	433.07
411.422	413.41
411.8	440.3
412.178	454.54
412.555	424.48
412.933	446.17
413.31	466.74
413.687	455.21
414.065	444.59
414.442	456.34
414.819	459.96
415.197	447.53
415.574	461.99
415.951	469.9
416.328	469.9
416.705	470.35
417.082	454.08
417.46	467.64
417.837	470.58
418.214	461.99
418.591	467.87
418.967	494.08
419.344	498.15
419.721	466.74
420.098	506.74
420.475	496.79
420.852	508.09
421.228	495.21
421.605	496.57
421.982	492.95
422.358	501.31
422.735	499.73
423.111	499.96
423.488	487.3
423.864	511.26
424.241	512.39
424.617	497.25
424.994	516.23
425.37	519.17
425.746	530.01
426.123	522.1
426.499	515.33
426.875	523.91
427.251	528.66
427.627	565.27
428.003	534.31
428.379	545.83
428.756	577.92
429.132	570.92
429.507	563.23
429.883	546.51
430.259	574.08
430.635	563.23
431.011	570.24
431.387	561.88
431.763	572.95
432.138	593.97
432.514	577.24
432.89	571.14
433.265	610.46
433.641	614.98
434.016	605.27
434.392	608.2
434.767	628.32
435.143	617.47
435.518	619.73
435.894	625.15
436.269	661.99
436.644	631.25
437.02	628.99
437.395	652.05
437.77	649.11
438.145	640.07
438.52	644.81
438.895	668.77
439.271	632.38
439.646	680.52
440.021	675.77
440.395	665.83
440.77	658.37
441.145	669.22
441.52	697.02
441.895	700.63
442.27	694.76
442.645	677.81
443.019	683
443.394	687.75
443.769	716.45
444.143	708.54
444.518	696.56
444.892	711.03
445.267	725.04
445.641	728.88
446.016	708.31
446.39	713.29
446.764	725.26
447.139	737.24
447.513	759.61
447.887	745.6
448.262	752.61
448.636	756.45
449.01	756
449.384	766.17
449.758	752.83
450.132	781.08
450.506	795.09
450.88	767.52
451.254	763.23
451.628	780.63
452.002	791.93
452.376	802.32
452.75	803.23
453.123	798.03
453.497	796
453.871	813.62
454.244	807.52
454.618	836.45
454.992	881.64
455.365	838.71
455.739	852.94
456.112	875.77
456.486	903.79
456.859	899.72
457.232	896.11
457.606	892.04
457.979	906.05
458.352	921.64
458.725	930.46
459.099	918.48
459.472	956.44
459.845	952.6
460.218	987.86
460.591	997.57
460.964	965.26
461.337	1001.64
461.71	1017.69
462.083	1028.53
462.456	1045.71
462.829	1046.38
463.201	1044.58
463.574	1033.96
463.947	1070.79
464.32	1079.15
464.692	1124.8
465.065	1105.14
465.438	1152.37
465.81	1137
466.183	1145.14
466.555	1177
466.928	1210.67
467.3	1208.19
467.672	1212.03
468.045	1227.85
468.417	1267.4
468.789	1276.66
469.161	1287.96
469.534	1285.47
469.906	1330.67
470.278	1357.56
470.65	1358.24
471.022	1417
471.394	1429.65
471.766	1437.56
472.138	1480.5
472.51	1503.32
472.882	1543.32
473.253	1547.39
473.625	1599.82
473.997	1624.67
474.369	1664.67
474.74	1671
475.112	1719.59
475.484	1736.99
475.855	1805.69
476.227	1856.99
476.598	1910.32
476.97	1955.97
477.341	1994.38
477.713	2030.09
478.084	2076.87
478.455	2149.86
478.827	2199.12
479.198	2267.37
479.569	2314.6
479.94	2409.96
480.311	2429.85
480.682	2484.31
481.053	2594.14
481.424	2647.02
481.795	2728.6
482.166	2797.07
482.537	2859.67
482.908	2933.79
483.279	3032.55
483.65	3111.64
484.021	3226.89
484.391	3343.5
484.762	3402.93
485.133	3425.53
485.503	3558.18
485.874	3670.72
486.244	3724.73
486.615	3879.53
486.985	4001.56
487.356	4072.29
487.726	4244.94
488.097	4297.37
488.467	4345.73
488.837	4556.8
489.207	4640.41
489.578	4732.62
489.948	4847.87
490.318	5003.12
490.688	5104.13
491.058	5228.65
491.428	5385.93
491.798	5469.32
492.168	5659.6
492.538	5696.43
492.908	5905.47
493.278	5992.7
493.648	6046.25
494.017	6239.92
494.387	6370.31
494.757	6441.72
495.126	6575.51
495.496	6741.83
495.866	6816.18
496.235	6912.45
496.605	7110.63
496.974	7195.6
497.344	7390.85
497.713	7470.85
498.082	7564.41
498.452	7627.45
498.821	7790.84
499.19	7889.14
499.559	8079.65
499.928	8164.62
500.298	8273.31
500.667	8396.93
501.036	8478.28
501.405	8621.55
501.774	8694.77
502.143	8828.1
502.512	8918.27
502.88	9123.69
503.249	9201.2
503.618	9274.19
503.987	9358.03
504.356	9490.46
504.724	9638.02
505.093	9717.34
505.462	9813.16
505.83	9878.47
506.199	10037.11
506.567	10223.09
506.936	10232.36
507.304	10387.61
507.672	10561.61
508.041	10521.16
508.409	10706.92
508.777	10814.94
509.145	10979.91
509.514	10928.16
509.882	11160.7
510.25	11171.09
510.618	11314.14
510.986	11404.76
511.354	11555.04
511.722	11635.94
512.09	11716.39
512.458	11809.27
512.826	11939.43
513.193	11985.98
513.561	12090.39
513.929	12336.71
514.297	12321.12
514.664	12448.35
515.032	12538.74
515.4	12632.07
515.767	12738.05
516.135	12839.75
516.502	12779.86
516.869	13079.51
517.237	13085.16
517.604	13159.51
517.972	13243.8
518.339	13373.97
518.706	13475.66
519.073	13536.23
519.44	13648.54
519.808	13715.66
520.175	13804.92
520.542	14001.07
520.909	14093.27
521.276	14102.31
521.643	14264.79
522.009	14366.94
522.376	14479.7
522.743	14554.5
523.11	14674.73
523.477	14840.6
523.843	14982.52
524.21	15150.65
524.577	15266.8
524.943	15253.02
525.31	15413.24
525.676	15541.6
526.043	15648.49
526.409	15655.94
526.776	15975.26
527.142	15999.44
527.508	16048.93
527.874	16214.12
528.241	16265.42
528.607	16270.62
528.973	16556.49
529.339	16506.54
529.705	16715.13
530.071	16854.78
530.437	16898.85
530.803	16967.1
531.169	17078.28
531.535	17059.07
531.901	17219.29
532.267	17304.26
532.632	17334.09
532.998	17438.72
533.364	17579.51
533.73	17593.07
534.095	17754.87
534.461	17832.16
534.826	17946.73
535.192	17934.53
535.557	18217.91
535.923	18124.81
536.288	18202.09
536.653	18248.19
537.019	18323.67
537.384	18408.19
537.749	18425.81
538.114	18527.73
538.479	18543.1
538.845	18579.48
539.21	18615.19
539.575	18732.7
539.94	18843.66
540.305	18896.54
540.67	18951
541.034	19050.88
541.399	19107.6
541.764	19168.62
542.129	19172.46
542.494	19367.03
542.858	19308.5
543.223	19447.71
543.587	19601.38
543.952	19549.63
544.316	19590.76
544.681	19658.1
545.045	19767.93
545.41	19887.7
545.774	19919.34
546.138	19923.18
546.503	19997.75
546.867	20078.88
547.231	20182.15
547.595	20289.72
547.959	20325.43
548.324	20387.35
548.688	20414.24
549.052	20479.09
549.416	20538.08
549.779	20615.59
550.143	20745.98
550.507	20846.77
550.871	20940.1
551.235	20868.01
551.599	21075.69
551.962	20991.62
552.326	21041.34
552.689	21282.69
553.053	21173.99
553.417	21222.8
553.78	21431.16
554.143	21378.05
554.507	21567.43
554.87	21671.61
555.234	21916.12
555.597	21780.53
555.96	21825.95
556.323	21994.76
556.686	21935.78
557.05	22033.63
557.413	22261.65
557.776	22185.72
558.139	22412.15
558.502	22425.48
558.865	22502.77
559.228	22651.92
559.59	22651.24
559.953	22803.33
560.316	22977.56
560.679	22952.48
561.041	23157.44
561.404	23221.62
561.767	23423.2
562.129	23341.84
562.492	23550.2
562.854	23476.76
563.217	23660.03
563.579	23594.04
563.941	23828.61
564.304	23850.98
564.666	24022.05
565.028	24048.72
565.39	24102.95
565.753	24195.83
566.115	24391.31
566.477	24477.18
566.839	24461.36
567.201	24696.38
567.563	24672.88
567.925	24917.62
568.287	24951.75
568.648	25011.4
569.01	25104.96
569.372	25233.09
569.734	25270.83
570.095	25371.85
570.457	25508.34
570.819	25587.21
571.18	25575.23
571.542	25811.61
571.903	25835.79
572.265	25859.29
572.626	25901.55
572.987	26008.21
573.349	26184.26
573.71	26243.01
574.071	26383.8
574.432	26434.42
574.794	26716.22
575.155	26570.46
575.516	26680.74
575.877	26783.56
576.238	26887.74
576.599	26988.08
576.96	27054.29
577.32	27137
577.681	27336.09
578.042	27344
578.403	27398.91
578.763	27450.44
579.124	27501.96
579.485	27721.62
579.845	27846.81
580.206	27848.84
580.566	27887.49
580.927	28066.69
581.287	28111.66
581.648	28163.41
582.008	28368.83
582.368	28432.78
582.728	28519.33
583.089	28457.42
583.449	28646.34
583.809	28843.39
584.169	28921.13
584.529	28922.94
584.889	29241.12
585.249	29214.23
585.609	29174.68
585.969	29387.56
586.329	29449.25
586.688	29463.94
587.048	29560.89
587.408	29691.73
587.768	29761.79
588.127	29824.39
588.487	29899.64
588.846	30119.07
589.206	30190.03
589.565	30191.38
589.925	30392.96
590.284	30370.81
590.643	30602.67
591.003	30614.2
591.362	30853.06
591.721	30931.47
592.08	30863.23
592.44	31184.12
592.799	31311.58
593.158	31321.3
593.517	31310.22
593.876	31551.57
594.235	31480.61
594.593	31698.46
594.952	31856.42
595.311	31823.43
595.67	31932.58
596.029	32227.26
596.387	32284.66
596.746	32338.67
597.104	32232.68
597.463	32376.63
597.822	32662.05
598.18	32497.08
598.538	32522.85
598.897	32825.89
599.255	32648.04
599.613	33151.3
599.972	33004.19
600.33	33129.16
600.688	32966.68
601.046	33249.83
601.404	33529.82
601.762	33383.84
602.12	33619.54
602.478	33813.66
602.836	33833.77
603.194	33635.36
603.552	33688.46
603.91	33663.38
604.268	33852.3
604.625	33920.55
604.983	34120.09
605.341	33990.15
605.698	34191.28
606.056	34286.87
606.413	34401.89
606.771	34457.94
607.128	34589.23
607.485	34421.33
607.843	34569.57
608.2	34786.51
608.557	34905.83
608.914	34788.77
609.272	35022.44
609.629	35173.17
609.986	35500.85
610.343	35285.26
610.7	35495.65
611.057	35507.63
611.414	35463.79
611.771	35623.78
612.127	35887.28
612.484	35732.93
612.841	35962.53
613.198	35859.71
613.554	35898.58
613.911	36012.47
614.267	36136.31
614.624	36174.27
614.98	36155.29
615.337	36346.93
615.693	36307.6
616.05	36419.47
616.406	36540.37
616.762	36490.65
617.118	36466.7
617.475	36607.03
617.831	36801.83
618.187	36736.75
618.543	36844.77
618.899	37120.24
619.255	37015.38
619.611	36932
619.967	37224.19
620.323	37258.77
620.678	37171.99
621.034	37046.57
621.39	37107.81
621.746	37125.44
622.101	37528.36
622.457	37179.45
622.812	37490.4
623.168	37509.38
623.523	37516.16
623.879	37636.16
624.234	37418.99
624.589	37560
624.945	37718.42
625.3	37551.64
625.655	37566.55
626.01	37663.28
626.365	37774.23
626.72	37701.69
627.075	37718.42
627.43	37724.97
627.785	37677.96
628.14	37757.74
628.495	37738.98
628.85	37781.92
629.205	37719.09
629.559	37834.34
629.914	37721.35
630.269	37762.26
630.623	37727.45
630.978	37651.75
631.332	37818.53
631.687	37963.83
632.041	37750.28
632.396	37803.16
632.75	37724.97
633.104	37713.9
633.459	37636.16
633.813	37629.6
634.167	37637.51
634.521	37661.69
634.875	37689.72
635.229	37614.69
635.583	37505.09
635.937	37608.36
636.291	37447.46
636.645	37595.25
636.999	37502.38
637.352	37603.39
637.706	37373.79
638.06	37505.54
638.413	37495.14
638.767	37430.74
639.121	37345.09
639.474	37108.04
639.828	37235.49
640.181	37442.04
640.534	37399.33
640.888	37229.39
641.241	37106.45
641.594	37269.84
641.947	37195.26
642.301	37125.89
642.654	37120.24
643.007	37211.76
643.36	37307.58
643.713	37133.8
644.066	37244.98
644.419	36909.85
644.771	36661.72
645.124	36391.22
645.477	36446.81
645.83	36174.73
646.182	35986.03
646.535	36000.27
646.888	36020.15
647.24	35781.29
647.593	36044.11
647.945	35828.75
648.298	35779.03
648.65	35757.34
649.002	35600.5
649.355	35881.63
649.707	35763.21
650.059	35970.44
650.411	36309.86
650.763	36336.3
651.115	36672.79
651.467	36539.91
651.819	36583.98
652.171	36496.53
652.523	36508.5
652.875	36474.83
653.227	36333.14
653.578	36567.26
653.93	36353.48
654.282	36252.01
654.633	36097.44
654.985	36397.09
655.337	36285.91
655.688	36331.33
656.039	36437.77
656.391	36118.46
656.742	36153.94
657.094	36120.94
657.445	36226.7
657.796	36229.19
658.147	36119.81
658.498	36125.46
658.849	36286.36
659.2	36258.79
659.551	36096.08
659.902	36272.35
660.253	35948.07
660.604	36194.84
660.955	35953.04
661.306	36109.19
661.656	36079.59
662.007	36105.35
662.358	36050.21
662.708	36078.23
663.059	36040.49
663.409	35717.56
663.76	35979.03
664.11	36128.4
664.461	36159.59
664.811	36033.71
665.161	36050.66
665.511	35965.24
665.862	36113.94
666.212	36011.12
666.562	36099.02
666.912	36079.59
667.262	35876.43
667.612	35883.66
667.962	35939.03
668.312	35800.27
668.662	36073.71
669.011	35875.3
669.361	35857
669.711	35746.72
670.06	35820.61
670.41	35798.69
670.76	35778.13
671.109	35824
671.459	35794.85
671.808	35683.67
672.157	35778.35
672.507	35559.15
672.856	35596.21
673.205	35579.94
673.554	35680.05
673.904	35498.81
674.253	35855.64
674.602	35582.65
674.951	35092.27
675.3	35037.81
675.649	35557.34
675.998	35540.85
676.346	35390.79
676.695	35594.86
677.044	35363.67
677.393	35471.24
677.741	35507.17
678.09	35388.31
678.438	35397.57
678.787	35407.06
679.135	35358.7
679.484	35086.85
679.832	35282.55
680.181	35135.43
680.529	35180.18
680.877	35171.82
681.225	35031.03
681.573	35213.17
681.922	34880.75
682.27	34902.67
682.618	34836.23
682.966	34783.35
683.314	34931.37
683.661	34782.45
684.009	34678.27
684.357	34617.71
684.705	34564.37
685.053	34541.78
685.4	34466.3
685.748	34258.17
686.095	34313.08
686.443	34234.21
686.79	34211.16
687.138	34278.05
687.485	34178.62
687.832	34123.71
688.18	34183.59
688.527	33952.86
688.874	33928.91
689.221	33810.04
689.568	33655.92
689.915	33652.31
690.262	33769.82
690.609	33479.43
690.956	33618.18
691.303	33391.52
691.65	33311.75
691.997	33335.93
692.344	33252.09
692.69	33130.29
693.037	33121.25
693.383	32935.26
693.73	33034.02
694.077	32787.92
694.423	32666.57
694.769	32751.77
695.116	32549.06
695.462	32556.52
695.808	32445.11
696.155	32503.64
696.501	32140.48
696.847	32339.12
697.193	32133.7
697.539	32148.62
697.885	31831.34
698.231	31809.87
698.577	31929.64
698.923	31814.62
699.269	31615.75
699.614	31534.17
699.96	31455.53
700.306	31547.73
700.651	31336.89
700.997	31239.72
701.342	31185.93
701.688	31072.71
702.033	31015.77
702.379	31165.82
702.724	30981.42
703.069	30929.89
703.415	30637.47
703.76	30672.27
704.105	30665.95
704.45	30631.6
704.795	30390.25
705.14	30430.7
705.485	30312.51
705.83	30162.46
706.175	30339.63
706.52	29979.18
706.865	30044.94
707.209	30002.69
707.554	29918.85
707.899	29917.49
708.243	29764.73
708.588	29772.41
708.932	29568.12
709.277	29504.39
709.621	29525.18
709.966	29348.92
710.31	29436.82
710.654	29177.4
710.998	29255.13
711.342	29173.78
711.687	29127.23
712.031	29047.68
712.375	28922.94
712.719	28992.77
713.063	28871.42
713.407	29115.48
713.75	28824.64
714.094	28722.95
714.438	28566.34
714.782	28807.91
715.125	28426.91
715.469	28597.52
715.812	28486.57
716.156	28337.19
716.499	28292.45
716.843	28259.91
717.186	28097.2
717.53	28327.25
717.873	28275.05
718.216	28081.15
718.559	27907.6
718.902	27837.32
719.246	28004.09
719.589	27841.39
719.932	27689.53
720.275	27740.82
720.617	27770.43
720.96	27728.4
721.303	27639.36
721.646	27682.07
721.989	27503.77
722.331	27568.4
722.674	27552.13
723.016	27413.83
723.359	27294.96
723.701	27486.82
724.044	27252.48
724.386	27147.85
724.729	27224.91
725.071	27170.22
725.413	27208.41
725.755	27062.42
726.097	27045.7
726.439	26852.71
726.782	26817.46
727.124	26918.7
727.465	26689.78
727.807	26887.97
728.149	26744.92
728.491	26692.94
728.833	26700.85
729.175	26578.82
729.516	26554.64
729.858	26569.56
730.199	26537.69
730.541	26418.15
730.882	26426.73
731.224	26539.05
731.565	26364.36
731.906	26256.12
732.248	26329.79
732.589	26272.61
732.93	26117.59
733.271	26191.49
733.612	26130.92
733.953	26278.04
734.294	26058.83
734.635	25957.59
734.976	26076.24
735.317	25873.08
735.658	25837.6
735.999	25882.12
736.339	25889.35
736.68	25859.74
737.021	25801.67
737.361	25655
737.702	25829.69
738.042	25784.49
738.383	25615
738.723	25657.94
739.063	25556.7
739.404	25608.45
739.744	25458.62
740.084	25426.99
740.424	25368.01
740.764	25330.27
741.104	25568.23
741.444	25230.83
741.784	25244.62
742.124	25277.61
742.464	25208.01
742.804	25098.86
743.143	25065.64
743.483	25108.58
743.823	24896.38
744.162	24967.34
744.502	25113.77
744.841	24808.92
745.181	24941.35
745.52	24862.93
745.86	24876.72
746.199	24782.94
746.538	24574.13
746.877	24835.59
747.216	24683.05
747.556	24683.5
747.895	24598.99
748.234	24507.24
748.573	24445.54
748.911	24542.26
749.25	24513.34
749.589	24369.39
749.928	24458.65
750.267	24421.59
750.605	24335.49
750.944	24241.03
751.283	24190.41
751.621	24186.12
751.96	24111.09
752.298	24055.95
752.636	24198.32
752.975	24027.25
753.313	23904.77
753.651	23956.07
753.989	23867.71
754.327	23887.14
754.666	23700.03
755.004	23655.73
755.342	23699.35
755.679	23701.83
756.017	23486.02
756.355	23572.8
756.693	23549.3
757.031	23491.9
757.368	23335.29
