Data from hue_120_FLMS001491_00030.txt Node
Date: Tue Feb 07 16:59:09 GMT 2017
User: dcchb
Spectrometer: FLMS00149
Trigger mode: 0
Integration Time (sec): 2.000000E-2
Scans to average: 10
Electric dark correction enabled: true
Nonlinearity correction enabled: false
Boxcar width: 0
XAxis mode: Wavelengths
Number of Pixels in Spectrum: 2048
>>>>>Begin Spectral Data<<<<<
341.393	-11.89
341.776	-11.89
342.16	-11.89
342.543	-71.33
342.927	-59.12
343.31	-72.46
343.693	-55.06
344.077	-55.06
344.46	-47.37
344.843	-51.89
345.226	-57.54
345.61	-33.81
345.993	-17.77
346.376	-9.86
346.759	2.57
347.142	22.46
347.525	32.17
347.908	54.55
348.291	80.76
348.674	94.09
349.057	114.21
349.44	152.62
349.823	149.46
350.206	155.56
350.588	213.64
350.971	205.5
351.354	219.97
351.737	231.94
352.119	243.24
352.502	253.19
352.884	279.17
353.267	267.65
353.65	294.99
354.032	312.39
354.414	309
354.797	315.78
355.179	318.49
355.562	320.08
355.944	348.55
356.326	317.82
356.709	339.06
357.091	343.58
357.473	345.39
357.855	330.47
358.238	346.97
358.62	338.38
359.002	361.21
359.384	326.86
359.766	340.64
360.148	345.61
360.53	337.93
360.912	355.1
361.294	331.6
361.676	332.28
362.057	325.27
362.439	323.01
362.821	328.44
363.203	332.73
363.584	335.22
363.966	313.52
364.348	331.15
364.729	325.27
365.111	292.51
365.493	315.1
365.874	320.53
366.256	321.88
366.637	313.07
367.019	323.01
367.4	306.97
367.781	333.41
368.163	309.68
368.544	316.23
368.925	313.07
369.306	326.4
369.688	305.16
370.069	317.59
370.45	327.76
370.831	332.28
371.212	320.75
371.593	305.84
371.974	302
372.355	320.98
372.736	325.27
373.117	314.2
373.498	314.43
373.879	327.53
374.26	331.15
374.641	315.1
375.021	321.66
375.402	321.21
375.783	342.22
376.163	322.34
376.544	342
376.925	322.56
377.305	337.7
377.686	348.55
378.066	340.64
378.447	342.67
378.827	347.19
379.208	329.12
379.588	316.91
379.968	323.92
380.349	330.47
380.729	337.93
381.109	336.35
381.489	353.52
381.87	347.42
382.25	358.49
382.63	336.12
383.01	339.74
383.39	350.36
383.77	346.74
384.15	347.65
384.53	326.18
384.91	325.95
385.29	355.56
385.67	348.55
386.049	360.53
386.429	346.74
386.809	365.27
387.189	361.66
387.568	345.61
387.948	358.04
388.328	359.17
388.707	382.45
389.087	343.35
389.466	375.89
389.846	396.91
390.225	377.48
390.605	370.24
390.984	359.62
391.363	388.32
391.743	379.74
392.122	385.39
392.501	378.15
392.881	368.66
393.26	377.02
393.639	376.8
394.018	388.55
394.397	406.63
394.776	365.5
395.155	368.44
395.534	393.07
395.913	400.75
396.292	399.62
396.671	383.13
397.05	393.97
397.429	376.8
397.808	417.25
398.186	407.76
398.565	387.65
398.944	408.89
399.323	407.08
399.701	430.81
400.08	413.18
400.458	400.53
400.837	412.96
401.215	414.31
401.594	407.98
401.972	399.62
402.351	421.77
402.729	408.89
403.107	424.93
403.486	428.32
403.864	401.88
404.242	413.18
404.62	409.11
404.999	420.86
405.377	439.85
405.755	440.98
406.133	454.99
406.511	442.33
406.889	433.97
407.267	440.98
407.645	464.93
408.023	456.8
408.401	442.33
408.779	449.11
409.156	447.76
409.534	454.08
409.912	453.63
410.29	472.61
410.667	474.87
411.045	469.68
411.422	466.06
411.8	500.18
412.178	466.74
412.555	484.14
412.933	491.15
413.31	480.52
413.687	515.78
414.065	512.84
414.442	492.95
414.819	500.64
415.197	506.06
415.574	505.38
415.951	526.62
416.328	519.62
416.705	525.27
417.082	515.78
417.46	518.49
417.837	536.12
418.214	513.52
418.591	532.05
418.967	525.72
419.344	524.14
419.721	539.51
420.098	543.35
420.475	540.41
420.852	550.58
421.228	550.58
421.605	554.87
421.982	569.11
422.358	557.81
422.735	573.4
423.111	575.66
423.488	570.01
423.864	586.51
424.241	603.23
424.617	607.98
424.994	601.2
425.37	601.2
425.746	582.89
426.123	611.59
426.499	622.44
426.875	583.12
427.251	596.68
427.627	633.06
428.003	619.5
428.379	624.7
428.756	631.93
429.132	654.76
429.507	660.86
429.883	668.54
430.259	663.12
430.635	670.35
431.011	673.06
431.387	679.16
431.763	658.6
432.138	675.77
432.514	688.43
432.89	701.99
433.265	713.06
433.641	713.51
434.016	705.38
434.392	720.07
434.767	729.11
435.143	733.4
435.518	733.17
435.894	756.9
436.269	765.49
436.644	754.87
437.02	769.56
437.395	760.74
437.77	781.08
438.145	781.99
438.52	783.12
438.895	804.58
439.271	836.67
439.646	813.85
440.021	781.53
440.395	817.24
440.77	819.72
441.145	801.87
441.52	842.32
441.895	833.28
442.27	870.8
442.645	843.68
443.019	870.34
443.394	873.28
443.769	867.41
444.143	878.93
444.518	880.97
444.892	880.06
445.267	902.21
445.641	868.08
446.016	897.24
446.39	898.37
446.764	906.5
447.139	918.48
447.513	899.95
447.887	935.2
448.262	912.6
448.636	940.62
449.01	927.52
449.384	935.2
449.758	949.89
450.132	962.77
450.506	964.35
450.88	970.45
451.254	991.25
451.628	1003.67
452.002	998.25
452.376	1005.26
452.75	1017.46
453.123	1017.46
453.497	1042.09
453.871	1018.14
454.244	1041.41
454.618	1044.35
454.992	1072.15
455.365	1074.86
455.739	1115.31
456.112	1105.82
456.486	1101.07
456.859	1146.72
457.232	1150.34
457.606	1136.33
457.979	1168.19
458.352	1206.83
458.725	1210.22
459.099	1179.04
459.472	1224.46
459.845	1237.57
460.218	1258.58
460.591	1290.9
460.964	1277.11
461.337	1292.48
461.71	1308.3
462.083	1320.95
462.456	1357.34
462.829	1344.68
463.201	1379.71
463.574	1402.99
463.947	1415.64
464.32	1440.27
464.692	1472.59
465.065	1487.73
465.438	1500.38
465.81	1521.4
466.183	1513.49
466.555	1559.82
466.928	1576.31
467.3	1598.23
467.672	1595.07
468.045	1663.09
468.417	1651.57
468.789	1685.01
469.161	1687.5
469.534	1748.74
469.906	1786.93
470.278	1811.56
470.65	1848.4
471.022	1888.17
471.394	1919.58
471.766	1935.4
472.138	2017.21
472.51	2028.96
472.882	2094.94
473.253	2134.04
473.625	2161.38
473.997	2213.36
474.369	2239.12
474.74	2287.71
475.112	2323.41
475.484	2343.75
475.855	2467.36
476.227	2498.1
476.598	2567.7
476.97	2614.25
477.341	2725.44
477.713	2754.36
478.084	2769.96
478.455	2891.53
478.827	2958.88
479.198	3041.81
479.569	3100.12
479.94	3216.5
480.311	3264.41
480.682	3412.88
481.053	3510.05
481.424	3603.38
481.795	3633.44
482.166	3783.94
482.537	3871.4
482.908	3995.23
483.279	4035.01
483.65	4217.15
484.021	4340.08
484.391	4419.63
484.762	4525.39
485.133	4606.97
485.503	4689.23
485.874	4817.13
486.244	4980.07
486.615	5182.55
486.985	5239.5
487.356	5406.72
487.726	5496.66
488.097	5636.09
488.467	5777.33
488.837	5939.36
489.207	6062.98
489.578	6224.55
489.948	6309.98
490.318	6499.8
490.688	6661.15
491.058	6820.47
491.428	6904.08
491.798	7052.1
492.168	7190.86
492.538	7398.76
492.908	7480.57
493.278	7623.61
493.648	7756.04
494.017	7921.01
494.387	8063.83
494.757	8212.52
495.126	8344.5
495.496	8439.64
495.866	8610.03
496.235	8777.03
496.605	8821.55
496.974	9007.98
497.344	9103.8
497.713	9294.53
498.082	9367.97
498.452	9536.33
498.821	9568.65
499.19	9665.59
499.559	9859.94
499.928	9954.17
500.298	10141.06
500.667	10176.77
501.036	10237.1
501.405	10391
501.774	10429.87
502.143	10660.37
502.512	10669.63
502.88	10789.41
503.249	10818.33
503.618	10950.53
503.987	11012.45
504.356	11182.16
504.724	11277.08
505.093	11282.27
505.462	11342.61
505.83	11494.7
506.199	11589.61
506.567	11687.01
506.936	11758.65
507.304	11880.68
507.672	12000.22
508.041	12043.16
508.409	12140.33
508.777	12228.46
509.145	12261.91
509.514	12285.86
509.882	12393.88
510.25	12482.24
510.618	12524.73
510.986	12602.92
511.354	12669.81
511.722	12829.35
512.09	12876.36
512.458	12858.5
512.826	12984.38
513.193	13028.44
513.561	13003.58
513.929	13131.72
514.297	13206.97
514.664	13232.28
515.032	13311.37
515.4	13317.25
515.767	13372.39
516.135	13440.41
516.502	13357.7
516.869	13498.94
517.237	13593.85
517.604	13528.32
517.972	13689.22
518.339	13717.46
518.706	13717.01
519.073	13718.37
519.44	13796.33
519.808	13917.46
520.175	13884.92
520.542	13962.88
520.909	13999.26
521.276	14123.33
521.643	14089.21
522.009	14144.8
522.376	14194.06
522.743	14159.26
523.11	14303.66
523.477	14321.52
523.843	14426.37
524.21	14424.79
524.577	14479.93
524.943	14451.68
525.31	14482.64
525.676	14596.54
526.043	14619.36
526.409	14637.67
526.776	14731.67
527.142	14733.03
527.508	14701.39
527.874	14787.72
528.241	14738.91
528.607	14697.78
528.973	14841.28
529.339	14839.69
529.705	14930.99
530.071	14917.21
530.437	14991.55
530.803	14982.74
531.169	14962.18
531.535	14895.51
531.901	14904.55
532.267	14947.94
532.632	14959.47
532.998	14991.33
533.364	15012.12
533.73	14987.71
534.095	15017.09
534.461	14888.28
534.826	15014.38
535.192	14885.34
535.557	15052.8
535.923	14859.36
536.288	14815.51
536.653	14920.82
537.019	14875.4
537.384	14859.36
537.749	14884.67
538.114	14775.74
538.479	14755.4
538.845	14807.61
539.21	14769.64
539.575	14721.28
539.94	14594.96
540.305	14775.97
540.67	14576.2
541.034	14597.67
541.399	14603.09
541.764	14534.62
542.129	14579.14
542.494	14476.09
542.858	14500.04
543.223	14430.21
543.587	14453.04
543.952	14273.16
544.316	14328.97
544.681	14307.05
545.045	14225.02
545.41	14321.52
545.774	14253.27
546.138	14185.7
546.503	14151.58
546.867	14169.43
547.231	14174.4
547.595	14126.94
547.959	14065.03
548.324	14011.47
548.688	14007.85
549.052	13973.95
549.416	13886.05
549.779	13936.44
550.143	13774.19
550.507	13957.68
550.871	13902.77
551.235	13837.24
551.599	13795.43
551.962	13789.55
552.326	13790.91
552.689	13770.12
553.053	13691.7
553.417	13654.19
553.78	13744.81
554.143	13631.36
554.507	13643.12
554.87	13709.78
555.234	13683.34
555.597	13594.98
555.96	13520.63
556.323	13583.68
556.686	13550.24
557.05	13573.29
557.413	13559.73
557.776	13523.8
558.139	13558.15
558.502	13563.34
558.865	13575.55
559.228	13524.47
559.59	13568.99
559.953	13486.96
560.316	13680.85
560.679	13504.81
561.041	13670.01
561.404	13613.51
561.767	13578.03
562.129	13539.39
562.492	13636.11
562.854	13591.82
563.217	13529.67
563.579	13555.66
563.941	13659.16
564.304	13647.86
564.666	13600.63
565.028	13590.46
565.39	13591.14
565.753	13626.62
566.115	13659.61
566.477	13677.47
566.839	13696.67
567.201	13792.94
567.563	13820.06
567.925	13782.32
568.287	13786.39
568.648	13839.72
569.01	13783.23
569.372	13909.32
569.734	13799.04
570.095	13888.99
570.457	13903.45
570.819	13895.09
571.18	13888.76
571.542	13920.17
571.903	13902.09
572.265	13890.57
572.626	14010.79
572.987	13977.12
573.349	13929.89
573.71	13973.73
574.071	14092.82
574.432	14018.7
574.794	14056.21
575.155	14012.37
575.516	14006.72
575.877	14090.79
576.238	14021.64
576.599	14049.21
576.96	14152.03
577.32	14054.4
577.681	14042.65
578.042	14081.97
578.403	14029.55
578.763	14093.05
579.124	14137.79
579.485	14099.6
579.845	14179.37
580.206	14169.66
580.566	14110.67
580.927	14074.74
581.287	14222.08
581.648	14157.9
582.008	14146.61
582.368	14075.87
582.728	14125.59
583.089	14076.55
583.449	14164.46
583.809	14033.39
584.169	14079.49
584.529	14019.15
584.889	14150.9
585.249	13923.11
585.609	13911.81
585.969	14017.34
586.329	13975.31
586.688	13981.41
587.048	13943.9
587.408	13971.24
587.768	14017.34
588.127	13955.65
588.487	13929.44
588.846	14027.96
589.206	13881.3
589.565	13933.96
589.925	13979.83
590.284	13888.76
590.643	13963.33
591.003	13917.01
591.362	13976.21
591.721	13915.65
592.08	13910
592.44	13884.24
592.799	13884.92
593.158	13837.01
593.517	13845.37
593.876	13900.96
594.235	13766.73
594.593	13813.51
594.952	13768.99
595.311	13759.27
595.67	13790.68
596.029	13825.71
596.387	13908.19
596.746	13910.91
597.104	13772.15
597.463	13773.28
597.822	13868.42
598.18	13792.49
598.538	13789.55
598.897	13839.72
599.255	13649.67
599.613	13928.98
599.972	13873.84
600.33	13894.63
600.688	13763.34
601.046	13781.64
601.404	13793.62
601.762	13832.26
602.12	13868.87
602.478	13785.71
602.836	13826.16
603.194	13782.1
603.552	13805.15
603.91	13758.59
604.268	13790.68
604.625	13702.78
604.983	13729.67
605.341	13766.73
605.698	13840.17
606.056	13780.51
606.413	13864.58
606.771	13870.68
607.128	13829.78
607.485	13783.9
607.843	13871.58
608.2	13849.21
608.557	13912.71
608.914	13878.14
609.272	13904.58
609.629	13912.71
609.986	13947.74
610.343	13905.93
610.7	14014.86
611.057	13956.33
611.414	13922.88
611.771	13842.21
612.127	14046.72
612.484	13914.97
612.841	14029.09
613.198	13913.39
613.554	13973.5
613.911	14066.83
614.267	14041.52
614.624	13987.74
614.98	14075.65
615.337	14113.84
615.693	14084.23
616.05	14113.16
616.406	14116.78
616.762	14052.82
617.118	14097.57
617.475	14048.53
617.831	14161.52
618.187	14223.89
618.543	14191.35
618.899	14242.87
619.255	14241.74
619.611	14188.64
619.967	14279.03
620.323	14218.69
620.678	14206.49
621.034	14184.57
621.39	14118.81
621.746	14126.04
622.101	14313.15
622.457	14173.5
622.812	14213.27
623.168	14207.17
623.523	14201.97
623.879	14230.22
624.234	14180.73
624.589	14297.79
624.945	14264.79
625.3	14279.03
625.655	14222.76
626.01	14235.87
626.365	14174.18
626.72	14198.13
627.075	14306.38
627.43	14188.19
627.785	14154.29
628.14	14190.45
628.495	14241.74
628.85	14142.09
629.205	14146.61
629.559	14188.64
629.914	14105.7
630.269	14108.64
630.623	14123.56
630.978	14087.62
631.332	14136.66
631.687	14097.57
632.041	14097.57
632.396	14149.77
632.75	14041.52
633.104	14084.01
633.459	13919.72
633.813	14018.7
634.167	14025.93
634.521	13980.51
634.875	13985.71
635.229	14022.77
635.583	13896.67
635.937	13950.23
636.291	13882.88
636.645	13916.1
636.999	13795.43
637.352	13866.16
637.706	13752.27
638.06	13864.58
638.413	13791.81
638.767	13728.54
639.121	13784.13
639.474	13730.12
639.828	13682.89
640.181	13808.99
640.534	13715.88
640.888	13708.65
641.241	13588.43
641.594	13602.66
641.947	13738.71
642.301	13626.17
642.654	13716.79
643.007	13614.64
643.36	13661.87
643.713	13607.18
644.066	13642.89
644.419	13606.51
644.771	13437.7
645.124	13363.35
645.477	13247.42
645.83	13307.76
646.182	13232.05
646.535	13206.29
646.888	13132.39
647.24	13126.29
647.593	13209.23
647.945	13091.27
648.298	13151.6
648.65	13094.88
649.002	13103.02
649.355	13107.31
649.707	13103.7
650.059	13205.39
650.411	13369.9
650.763	13455.78
651.115	13473.63
651.467	13430.92
651.819	13420.52
652.171	13425.95
652.523	13423.01
652.875	13384.37
653.227	13351.82
653.578	13440.41
653.93	13438.6
654.282	13424.36
654.633	13345.72
654.985	13406.74
655.337	13351.37
655.688	13435.66
656.039	13468.21
656.391	13356.57
656.742	13344.82
657.094	13371.94
657.445	13422.33
657.796	13406.96
658.147	13407.64
658.498	13356.57
658.849	13386.63
659.2	13310.02
659.551	13312.73
659.902	13362.22
660.253	13427.75
660.604	13361.54
660.955	13427.08
661.306	13485.61
661.656	13425.72
662.007	13498.71
662.358	13440.41
662.708	13416.46
663.059	13411.03
663.409	13373.29
663.76	13500.75
664.11	13512.72
664.461	13488.09
664.811	13453.74
665.161	13424.59
665.511	13480.63
665.862	13482.67
666.212	13457.58
666.562	13518.37
666.912	13610.57
667.262	13458.71
667.612	13444.25
667.962	13514.53
668.312	13479.96
668.662	13575.1
669.011	13397.7
669.361	13443.35
669.711	13514.98
670.06	13420.3
670.41	13414.65
670.76	13450.58
671.109	13473.4
671.459	13418.26
671.808	13409
672.157	13403.12
672.507	13375.55
672.856	13390.02
673.205	13440.86
673.554	13347.08
673.904	13337.14
674.253	13434.99
674.602	13320.86
674.951	13134.88
675.3	13076.35
675.649	13319.28
675.998	13293.75
676.346	13251.49
676.695	13293.97
677.044	13190.25
677.393	13308.66
677.741	13307.76
678.09	13295.33
678.438	13177.82
678.787	13207.2
679.135	13127.88
679.484	13080.42
679.832	13214.43
680.181	13044.49
680.529	13140.53
680.877	12967.2
681.225	12990.03
681.573	13112.96
681.922	12989.12
682.27	13019.4
682.618	12902.57
682.966	12854.21
683.314	12905.73
683.661	12836.58
684.009	12872.29
684.357	12802.01
684.705	12833.65
685.053	12866.41
685.4	12812.63
685.748	12692.41
686.095	12724.04
686.443	12627.32
686.79	12603.82
687.138	12696.93
687.485	12587.78
687.832	12599.75
688.18	12540.77
688.527	12572.86
688.874	12475.01
689.221	12495.58
689.568	12361.57
689.915	12379.87
690.262	12328.57
690.609	12374.22
690.956	12329.03
691.303	12230.27
691.65	12159.31
691.997	12115.7
692.344	12069.6
692.69	12087
693.037	11962.03
693.383	11854.91
693.73	11951.41
694.077	11870.96
694.423	11841.58
694.769	11778.76
695.116	11751.87
695.462	11793.22
695.808	11695.37
696.155	11704.64
696.501	11638.2
696.847	11636.39
697.193	11486.11
697.539	11556.62
697.885	11451.31
698.231	11447.92
698.577	11456.73
698.923	11431.87
699.269	11376.28
699.614	11279.79
699.96	11257.42
700.306	11197.53
700.651	11155.95
700.997	11097.19
701.342	11101.26
701.688	11063.07
702.033	10987.59
702.379	11018.1
702.724	10995.28
703.069	10919.57
703.415	10873.7
703.76	10809.07
704.105	10809.74
704.45	10759.35
704.795	10701.95
705.14	10663.53
705.485	10654.95
705.83	10589.86
706.175	10607.72
706.52	10577.89
706.865	10554.61
707.209	10527.49
707.554	10462.18
707.899	10575.85
708.243	10412.01
708.588	10392.81
708.932	10340.6
709.277	10346.71
709.621	10306.48
709.966	10278.68
710.31	10236.2
710.654	10158.24
710.998	10199.82
711.342	10182.42
711.687	10165.69
712.031	10108.29
712.375	10115.98
712.719	10142.87
713.063	10096.54
713.407	10140.84
713.75	10109.88
714.094	9998.24
714.438	10002.08
714.782	9977.45
715.125	9935.19
715.469	9950.11
715.812	9911.01
716.156	9834.18
716.499	9927.73
716.843	9883.89
717.186	9786.95
717.53	9868.75
717.873	9787.62
718.216	9765.25
718.559	9762.31
718.902	9697.46
719.246	9761.86
719.589	9704.91
719.932	9655.88
720.275	9634.86
720.617	9641.41
720.96	9591.7
721.303	9664.92
721.646	9656.55
721.989	9641.41
722.331	9601.19
722.674	9516.44
723.016	9635.09
723.359	9632.37
723.701	9562.09
724.044	9558.03
724.386	9555.99
724.729	9560.74
725.071	9532.72
725.413	9550.12
725.755	9547.4
726.097	9532.26
726.439	9463.11
726.782	9462.66
727.124	9481.42
727.465	9418.14
727.807	9464.24
728.149	9469.44
728.491	9487.74
728.833	9416.56
729.175	9422.89
729.516	9449.78
729.858	9432.61
730.199	9456.56
730.541	9411.36
730.882	9409.1
731.224	9452.94
731.565	9360.97
731.906	9410.91
732.248	9342.21
732.589	9396
732.93	9340.86
733.271	9364.13
733.612	9418.59
733.953	9412.94
734.294	9325.72
734.635	9346.96
734.976	9335.66
735.317	9307.18
735.658	9317.13
735.999	9360.29
736.339	9340.63
736.68	9378.82
737.021	9393.74
737.361	9380.4
737.702	9394.87
738.042	9358.48
738.383	9394.64
738.723	9378.37
739.063	9395.77
739.404	9419.05
739.744	9404.13
740.084	9382.21
740.424	9442.55
740.764	9405.71
741.104	9505.37
741.444	9494.3
741.784	9468.76
742.124	9539.49
742.464	9527.07
742.804	9505.82
743.143	9496.33
743.483	9590.12
743.823	9535.2
744.162	9559.83
744.502	9616.1
744.841	9720.06
745.181	9696.78
745.52	9692.03
745.86	9715.31
746.199	9764.12
746.538	9828.3
746.877	9889.54
747.216	9948.75
747.556	10010.22
747.895	9989.88
748.234	9988.3
748.573	10094.06
748.911	10159.59
749.25	10246.82
749.589	10233.26
749.928	10370.21
750.267	10397.1
750.605	10440.26
750.944	10532.46
751.283	10583.76
751.621	10695.17
751.96	10805.9
752.298	10824.66
752.636	10930.42
752.975	11065.56
753.313	11107.36
753.651	11328.6
753.989	11386.23
754.327	11414.7
754.666	11476.62
755.004	11750.06
755.342	11862.82
755.679	11931.75
756.017	12135.58
756.355	12224.17
756.693	12355.92
757.031	12505.52
757.368	12618.96
757.706	12889.46
