Data from hue_70_FLMS001491_11.txt Node
Date: Mon Feb 06 15:20:10 GMT 2017
User: dcchb
Spectrometer: FLMS00149
Trigger mode: 0
Integration Time (sec): 2.000000E-2
Scans to average: 10
Electric dark correction enabled: true
Nonlinearity correction enabled: false
Boxcar width: 0
XAxis mode: Wavelengths
Number of Pixels in Spectrum: 2048
>>>>>Begin Spectral Data<<<<<
341.393	-12.66
341.776	-12.66
342.16	-12.66
342.543	-55.14
342.927	-83.16
343.31	-92.43
343.693	-71.86
344.077	-76.16
344.46	-63.73
344.843	-63.05
345.226	-37.06
345.61	-37.74
345.993	-23.5
346.376	-1.13
346.759	-9.72
347.142	42.26
347.525	66.89
347.908	83.84
348.291	81.81
348.674	80.68
349.057	120.9
349.44	133.1
349.823	153.67
350.206	154.8
350.588	201.35
350.971	205.42
351.354	237.96
351.737	249.48
352.119	241.12
352.502	258.07
352.884	287.45
353.267	285.19
353.65	289.71
354.032	313.21
354.414	288.35
354.797	329.03
355.179	311.63
355.562	314.57
355.944	323.16
356.326	350.05
356.709	329.03
357.091	337.17
357.473	337.84
357.855	307.34
358.238	340.33
358.62	344.17
359.002	331.97
359.384	353.89
359.766	346.43
360.148	337.17
360.53	327.9
360.912	342.59
361.294	326.09
361.676	345.75
362.057	336.04
362.439	327
362.821	331.97
363.203	317.05
363.584	331.74
363.966	305.75
364.348	318.41
364.729	340.1
365.111	310.73
365.493	325.19
365.874	330.16
366.256	314.34
366.637	303.95
367.019	311.63
367.4	297.39
367.781	316.6
368.163	312.99
368.544	313.66
368.925	315.47
369.306	285.19
369.688	326.32
370.069	322.25
370.45	314.12
370.831	331.06
371.212	304.62
371.593	307.11
371.974	323.16
372.355	309.82
372.736	327.45
373.117	308.24
373.498	294
373.879	298.52
374.26	309.37
374.641	296.72
375.021	320.22
375.402	313.89
375.783	319.54
376.163	332.87
376.544	348.24
376.925	335.58
377.305	327.68
377.686	319.54
378.066	302.59
378.447	314.79
378.827	336.49
379.208	323.61
379.588	334.68
379.968	328.58
380.349	313.21
380.729	339.43
381.109	334.68
381.489	330.16
381.87	331.97
382.25	331.06
382.63	344.85
383.01	317.96
383.39	346.88
383.77	327.45
384.15	322.7
384.53	338.75
384.91	320.67
385.29	350.27
385.67	322.25
386.049	340.33
386.429	339.2
386.809	327.22
387.189	330.84
387.568	339.43
387.948	344.17
388.328	355.7
388.707	335.13
389.087	346.66
389.466	365.19
389.846	360.67
390.225	365.19
390.605	340.56
390.984	360.67
391.363	359.09
391.743	348.24
392.122	363.38
392.501	333.1
392.881	336.94
393.26	366.77
393.639	375.36
394.018	351.63
394.397	367
394.776	372.87
395.155	369.03
395.534	363.15
395.913	367.9
396.292	365.64
396.671	364.96
397.05	363.38
397.429	374.68
397.808	359.99
398.186	375.13
398.565	363.15
398.944	385.07
399.323	388.46
399.701	383.72
400.08	406.54
400.458	373.55
400.837	380.55
401.215	365.41
401.594	392.76
401.972	380.55
402.351	397.28
402.729	391.85
403.107	388.24
403.486	380.1
403.864	386.43
404.242	365.41
404.62	401.8
404.999	396.15
405.377	395.24
405.755	408.35
406.133	412.42
406.511	404.28
406.889	402.25
407.267	393.66
407.645	412.19
408.023	381.46
408.401	409.48
408.779	383.49
409.156	418.75
409.534	406.99
409.912	394.57
410.29	414.68
410.667	428.01
411.045	416.03
411.422	388.46
411.8	417.84
412.178	423.72
412.555	444.28
412.933	444.96
413.31	456.94
413.687	444.96
414.065	429.37
414.442	443.15
414.819	449.03
415.197	452.42
415.574	477.73
415.951	446.09
416.328	450.84
416.705	446.77
417.082	455.13
417.46	470.5
417.837	465.98
418.214	463.26
418.591	470.72
418.967	479.54
419.344	470.95
419.721	487.9
420.098	471.85
420.475	475.24
420.852	479.99
421.228	496.48
421.605	484.96
421.982	483.15
422.358	483.15
422.735	483.6
423.111	490.16
423.488	518.63
423.864	497.16
424.241	499.87
424.617	500.33
424.994	535.13
425.37	523.6
425.746	527.44
426.123	526.99
426.499	515.92
426.875	534.68
427.251	496.94
427.627	530.38
428.003	548.46
428.379	540.78
428.756	534.68
429.132	549.59
429.507	548.23
429.883	524.28
430.259	552.98
430.635	582.58
431.011	571.06
431.387	558.18
431.763	551.4
432.138	562.92
432.514	570.83
432.89	570.38
433.265	602.24
433.641	610.15
434.016	597.27
434.392	580.55
434.767	602.7
435.143	595.46
435.518	622.36
435.894	613.54
436.269	632.75
436.644	629.36
437.02	627.78
437.395	626.42
437.77	620.1
438.145	639.76
438.52	635.01
438.895	648.8
439.271	636.82
439.646	658.06
440.021	664.62
440.395	661
440.77	642.92
441.145	675.91
441.52	665.52
441.895	675.01
442.27	671.17
442.645	690.83
443.019	681.11
443.394	695.8
443.769	687.89
444.143	679.53
444.518	700.09
444.892	713.65
445.267	697.83
445.641	695.8
446.016	713.65
446.39	728.12
446.764	732.41
447.139	715.01
447.513	733.54
447.887	733.31
448.262	744.61
448.636	724.05
449.01	731.73
449.384	742.81
449.758	779.87
450.132	746.42
450.506	795.46
450.88	765.4
451.254	752.07
451.628	787.32
452.002	780.09
452.376	795.46
452.75	792.75
453.123	784.84
453.497	791.84
453.871	815.35
454.244	844.5
454.618	848.57
454.992	848.11
455.365	835.46
455.739	832.75
456.112	847.21
456.486	866.87
456.859	863.48
457.232	894.89
457.606	888.79
457.979	890.82
458.352	903.93
458.725	926.53
459.099	932.18
459.472	958.17
459.845	945.74
460.218	943.7
460.591	963.82
460.964	949.81
461.337	957.71
461.71	982.8
462.083	997.71
462.456	995.45
462.829	1001.1
463.201	1025.06
463.574	1037.94
463.947	1043.81
464.32	1072.29
464.692	1086.53
465.065	1096.69
465.438	1112.74
465.81	1116.81
466.183	1157.03
466.555	1150.48
466.928	1167.88
467.3	1204.94
467.672	1210.14
468.045	1221.21
468.417	1233.41
468.789	1262.79
469.161	1262.11
469.534	1314.54
469.906	1297.37
470.278	1349.34
470.65	1350.02
471.022	1366.29
471.394	1403.8
471.766	1418.04
472.138	1447.19
472.51	1475.67
472.882	1529.45
473.253	1583.46
473.625	1602.22
473.997	1655.78
474.369	1656.45
474.74	1677.7
475.112	1743.01
475.484	1794.08
475.855	1808.54
476.227	1844.25
476.598	1912.49
476.97	1940.29
477.341	1996.78
477.713	2010.79
478.084	2075.88
478.455	2173.73
478.827	2201.98
479.198	2264.8
479.569	2300.96
479.94	2427.96
480.311	2441.29
480.682	2543.44
481.053	2641.74
481.424	2709.08
481.795	2749.53
482.166	2832.47
482.537	2876.76
482.908	3017.1
483.279	3078.11
483.65	3165.57
484.021	3288.95
484.391	3375.96
484.762	3454.6
485.133	3510.87
485.503	3596.74
485.874	3803.29
486.244	3908.82
486.615	3966.45
486.985	4073.34
487.356	4231.08
487.726	4282.37
488.097	4438.08
488.467	4515.14
488.837	4625.87
489.207	4765.3
489.578	4872.64
489.948	5032.86
490.318	5092.52
490.688	5207.77
491.058	5393.08
491.428	5528.89
491.798	5649.79
492.168	5856.57
492.538	5950.8
492.908	6025.15
493.278	6237.8
493.648	6304.02
494.017	6534.07
494.387	6595.98
494.757	6727.73
495.126	6877.56
495.496	6955.07
495.866	7061.74
496.235	7219.92
496.605	7390.09
496.974	7533.14
497.344	7636.18
497.713	7790.3
498.082	7958.66
498.452	8042.05
498.821	8222.61
499.19	8273.91
499.559	8417.86
499.928	8558.65
500.298	8714.8
500.667	8792.09
501.036	8896.49
501.405	9041.57
501.774	9143.26
502.143	9268.68
502.512	9333.99
502.88	9533.31
503.249	9603.14
503.618	9669.35
503.987	9769.01
504.356	9983.47
504.724	10064.82
505.093	10121.54
505.462	10304.14
505.83	10341.42
506.199	10524.02
506.567	10659.83
506.936	10710.68
507.304	10874.74
507.672	10919.49
508.041	11058.69
508.409	11158.58
508.777	11302.08
509.145	11430.66
509.514	11445.8
509.882	11639.24
510.25	11590.66
510.618	11766.7
510.986	11828.62
511.354	11999.91
511.722	12119.23
512.09	12197.65
512.458	12146.12
512.826	12334.82
513.193	12540.46
513.561	12484.19
513.929	12676.5
514.297	12837.63
514.664	12801.7
515.032	12914.24
515.4	13026.78
515.767	13107.45
516.135	13230.61
516.502	13128.92
516.869	13445.52
517.237	13445.75
517.604	13487.1
517.972	13669.92
518.339	13697.94
518.706	13740.88
519.073	13837.6
519.44	13906.08
519.808	14007.99
520.175	14020.42
520.542	14210.25
520.909	14271.94
521.276	14209.34
521.643	14522.78
522.009	14495.66
522.376	14640.52
522.743	14650.91
523.11	14843.23
523.477	14929.78
523.843	15031.02
524.21	15121.18
524.577	15290.67
524.943	15399.6
525.31	15331.8
525.676	15442.76
526.043	15630.32
526.409	15615.63
526.776	15850.88
527.142	15828.51
527.508	15925.01
527.874	15991.67
528.241	16029.41
528.607	16113.25
528.973	16364.09
529.339	16259.23
529.705	16376.97
530.071	16415.61
530.437	16444.54
530.803	16548.72
531.169	16670.97
531.535	16608.6
531.901	16691.76
532.267	16724.31
532.632	16731.76
532.998	16839.78
533.364	16878.43
533.73	16990.29
534.095	17070.74
534.461	17056.5
534.826	17117.97
535.192	17148.02
535.557	17216.27
535.923	17232.54
536.288	17325.19
536.653	17434.12
537.019	17163.16
537.384	17314.35
537.749	17361.35
538.114	17381.01
538.479	17379.66
538.845	17474.12
539.21	17431.63
539.575	17501.23
539.94	17422.37
540.305	17616.03
540.67	17545.75
541.034	17517.28
541.399	17606.09
541.764	17651.74
542.129	17644.51
542.494	17656.71
542.858	17776.26
543.223	17747.56
543.587	17794.79
543.952	17785.3
544.316	17824.39
544.681	17732.19
545.045	17756.82
545.41	17840.66
545.774	17814.9
546.138	17876.82
546.503	17976.48
546.867	17868
547.231	17987.55
547.595	18043.59
547.959	17968.79
548.324	18035.91
548.688	17992.75
549.052	18072.07
549.416	18005.63
549.779	17999.07
550.143	18102.57
550.507	18146.64
550.871	18153.65
551.235	18281.33
551.599	18243.59
551.962	18258.28
552.326	18236.13
552.689	18307.32
553.053	18317.03
553.417	18380.31
553.78	18469.8
554.143	18291.5
554.507	18399.06
554.87	18508.89
555.234	18620.3
555.597	18552.28
555.96	18468.89
556.323	18589.57
556.686	18518.38
557.05	18710.47
557.413	18680.41
557.776	18736
558.139	18790.01
558.502	18761.77
558.865	18832.27
559.228	18954.98
559.59	18981.2
559.953	18920.63
560.316	19193.39
560.679	19103.45
561.041	19203.79
561.404	19234.52
561.767	19472.93
562.129	19240.17
562.492	19408.76
562.854	19373.05
563.217	19354.07
563.579	19403.11
563.941	19596.32
564.304	19638.13
564.666	19755.19
565.028	19729.2
565.39	19641.29
565.753	19866.14
566.115	19789.99
566.477	19864.56
566.839	19976.65
567.201	20100.94
567.563	20088.06
567.925	20146.81
568.287	20150.43
568.648	20208.73
569.01	20398.56
569.372	20383.42
569.734	20335.28
570.095	20415.73
570.457	20670.19
570.819	20552
571.18	20664.09
571.542	20603.75
571.903	20666.8
572.265	20741.15
572.626	20703.86
572.987	20711.09
573.349	20815.95
573.71	20934.59
574.071	20959
574.432	21015.27
574.794	21132.55
575.155	21036.51
575.516	21014.14
575.877	21096.39
576.238	21168.71
576.599	21078.99
576.96	21252.1
577.32	21198.54
577.681	21242.61
578.042	21262.49
578.403	21350.85
578.763	21255.94
579.124	21391.98
579.485	21354.69
579.845	21370.06
580.206	21520.79
580.566	21416.39
580.927	21462.26
581.287	21432.66
581.648	21472.43
582.008	21514.46
582.368	21541.35
582.728	21581.58
583.089	21548.36
583.449	21488.7
583.809	21572.99
584.169	21550.17
584.529	21598.98
584.889	21749.03
585.249	21530.51
585.609	21421.13
585.969	21652.99
586.329	21612.77
586.688	21583.16
587.048	21589.04
587.408	21587.68
587.768	21671.75
588.127	21483.5
588.487	21516.27
588.846	21746.55
589.206	21325.77
589.565	21556.27
589.925	21616.61
590.284	21613.89
590.643	21582.26
591.003	21674.23
591.362	21551.07
591.721	21569.83
592.08	21526.44
592.44	21612.31
592.799	21640.56
593.158	21598.08
593.517	21570.05
593.876	21668.58
594.235	21629.49
594.593	21533.9
594.952	21645.53
595.311	21589.94
595.67	21657.06
596.029	21752.2
596.387	21682.37
596.746	21858.41
597.104	21750.16
597.463	21602.6
597.822	21703.84
598.18	21554.69
598.538	21610.28
598.897	21797.84
599.255	21616.83
599.613	21832.19
599.972	21760.11
600.33	21838.07
600.688	21745.87
601.046	21840.33
601.404	21912.64
601.762	21889.82
602.12	21951.51
602.478	21939.08
602.836	22008.23
603.194	21788.81
603.552	21867
603.91	21887.56
604.268	22019.76
604.625	21823.15
604.983	21944.73
605.341	21863.83
605.698	22030.83
606.056	22005.3
606.413	21937.28
606.771	22087.78
607.128	22018.4
607.485	21982.92
607.843	22037.84
608.2	22118.74
608.557	22177.72
608.914	22175.69
609.272	22258.62
609.629	22300.88
609.986	22305.63
610.343	22161.23
610.7	22377.04
611.057	22509.01
611.414	22373.2
611.771	22349.02
612.127	22408.68
612.484	22495
612.841	22544.49
613.198	22524.83
613.554	22427.88
613.911	22628.78
614.267	22574.77
614.624	22732.28
614.98	22720.53
615.337	22754.88
615.693	22660.65
616.05	22767.54
616.406	22829.46
616.762	22841.21
617.118	22745.62
617.475	22776.35
617.831	22915.56
618.187	22824.26
618.543	22918.72
618.899	23082.56
619.255	23040.07
619.611	22912.17
619.967	23068.09
620.323	23170.92
620.678	22981.99
621.034	22926.63
621.39	23012.28
621.746	22981.99
622.101	23340.86
622.457	23071.03
622.812	23094.31
623.168	23291.14
623.523	23138.37
623.879	23249.33
624.234	23121.88
624.589	23287.07
624.945	23211.14
625.3	23327.3
625.655	23205.72
626.01	23306.28
626.365	23257.02
626.72	23221.99
627.075	23201.2
627.43	23211.59
627.785	23174.31
628.14	23248.2
628.495	23236.45
628.85	23229.45
629.205	23200.97
629.559	23332.49
629.914	23070.58
630.269	23163.46
630.623	23206.17
630.978	23089.79
631.332	23138.15
631.687	23267.86
632.041	23086.4
632.396	23213.17
632.75	22975.67
633.104	23098.15
633.459	23033.74
633.813	23075.55
634.167	23099.96
634.521	22943.8
634.875	22991.94
635.229	23022.22
635.583	22937.25
635.937	22954.65
636.291	22941.09
636.645	22866.97
636.999	22816.58
637.352	22921.88
637.706	22785.39
638.06	22981.77
638.413	22800.76
638.767	22777.71
639.121	22774.32
639.474	22708.56
639.828	22715.79
640.181	22838.5
640.534	22638.95
640.888	22648.67
641.241	22609.35
641.594	22655
641.947	22718.27
642.301	22515.79
642.654	22610.7
643.007	22617.03
643.36	22472.63
643.713	22568.45
644.066	22616.35
644.419	22556.24
644.771	22266.08
645.124	22167.1
645.477	22130.04
645.83	22002.13
646.182	21915.13
646.535	21916.49
646.888	21905.19
647.24	21722.59
647.593	21897.96
647.945	21822.48
648.298	21678.75
648.65	21818.18
649.002	21706.32
649.355	21800.56
649.707	21814.34
650.059	21883.49
650.411	22061.57
650.763	22049.36
651.115	22322.58
651.467	22365.97
651.819	22373.2
652.171	22188.57
652.523	22205.74
652.875	22233.77
653.227	22148.34
653.578	22297.04
653.93	22185.18
654.282	22229.02
654.633	22012.53
654.985	22123.49
655.337	22108.12
655.688	22205.29
656.039	22288
656.391	22048.69
656.742	22099.08
657.094	22129.14
657.445	22161.23
657.796	22114.9
658.147	22130.04
658.498	22167.78
658.849	22200.09
659.2	22172.98
659.551	22125.07
659.902	22295.01
660.253	22133.66
660.604	22242.13
660.955	22076.48
661.306	22156.93
661.656	22165.29
662.007	22135.01
662.358	22099.76
662.708	22217.27
663.059	22111.06
663.409	22060.89
663.76	22223.82
664.11	22119.19
664.461	22217.49
664.811	22192.86
665.161	22221.56
665.511	22063.83
665.862	22205.29
666.212	22321.22
666.562	22284.61
666.912	22170.49
667.262	22134.11
667.612	22126.2
667.962	22187.67
668.312	22143.82
668.662	22268.34
669.011	22167.1
669.361	22062.47
669.711	22106.99
670.06	22049.59
670.41	21920.1
670.76	21954
671.109	22123.03
671.459	22050.49
671.808	22002.81
672.157	22087.1
672.507	21960.1
672.856	21997.61
673.205	21966.2
673.554	22085.3
673.904	22006.2
674.253	22050.95
674.602	21876.71
674.951	21615.93
675.3	21559.21
675.649	21828.35
675.998	21878.75
676.346	21904.96
676.695	21867.9
677.044	21747.9
677.393	21797.62
677.741	21817.51
678.09	21712.2
678.438	21770.28
678.787	21862.02
679.135	21713.78
679.484	21631.75
679.832	21714.23
680.181	21641.69
680.529	21646.44
680.877	21568.25
681.225	21573.9
681.573	21628.58
681.922	21485.54
682.27	21492.32
682.618	21437.63
682.966	21436.95
683.314	21337.52
683.661	21306.11
684.009	21255.26
684.357	21269.5
684.705	21176.39
685.053	21136.62
685.4	21125.32
685.748	21096.62
686.095	21046.23
686.443	20926.91
686.79	20929.62
687.138	20972.56
687.485	20917.19
687.832	20882.61
688.18	20849.17
688.527	20730.53
688.874	20619.8
689.221	20818.44
689.568	20672.22
689.915	20624.54
690.262	20617.76
690.609	20543.19
690.956	20408.95
691.303	20387.94
691.65	20244.67
691.997	20331.67
692.344	20172.8
692.69	20091.68
693.037	20093.26
693.383	20036.54
693.73	20088.29
694.077	19901.17
694.423	19908.18
694.769	19872.7
695.116	19772.14
695.462	19733.49
695.808	19610.56
696.155	19689.2
696.501	19498.7
696.847	19508.41
697.193	19300.96
697.539	19462.09
697.885	19215.54
698.231	19269.55
698.577	19203.34
698.923	19170.12
699.269	19077.46
699.614	19022.55
699.96	18921.31
700.306	18955.89
700.651	18840.63
700.997	18799.05
701.342	18801.77
701.688	18694.88
702.033	18608.55
702.379	18593.18
702.724	18537.82
703.069	18579.4
703.415	18318.84
703.76	18295.11
704.105	18358.39
704.45	18230.26
704.795	18230.71
705.14	18074.78
705.485	18171.5
705.83	17982.8
706.175	18051.95
706.52	17930.83
706.865	17868.23
707.209	17831.62
707.554	17777.61
707.899	17854.67
708.243	17703.94
708.588	17749.14
708.932	17570.84
709.277	17604.96
709.621	17611.29
709.966	17444.51
710.31	17517.73
710.654	17350.96
710.998	17422.14
711.342	17365.65
711.687	17233.67
712.031	17300.56
712.375	17197.29
712.719	17157.06
713.063	17177.18
713.407	17180.11
713.75	17111.87
714.094	17077.07
714.438	17148.93
714.782	17057.18
715.125	16835.04
715.469	16864.87
715.812	16842.5
716.156	16791.2
716.499	16792.55
716.843	16769.05
717.186	16648.83
717.53	16742.16
717.873	16750.97
718.216	16595.5
718.559	16646.79
718.902	16436.63
719.246	16437.08
719.589	16540.36
719.932	16377.87
720.275	16389.63
720.617	16487.48
720.96	16406.57
721.303	16398.89
721.646	16408.61
721.989	16247.03
722.331	16356.86
722.674	16239.57
723.016	16393.69
723.359	16319.34
723.701	16266.92
724.044	16217.65
724.386	16081.39
724.729	16213.13
725.071	16079.58
725.413	16160.71
725.755	16190.08
726.097	16063.53
726.439	15875.29
726.782	15977.43
727.124	16054.27
727.465	15981.73
727.807	15922.07
728.149	15956.42
728.491	15932.69
728.833	15933.59
729.175	15897.89
729.516	15838
729.858	15908.96
730.199	15907.15
730.541	15809.3
730.882	15906.25
731.224	15859.47
731.565	15758.68
731.906	15789.42
732.248	15808.17
732.589	15683.66
732.93	15679.59
733.271	15709.19
733.612	15718.91
733.953	15660.61
734.294	15642.07
734.635	15658.8
734.976	15821.96
735.317	15495.19
735.658	15654.73
735.999	15579.7
736.339	15586.03
736.68	15691.79
737.021	15611.79
737.361	15637.55
737.702	15728.85
738.042	15619.02
738.383	15645.01
738.723	15614.96
739.063	15505.81
739.404	15541.74
739.744	15594.17
740.084	15583.09
740.424	15612.47
740.764	15586.26
741.104	15654.05
741.444	15580.83
741.784	15578.8
742.124	15529.76
742.464	15513.49
742.804	15605.69
743.143	15569.08
743.483	15672.13
743.823	15587.16
744.162	15568.63
744.502	15628.74
744.841	15571.79
745.181	15757.1
745.52	15670.77
745.86	15703.54
746.199	15635.97
746.538	15641.62
746.877	15779.02
747.216	15845.23
747.556	15847.94
747.895	15782.64
748.234	15817.44
748.573	15787.83
748.911	15929.3
749.25	15962.07
749.589	15953.7
749.928	16002.07
750.267	15975.17
750.605	16178.33
750.944	16131.78
751.283	16136.3
751.621	16256.52
751.96	16252.45
752.298	16328.84
752.636	16354.15
752.975	16340.14
753.313	16380.13
753.651	16543.52
753.989	16597.08
754.327	16576.97
754.666	16551.2
755.004	16774.7
755.342	16798.88
755.679	16919.78
756.017	16793.46
756.355	16979.44
756.693	17000.46
757.031	17129.72
757.368	17095.82
