Data from hue_250_FLMS001491_00059.txt Node
Date: Tue Feb 07 16:01:11 GMT 2017
User: dcchb
Spectrometer: FLMS00149
Trigger mode: 0
Integration Time (sec): 2.000000E-2
Scans to average: 10
Electric dark correction enabled: true
Nonlinearity correction enabled: false
Boxcar width: 0
XAxis mode: Wavelengths
Number of Pixels in Spectrum: 2048
>>>>>Begin Spectral Data<<<<<
341.393	0.13
341.776	0.13
342.16	0.13
342.543	-52.53
342.927	-53.66
343.31	-66.99
343.693	-75.8
344.077	-101.79
344.46	-78.97
344.843	-52.98
345.226	-41.91
345.61	-32.64
345.993	-9.59
346.376	-8.01
346.759	24.31
347.142	35.83
347.525	40.8
347.908	59.11
348.291	76.96
348.674	107.24
349.057	124.42
349.44	128.49
349.823	163.06
350.206	162.61
350.588	193.34
350.971	188.82
351.354	224.75
351.737	239.22
352.119	271.08
352.502	268.37
352.884	265.2
353.267	283.74
353.65	291.42
354.032	304.07
354.414	294.36
354.797	303.85
355.179	314.7
355.562	337.97
355.944	324.64
356.326	336.84
356.709	322.83
357.091	325.54
357.473	315.83
357.855	330.06
358.238	340.23
358.62	336.16
359.002	330.74
359.384	324.64
359.766	330.74
360.148	331.19
360.53	339.1
360.912	327.12
361.294	323.51
361.676	325.54
362.057	332.77
362.439	332.77
362.821	332.1
363.203	318.08
363.584	318.08
363.966	330.29
364.348	336.39
364.729	308.82
365.111	332.1
365.493	316.5
365.874	325.32
366.256	305.2
366.637	327.12
367.019	312.89
367.4	311.31
367.781	299.55
368.163	330.51
368.544	298.42
368.925	312.89
369.306	311.53
369.688	316.5
370.069	330.51
370.45	328.03
370.831	317.18
371.212	303.17
371.593	316.73
371.974	326.67
372.355	311.53
372.736	300.91
373.117	337.97
373.498	301.59
373.879	342.27
374.26	306.79
374.641	334.36
375.021	316.73
375.402	309.95
375.783	323.96
376.163	324.64
376.544	326.9
376.925	328.48
377.305	323.51
377.686	317.41
378.066	307.46
378.447	311.53
378.827	332.55
379.208	348.37
379.588	337.97
379.968	315.15
380.349	329.16
380.729	327.58
381.109	341.81
381.489	327.35
381.87	317.41
382.25	340.23
382.63	357.18
383.01	370.51
383.39	345.65
383.77	336.39
384.15	335.94
384.53	340.23
384.91	338.88
385.29	335.49
385.67	363.28
386.049	347.69
386.429	332.1
386.809	351.08
387.189	355.6
387.568	368.25
387.948	373.22
388.328	349.72
388.707	360.57
389.087	353.56
389.466	373
389.846	345.88
390.225	372.32
390.605	351.53
390.984	376.61
391.363	366.9
391.743	345.88
392.122	377.52
392.501	386.33
392.881	374.81
393.26	396.73
393.639	401.02
394.018	379.78
394.397	389.95
394.776	412.55
395.155	395.6
395.534	389.95
395.913	409.16
396.292	391.53
396.671	401.92
397.05	394.69
397.429	390.4
397.808	400.34
398.186	410.74
398.565	406.67
398.944	422.94
399.323	396.95
399.701	401.92
400.08	402.6
400.458	399.21
400.837	420.46
401.215	432.21
401.594	417.07
401.972	436.95
402.351	435.82
402.729	415.03
403.107	430.62
403.486	431.3
403.864	449.83
404.242	427.91
404.62	425.88
404.999	459.1
405.377	433.11
405.755	466.78
406.133	450.06
406.511	472.21
406.889	469.72
407.267	468.82
407.645	474.01
408.023	503.39
408.401	490.96
408.779	495.03
409.156	486.44
409.534	497.52
409.912	510.17
410.29	501.58
410.667	528.93
411.045	521.47
411.422	533.45
411.8	540.23
412.178	562.37
412.555	545.65
412.933	560.56
413.31	568.02
413.687	572.99
414.065	590.62
414.442	589.94
414.819	597.85
415.197	620.45
415.574	590.62
415.951	604.86
416.328	617.29
416.705	631.07
417.082	627.23
417.46	624.07
417.837	620.45
418.214	636.72
418.591	663.84
418.967	670.17
419.344	663.61
419.721	654.35
420.098	677.17
420.475	664.74
420.852	698.87
421.228	720.56
421.605	723.95
421.982	753.78
422.358	730.28
422.735	744.74
423.111	747.23
423.488	768.02
423.864	742.03
424.241	765.53
424.617	793.78
424.994	802.14
425.37	815.7
425.746	806.89
426.123	829.26
426.499	816.38
426.875	846.21
427.251	877.39
427.627	873.1
428.003	892.31
428.379	906.54
428.756	922.81
429.132	905.64
429.507	946.54
429.883	906.77
430.259	929.14
430.635	936.83
431.011	965.07
431.387	965.75
431.763	1002.36
432.138	1014.79
432.514	1015.02
432.89	1005.75
433.265	1023.83
433.641	1033.32
434.016	1073.09
434.392	1079.87
434.767	1128.91
435.143	1104.73
435.518	1115.8
435.894	1164.16
436.269	1142.7
436.644	1201.68
437.02	1207.78
437.395	1194.9
437.77	1218.4
438.145	1236.03
438.52	1250.72
438.895	1268.57
439.271	1270.6
439.646	1320.77
440.021	1309.02
440.395	1337.04
440.77	1338.85
441.145	1318.28
441.52	1375.46
441.895	1371.16
442.27	1379.98
442.645	1397.6
443.019	1415.91
443.394	1409.81
443.769	1438.96
444.143	1430.6
444.518	1451.39
444.892	1465.85
445.267	1453.87
445.641	1484.61
446.016	1497.94
446.39	1498.62
446.764	1520.77
447.139	1507.43
447.513	1518.05
447.887	1545.4
448.262	1535.23
448.636	1540.43
449.01	1557.6
449.384	1589.46
449.758	1607.77
450.132	1599.86
450.506	1622.91
450.88	1658.84
451.254	1639.41
451.628	1684.6
452.002	1667.65
452.376	1694.32
452.75	1710.36
453.123	1747.65
453.497	1733.64
453.871	1746.75
454.244	1798.95
454.618	1795.79
454.992	1805.73
455.365	1831.04
455.739	1866.29
456.112	1866.07
456.486	1882.79
456.859	1922.56
457.232	1938.16
457.606	1939.06
457.979	1930.47
458.352	1960.53
458.725	2017.25
459.099	2040.75
459.472	2064.48
459.845	2051.37
460.218	2091.6
460.591	2077.59
460.964	2092.28
461.337	2177.7
461.71	2181.76
462.083	2198.71
462.456	2222.67
462.829	2200.52
463.201	2257.02
463.574	2265.83
463.947	2274.87
464.32	2340.18
464.692	2363.68
465.065	2377.69
465.438	2416.11
465.81	2431.02
466.183	2472.6
466.555	2523.68
466.928	2496.33
467.3	2543.79
467.672	2551.02
468.045	2596.89
468.417	2639.83
468.789	2649.55
469.161	2683.67
469.534	2719.38
469.906	2776.78
470.278	2765.03
470.65	2777.23
471.022	2852.26
471.394	2857.91
471.766	2926.83
472.138	2941.74
472.51	3003.44
472.882	3071.91
473.253	3088.63
473.625	3108.29
473.997	3155.75
474.369	3182.42
474.74	3191
475.112	3278.01
475.484	3328.18
475.855	3345.35
476.227	3381.06
476.598	3455.18
476.97	3476.65
477.341	3558.45
477.713	3600.94
478.084	3607.49
478.455	3731.55
478.827	3789.41
479.198	3869.86
479.569	3883.19
479.94	3904.66
480.311	3954.37
480.682	4010.42
481.053	4122.05
481.424	4153.69
481.795	4183.97
482.166	4244.76
482.537	4300.35
482.908	4359.79
483.279	4383.97
483.65	4484.3
484.021	4538.99
484.391	4611.08
484.762	4674.35
485.133	4605.88
485.503	4721.13
485.874	4832.77
486.244	4862.6
486.615	4912.54
486.985	4951.41
487.356	5032.09
487.726	5114.79
488.097	5210.84
488.467	5195.02
488.837	5247.67
489.207	5352.75
489.578	5385.3
489.948	5430.94
490.318	5492.19
490.688	5507.1
491.058	5590.94
491.428	5680.88
491.798	5677.72
492.168	5762.91
492.538	5819.41
492.908	5893.53
493.278	5928.11
493.648	5922.91
494.017	5992.51
494.387	6059.63
494.757	6102.79
495.126	6166.52
495.496	6153.19
495.866	6194.99
496.235	6253.97
496.605	6283.58
496.974	6354.76
497.344	6453.29
497.713	6408.55
498.082	6420.98
498.452	6518.6
498.821	6535.32
499.19	6507.53
499.559	6592.27
499.928	6633.85
500.298	6625.26
500.667	6670.91
501.036	6661.87
501.405	6747.75
501.774	6750.68
502.143	6790.01
502.512	6743.45
502.88	6810.8
503.249	6832.94
503.618	6892.15
503.987	6890.34
504.356	6938.48
504.724	6998.59
505.093	6986.38
505.462	7025.48
505.83	7021.64
506.199	7093.95
506.567	7243.1
506.936	7170.33
507.304	7247.62
507.672	7234.29
508.041	7233.38
508.409	7260.28
508.777	7317.45
509.145	7347.28
509.514	7325.13
509.882	7368.29
510.25	7366.94
510.618	7478.12
510.986	7428.63
511.354	7492.81
511.722	7505.47
512.09	7534.39
512.458	7555.41
512.826	7583.43
513.193	7586.14
513.561	7657.55
513.929	7693.48
514.297	7706.59
514.664	7819.36
515.032	7710.66
515.4	7812.35
515.767	7821.62
516.135	7792.24
516.502	7766.25
516.869	7840.37
517.237	7889.64
517.604	7821.16
517.972	7905.68
518.339	7898
518.706	7907.94
519.073	7948.17
519.44	7946.81
519.808	8003.31
520.175	7918.11
520.542	8110.87
520.909	8066.58
521.276	8065.68
521.643	8130.99
522.009	8100.48
522.376	8149.29
522.743	8164.43
523.11	8185.22
523.477	8254.37
523.843	8260.7
524.21	8241.94
524.577	8301.83
524.943	8349.96
525.31	8364.88
525.676	8439.45
526.043	8504.08
526.409	8450.3
526.776	8562.16
527.142	8523.74
527.508	8507.02
527.874	8581.14
528.241	8565.1
528.607	8560.35
528.973	8654.36
529.339	8566.46
529.705	8631.99
530.071	8660.69
530.437	8690.97
530.803	8699.11
531.169	8769.84
531.535	8689.84
531.901	8736.62
532.267	8741.37
532.632	8713.12
532.998	8782.04
533.364	8792.21
533.73	8769.39
534.095	8806.22
534.461	8832.89
534.826	8830.86
535.192	8837.63
535.557	8804.64
535.923	8840.12
536.288	8836.28
536.653	8793.57
537.019	8754.25
537.384	8836.05
537.749	8806
538.114	8784.53
538.479	8807.35
538.845	8790.63
539.21	8802.83
539.575	8786.11
539.94	8827.47
540.305	8800.8
540.67	8768.94
541.034	8753.12
541.399	8810.52
541.764	8825.43
542.129	8764.42
542.494	8756.51
542.858	8819.78
543.223	8847.13
543.587	8787.92
543.952	8819.1
544.316	8824.3
544.681	8744.08
545.045	8772.78
545.41	8902.72
545.774	8782.04
546.138	8733.46
546.503	8804.19
546.867	8713.57
547.231	8787.92
547.595	8755.6
547.959	8790.63
548.324	8746.79
548.688	8756.51
549.052	8734.59
549.416	8721.93
549.779	8708.6
550.143	8765.09
550.507	8744.98
550.871	8790.18
551.235	8692.33
551.599	8778.88
551.962	8786.56
552.326	8863.4
552.689	8773.23
553.053	8696.62
553.417	8715.15
553.78	8759.67
554.143	8760.12
554.507	8816.17
554.87	8772.1
555.234	8867.01
555.597	8768.48
555.96	8806.9
556.323	8790.4
556.686	8868.59
557.05	8841.02
557.413	8833.34
557.776	8810.74
558.139	8889.61
558.502	8910.63
558.865	8809.16
559.228	8951.76
559.59	8934.13
559.953	8925.54
560.316	8948.37
560.679	8980
561.041	9046.22
561.404	8978.87
561.767	9046.67
562.129	8987.69
562.492	9135.93
562.854	9076.72
563.217	9043.73
563.579	9097.52
563.941	9151.98
564.304	9192.88
564.666	9203.27
565.028	9198.76
565.39	9263.16
565.753	9244.18
566.115	9251.64
566.477	9323.27
566.839	9318.07
567.201	9399.88
567.563	9389.26
567.925	9438.75
568.287	9392.2
568.648	9451.86
569.01	9486.88
569.372	9459.09
569.734	9436.94
570.095	9512.42
570.457	9549.48
570.819	9555.81
571.18	9546.54
571.542	9653.21
571.903	9586.09
572.265	9644.17
572.626	9651.4
572.987	9681.91
573.349	9672.42
573.71	9714
574.071	9801.9
574.432	9780.21
574.794	9821.11
575.155	9826.76
575.516	9834.44
575.877	9917.15
576.238	9898.62
576.599	9921.9
576.96	9926.42
577.32	9959.64
577.681	9986.76
578.042	9984.27
578.403	10040.09
578.763	10079.41
579.124	10069.24
579.485	10106.75
579.845	10108.79
580.206	10104.72
580.566	10114.66
580.927	10132.74
581.287	10177.71
581.648	10193.53
582.008	10238.73
582.368	10191.27
582.728	10266.07
583.089	10249.35
583.449	10210.48
583.809	10343.58
584.169	10292.29
584.529	10363.92
584.889	10347.65
585.249	10261.55
585.609	10319.18
585.969	10359.63
586.329	10405.28
586.688	10383.58
587.048	10377.26
587.408	10362.57
587.768	10401.66
588.127	10398.27
588.487	10426.75
588.846	10508.33
589.206	10396.92
589.565	10461.09
589.925	10542.45
590.284	10468.55
590.643	10528.89
591.003	10475.56
591.362	10560.98
591.721	10573.63
592.08	10543.13
592.44	10617.93
592.799	10580.64
593.158	10590.58
593.517	10628.55
593.876	10593.97
594.235	10611.83
594.593	10532.96
594.952	10634.88
595.311	10535.22
595.67	10638.49
596.029	10705.16
596.387	10671.94
596.746	10698.6
597.104	10701.31
597.463	10633.52
597.822	10696.12
598.18	10702.44
598.538	10650.24
598.897	10706.29
599.255	10645.5
599.613	10792.61
599.972	10661.77
600.33	10698.15
600.688	10676.23
601.046	10738.38
601.404	10812.27
601.762	10748.09
602.12	10860.86
602.478	10777.47
602.836	10850.24
603.194	10731.82
603.552	10758.49
603.91	10741.31
604.268	10789.67
604.625	10787.19
604.983	10799.62
605.341	10769.56
605.698	10898.6
606.056	10818.15
606.413	10871.25
606.771	10948.31
607.128	10915.09
607.485	10904.25
607.843	10880.97
608.2	10919.84
608.557	10997.58
608.914	10888.2
609.272	10911.7
609.629	11019.5
609.986	11047.97
610.343	10933.17
610.7	11056.56
611.057	11025.15
611.414	10906.96
611.771	10997.8
612.127	11073.28
612.484	11038.25
612.841	11085.49
613.198	11046.84
613.554	11022.44
613.911	11139.72
614.267	11074.19
614.624	11069.21
614.98	11173.39
615.337	11150.12
615.693	11122.09
616.05	11110.57
616.406	11149.89
616.762	11119.38
617.118	11176.78
617.475	11159.38
617.831	11203.22
618.187	11097.91
618.543	11266.27
618.899	11271.92
619.255	11222.43
619.611	11194.41
619.967	11250.68
620.323	11291.36
620.678	11184.47
621.034	11223.11
621.39	11189.89
621.746	11203.9
622.101	11300.39
622.457	11205.03
622.812	11275.54
623.168	11322.32
623.523	11334.97
623.879	11295.2
624.234	11193.73
624.589	11281.19
624.945	11276.89
625.3	11244.13
625.655	11226.27
626.01	11251.58
626.365	11263.79
626.72	11251.81
627.075	11245.71
627.43	11209.78
627.785	11166.39
628.14	11223.56
628.495	11189.89
628.85	11179.95
629.205	11107.41
629.559	11282.09
629.914	11134.75
630.269	11179.27
630.623	11111.02
630.978	11054.07
631.332	11182.88
631.687	11161.64
632.041	11092.94
632.396	11111.25
632.75	11137.69
633.104	11092.94
633.459	11050.01
633.813	11072.38
634.167	11026.96
634.521	11021.08
634.875	11074.64
635.229	11083
635.583	10976.11
635.937	10995.54
636.291	11026.73
636.645	10991.48
636.999	10935.88
637.352	10997.35
637.706	10849.56
638.06	10910.57
638.413	10923
638.767	10924.81
639.121	10917.81
639.474	10815.66
639.828	10819.73
640.181	10840.29
640.534	10861.31
640.888	10823.8
641.241	10754.42
641.594	10722.33
641.947	10796.68
642.301	10792.16
642.654	10763.69
643.007	10788.54
643.36	10758.94
643.713	10670.13
644.066	10718.72
644.419	10636.68
644.771	10643.01
645.124	10538.61
645.477	10544.48
645.83	10525.5
646.182	10474.65
646.535	10362.11
646.888	10302.68
647.24	10317.37
647.593	10356.69
647.945	10409.57
648.298	10320.76
648.65	10278.73
649.002	10258.84
649.355	10359.4
649.707	10380.42
650.059	10391.49
650.411	10499.06
650.763	10520.08
651.115	10609.34
651.467	10481.21
651.819	10518.49
652.171	10503.13
652.523	10535.44
652.875	10559.17
653.227	10490.25
653.578	10572.96
653.93	10497.7
654.282	10480.98
654.633	10496.12
654.985	10532.28
655.337	10529.57
655.688	10492.73
656.039	10566.85
656.391	10466.97
656.742	10528.89
657.094	10492.73
657.445	10585.16
657.796	10512.62
658.147	10527.76
658.498	10504.71
658.849	10523.24
659.2	10545.16
659.551	10369.35
659.902	10493.41
660.253	10509.23
660.604	10487.99
660.955	10398.27
661.306	10555.33
661.656	10416.58
662.007	10540.64
662.358	10499.74
662.708	10493.18
663.059	10422.23
663.409	10426.29
663.76	10508.1
664.11	10522.11
664.461	10513.75
664.811	10567.53
665.161	10492.28
665.511	10454.54
665.862	10497.25
666.212	10508.78
666.562	10499.06
666.912	10493.64
667.262	10516.69
667.612	10481.21
667.962	10562.34
668.312	10528.44
668.662	10548.78
669.011	10511.04
669.361	10490.25
669.711	10393.53
670.06	10453.64
670.41	10395.11
670.76	10360.08
671.109	10513.97
671.459	10451.83
671.808	10444.6
672.157	10487.31
672.507	10427.65
672.856	10377.26
673.205	10417.03
673.554	10446.63
673.904	10400.53
674.253	10387.88
674.602	10376.35
674.951	10172.74
675.3	10151.95
675.649	10326.18
675.998	10342.45
676.346	10271.27
676.695	10362.11
677.044	10253.19
677.393	10325.51
677.741	10341.1
678.09	10301.55
678.438	10240.76
678.787	10254.55
679.135	10219.75
679.484	10264.72
679.832	10261.55
680.181	10189.46
680.529	10192.4
680.877	10192.18
681.225	10132.29
681.573	10253.64
681.922	10065.17
682.27	10071.05
682.618	10083.03
682.966	10117.38
683.314	10042.35
683.661	9973.88
684.009	9981.33
684.357	9964.38
684.705	9957.61
685.053	9992.18
685.4	9946.31
685.748	9888.23
686.095	9876.7
686.443	9830.6
686.79	9832.18
687.138	9889.58
687.485	9878.06
687.832	9727.33
688.18	9780.66
688.527	9728.01
688.874	9748.8
689.221	9687.33
689.568	9677.61
689.915	9663.38
690.262	9665.18
690.609	9604.62
690.956	9541.8
691.303	9532.76
691.65	9489.6
691.997	9444.17
692.344	9453.44
692.69	9401.46
693.037	9363.5
693.383	9295.02
693.73	9363.27
694.077	9296.61
694.423	9309.26
694.769	9192.43
695.116	9221.58
695.462	9244.63
695.808	9131.64
696.155	9179.55
696.501	9078.08
696.847	9102.49
697.193	8969.16
697.539	9120.34
697.885	8987.46
698.231	8975.48
698.577	8954.02
698.923	8887.13
699.269	8887.8
699.614	8800.8
699.96	8808.26
700.306	8804.87
700.651	8747.24
700.997	8787.92
701.342	8721.03
701.688	8663.4
702.033	8680.35
702.379	8661.14
702.724	8677.87
703.069	8579.79
703.415	8468.38
703.76	8619.56
704.105	8527.13
704.45	8443.07
704.795	8420.92
705.14	8426.8
705.485	8359.91
705.83	8356.52
706.175	8375.95
706.52	8349.29
706.865	8295.5
707.209	8311.32
707.554	8227.48
707.899	8341.38
708.243	8192.23
708.588	8217.31
708.932	8075.17
709.277	8168.27
709.621	8168.95
709.966	8113.59
710.31	8088.05
710.654	7967.15
710.998	8071.55
711.342	8028.39
711.687	8031.33
712.031	7979.13
712.375	7972.57
712.719	7961.05
713.063	7922.18
713.407	7897.09
713.75	7868.17
714.094	7891.67
714.438	7879.69
714.782	7850.77
715.125	7865.91
715.469	7791.33
715.812	7814.84
716.156	7756.53
716.499	7855.29
716.843	7804.22
717.186	7740.94
717.53	7792.01
717.873	7754.73
718.216	7709.53
718.559	7725.12
718.902	7700.72
719.246	7716.08
719.589	7622.3
719.932	7581.62
720.275	7641.73
720.617	7603.54
720.96	7650.55
721.303	7552.7
721.646	7639.02
721.989	7576.2
722.331	7581.62
722.674	7569.65
723.016	7587.05
723.359	7544.11
723.701	7580.94
724.044	7538.69
724.386	7449.2
724.729	7523.77
725.071	7473.38
725.413	7471.34
725.755	7482.64
726.097	7521.74
726.439	7457.78
726.782	7463.66
727.124	7518.8
727.465	7451
727.807	7425.24
728.149	7389.54
728.491	7416.2
728.833	7441.74
729.175	7390.44
729.516	7413.49
729.858	7369.88
730.199	7372.81
730.541	7344.57
730.882	7384.34
731.224	7411.46
731.565	7359.93
731.906	7377.11
732.248	7384.11
732.589	7331.23
732.93	7325.13
733.271	7346.37
733.612	7344.57
733.953	7399.71
734.294	7313.83
734.635	7310.9
734.976	7380.72
735.317	7313.38
735.658	7317.9
735.999	7331.91
736.339	7266.15
736.68	7319.26
737.021	7310.22
737.361	7332.36
737.702	7352.25
738.042	7352.02
738.383	7326.04
738.723	7331.23
739.063	7327.39
739.404	7351.35
739.744	7318.13
740.084	7332.59
740.424	7312.03
740.764	7293.72
741.104	7386.83
741.444	7279.48
741.784	7340.5
742.124	7383.21
742.464	7352.25
742.804	7406.49
743.143	7365.58
743.483	7366.71
743.823	7376.88
744.162	7401.97
744.502	7419.59
744.841	7414.4
745.181	7477.9
745.52	7450.1
745.86	7539.36
746.199	7498.91
746.538	7552.24
746.877	7608.06
747.216	7585.01
747.556	7606.93
747.895	7631.56
748.234	7614.84
748.573	7691.68
748.911	7742.75
749.25	7762.41
749.589	7812.8
749.928	7880.15
750.267	7909.98
750.605	7960.6
750.944	7958.34
751.283	8015.06
751.621	8043.98
751.96	8071.33
752.298	8128.27
752.636	8230.42
752.975	8241.04
753.313	8362.17
753.651	8403.3
753.989	8358.33
754.327	8574.36
754.666	8547.47
755.004	8636.74
755.342	8726.68
755.679	8852.32
756.017	8929.38
756.355	9020.45
756.693	9048.7
757.031	9184.52
757.368	9249.15
757.706	9343.38
758.044	9386.1
758.381	9549.25
758.719	9696.37
759.056	9796.25
759.394	9889.58
759.731	9967.55
760.068	10001.9
760.405	10072.86
760.743	10189.01
761.08	10375.67
761.417	10459.74
761.754	10526.18
762.091	10638.94
762.428	10611.37
762.765	10778.6
763.102	10895.89
763.438	10977.69
