Data from hue_160_FLMS001491_00069.txt Node
Date: Tue Feb 07 16:51:32 GMT 2017
User: dcchb
Spectrometer: FLMS00149
Trigger mode: 0
Integration Time (sec): 2.000000E-2
Scans to average: 10
Electric dark correction enabled: true
Nonlinearity correction enabled: false
Boxcar width: 0
XAxis mode: Wavelengths
Number of Pixels in Spectrum: 2048
>>>>>Begin Spectral Data<<<<<
341.393	-0.89
341.776	-0.89
342.16	-0.89
342.543	-39.76
342.927	-61.45
343.31	-71.62
343.693	-63.04
344.077	-75.46
344.46	-60.32
344.843	-66.88
345.226	-49.7
345.61	-34.11
345.993	-11.51
346.376	-4.28
346.759	23.06
347.142	18.32
347.525	48.15
347.908	61.93
348.291	81.37
348.674	96.96
349.057	107.13
349.44	109.39
349.823	138.54
350.206	164.3
350.588	184.19
350.971	207.47
351.354	235.71
351.737	238.43
352.119	249.73
352.502	250.4
352.884	293.34
353.267	303.96
353.65	287.92
354.032	282.04
354.414	311.19
354.797	298.09
355.179	308.93
355.562	328.14
355.944	310.97
356.326	330.85
356.709	356.39
357.091	334.47
357.473	318.65
357.855	346.67
358.238	340.34
358.62	354.13
359.002	345.09
359.384	364.52
359.766	362.04
360.148	335.37
360.53	343.73
360.912	341.02
361.294	321.59
361.676	328.59
362.057	321.81
362.439	325.88
362.821	307.8
363.203	334.69
363.584	348.25
363.966	313.9
364.348	313.45
364.729	315.71
365.111	299.89
365.493	307.35
365.874	329.5
366.256	300.8
366.637	326.79
367.019	316.16
367.4	292.66
367.781	315.26
368.163	326.56
368.544	317.07
368.925	297.41
369.306	309.84
369.688	321.14
370.069	316.62
370.45	315.71
370.831	322.04
371.212	323.62
371.593	320.23
371.974	308.93
372.355	305.32
372.736	308.25
373.117	310.06
373.498	304.64
373.879	311.19
374.26	329.27
374.641	337.18
375.021	324.07
375.402	317.52
375.783	320.01
376.163	331.53
376.544	333.11
376.925	339.44
377.305	331.08
377.686	322.27
378.066	321.36
378.447	314.81
378.827	322.27
379.208	343.06
379.588	333.34
379.968	348.93
380.349	329.5
380.729	327.46
381.109	318.42
381.489	341.47
381.87	338.76
382.25	349.16
382.63	331.53
383.01	357.97
383.39	363.17
383.77	343.96
384.15	324.53
384.53	358.2
384.91	348.71
385.29	335.82
385.67	353.9
386.049	363.39
386.429	358.87
386.809	345.32
387.189	354.81
387.568	366.56
387.948	337.63
388.328	353.45
388.707	336.28
389.087	330.4
389.466	345.99
389.846	351.42
390.225	357.97
390.605	375.6
390.984	360.68
391.363	383.05
391.743	374.69
392.122	368.14
392.501	387.8
392.881	353.9
393.26	381.7
393.639	392.32
394.018	368.59
394.397	365.43
394.776	391.87
395.155	400
395.534	373.34
395.913	376.95
396.292	390.51
396.671	402.26
397.05	392.77
397.429	382.38
397.808	372.66
398.186	395.71
398.565	413.56
398.944	387.12
399.323	395.26
399.701	419.21
400.08	385.99
400.458	398.87
400.837	424.18
401.215	397.29
401.594	398.65
401.972	401.81
402.351	406.56
402.729	407.69
403.107	416.73
403.486	412.88
403.864	415.6
404.242	425.77
404.62	425.31
404.999	412.66
405.377	428.48
405.755	440.68
406.133	421.47
406.511	442.26
406.889	447.01
407.267	435.26
407.645	455.6
408.023	440.45
408.401	428.25
408.779	452.43
409.156	453.34
409.534	454.24
409.912	440
410.29	460.34
410.667	473.9
411.045	485.43
411.422	464.63
411.8	479.1
412.178	472.09
412.555	480.91
412.933	485.2
413.31	482.04
413.687	484.97
414.065	500.79
414.442	503.73
414.819	499.21
415.197	505.31
415.574	510.06
415.951	520.9
416.328	510.06
416.705	520
417.082	508.93
417.46	523.62
417.837	540.34
418.214	534.01
418.591	536.72
418.967	529.94
419.344	551.19
419.721	531.75
420.098	538.98
420.475	560.23
420.852	561.36
421.228	565.65
421.605	552.77
421.982	557.74
422.358	588.7
422.735	578.08
423.111	589.6
423.488	590.73
423.864	585.76
424.241	586.21
424.617	583.73
424.994	596.16
425.37	600
425.746	620.11
426.123	627.79
426.499	614.91
426.875	626.44
427.251	601.58
427.627	612.88
428.003	617.4
428.379	646.32
428.756	634.12
429.132	654.69
429.507	688.36
429.883	668.7
430.259	647.23
430.635	658.98
431.011	664.86
431.387	678.19
431.763	679.09
432.138	717.28
432.514	705.76
432.89	707.57
433.265	707.34
433.641	729.26
434.016	731.52
434.392	736.27
434.767	707.34
435.143	751.63
435.518	764.74
435.894	759.54
436.269	765.19
436.644	794.57
437.02	774.68
437.395	795.25
437.77	800.45
438.145	808.81
438.52	814.23
438.895	842.93
439.271	819.2
439.646	837.73
440.021	845.87
440.395	833.89
440.77	844.29
441.145	838.41
441.52	908.01
441.895	879.09
442.27	890.39
442.645	883.15
443.019	874.34
443.394	890.16
443.769	888.58
444.143	912.31
444.518	902.59
444.892	921.57
445.267	927.22
445.641	926.77
446.016	952.76
446.39	940.33
446.764	936.03
447.139	960.89
447.513	950.5
447.887	953.66
448.262	945.3
448.636	960.67
449.01	1003.15
449.384	1012.19
449.758	1002.47
450.132	994.79
450.506	1010.16
450.88	1021.46
451.254	1025.75
451.628	1024.39
452.002	1044.05
452.376	1058.07
452.75	1077.27
453.123	1085.64
453.497	1091.96
453.871	1095.8
454.244	1123.15
454.618	1099.65
454.992	1130.61
455.365	1140.32
455.739	1159.98
456.112	1178.74
456.486	1177.16
456.859	1181.68
457.232	1204.73
457.606	1247.89
457.979	1224.16
458.352	1251.28
458.725	1281.56
459.099	1267.33
459.472	1292.86
459.845	1322.69
460.218	1332.86
460.591	1329.02
460.964	1328.79
461.337	1358.17
461.71	1396.14
462.083	1435.46
462.456	1430.48
462.829	1426.87
463.201	1460.31
463.574	1461.22
463.947	1478.62
464.32	1523.36
464.692	1535.12
465.065	1554.78
465.438	1589.35
465.81	1593.42
466.183	1619.41
466.555	1668.22
466.928	1663.47
467.3	1682
467.672	1731.49
468.045	1736.92
468.417	1778.05
468.789	1789.8
469.161	1838.38
469.534	1849.01
469.906	1907.53
470.278	1918.16
470.65	1977.82
471.022	2019.85
471.394	2057.36
471.766	2081.32
472.138	2073.86
472.51	2136.23
472.882	2190.47
473.253	2223.01
473.625	2283.8
473.997	2348.43
474.369	2368.77
474.74	2430.46
475.112	2448.31
475.484	2522.21
475.855	2624.13
476.227	2633.39
476.598	2702.54
476.97	2776.44
477.341	2862.09
477.713	2908.41
478.084	2939.82
478.455	3065.02
478.827	3125.36
479.198	3206.94
479.569	3242.87
479.94	3381.17
480.311	3440.6
480.682	3549.53
481.053	3636.75
481.424	3732.35
481.795	3834.72
482.166	3936.41
482.537	3991.1
482.908	4110.87
483.279	4139.11
483.65	4305.66
484.021	4440.8
484.391	4529.84
484.762	4611.87
485.133	4706.78
485.503	4790.85
485.874	4961.01
486.244	5065.42
486.615	5216.6
486.985	5290.27
487.356	5448.01
487.726	5553.54
488.097	5733.65
488.467	5707.43
488.837	5949.01
489.207	6033.98
489.578	6185.39
489.948	6348.77
490.318	6471.26
490.688	6519.84
491.058	6725.26
491.428	6854.3
491.798	6885.26
492.168	7176.77
492.538	7265.59
492.908	7382.64
493.278	7479.82
493.648	7562.08
494.017	7694.05
494.387	7893.82
494.757	8005.68
495.126	8142.4
495.496	8156.41
495.866	8288.84
496.235	8423.3
496.605	8499.68
496.974	8588.26
497.344	8738.09
497.713	8876.84
498.082	8954.58
498.452	9085.2
498.821	9159.55
499.19	9254.01
499.559	9387.56
499.928	9432.31
500.298	9588.01
500.667	9744.39
501.036	9656.48
501.405	9806.54
501.774	9826.65
502.143	9927.44
502.512	10037.72
502.88	10205.17
503.249	10218.5
503.618	10264.15
503.987	10369.68
504.356	10330.36
504.724	10525.16
505.093	10564.03
505.462	10566.74
505.83	10689.68
506.199	10768.77
506.567	10880.63
506.936	10872.27
507.304	11041.76
507.672	11122.89
508.041	11096.45
508.409	11170.79
508.777	11236.55
509.145	11389.55
509.514	11357.23
509.882	11440.17
510.25	11387.06
510.618	11523.1
510.986	11561.97
511.354	11642.65
511.722	11741.63
512.09	11819.36
512.458	11785.69
512.826	11844.45
513.193	11953.15
513.561	11993.82
513.929	12011
514.297	12047.15
514.664	12122.86
515.032	12132.58
515.4	12239.24
515.767	12223.42
516.135	12317.43
516.502	12142.29
516.869	12356.98
517.237	12303.65
517.604	12328.96
517.972	12399.01
518.339	12448.73
518.706	12448.05
519.073	12521.94
519.44	12532.34
519.808	12531.89
520.175	12521.94
520.542	12611.43
520.909	12707.7
521.276	12633.81
521.643	12775.95
522.009	12772.79
522.376	12800.58
522.743	12852.33
523.11	12853.46
523.477	12962.39
523.843	13018.2
524.21	13053.68
524.577	13075.6
524.943	13071.53
525.31	13066.56
525.676	13208.25
526.043	13130.06
526.409	13199.67
526.776	13222.49
527.142	13271.08
527.508	13245.32
527.874	13310.62
528.241	13297.74
528.607	13354.24
528.973	13355.14
529.339	13236.05
529.705	13355.14
530.071	13384.52
530.437	13452.32
530.803	13339.78
531.169	13413.22
531.535	13392.2
531.901	13403.05
532.267	13370.06
532.632	13429.04
532.998	13357.85
533.364	13356.27
533.73	13371.64
534.095	13325.99
534.461	13298.87
534.826	13316.5
535.192	13267.91
535.557	13327.12
535.923	13217.29
536.288	13235.37
536.653	13235.37
537.019	13228.82
537.384	13125.32
537.749	13151.76
538.114	13198.76
538.479	13057.98
538.845	13115.15
539.21	13038.54
539.575	13042.84
539.94	13036.96
540.305	13069.73
540.67	12965.32
541.034	12953.35
541.399	12927.36
541.764	12934.82
542.129	12855.04
542.494	12885.1
542.858	12841.26
543.223	12777.76
543.587	12772.33
543.952	12749.74
544.316	12809.17
544.681	12607.14
545.045	12693.69
545.41	12663.86
545.774	12637.42
546.138	12544.09
546.503	12541.61
546.867	12475.62
547.231	12551.77
547.595	12481.72
547.959	12457.99
548.324	12345.9
548.688	12365.56
549.052	12329.18
549.416	12315.17
549.779	12236.3
550.143	12312.68
550.507	12192.46
550.871	12190.88
551.235	12147.49
551.599	12274.27
551.962	12158.11
552.326	12116.53
552.689	12132.8
553.053	12076.98
553.417	11986.82
553.78	12206.25
554.143	12111.33
554.507	11963.32
554.87	11968.51
555.234	12101.39
555.597	12005.35
555.96	11993.82
556.323	12022.97
556.686	11915.18
557.05	11992.02
557.413	11884.45
557.776	11932.81
558.139	11905.01
558.502	11801.06
558.865	11815.52
559.228	11870.66
559.59	11907.05
559.953	11853.94
560.316	11918.12
560.679	11902.07
561.041	11889.65
561.404	11884
561.767	11973.71
562.129	11927.38
562.492	11968.96
562.854	11888.52
563.217	11946.82
563.579	11885.8
563.941	11973.48
564.304	12003.09
564.666	12037.44
565.028	12040.38
565.39	12060.94
565.753	12100.03
566.115	12049.64
566.477	12109.3
566.839	12133.71
567.201	12139.36
567.563	12164.44
567.925	12209.41
568.287	12160.6
568.648	12149.75
569.01	12131.67
569.372	12211.44
569.734	12126.93
570.095	12254.83
570.457	12216.19
570.819	12289.18
571.18	12286.7
571.542	12319.24
571.903	12205.79
572.265	12282.4
572.626	12265.68
572.987	12331.44
573.349	12394.72
573.71	12350.2
574.071	12346.58
574.432	12390.65
574.794	12443.3
575.155	12377.32
575.516	12357.2
575.877	12384.55
576.238	12401.95
576.599	12436.98
576.96	12412.8
577.32	12434.72
577.681	12406.69
578.042	12430.65
578.403	12460.03
578.763	12427.26
579.124	12476.3
579.485	12443.98
579.845	12469.97
580.206	12453.25
580.566	12400.37
580.927	12398.33
581.287	12450.99
581.648	12405.11
582.008	12378.22
582.368	12474.26
582.728	12420.93
583.089	12371.67
583.449	12422.29
583.809	12436.3
584.169	12470.42
584.529	12398.11
584.889	12385
585.249	12342.97
585.609	12277.21
585.969	12404.43
586.329	12350.42
586.688	12409.41
587.048	12264.55
587.408	12350.65
587.768	12305.91
588.127	12316.07
588.487	12223.2
588.846	12315.4
589.206	12286.7
589.565	12276.53
589.925	12390.42
590.284	12285.57
590.643	12331.44
591.003	12306.81
591.362	12321.05
591.721	12276.3
592.08	12293.25
592.44	12318.11
592.799	12268.39
593.158	12282.18
593.517	12253.03
593.876	12274.95
594.235	12250.77
594.593	12271.1
594.952	12227.26
595.311	12155.4
595.67	12211.22
596.029	12265.45
596.387	12274.95
596.746	12257.32
597.104	12209.86
597.463	12249.64
597.822	12161.5
598.18	12146.36
598.538	12160.37
598.897	12192.69
599.255	12157.66
599.613	12229.75
599.972	12194.5
600.33	12182.52
600.688	12166.25
601.046	12197.43
601.404	12221.16
601.762	12220.03
602.12	12229.52
602.478	12227.04
602.836	12180.71
603.194	12153.82
603.552	12236.75
603.91	12164.44
604.268	12165.34
604.625	12161.5
604.983	12231.1
605.341	12168.28
605.698	12154.72
606.056	12150.43
606.413	12168.96
606.771	12229.3
607.128	12304.78
607.485	12213.7
607.843	12208.96
608.2	12316.98
608.557	12348.84
608.914	12245.34
609.272	12342.51
609.629	12298
609.986	12407.37
610.343	12310.2
610.7	12436.75
611.057	12430.2
611.414	12364.66
611.771	12346.81
612.127	12386.36
612.484	12396.75
612.841	12429.74
613.198	12335.28
613.554	12420.03
613.911	12433.36
614.267	12450.99
614.624	12341.38
614.98	12356.07
615.337	12448.95
615.693	12431.78
616.05	12443.53
616.406	12504.54
616.762	12487.6
617.118	12496.18
617.475	12530.98
617.831	12535.05
618.187	12596.97
618.543	12575.5
618.899	12589.74
619.255	12543.64
619.611	12573.69
619.967	12545.22
620.323	12584.54
620.678	12465.45
621.034	12534.83
621.39	12517.43
621.746	12507.71
622.101	12636.52
622.457	12492.79
622.812	12577.31
623.168	12620.93
623.523	12614.37
623.879	12613.24
624.234	12513.13
624.589	12606.91
624.945	12595.16
625.3	12565.79
625.655	12576.86
626.01	12575.95
626.365	12651.21
626.72	12556.52
627.075	12574.15
627.43	12553.81
627.785	12596.97
628.14	12587.48
628.495	12612.34
628.85	12623.41
629.205	12594.26
629.559	12653.92
629.914	12562.4
630.269	12549.97
630.623	12501.83
630.978	12440.59
631.332	12506.35
631.687	12487.6
632.041	12470.87
632.396	12527.37
632.75	12423.64
633.104	12442.85
633.459	12325.34
633.813	12389.97
634.167	12387.49
634.521	12323.31
634.875	12288.5
635.229	12368.28
635.583	12328.96
635.937	12311.78
636.291	12310.88
636.645	12327.6
636.999	12340.48
637.352	12327.37
637.706	12219.35
638.06	12338.67
638.413	12228.62
638.767	12163.08
639.121	12161.28
639.474	12196.98
639.828	12144.78
640.181	12134.16
640.534	12174.38
640.888	12094.16
641.241	12023.2
641.594	12125.12
641.947	12093.93
642.301	12078.11
642.654	12028.4
643.007	12058.68
643.36	12091.22
643.713	11969.64
644.066	12110.43
644.419	11999.7
644.771	11984.11
645.124	11842.19
645.477	11834.05
645.83	11714.51
646.182	11676.77
646.535	11660.05
646.888	11674.06
647.24	11727.62
647.593	11627.05
647.945	11653.49
648.298	11580.27
648.65	11582.99
649.002	11533.5
649.355	11605.58
649.707	11602.19
650.059	11603.1
650.411	11858.69
650.763	11812.13
651.115	11906.14
651.467	11823.43
651.819	11889.19
652.171	11870.66
652.523	11831.12
652.875	11825.47
653.227	11810.1
653.578	11818.23
653.93	11839.25
654.282	11794.51
654.633	11806.48
654.985	11809.65
655.337	11826.6
655.688	11829.08
656.039	11935.97
656.391	11817.33
656.742	11891.9
657.094	11739.37
657.445	11855.3
657.796	11746.15
658.147	11845.58
658.498	11909.53
658.849	11853.04
659.2	11781.4
659.551	11866.14
659.902	11887.39
660.253	11855.07
660.604	11915.18
660.955	11802.19
661.306	11881.96
661.656	11826.82
662.007	11790.66
662.358	11872.7
662.708	11873.83
663.059	11850.55
663.409	11899.81
663.76	11885.13
664.11	11858.91
664.461	11907.5
664.811	11861.4
665.161	11908.4
665.511	11902.75
665.862	11899.36
666.212	11970.32
666.562	11940.72
666.912	11927.38
667.262	11823.88
667.612	11913.83
667.962	11898.46
668.312	11825.01
668.662	11897.33
669.011	11791.57
669.361	11787.5
669.711	11832.7
670.06	11806.48
670.41	11844.67
670.76	11751.8
671.109	11779.59
671.459	11817.1
671.808	11809.65
672.157	11849.19
672.507	11683.55
672.856	11776.65
673.205	11796.54
673.554	11767.84
673.904	11691.46
674.253	11798.57
674.602	11771.91
674.951	11587.96
675.3	11529.88
675.649	11725.36
675.998	11757.22
676.346	11680.38
676.695	11736.43
677.044	11684.68
677.393	11650.33
677.741	11663.44
678.09	11605.81
678.438	11624.12
678.787	11743.66
679.135	11669.76
679.484	11534.63
679.832	11643.1
680.181	11490.56
680.529	11564.46
680.877	11558.35
681.225	11541.18
681.573	11493.72
681.922	11484.68
682.27	11385.48
682.618	11403.56
682.966	11414.18
683.314	11394.97
683.661	11387.96
684.009	11274.75
684.357	11304.8
684.705	11305.25
685.053	11327.85
685.4	11239.27
685.748	11204.92
686.095	11227.74
686.443	11133.96
686.79	11114.98
687.138	11175.77
687.485	11172.83
687.832	11092.83
688.18	11166.27
688.527	11034.98
688.874	11045.15
689.221	10919.73
689.568	10982.32
689.915	10898.48
690.262	10958.14
690.609	10859.84
690.956	10827.75
691.303	10762.44
691.65	10794.08
691.997	10653.97
692.344	10634.31
692.69	10758.38
693.037	10674.54
693.383	10620.75
693.73	10613.75
694.077	10517.7
694.423	10572.84
694.769	10444.49
695.116	10388.44
695.462	10430.47
695.808	10356.8
696.155	10406.07
696.501	10294.66
696.847	10277.03
697.193	10162.68
697.539	10230.93
697.885	10120.43
698.231	10158.84
698.577	10083.59
698.923	10131.73
699.269	9999.53
699.614	9958.4
699.96	9941.67
700.306	9981.22
700.651	9828.68
700.997	9901.67
701.342	9832.98
701.688	9817.16
702.033	9827.55
702.379	9779.87
702.724	9707.78
703.069	9765.63
703.415	9574
703.76	9576.26
704.105	9557.95
704.45	9599.08
704.795	9468.92
705.14	9484.96
705.485	9394.8
705.83	9484.74
706.175	9413.1
706.52	9384.17
706.865	9350.5
707.209	9354.8
707.554	9252.88
707.899	9332.42
708.243	9280.67
708.588	9148.93
708.932	9209.72
709.277	9185.54
709.621	9146.89
709.966	9085.65
710.31	9119.32
710.654	8987.35
710.998	9095.14
711.342	9092.2
711.687	9014.24
712.031	8983.51
712.375	8945.54
712.719	8970.4
713.063	8941.25
713.407	9023.05
713.75	8893.34
714.094	8904.41
714.438	8837.3
714.782	8889.27
715.125	8850.63
715.469	8868.93
715.812	8845.43
716.156	8755.94
716.499	8724.08
716.843	8839.78
717.186	8731.76
717.53	8779.22
717.873	8709.16
718.216	8775.38
718.559	8749.61
718.902	8628.49
719.246	8646.79
719.589	8685.44
719.932	8583.07
720.275	8567.92
720.617	8581.71
720.96	8602.95
721.303	8598.43
721.646	8640.46
721.989	8511.43
722.331	8568.83
722.674	8533.58
723.016	8548.49
723.359	8465.33
723.701	8549.17
724.044	8545.55
724.386	8448.83
724.729	8479.57
725.071	8461.71
725.413	8437.31
725.755	8468.27
726.097	8434.82
726.439	8389.62
726.782	8460.13
727.124	8458.1
727.465	8462.39
727.807	8405.44
728.149	8396.4
728.491	8393.47
728.833	8431.2
729.175	8325.67
729.516	8360.7
729.858	8313.24
730.199	8366.57
730.541	8383.07
730.882	8355.5
731.224	8374.71
731.565	8319.57
731.906	8343.07
732.248	8394.82
732.589	8254.94
732.93	8277.08
733.271	8331.55
733.612	8285.67
733.953	8353.01
734.294	8281.38
734.635	8351.66
734.976	8348.27
735.317	8336.97
735.658	8307.82
735.999	8369.74
736.339	8355.05
736.68	8338.1
737.021	8298.78
737.361	8274.15
737.702	8335.84
738.042	8344.88
738.383	8282.96
738.723	8317.54
739.063	8364.77
739.404	8361.15
739.744	8403.63
740.084	8340.13
740.424	8377.65
740.764	8353.24
741.104	8440.92
741.444	8342.85
741.784	8382.62
742.124	8471.66
742.464	8429.85
742.804	8422.39
743.143	8447.7
743.483	8497.64
743.823	8441.37
744.162	8495.16
744.502	8609.05
744.841	8551.65
745.181	8631.65
745.52	8588.71
745.86	8626.45
746.199	8687.92
746.538	8636.17
746.877	8753.68
747.216	8778.31
747.556	8766.56
747.895	8860.57
748.234	8895.83
748.573	8960.23
748.911	8970.17
749.25	9032.54
749.589	9028.93
749.928	9199.09
750.267	9235.48
750.605	9223.73
750.944	9274.8
751.283	9336.72
751.621	9488.13
751.96	9514.57
752.298	9665.75
752.636	9710.95
752.975	9803.6
753.313	9875.23
753.651	10078.17
753.989	10040.43
754.327	10175.79
754.666	10298.5
755.004	10480.87
755.342	10545.05
755.679	10604.03
756.017	10621.88
756.355	10884.93
756.693	10896.68
757.031	11089.44
757.368	11211.24
757.706	11365.14
758.044	11451.46
758.381	11650.56
758.719	11771.46
759.056	11935.97
759.394	12135.06
