Data from hue_260_FLMS001491_00031.txt Node
Date: Tue Feb 07 15:58:54 GMT 2017
User: dcchb
Spectrometer: FLMS00149
Trigger mode: 0
Integration Time (sec): 2.000000E-2
Scans to average: 10
Electric dark correction enabled: true
Nonlinearity correction enabled: false
Boxcar width: 0
XAxis mode: Wavelengths
Number of Pixels in Spectrum: 2048
>>>>>Begin Spectral Data<<<<<
341.393	-0.45
341.776	-0.45
342.16	-0.45
342.543	-62.37
342.927	-67.12
343.31	-72.31
343.693	-64.41
344.077	-64.18
344.46	-31.64
344.843	-49.04
345.226	-38.19
345.61	-29.15
345.993	-28.93
346.376	-3.39
346.759	19.21
347.142	19.43
347.525	30.28
347.908	63.73
348.291	62.37
348.674	82.71
349.057	103.5
349.44	119.54
349.823	128.36
350.206	171.52
350.588	187.79
350.971	199.32
351.354	201.58
351.737	233.67
352.119	247
352.502	265.08
352.884	268.02
353.267	262.14
353.65	275.02
354.032	296.72
354.414	306.21
354.797	279.77
355.179	312.76
355.562	312.31
355.944	324.29
356.326	340.1
356.709	320.9
357.091	334.45
357.473	334
357.855	336.49
358.238	338.52
358.62	328.8
359.002	346.66
359.384	331.29
359.766	328.35
360.148	333.78
360.53	347.34
360.912	317.96
361.294	327.67
361.676	330.61
362.057	321.8
362.439	335.13
362.821	325.19
363.203	317.05
363.584	313.89
363.966	336.94
364.348	328.35
364.729	326.09
365.111	317.28
365.493	314.34
365.874	318.86
366.256	294.46
366.637	320.44
367.019	327.45
367.4	284.06
367.781	315.02
368.163	310.5
368.544	306.21
368.925	304.85
369.306	337.17
369.688	298.98
370.069	291.52
370.45	289.48
370.831	300.78
371.212	305.53
371.593	314.79
371.974	303.27
372.355	304.17
372.736	292.42
373.117	309.14
373.498	302.14
373.879	304.62
374.26	320.44
374.641	290.84
375.021	286.77
375.402	325.42
375.783	328.13
376.163	325.87
376.544	331.06
376.925	318.18
377.305	337.39
377.686	294.68
378.066	319.54
378.447	315.25
378.827	337.84
379.208	315.02
379.588	304.62
379.968	313.21
380.349	321.12
380.729	340.78
381.109	344.62
381.489	343.49
381.87	317.05
382.25	343.04
382.63	331.29
383.01	346.66
383.39	341.91
383.77	336.26
384.15	331.52
384.53	352.31
384.91	340.1
385.29	356.15
385.67	332.42
386.049	340.1
386.429	346.66
386.809	351.63
387.189	333.78
387.568	347.56
387.948	352.31
388.328	350.95
388.707	354.11
389.087	353.89
389.466	341.01
389.846	354.57
390.225	379.43
390.605	381.68
390.984	367.9
391.363	360.44
391.743	386.66
392.122	390.5
392.501	348.69
392.881	376.04
393.26	367.67
393.639	375.36
394.018	380.55
394.397	352.53
394.776	345.3
395.155	374
395.534	401.35
395.913	380.55
396.292	415.58
396.671	409.48
397.05	365.87
397.429	381.68
397.808	389.59
398.186	394.57
398.565	394.34
398.944	382.81
399.323	397.96
399.701	411.29
400.08	405.41
400.458	401.8
400.837	426.66
401.215	426.88
401.594	421.01
401.972	406.32
402.351	418.97
402.729	416.49
403.107	416.94
403.486	424.17
403.864	412.64
404.242	439.31
404.62	459.65
404.999	436.6
405.377	425.98
405.755	434.34
406.133	458.29
406.511	463.49
406.889	456.49
407.267	451.06
407.645	444.51
408.023	468.01
408.401	460.1
408.779	467.56
409.156	490.38
409.534	482.02
409.912	488.35
410.29	513.88
410.667	504.62
411.045	504.39
411.422	502.81
411.8	537.16
412.178	553.88
412.555	538.52
412.933	553.43
413.31	553.21
413.687	551.62
414.065	597.5
414.442	572.64
414.819	582.58
415.197	580.78
415.574	595.69
415.951	593.43
416.328	598.63
416.705	600.66
417.082	626.42
417.46	648.34
417.837	599.08
418.214	638.18
418.591	656.71
418.967	653.09
419.344	632.98
419.721	670.49
420.098	674.78
420.475	666.42
420.852	695.12
421.228	683.37
421.605	708
421.982	716.82
422.358	724.27
422.735	735.35
423.111	736.93
423.488	761.11
423.864	763.37
424.241	775.12
424.617	784.84
424.994	798.62
425.37	811.73
425.746	808.11
426.123	832.29
426.499	818.51
426.875	835.91
427.251	827.77
427.627	864.38
428.003	879.75
428.379	892.18
428.756	912.97
429.132	919.07
429.507	917.94
429.883	898.06
430.259	940.09
430.635	958.39
431.011	977.83
431.387	951.16
431.763	994.55
432.138	1012.4
432.514	1032.52
432.89	1012.18
433.265	1038.16
433.641	1077.49
434.016	1055.57
434.392	1078.16
434.767	1104.6
435.143	1113.87
435.518	1156.58
435.894	1150.48
436.269	1166.97
436.644	1189.8
437.02	1208.33
437.395	1203.58
437.77	1203.13
438.145	1256.46
438.52	1268.44
438.895	1275.67
439.271	1291.04
439.646	1294.2
440.021	1309.8
440.395	1357.93
440.77	1332.39
441.145	1351.38
441.52	1371.72
441.895	1391.38
442.27	1371.72
442.645	1420.75
443.019	1433.63
443.394	1427.76
443.769	1438.38
444.143	1448.32
444.518	1484.03
444.892	1481.32
445.267	1479.74
445.641	1475.67
446.016	1495.78
446.39	1528.32
446.764	1527.87
447.139	1541.43
447.513	1582.56
447.887	1558.83
448.262	1555.44
448.636	1593.18
449.01	1601.99
449.384	1594.99
449.758	1587.98
450.132	1623.69
450.506	1627.53
450.88	1643.57
451.254	1655.32
451.628	1650.58
452.002	1682.67
452.376	1667.53
452.75	1723.57
453.123	1752.27
453.497	1769.22
453.871	1765.15
454.244	1800.63
454.618	1784.13
454.992	1832.95
455.365	1844.47
455.739	1855.32
456.112	1851.02
456.486	1910.01
456.859	1930.57
457.232	1926.05
457.606	1931.02
457.979	1993.39
458.352	2023.45
458.725	2017.12
459.099	2044.69
459.472	2087.18
459.845	2093.05
460.218	2056.67
460.591	2120.17
460.964	2129.89
461.337	2122.88
461.71	2220.51
462.083	2223.22
462.456	2223.22
462.829	2230.9
463.201	2256.66
463.574	2292.82
463.947	2345.93
464.32	2341.63
464.692	2302.76
465.065	2385.25
465.438	2416.66
465.81	2425.47
466.183	2457.34
466.555	2488.3
466.928	2538.46
467.3	2514.96
467.672	2558.12
468.045	2600.16
468.417	2572.81
468.789	2643.09
469.161	2664.11
469.534	2714.28
469.906	2712.7
470.278	2778.91
470.65	2821.62
471.022	2808.97
471.394	2905.69
471.766	2907.95
472.138	2900.49
472.51	3020.49
472.882	3008.73
473.253	3034.04
473.625	3099.58
473.997	3138.22
474.369	3164.44
474.74	3180.26
475.112	3216.19
475.484	3247.15
475.855	3385.9
476.227	3367.37
476.598	3429.06
476.97	3444.43
477.341	3528.27
477.713	3553.8
478.084	3559.23
478.455	3669.96
478.827	3697.3
479.198	3767.13
479.569	3728.49
479.94	3851.2
480.311	3836.96
480.682	3925.77
481.053	4001.25
481.424	4094.58
481.795	4078.54
482.166	4185.43
482.537	4232.43
482.908	4252.32
483.279	4315.14
483.65	4368.7
484.021	4473.1
484.391	4496.38
484.762	4500.9
485.133	4543.38
485.503	4583.83
485.874	4681.46
486.244	4700.44
486.615	4755.81
486.985	4815.92
487.356	4883.04
487.726	4933.88
488.097	5017.95
488.467	5011.17
488.837	5131.39
489.207	5158.73
489.578	5243.7
489.948	5267.66
490.318	5303.59
490.688	5320.99
491.058	5362.34
491.428	5486.41
491.798	5530.02
492.168	5644.37
492.538	5573.64
492.908	5662.45
493.278	5668.33
493.648	5702.67
494.017	5802.11
494.387	5775.44
494.757	5832.39
495.126	5969.79
495.496	5913.06
495.866	5876
496.235	5988.09
496.605	6008.2
496.974	6026.96
497.344	6078.71
497.713	6130.69
498.082	6118.03
498.452	6173.62
498.821	6212.27
499.19	6240.06
499.559	6286.16
499.928	6318.25
500.298	6300.4
500.667	6428.76
501.036	6329.33
501.405	6445.03
501.774	6399.61
502.143	6425.14
502.512	6462.65
502.88	6541.3
503.249	6492.48
503.618	6565.48
503.987	6572.26
504.356	6628.75
504.724	6652.71
505.093	6656.55
505.462	6663.1
505.83	6728.86
506.199	6679.82
506.567	6787.62
506.936	6725.92
507.304	6803.44
507.672	6836.88
508.041	6806.37
508.409	6890.89
508.777	6904.45
509.145	6906.26
509.514	6944.45
509.882	6961.4
510.25	6943.55
510.618	6912.36
510.986	6974.96
511.354	6981.06
511.722	7062.64
512.09	7038.68
512.458	7125.91
512.826	7062.41
513.193	7083.88
513.561	7157.78
513.929	7216.31
514.297	7233.48
514.664	7241.17
515.032	7219.47
515.4	7222.63
515.767	7256.31
516.135	7293.82
516.502	7161.62
516.869	7302.63
517.237	7267.15
517.604	7284.55
517.972	7372.46
518.339	7362.74
518.706	7400.03
519.073	7350.32
519.44	7393.7
519.808	7434.61
520.175	7425.34
520.542	7473.48
520.909	7564.77
521.276	7476.87
521.643	7461.27
522.009	7537.2
522.376	7517.54
522.743	7593.7
523.11	7594.38
523.477	7592.57
523.843	7678.22
524.21	7619.01
524.577	7680.25
524.943	7749.17
525.31	7728.61
525.676	7767.93
526.043	7698.1
526.409	7762.73
526.776	7826.91
527.142	7863.75
527.508	7787.59
527.874	7831.43
528.241	7844.77
528.607	7890.19
528.973	7852.45
529.339	7858.78
529.705	7864.65
530.071	7941.94
530.437	7919.34
530.803	7957.76
531.169	7964.76
531.535	7970.86
531.901	7941.94
532.267	7915.5
532.632	8036.4
532.998	8057.64
533.364	7978.32
533.73	7980.81
534.095	8045.44
534.461	7996.85
534.826	8024.87
535.192	8062.84
535.557	8039.56
535.923	8027.36
536.288	8061.26
536.653	8024.2
537.019	7961.6
537.384	8052.67
537.749	7976.06
538.114	7939.23
538.479	7983.07
538.845	7990.3
539.21	7999.56
539.575	7918.89
539.94	7955.05
540.305	7970.41
540.67	7938.32
541.034	7962.73
541.399	7976.29
541.764	7964.08
542.129	7947.81
542.494	7961.37
542.858	7962.95
543.223	7916.85
543.587	8006.34
543.952	7917.76
544.316	8031.2
544.681	7909.85
545.045	7935.84
545.41	7925.67
545.774	7943.97
546.138	7837.31
546.503	7875.05
546.867	7852.67
547.231	7922.28
547.595	7906.23
547.959	7911.2
548.324	7915.95
548.688	7975.84
549.052	7906.68
549.416	7876.86
549.779	7854.26
550.143	7891.77
550.507	7910.75
550.871	7902.39
551.235	7828.27
551.599	7865.78
551.962	7857.87
552.326	7820.81
552.689	7890.64
553.053	7890.87
553.417	7827.36
553.78	7912.33
554.143	7852.45
554.507	7877.76
554.87	7904.88
555.234	7936.06
555.597	7903.52
555.96	7896.52
556.323	7922.5
556.686	7907.59
557.05	7884.99
557.413	7920.92
557.776	7912.11
558.139	7964.99
558.502	7951.88
558.865	7964.31
559.228	7982.39
559.59	7975.61
559.953	7968.38
560.316	8064.65
560.679	7952.33
561.041	8020.58
561.404	8038.88
561.767	8100.13
562.129	8051.77
562.492	8085.89
562.854	8051.99
563.217	8027.36
563.579	8029.62
563.941	8084.99
564.304	8121.82
564.666	8172.89
565.028	8226.45
565.39	8135.61
565.753	8198.2
566.115	8241.14
566.477	8248.14
566.839	8267.13
567.201	8282.49
567.563	8366.56
567.925	8308.93
568.287	8369.5
568.648	8386.9
569.01	8418.54
569.372	8485.65
569.734	8441.36
570.095	8468.03
570.457	8520
570.819	8528.82
571.18	8455.37
571.542	8547.8
571.903	8487.91
572.265	8602.71
572.626	8580.11
572.987	8595.48
573.349	8600.68
573.71	8614.91
574.071	8634.12
574.432	8688.59
574.794	8739.43
575.155	8744.4
575.516	8712.54
575.877	8737.17
576.238	8779.66
576.599	8802.93
576.96	8786.44
577.32	8843.16
577.681	8823.5
578.042	8912.08
578.403	8858.52
578.763	8893.55
579.124	8916.83
579.485	8927
579.845	9025.53
580.206	8975.13
580.566	9008.35
580.927	9009.48
581.287	9091.96
581.648	9069.14
582.008	9050.38
582.368	9065.3
582.728	9105.52
583.089	9075.92
583.449	9084.96
583.809	9171.28
584.169	9173.54
584.529	9140.1
584.889	9237.27
585.249	9171.06
585.609	9129.48
585.969	9223.26
586.329	9224.62
586.688	9272.98
587.048	9243.37
587.408	9212.64
587.768	9213.32
588.127	9240.43
588.487	9211.51
588.846	9303.94
589.206	9247.89
589.565	9244.28
589.925	9326.53
590.284	9297.83
590.643	9295.35
591.003	9405.63
591.362	9388
591.721	9385.29
592.08	9410.37
592.44	9398.62
592.799	9423.93
593.158	9551.61
593.517	9431.84
593.876	9458.28
594.235	9429.58
594.593	9441.33
594.952	9482.46
595.311	9496.93
595.67	9533.31
596.029	9596.36
596.387	9486.53
596.746	9505.06
597.104	9512.29
597.463	9509.13
597.822	9592.97
598.18	9488.34
598.538	9511.61
598.897	9582.57
599.255	9494.21
599.613	9659.41
599.972	9633.87
600.33	9590.48
600.688	9530.37
601.046	9681.78
601.404	9684.94
601.762	9563.14
602.12	9639.07
602.478	9642.23
602.836	9749.57
603.194	9599.75
603.552	9651.95
603.91	9586.64
604.268	9659.86
604.625	9653.76
604.983	9613.76
605.341	9676.13
605.698	9728.78
606.056	9711.38
606.413	9710.25
606.771	9716.35
607.128	9660.31
607.485	9690.14
607.843	9748.67
608.2	9727.2
608.557	9829.12
608.914	9749.8
609.272	9767.43
609.629	9807.43
609.986	9787.09
610.343	9871.6
610.7	9831.38
611.057	9790.03
611.414	9814.66
611.771	9821.44
612.127	9907.54
612.484	9818.95
612.841	9957.7
613.198	9842.91
613.554	9855.56
613.911	9869.57
614.267	9890.59
614.624	9817.82
614.98	9879.51
615.337	9914.99
615.693	9953.41
616.05	9889.91
616.406	9913.19
616.762	9880.19
617.118	9882.23
617.475	9949.12
617.831	9989.57
618.187	9962.9
618.543	9962.22
618.899	10021.66
619.255	9998.38
619.611	9972.17
619.967	10019.17
620.323	10051.94
620.678	10035.67
621.034	10014.65
621.39	10022.79
621.746	9957.25
622.101	10063.24
622.457	10043.8
622.812	10033.18
623.168	10059.4
623.523	10033.63
623.879	10087.87
624.234	10104.14
624.589	10034.99
624.945	10011.04
625.3	10015.33
625.655	10107.76
626.01	10068.66
626.365	9987.53
626.72	10031.37
627.075	10017.59
627.43	9926.07
627.785	9954.77
628.14	9960.19
628.495	10015.78
628.85	10022.79
629.205	9981.88
629.559	9991.83
629.914	9970.13
630.269	9986.86
630.623	9954.54
630.978	9922.68
631.332	9946.63
631.687	9907.54
632.041	9909.34
632.396	9917.93
632.75	9850.14
633.104	9857.14
633.459	9865.5
633.813	9842.68
634.167	9775.79
634.521	9860.98
634.875	9897.59
635.229	9854.2
635.583	9795.22
635.937	9792.74
636.291	9793.87
636.645	9776.24
636.999	9707.32
637.352	9770.14
637.706	9711.16
638.06	9702.8
638.413	9735.11
638.767	9700.99
639.121	9716.81
639.474	9637.71
639.828	9678.16
640.181	9773.98
640.534	9632.74
640.888	9703.93
641.241	9598.84
641.594	9607.66
641.947	9640.88
642.301	9603.82
642.654	9603.14
643.007	9599.07
643.36	9578.28
643.713	9562.23
644.066	9552.07
644.419	9604.27
644.771	9518.39
645.124	9424.61
645.477	9299.64
645.83	9304.61
646.182	9360.43
646.535	9265.07
646.888	9259.42
647.24	9212.19
647.593	9267.33
647.945	9308.46
648.298	9246.31
648.65	9164.96
649.002	9238.85
649.355	9256.48
649.707	9185.97
650.059	9212.41
650.411	9322.69
650.763	9396.59
651.115	9452.63
651.467	9397.94
651.819	9419.87
652.171	9393.88
652.523	9374.22
652.875	9437.04
653.227	9335.35
653.578	9434.33
653.93	9410.83
654.282	9346.87
654.633	9357.49
654.985	9388.68
655.337	9406.76
655.688	9317.95
656.039	9419.19
656.391	9356.36
656.742	9379.19
657.094	9365.86
657.445	9436.81
657.796	9383.03
658.147	9355.01
658.498	9323.6
658.849	9374.89
659.2	9392.52
659.551	9282.69
659.902	9384.16
660.253	9400.2
660.604	9417.61
660.955	9322.92
661.306	9398.62
661.656	9379.64
662.007	9394.78
662.358	9384.61
662.708	9476.81
663.059	9472.97
663.409	9344.16
663.76	9401.56
664.11	9415.57
664.461	9403.82
664.811	9438.4
665.161	9382.35
665.511	9342.81
665.862	9441.56
666.212	9363.6
666.562	9417.15
666.912	9407.21
667.262	9347.32
667.612	9358.17
667.962	9405.4
668.312	9359.53
668.662	9363.14
669.011	9369.47
669.361	9334.9
669.711	9286.99
670.06	9319.08
670.41	9310.04
670.76	9257.61
671.109	9350.94
671.459	9314.33
671.808	9324.5
672.157	9320.88
672.507	9229.36
672.856	9243.82
673.205	9305.52
673.554	9285.18
673.904	9258.29
674.253	9291.28
674.602	9310.49
674.951	9208.8
675.3	9151.17
675.649	9257.16
675.998	9236.82
676.346	9201.11
676.695	9223.94
677.044	9181.45
677.393	9214.45
677.741	9214
678.09	9155.47
678.438	9104.85
678.787	9107.78
679.135	9187.78
679.484	9104.85
679.832	9085.18
680.181	9094
680.529	9103.72
680.877	9085.41
681.225	8997.96
681.573	9092.19
681.922	9059.42
682.27	8984.62
682.618	8929.71
682.966	8930.84
683.314	8976.04
683.661	8968.8
684.009	8909.82
684.357	8894.46
684.705	8854.68
685.053	8832.99
685.4	8905.08
685.748	8799.99
686.095	8822.14
686.443	8736.95
686.79	8757.51
687.138	8843.16
687.485	8801.12
687.832	8724.06
688.18	8721.8
688.527	8663.5
688.874	8733.56
689.221	8680.68
689.568	8599.32
689.915	8630.51
690.262	8605.2
690.609	8591.19
690.956	8566.55
691.303	8481.36
691.65	8481.81
691.997	8442.94
692.344	8423.96
692.69	8381.7
693.037	8435.71
693.383	8344.64
693.73	8326.56
694.077	8272.32
694.423	8294.02
694.769	8285.21
695.116	8219.9
695.462	8193.23
695.808	8158.66
696.155	8153.23
696.501	8110.97
696.847	8080.69
697.193	8042.27
697.539	8063.06
697.885	7995.72
698.231	8008.38
698.577	7979.23
698.923	7945.1
699.269	7907.14
699.614	7840.47
699.96	7813.13
700.306	7801.6
700.651	7793.24
700.997	7788.04
701.342	7769.29
701.688	7740.59
702.033	7710.53
702.379	7740.59
702.724	7685.67
703.069	7684.32
703.415	7653.58
703.76	7537.2
704.105	7554.6
704.45	7592.79
704.795	7499.24
705.14	7471.89
705.485	7441.61
705.83	7371.56
706.175	7418.34
706.52	7412.23
706.865	7376.08
707.209	7350.32
707.554	7308.73
707.899	7350.54
708.243	7304.44
708.588	7233.93
708.932	7235.74
709.277	7280.03
709.621	7219.02
709.966	7161.62
710.31	7155.74
710.654	7097.21
710.998	7145.8
711.342	7099.7
711.687	7107.16
712.031	7033.26
712.375	7024
712.719	7001.4
713.063	6993.49
713.407	7051.79
713.75	7002.98
714.094	6981.96
714.438	6935.41
714.782	6969.99
715.125	6912.81
715.469	6943.32
715.812	6926.6
716.156	6882.3
716.499	6896.99
716.843	6866.26
717.186	6826.94
717.53	6902.42
717.873	6872.59
718.216	6833.49
718.559	6787.17
718.902	6724.79
719.246	6812.02
719.589	6737.45
719.932	6698.35
720.275	6724.34
720.617	6723.89
720.96	6696.1
721.303	6735.87
721.646	6758.47
721.989	6691.58
722.331	6727.05
722.674	6643.89
723.016	6777
723.359	6709.88
723.701	6670.33
724.044	6659.49
724.386	6677.11
724.729	6648.19
725.071	6645.7
725.413	6665.59
725.755	6635.08
726.097	6559.83
726.439	6579.71
726.782	6625.59
727.124	6672.82
727.465	6577.68
727.807	6594.18
728.149	6647.51
728.491	6602.31
728.833	6612.48
729.175	6553.73
729.516	6556.21
729.858	6592.6
730.199	6570
730.541	6558.92
730.882	6547.62
731.224	6570.45
731.565	6562.09
731.906	6584.01
732.248	6590.11
732.589	6567.28
732.93	6541.52
733.271	6542.2
733.612	6592.82
733.953	6555.31
734.294	6595.08
734.635	6556.66
734.976	6517.57
735.317	6521.18
735.658	6560.73
735.999	6551.01
736.339	6539.26
736.68	6557.34
737.021	6534.07
737.361	6522.31
737.702	6553.95
738.042	6538.13
738.383	6535.65
738.723	6569.32
739.063	6528.19
739.404	6572.26
739.744	6558.25
740.084	6541.97
740.424	6600.05
740.764	6576.55
741.104	6632.82
741.444	6621.07
741.784	6571.13
742.124	6594.63
742.464	6597.57
742.804	6617.45
743.143	6617.23
743.483	6625.36
743.823	6648.41
744.162	6687.96
744.502	6703.33
744.841	6649.99
745.181	6722.31
745.52	6709.88
745.86	6802.31
746.199	6794.4
746.538	6819.71
746.877	6898.35
747.216	6904.9
747.556	6934.28
747.895	6946.03
748.234	6954.17
748.573	7027.16
748.911	7003.88
749.25	7123.43
749.589	7051.34
749.928	7148.29
750.267	7208.17
750.605	7262.63
750.944	7291.79
751.283	7307.15
751.621	7430.09
751.96	7478
752.298	7542.17
752.636	7585.79
752.975	7614.94
753.313	7705.11
753.651	7829.62
753.989	7823.52
754.327	7886.12
754.666	7963.41
755.004	8181.25
755.342	8189.84
755.679	8260.12
756.017	8358.42
756.355	8459.89
756.693	8536.05
757.031	8708.7
757.368	8794.57
757.706	8885.42
758.044	8931.52
758.381	9122.7
758.719	9187.1
759.056	9259.64
759.394	9419.41
759.731	9538.28
760.068	9569.69
760.405	9720.87
760.743	9831.38
761.08	9982.79
761.417	9995.9
761.754	10186.17
762.091	10251.93
762.428	10428.43
762.765	10568.31
763.102	10689.21
763.438	10772.15
763.775	10851.92
764.112	10992.03
764.449	11127.84
764.785	11208.97
765.122	11280.61
765.458	11434.73
765.795	11491.68
766.131	11651.9
766.467	11776.41
766.804	11826.81
767.14	11946.8
767.476	12113.58
767.812	12175.5
768.148	12283.29
768.485	12376.17
768.821	12424.76
