Data from hue_270_FLMS001491_00069.txt Node
Date: Tue Feb 07 15:57:33 GMT 2017
User: dcchb
Spectrometer: FLMS00149
Trigger mode: 0
Integration Time (sec): 2.000000E-2
Scans to average: 10
Electric dark correction enabled: true
Nonlinearity correction enabled: false
Boxcar width: 0
XAxis mode: Wavelengths
Number of Pixels in Spectrum: 2048
>>>>>Begin Spectral Data<<<<<
341.393	-37.89
341.776	-37.89
342.16	-37.89
342.543	-56.2
342.927	-49.65
343.31	-54.84
343.693	-75.41
344.077	-72.24
344.46	-55.75
344.843	-60.94
345.226	-49.87
345.61	-36.31
345.993	-17.33
346.376	-6.48
346.759	16.57
347.142	25.15
347.525	47.75
347.908	46.17
348.291	83.91
348.674	107.41
349.057	102.21
349.44	128.2
349.823	117.58
350.206	152.83
350.588	193.51
350.971	192.83
351.354	228.77
351.737	217.69
352.119	245.71
352.502	245.94
352.884	257.24
353.267	278.03
353.65	315.32
354.032	297.01
354.414	290.46
354.797	312.83
355.179	318.71
355.562	309.22
355.944	338.14
356.326	325.26
356.709	324.13
357.091	315.09
357.473	324.13
357.855	336.78
358.238	334.3
358.62	325.94
359.002	342.43
359.384	326.62
359.766	316.9
360.148	329.33
360.53	310.12
360.912	324.13
361.294	321.64
361.676	301.31
362.057	316.22
362.439	336.33
362.821	318.03
363.203	328.88
363.584	297.92
363.966	313.51
364.348	309.67
364.729	297.24
365.111	305.6
365.493	306.5
365.874	302.66
366.256	312.83
366.637	302.66
367.019	311.47
367.4	299.5
367.781	304.24
368.163	327.75
368.544	301.08
368.925	319.38
369.306	314.64
369.688	303.34
370.069	299.95
370.45	301.76
370.831	285.03
371.212	307.41
371.593	315.54
371.974	322.32
372.355	325.03
372.736	312.15
373.117	311.7
373.498	314.86
373.879	306.5
374.26	294.3
374.641	297.92
375.021	315.32
375.402	297.24
375.783	320.74
376.163	324.36
376.544	305.6
376.925	311.25
377.305	325.26
377.686	335.88
378.066	337.24
378.447	332.72
378.827	326.62
379.208	323
379.588	313.06
379.968	353.73
380.349	332.94
380.729	322.77
381.109	320.29
381.489	332.04
381.87	356.9
382.25	338.37
382.63	328.88
383.01	337.91
383.39	335.2
383.77	351.93
384.15	339.27
384.53	340.85
384.91	354.19
385.29	346.28
385.67	313.28
386.049	345.37
386.429	347.86
386.809	351.93
387.189	345.6
387.568	356.45
387.948	344.69
388.328	339.95
388.707	356.67
389.087	356.45
389.466	371.13
389.846	361.19
390.225	366.39
390.605	367.07
390.984	365.71
391.363	374.75
391.743	358.48
392.122	375.2
392.501	366.61
392.881	366.39
393.26	392.83
393.639	388.99
394.018	381.53
394.397	373.17
394.776	416.1
395.155	387.63
395.534	389.44
395.913	394.64
396.292	371.59
396.671	375.43
397.05	370.91
397.429	384.24
397.808	400.06
398.186	409.1
398.565	385.15
398.944	402.32
399.323	397.8
399.701	408.87
400.08	416.78
400.458	416.33
400.837	432.6
401.215	415.2
401.594	416.33
401.972	407.52
402.351	414.3
402.729	450.91
403.107	428.99
403.486	422.88
403.864	417.23
404.242	449.55
404.62	432.83
404.999	442.09
405.377	454.52
405.755	455.2
406.133	464.47
406.511	454.97
406.889	463.79
407.267	449.78
407.645	469.21
408.023	468.98
408.401	471.92
408.779	487.74
409.156	477.12
409.534	473.5
409.912	488.65
410.29	489.78
410.667	510.34
411.045	511.47
411.422	518.7
411.8	517.12
412.178	530.9
412.555	543.56
412.933	522.99
413.31	536.1
413.687	548.76
414.065	543.11
414.442	581.98
414.819	569.55
415.197	573.16
415.574	585.14
415.951	596.89
416.328	614.07
416.705	578.59
417.082	585.37
417.46	610.68
417.837	628.08
418.214	640.51
418.591	649.09
418.967	659.71
419.344	661.52
419.721	659.49
420.098	659.04
420.475	678.47
420.852	686.15
421.228	694.74
421.605	708.98
421.982	717.57
422.358	715.76
422.735	722.54
423.111	740.39
423.488	760.5
423.864	740.84
424.241	770.9
424.617	769.99
424.994	787.62
425.37	793.95
425.746	795.76
426.123	793.5
426.499	834.85
426.875	838.47
427.251	846.6
427.627	844.12
428.003	858.81
428.379	873.49
428.756	889.76
429.132	877.34
429.507	898.58
429.883	900.61
430.259	911.01
430.635	920.95
431.011	916.66
431.387	966.15
431.763	960.05
432.138	993.72
432.514	985.13
432.89	1011.12
433.265	1040.72
433.641	1017.44
434.016	1054.05
434.392	1060.38
434.767	1112.13
435.143	1093.15
435.518	1102.64
435.894	1120.27
436.269	1153.03
436.644	1165.46
437.02	1170.66
437.395	1174.73
437.77	1176.31
438.145	1248.85
438.52	1203.43
438.895	1232.81
439.271	1226.03
439.646	1277.78
440.021	1289.75
440.395	1284.33
440.77	1301.73
441.145	1311.22
441.52	1309.41
441.895	1328.17
442.27	1349.64
442.645	1357.1
443.019	1376.53
443.394	1367.49
443.769	1395.97
444.143	1398.9
444.518	1405.91
444.892	1408.4
445.267	1416.3
445.641	1466.25
446.016	1467.15
446.39	1482.07
446.764	1460.15
447.139	1484.78
447.513	1493.14
447.887	1507.15
448.262	1502.86
448.636	1515.96
449.01	1534.49
449.384	1567.26
449.758	1545.57
450.132	1588.05
450.506	1583.76
450.88	1586.7
451.254	1570.2
451.628	1609.75
452.002	1616.3
452.376	1635.96
452.75	1642.06
453.123	1655.39
453.497	1663.08
453.871	1683.87
454.244	1697.65
454.618	1688.84
454.992	1744.43
455.365	1781.27
455.739	1795.05
456.112	1790.76
456.486	1814.26
456.859	1800.48
457.232	1842.06
457.606	1811.32
457.979	1878.21
458.352	1879.57
458.725	1916.18
459.099	1905.56
459.472	1978.55
459.845	1981.26
460.218	1955.95
460.591	2004.31
460.964	2000.7
461.337	2038.21
461.71	2053.35
462.083	2097.87
462.456	2068.49
462.829	2089.51
463.201	2119.79
463.574	2146
463.947	2131.54
464.32	2179.22
464.692	2222.39
465.065	2220.58
465.438	2240.24
465.81	2257.41
466.183	2296.96
466.555	2339.44
466.928	2309.16
467.3	2316.17
467.672	2376.05
468.045	2395.94
468.417	2411.08
468.789	2446.56
469.161	2476.39
469.534	2475.94
469.906	2547.12
470.278	2555.03
470.65	2575.37
471.022	2598.87
471.394	2641.58
471.766	2661.92
472.138	2673.45
472.51	2733.33
472.882	2759.32
473.253	2803.16
473.625	2816.27
473.997	2854.46
474.369	2839.77
474.74	2943.95
475.112	2943.95
475.484	2981.01
475.855	3021.01
476.227	3019.2
476.598	3098.29
476.97	3148.01
477.341	3177.39
477.713	3215.13
478.084	3210.61
478.455	3331.96
478.827	3300.77
479.198	3374.22
479.569	3427.55
479.94	3472.75
480.311	3497.38
480.682	3552.97
481.053	3612.86
481.424	3651.95
481.795	3668.9
482.166	3720.88
482.537	3798.84
482.908	3838.84
483.279	3817.82
483.65	3876.8
484.021	3982.11
484.391	3985.28
484.762	4046.74
485.133	4051.49
485.503	4113.41
485.874	4185.5
486.244	4192.73
486.615	4216.46
486.985	4296.68
487.356	4384.59
487.726	4384.36
488.097	4404.7
488.467	4429.56
488.837	4522.66
489.207	4604.7
489.578	4620.06
489.948	4640.17
490.318	4723.11
490.688	4719.95
491.058	4767.4
491.428	4811.47
491.798	4835.88
492.168	4911.58
492.538	4933.5
492.908	4989.32
493.278	5060.95
493.648	5039.26
494.017	5058.47
494.387	5116.55
494.757	5173.72
495.126	5234.28
495.496	5163.1
495.866	5191.57
496.235	5279.48
496.605	5262.98
496.974	5307.05
497.344	5363.77
497.713	5400.38
498.082	5397.89
498.452	5415.52
498.821	5499.59
499.19	5449.64
499.559	5502.98
499.928	5539.59
500.298	5560.15
500.667	5613.48
501.036	5592.01
501.405	5631.33
501.774	5647.38
502.143	5682.63
502.512	5698.9
502.88	5739.81
503.249	5694.84
503.618	5803.76
503.987	5723.99
504.356	5796.08
504.724	5800.6
505.093	5807.15
505.462	5856.41
505.83	5864.32
506.199	5918.11
506.567	5940.03
506.936	5927.37
507.304	5991.55
507.672	5994.72
508.041	6000.14
508.409	6051.21
508.777	6071.55
509.145	6073.13
509.514	6085.56
509.882	6113.81
510.25	6081.49
510.618	6111.77
510.986	6091.44
511.354	6193.35
511.722	6212.79
512.09	6186.57
512.458	6147.71
512.826	6267.48
513.193	6276.97
513.561	6286.23
513.929	6308.61
514.297	6370.75
514.664	6356.51
515.032	6317.42
515.4	6385.21
515.767	6362.39
516.135	6363.29
516.502	6309.96
516.869	6390.41
517.237	6427.7
517.604	6396.29
517.972	6430.86
518.339	6427.25
518.706	6443.29
519.073	6463.4
519.44	6475.15
519.808	6519.45
520.175	6552.44
520.542	6599.67
520.909	6620.91
521.276	6558.54
521.643	6632.89
522.009	6664.75
522.376	6621.59
522.743	6644.64
523.11	6690.74
523.477	6751.98
523.843	6770.06
524.21	6773
524.577	6837.18
524.943	6809.84
525.31	6797.86
525.676	6917.85
526.043	6949.72
526.409	6920.57
526.776	6996.04
527.142	6959.44
527.508	6988.81
527.874	6983.62
528.241	7004.18
528.607	7032.43
528.973	7083.05
529.339	7107.45
529.705	7056.83
530.071	7106.32
530.437	7131.41
530.803	7218.41
531.169	7205.08
531.535	7182.03
531.901	7171.18
532.267	7167.34
532.632	7234.91
532.998	7252.31
533.364	7326.88
533.73	7248.47
534.095	7295.02
534.461	7337.05
534.826	7325.08
535.192	7403.49
535.557	7399.2
535.923	7364.62
536.288	7406.43
536.653	7395.36
537.019	7384.28
537.384	7417.5
537.749	7410.05
538.114	7407.11
538.479	7350.84
538.845	7451.85
539.21	7462.7
539.575	7477.84
539.94	7442.36
540.305	7474
540.67	7452.98
541.034	7501.57
541.399	7449.37
541.764	7448.91
542.129	7508.35
542.494	7537.73
542.858	7574.33
543.223	7493.21
543.587	7581.11
543.952	7492.53
544.316	7566.2
544.681	7579.76
545.045	7623.6
545.41	7632.64
545.774	7615.01
546.138	7634.45
546.503	7601.45
546.867	7635.35
547.231	7653.65
547.595	7603.49
547.959	7596.71
548.324	7645.97
548.688	7596.26
549.052	7659.98
549.416	7688.23
549.779	7596.71
550.143	7654.56
550.507	7705.86
550.871	7716.7
551.235	7697.72
551.599	7752.18
551.962	7757.61
552.326	7762.8
552.689	7748.12
553.053	7728.23
553.417	7769.81
553.78	7860.2
554.143	7804.16
554.507	7849.81
554.87	7864.72
555.234	7899.3
555.597	7813.42
555.96	7901.11
556.323	7907.66
556.686	7889.13
557.05	7987.66
557.413	7981.56
557.776	7987.21
558.139	7993.08
558.502	8026.98
558.865	7986.98
559.228	8094.1
559.59	8082.8
559.953	8057.03
560.316	8165.73
560.679	8123.25
561.041	8186.97
561.404	8230.14
561.767	8251.15
562.129	8207.31
562.492	8253.86
562.854	8255.22
563.217	8282.56
563.579	8292.51
563.941	8324.15
564.304	8335.44
564.666	8430.81
565.028	8474.2
565.39	8478.27
565.753	8473.07
566.115	8524.14
566.477	8548.77
566.839	8573.18
567.201	8610.24
567.563	8653.63
567.925	8708.09
568.287	8655.44
568.648	8720.07
569.01	8768.88
569.372	8812.72
569.734	8764.13
570.095	8822.44
570.457	8839.39
570.819	8956.67
571.18	8834.87
571.542	8922.55
571.903	8905.83
572.265	8908.31
572.626	9021.3
572.987	9053.39
573.349	9022.21
573.71	9065.82
574.071	9140.4
574.432	9165.48
574.794	9170.22
575.155	9181.07
575.516	9253.61
575.877	9292.26
576.238	9262.65
576.599	9334.06
576.96	9330.22
577.32	9408.64
577.681	9363.21
578.042	9455.87
578.403	9427.17
578.763	9477.79
579.124	9476.21
579.485	9582.64
579.845	9586.94
580.206	9575.64
580.566	9635.75
580.927	9584.23
581.287	9720.04
581.648	9679.59
582.008	9728.4
582.368	9767.05
582.728	9735.41
583.089	9805.91
583.449	9849.76
583.809	9861.05
584.169	9842.75
584.529	9876.87
584.889	10013.82
585.249	9979.92
585.609	9906.02
585.969	10082.97
586.329	10015.17
586.688	10068.28
587.048	10036.42
587.408	9996.19
587.768	10060.15
588.127	10072.12
588.487	10133.36
588.846	10222.63
589.206	10134.72
589.565	10180.59
589.925	10228.05
590.284	10252.91
590.643	10329.52
591.003	10318.22
591.362	10360.93
591.721	10370.42
592.08	10336.3
592.44	10452.68
592.799	10501.94
593.158	10406.35
593.517	10453.81
593.876	10509.17
594.235	10516.4
594.593	10524.54
594.952	10520.02
595.311	10540.81
595.67	10599.57
596.029	10691.77
596.387	10715.95
596.746	10671.65
597.104	10652.67
597.463	10689.28
597.822	10705.78
598.18	10699.22
598.538	10738.09
598.897	10807.24
599.255	10693.57
599.613	10802.27
599.972	10829.16
600.33	10826.9
600.688	10782.16
601.046	10828.26
601.404	10910.74
601.762	10915.04
602.12	10926.11
602.478	10993.91
602.836	10994.13
603.194	10870.75
603.552	10947.58
603.91	10957.52
604.268	10940.12
604.625	10953.68
604.983	10984.87
605.341	10942.61
605.698	10947.81
606.056	11084.52
606.413	11063.73
606.771	11045.43
607.128	11056.28
607.485	10960.23
607.843	11029.61
608.2	11059.21
608.557	11132.66
608.914	11025.77
609.272	11184.18
609.629	11212.88
609.986	11241.13
610.343	11098.08
610.7	11260.34
611.057	11229.38
611.414	11295.82
611.771	11198.42
612.127	11281.36
612.484	11207.23
612.841	11280
613.198	11262.83
613.554	11279.77
613.911	11385.76
614.267	11373.78
614.624	11328.13
614.98	11321.58
615.337	11413.56
615.693	11364.29
616.05	11386.21
616.406	11430.96
616.762	11410.17
617.118	11435.93
617.475	11422.82
617.831	11403.84
618.187	11515.47
618.543	11443.39
618.899	11465.98
619.255	11444.06
619.611	11468.7
619.967	11535.59
620.323	11607
620.678	11467.57
621.034	11480.9
621.39	11396.61
621.746	11479.99
622.101	11525.42
622.457	11457.85
622.812	11494.46
623.168	11545.98
623.523	11543.27
623.879	11645.87
624.234	11524.97
624.589	11528.13
624.945	11585.75
625.3	11559.09
625.655	11505.76
626.01	11588.92
626.365	11512.31
626.72	11509.6
627.075	11555.47
627.43	11571.74
627.785	11535.59
628.14	11529.94
628.495	11572.42
628.85	11538.3
629.205	11459.88
629.559	11521.35
629.914	11505.08
630.269	11430.05
630.623	11420.34
630.978	11411.52
631.332	11414.91
631.687	11565.87
632.041	11403.39
632.396	11460.33
632.75	11389.15
633.104	11452.2
633.459	11401.13
633.813	11300.56
634.167	11311.64
634.521	11332.88
634.875	11313.67
635.229	11299.89
635.583	11256.05
635.937	11310.28
636.291	11245.2
636.645	11225.54
636.999	11265.31
637.352	11287.01
637.706	11150.29
638.06	11248.14
638.413	11148.03
638.767	11160.91
639.121	11131.76
639.474	11092.66
639.828	11118.42
640.181	11125.43
640.534	11154.58
640.888	11072.32
641.241	11037.97
641.594	11053.79
641.947	11103.51
642.301	11084.98
642.654	11102.15
643.007	11101.25
643.36	11040.68
643.713	11073.9
644.066	11106.67
644.419	11010.63
644.771	10953.68
645.124	10854.25
645.477	10840.24
645.83	10747.36
646.182	10779.67
646.535	10747.13
646.888	10666.23
647.24	10682.95
647.593	10757.75
647.945	10708.49
648.298	10602.28
648.65	10586.46
649.002	10638.66
649.355	10693.57
649.707	10565.67
650.059	10715.72
650.411	10828.26
650.763	10782.16
651.115	10896.51
651.467	10899.9
651.819	10861.71
652.171	10876.39
652.523	10897.86
652.875	10833.46
653.227	10821.93
653.578	10888.6
653.93	10850.41
654.282	10906
654.633	10799.56
654.985	10809.73
655.337	10828.94
655.688	10873.68
656.039	10904.42
656.391	10785.32
656.742	10727.7
657.094	10858.09
657.445	10868.94
657.796	10837.07
658.147	10821.48
658.498	10893.8
658.849	10851.31
659.2	10823.97
659.551	10815.61
659.902	10824.87
660.253	10817.64
660.604	10830.29
660.955	10756.17
661.306	10869.62
661.656	10790.07
662.007	10856.28
662.358	10929.5
662.708	10871.65
663.059	10940.57
663.409	10837.3
663.76	10841.59
664.11	10877.3
664.461	10862.16
664.811	10859.22
665.161	10863.06
665.511	10866.68
665.862	10832.33
666.212	10895.6
666.562	10825.77
666.912	10802.72
667.262	10815.61
667.612	10840.24
667.962	10842.72
668.312	10801.37
668.662	10870.29
669.011	10878.43
669.361	10849.05
669.711	10810.41
670.06	10704.2
670.41	10753.46
670.76	10679.34
671.109	10836.4
671.459	10838.43
671.808	10797.98
672.157	10781.71
672.507	10754.59
672.856	10688.83
673.205	10690.86
673.554	10776.51
673.904	10714.37
674.253	10727.25
674.602	10739.45
674.951	10564.76
675.3	10517.31
675.649	10748.04
675.998	10691.54
676.346	10667.59
676.695	10762.27
677.044	10629.17
677.393	10611.09
677.741	10687.93
678.09	10614.25
678.438	10583.75
678.787	10706
679.135	10634.37
679.484	10550.08
679.832	10538.55
680.181	10476.86
680.529	10497.65
680.877	10514.6
681.225	10422.17
681.573	10482.28
681.922	10371.55
682.27	10377.65
682.618	10401.61
682.966	10346.24
683.314	10405.67
683.661	10390.53
684.009	10305.11
684.357	10306.01
684.705	10243.87
685.053	10310.76
685.4	10235.96
685.748	10139.47
686.095	10257.2
686.443	10158
686.79	10150.54
687.138	10228.28
687.485	10174.94
687.832	10172.23
688.18	10014.72
688.527	10042.74
688.874	10067.6
689.221	10002.97
689.568	10017.21
689.915	10000.49
690.262	9954.39
690.609	9902.18
690.956	9822.64
691.303	9881.17
691.65	9765.24
691.997	9771.34
692.344	9664.68
692.69	9685.01
693.037	9688.4
693.383	9665.35
693.73	9666.94
694.077	9594.62
694.423	9615.86
694.769	9541.06
695.116	9562.53
695.462	9590.33
695.808	9461.29
696.155	9502.87
696.501	9375.42
696.847	9410.44
697.193	9384.91
697.539	9331.12
697.885	9295.87
698.231	9238.47
698.577	9221.3
698.923	9178.59
699.269	9206.61
699.614	9060.85
699.96	9073.28
700.306	8998.93
700.651	9050
700.997	8979.95
701.342	8977.91
701.688	8970
702.033	8963.22
702.379	8926.16
702.724	8901.53
703.069	8929.78
703.415	8777.01
703.76	8826.05
704.105	8769.78
704.45	8777.92
704.795	8777.69
705.14	8715.77
705.485	8659.05
705.83	8590.13
706.175	8643.91
706.52	8560.07
706.865	8567.3
707.209	8578.38
707.554	8538.15
707.899	8534.76
708.243	8484.82
708.588	8466.97
708.932	8389.68
709.277	8428.32
709.621	8395.78
709.966	8327.76
710.31	8329.12
710.654	8282.79
710.998	8255.22
711.342	8255.67
711.687	8268.33
712.031	8215.9
712.375	8242.57
712.719	8188.56
713.063	8239.85
713.407	8242.11
713.75	8183.36
714.094	8193.3
714.438	8108.56
714.782	8059.07
715.125	8064.72
715.469	8125.05
715.812	8140.42
716.156	8014.1
716.499	8045.96
716.843	8050.93
717.186	7972.52
717.53	8045.96
717.873	7976.13
718.216	7978.62
718.559	7929.13
718.902	7896.59
719.246	7922.57
719.589	7885.51
719.932	7821.33
720.275	7917.83
720.617	7895.91
720.96	7840.77
721.303	7861.78
721.646	7895
721.989	7797.61
722.331	7861.11
722.674	7797.61
723.016	7839.19
723.359	7858.85
723.701	7803.71
724.044	7798.74
724.386	7728.23
724.729	7851.16
725.071	7797.83
725.413	7740.21
725.755	7798.96
726.097	7728.45
726.439	7693.88
726.782	7725.97
727.124	7725.74
727.465	7727.55
727.807	7712.64
728.149	7705.18
728.491	7645.52
728.833	7677.61
729.175	7622.47
729.516	7669.25
729.858	7680.09
730.199	7640.32
730.541	7629.7
730.882	7635.12
731.224	7702.24
731.565	7609.59
731.906	7603.49
732.248	7642.36
732.589	7616.59
732.93	7599.19
733.271	7625.41
733.612	7591.51
733.953	7644.39
734.294	7478.52
734.635	7596.26
734.976	7579.76
735.317	7601.45
735.658	7601.45
735.999	7607.33
736.339	7578.4
736.68	7638.74
737.021	7606.88
737.361	7581.11
737.702	7593.77
738.042	7628.57
738.383	7541.34
738.723	7634.22
739.063	7625.86
739.404	7671.28
739.744	7673.32
740.084	7614.56
740.424	7670.6
740.764	7708.57
741.104	7652.98
741.444	7612.07
741.784	7620.21
742.124	7717.61
742.464	7704.27
742.804	7651.39
743.143	7695.91
743.483	7730.49
743.823	7691.17
744.162	7784.05
744.502	7804.16
744.841	7739.08
745.181	7801.67
745.52	7834.44
745.86	7855.68
746.199	7856.36
746.538	7856.14
746.877	7988.79
747.216	7954.89
747.556	8053.19
747.895	8073.3
748.234	8075.34
748.573	8140.87
748.911	8132.96
749.25	8182.23
749.589	8202.34
749.928	8290.47
750.267	8342.45
750.605	8510.13
750.944	8504.25
751.283	8557.59
751.621	8651.59
751.96	8679.16
752.298	8782.66
752.636	8810.23
752.975	8905.6
753.313	8929.55
753.651	9029.89
753.989	9165.03
754.327	9236.21
754.666	9352.59
755.004	9430.78
755.342	9519.82
755.679	9623.09
756.017	9729.98
756.355	9890.88
756.693	9977.89
757.031	10118.67
757.368	10227.82
757.706	10346.69
758.044	10455.39
758.381	10630.75
758.719	10697.64
759.056	10914.13
759.394	11033.9
759.731	11086.78
760.068	11258.53
760.405	11382.37
760.743	11450.62
761.08	11696.94
761.417	11717.28
761.754	12008.57
762.091	12177.83
762.428	12361.78
762.765	12380.54
763.102	12571.72
763.438	12738.72
