Data from hue_28_FLMS001491_00027.txt Node
Date: Tue Feb 07 17:17:04 GMT 2017
User: dcchb
Spectrometer: FLMS00149
Trigger mode: 0
Integration Time (sec): 2.000000E-2
Scans to average: 10
Electric dark correction enabled: true
Nonlinearity correction enabled: false
Boxcar width: 0
XAxis mode: Wavelengths
Number of Pixels in Spectrum: 2048
>>>>>Begin Spectral Data<<<<<
341.393	-24.53
341.776	-24.53
342.16	-24.53
342.543	-63.18
342.927	-63.63
343.31	-79.45
343.693	-58.88
344.077	-56.4
344.46	-66.79
344.843	-74.7
345.226	-46.68
345.61	-39.67
345.993	-20.47
346.376	-3.06
346.759	12.3
347.142	12.08
347.525	61.34
347.908	54.56
348.291	85.75
348.674	102.02
349.057	118.06
349.44	127.55
349.823	140.89
350.206	164.39
350.588	188.34
350.971	217.72
351.354	218.17
351.737	244.84
352.119	264.72
352.502	240.54
352.884	277.15
353.267	280.77
353.65	296.81
354.032	300.66
354.414	303.82
354.797	316.7
355.179	302.92
355.562	326.42
355.944	322.58
356.326	354.67
356.709	350.82
357.091	306.53
357.473	360.99
357.855	314.89
358.238	306.53
358.62	350.15
359.002	345.63
359.384	327.77
359.766	348.11
360.148	355.34
360.53	334.1
360.912	339.75
361.294	342.46
361.676	326.64
362.057	337.49
362.439	316.93
362.821	353.54
363.203	330.03
363.584	322.8
363.966	349.02
364.348	336.36
364.729	329.36
365.111	310.15
365.493	330.71
365.874	325.51
366.256	339.3
366.637	308.34
367.019	322.8
367.4	311.5
367.781	316.93
368.163	328.45
368.544	309.92
368.925	310.6
369.306	310.37
369.688	310.83
370.069	316.25
370.45	314.67
370.831	319.41
371.212	322.12
371.593	315.8
371.974	325.97
372.355	316.02
372.736	324.61
373.117	309.02
373.498	327.32
373.879	328
374.26	309.02
374.641	310.37
375.021	311.73
375.402	315.57
375.783	338.4
376.163	335.91
376.544	343.82
376.925	328.9
377.305	344.95
377.686	330.03
378.066	358.06
378.447	338.4
378.827	321.22
379.208	317.38
379.588	350.37
379.968	353.76
380.349	324.38
380.729	319.41
381.109	334.33
381.489	350.6
381.87	351.73
382.25	343.82
382.63	340.88
383.01	352.86
383.39	346.3
383.77	321.22
384.15	345.85
384.53	349.24
384.91	349.69
385.29	366.19
385.67	370.71
386.049	357.83
386.429	363.25
386.809	356.93
387.189	352.86
387.568	361.22
387.948	335.23
388.328	361.67
388.707	360.54
389.087	379.07
389.466	373.42
389.846	349.02
390.225	368.68
390.605	375.68
390.984	374.1
391.363	368.68
391.743	371.39
392.122	386.3
392.501	376.36
392.881	362.35
393.26	403.25
393.639	397.38
394.018	385.85
394.397	382.91
394.776	382.69
395.155	389.02
395.534	390.15
395.913	390.82
396.292	386.08
396.671	409.35
397.05	397.6
397.429	388.79
397.808	396.92
398.186	411.16
398.565	412.29
398.944	393.31
399.323	398.96
399.701	416.36
400.08	383.14
400.458	411.39
400.837	400.54
401.215	401.9
401.594	398.96
401.972	431.5
402.351	400.99
402.729	396.92
403.107	427.88
403.486	421.33
403.864	432.18
404.242	410.03
404.62	437.83
404.999	435.12
405.377	443.03
405.755	428.56
406.133	440.99
406.511	451.16
406.889	457.94
407.267	427.21
407.645	438.05
408.023	458.84
408.401	454.1
408.779	466.75
409.156	451.61
409.534	504.72
409.912	445.51
410.29	459.07
410.667	483.7
411.045	482.57
411.422	482.8
411.8	472.85
412.178	459.3
412.555	473.08
412.933	488
413.31	492.06
413.687	509.46
414.065	486.19
414.442	483.7
414.819	519.86
415.197	506.75
415.574	492.97
415.951	520.76
416.328	509.01
416.705	527.77
417.082	495.23
417.46	525.28
417.837	537.94
418.214	530.25
418.591	544.04
418.967	525.96
419.344	538.84
419.721	530.03
420.098	545.62
420.475	532.74
420.852	549.91
421.228	554.89
421.605	555.34
421.982	558.05
422.358	586.3
422.735	586.98
423.111	547.43
423.488	558.95
423.864	570.71
424.241	608.9
424.617	578.16
424.994	576.35
425.37	582
425.746	577.26
426.123	607.77
426.499	599.18
426.875	610.03
427.251	607.31
427.627	617.94
428.003	620.65
428.379	615.45
428.756	616.35
429.132	651.38
429.507	629.46
429.883	656.8
430.259	644.15
430.635	673.3
431.011	655.45
431.387	670.59
431.763	701.78
432.138	704.26
432.514	690.25
432.89	716.24
433.265	686.86
433.641	705.39
434.016	717.82
434.392	738.38
434.767	745.39
435.143	757.37
435.518	707.88
435.894	737.93
436.269	746.97
436.644	757.59
437.02	763.24
437.395	754.43
437.77	760.76
438.145	765.05
438.52	777.93
438.895	785.61
439.271	803.24
439.646	814.77
440.021	819.96
440.395	780.64
440.77	810.25
441.145	801.43
441.52	837.36
441.895	821.09
442.27	839.62
442.645	828.1
443.019	814.31
443.394	852.73
443.769	863.13
444.143	827.87
444.518	871.94
444.892	866.06
445.267	881.88
445.641	886.63
446.016	879.62
446.39	888.66
446.764	894.99
447.139	868.78
447.513	884.82
447.887	904.71
448.262	904.03
448.636	900.87
449.01	918.49
449.384	909.91
449.758	935.89
450.132	923.46
450.506	936.35
450.88	953.07
451.254	966.85
451.628	976.34
452.002	947.19
452.376	973.18
452.75	983.35
453.123	988.32
453.497	1000.07
453.871	1000.07
454.244	1003.91
454.618	1036
454.992	1046.17
455.365	1046.4
455.739	1060.18
456.112	1072.84
456.486	1112.84
456.859	1088.21
457.232	1084.59
457.606	1128.2
457.979	1128.88
458.352	1118.71
458.725	1138.83
459.099	1147.19
459.472	1190.58
459.845	1180.86
460.218	1201.88
460.591	1201.42
460.964	1206.17
461.337	1209.56
461.71	1260.86
462.083	1273.29
462.456	1283.91
462.829	1288.43
463.201	1293.17
463.574	1282.78
463.947	1310.57
464.32	1320.29
464.692	1331.59
465.065	1365.03
465.438	1379.95
465.81	1374.07
466.183	1426.95
466.555	1452.04
466.928	1447.52
467.3	1442.09
467.672	1472.15
468.045	1511.47
468.417	1510.57
468.789	1533.17
469.161	1539.04
469.534	1552.15
469.906	1580.4
470.278	1626.04
470.65	1626.95
471.022	1680.05
471.394	1698.13
471.766	1720.51
472.138	1722.09
472.51	1778.58
472.882	1828.3
473.253	1836.21
473.625	1852.25
473.997	1906.94
474.369	1918.24
474.74	1932.48
475.112	1972.25
475.484	2014.74
475.855	2044.11
476.227	2086.6
476.598	2131.79
476.97	2149.19
477.341	2189.87
477.713	2231.9
478.084	2270.55
478.455	2328.85
478.827	2341.96
479.198	2378.12
479.569	2428.28
479.94	2528.39
480.311	2525.23
480.682	2569.52
481.053	2682.74
481.424	2669.63
481.795	2748.5
482.166	2781.04
482.537	2838.22
482.908	2882.06
483.279	2922.28
483.65	2974.26
484.021	3080.7
484.391	3082.05
484.762	3148.49
485.133	3192.56
485.503	3245.44
485.874	3316.4
486.244	3365.21
486.615	3434.81
486.985	3502.15
487.356	3571.53
487.726	3611.3
488.097	3668.03
488.467	3743.05
488.837	3772.88
489.207	3875.03
489.578	3936.04
489.948	3966.1
490.318	4058.98
490.688	4065.08
491.058	4128.58
491.428	4170.16
491.798	4282.02
492.168	4383.94
492.538	4374.45
492.908	4439.53
493.278	4452.64
493.648	4550.71
494.017	4554.33
494.387	4634.55
494.757	4720.43
495.126	4774.21
495.496	4780.76
495.866	4867.54
496.235	4859.63
496.605	4908.67
496.974	5003.58
497.344	5008.78
497.713	5051.27
498.082	5074.99
498.452	5160.19
498.821	5187.99
499.19	5198.83
499.559	5268.66
499.928	5343.69
500.298	5332.39
500.667	5369
501.036	5362.9
501.405	5488.77
501.774	5452.16
502.143	5528.99
502.512	5577.58
502.88	5599.27
503.249	5610.57
503.618	5654.41
503.987	5683.79
504.356	5762.21
504.724	5791.13
505.093	5808.76
505.462	5813.73
505.83	5846.05
506.199	5936.21
506.567	6000.85
506.936	6007.4
507.304	6061.86
507.672	6086.72
508.041	6042.2
508.409	6122.65
508.777	6119.71
509.145	6194.96
509.514	6213.72
509.882	6266.6
510.25	6263.21
510.618	6326.49
510.986	6377.56
511.354	6365.81
511.722	6469.99
512.09	6455.52
512.458	6522.19
512.826	6518.57
513.193	6602.19
513.561	6526.93
513.929	6608.96
514.297	6693.26
514.664	6718.11
515.032	6696.87
515.4	6845.12
515.767	6785.46
516.135	6779.13
516.502	6786.59
516.869	6905.23
517.237	6904.32
517.604	6816.87
517.972	6982.97
518.339	7050.31
518.706	6975.51
519.073	7022.51
519.44	7053.92
519.808	7121.04
520.175	7123.3
520.542	7265.9
520.909	7242.62
521.276	7189.29
521.643	7324.43
522.009	7320.58
522.376	7331.21
522.743	7435.38
523.11	7488.94
523.477	7557.41
523.843	7540.69
524.21	7614.36
524.577	7618.2
524.943	7694.36
525.31	7699.78
525.676	7759.89
526.043	7811.42
526.409	7896.39
526.776	7934.35
527.142	7895.71
527.508	8026.1
527.874	8020.68
528.241	8082.15
528.607	8129.15
528.973	8181.58
529.339	8191.52
529.705	8257.73
530.071	8324.17
530.437	8340.22
530.803	8361.69
531.169	8426.32
531.535	8408.69
531.901	8455.02
532.267	8521.23
532.632	8588.12
532.998	8578.86
533.364	8621.79
533.73	8669.93
534.095	8738.4
534.461	8708.57
534.826	8812.97
535.192	8806.87
535.557	8894.78
535.923	8929.13
536.288	8859.75
536.653	8974.78
537.019	8956.25
537.384	8980.2
537.749	9102.91
538.114	9071.27
538.479	9068.79
538.845	9206.18
539.21	9095
539.575	9193.3
539.94	9206.41
540.305	9320.53
540.67	9311.94
541.034	9314.66
541.399	9391.26
541.764	9423.13
542.129	9441.21
542.494	9481.43
542.858	9561.66
543.223	9568.89
543.587	9649.11
543.952	9616.57
544.316	9667.19
544.681	9653.63
545.045	9786.51
545.41	9849.56
545.774	9861.76
546.138	9873.06
546.503	9919.39
546.867	9884.36
547.231	10029.44
547.595	10059.27
547.959	10042.55
548.324	10073.05
548.688	10149.66
549.052	10165.03
549.416	10190.79
549.779	10118.7
550.143	10134.52
550.507	10288.42
550.871	10324.57
551.235	10282.99
551.599	10375.87
551.962	10375.65
552.326	10411.8
552.689	10497.45
553.053	10431.01
553.417	10522.53
553.78	10597.56
554.143	10624.68
554.507	10687.95
554.87	10687.28
555.234	10755.97
555.597	10706.48
555.96	10842.75
556.323	10769.31
556.686	10786.71
557.05	10865.8
557.413	10878.23
557.776	10946.48
558.139	11014.72
558.502	11000.04
558.865	11032.35
559.228	11211.78
559.59	11109.19
559.953	11200.26
560.316	11294.27
560.679	11277.09
561.041	11320.25
561.404	11325.9
561.767	11382.17
562.129	11403.41
562.492	11583.07
562.854	11571.09
563.217	11530.42
563.579	11593.92
563.941	11656.29
564.304	11676.85
564.666	11679.11
565.028	11748.49
565.39	11774.7
565.753	11914.59
566.115	11854.02
566.477	11882.95
566.839	11917.98
567.201	12060.35
567.563	12020.35
567.925	12109.38
568.287	12145.09
568.648	12197.07
569.01	12263.96
569.372	12231.19
569.734	12255.82
570.095	12438.19
570.457	12414.69
570.819	12411.07
571.18	12390.73
571.542	12576.49
571.903	12633.21
572.265	12672.31
572.626	12688.8
572.987	12743.27
573.349	12843.83
573.71	12910.04
574.071	12996.59
574.432	13082.01
574.794	13174.22
575.155	13167.89
575.516	13235.91
575.877	13392.97
576.238	13317.04
576.599	13431.16
576.96	13575.79
577.32	13638.84
577.681	13773.75
578.042	13860.3
578.403	13922.44
578.763	14024.36
579.124	14118.15
579.485	14300.29
579.845	14424.8
580.206	14479.72
580.566	14597
580.927	14742.54
581.287	14894.4
581.648	14913.38
582.008	15223.88
582.368	15357.44
582.728	15498.22
583.089	15634.94
583.449	15787.03
583.809	16025.89
584.169	16184.08
584.529	16367.13
584.889	16643.96
585.249	16777.96
585.609	16895.02
585.969	17262.7
586.329	17453.88
586.688	17670.37
587.048	17828.56
587.408	18177.25
587.768	18400.52
588.127	18578.59
588.487	18840.51
588.846	19129.99
589.206	19259.48
589.565	19582.41
589.925	19869.86
590.284	20065.33
590.643	20496.28
591.003	20660.57
591.362	20955.25
591.721	21306.88
592.08	21574.22
592.44	21782.8
592.799	22119.07
593.158	22450.58
593.517	22635.89
593.876	23139.38
594.235	23245.36
594.593	23600.61
594.952	23946.14
595.311	24179.12
595.67	24565.55
596.029	25012.1
596.387	25287.8
596.746	25544.29
597.104	25742.92
597.463	26011.39
597.822	26379.07
598.18	26590.59
598.538	26903.8
598.897	27388.53
599.255	27433.05
599.613	28149.19
599.972	28138.79
600.33	28445.45
600.688	28766.8
601.046	29079.11
601.404	29465.76
601.762	29568.81
602.12	29971.51
602.478	30292.86
602.836	30553.42
603.194	30672.29
603.552	31046.97
603.91	31171.03
604.268	31532.38
604.625	31827.74
604.983	32177.33
605.341	32297.55
605.698	32688.05
606.056	32945.45
606.413	33108.61
606.771	33442.16
607.128	33715.37
607.485	33754.47
607.843	34073.78
608.2	34516.25
608.557	34783.14
608.914	34826.53
609.272	35170.02
609.629	35486.4
609.986	35721.42
610.343	35717.58
610.7	36192.37
611.057	36254.29
611.414	36390.33
611.771	36487.05
612.127	36863.76
612.484	37099.91
612.841	37301.04
613.198	37396.18
613.554	37567.7
613.911	37872.78
614.267	38171.52
614.624	38089.27
614.98	38477.05
615.337	38721.34
615.693	38920.88
616.05	38924.73
616.406	39329.23
616.762	39391.83
617.118	39559.06
617.475	39781.2
617.831	39901.42
618.187	39883.57
618.543	40087.18
618.899	40434.74
619.255	40412.82
619.611	40379.15
619.967	40768.97
620.323	40937.78
620.678	40829.31
621.034	40791.79
621.39	41028.17
621.746	41004.67
622.101	41514.71
622.457	41194.04
622.812	41549.74
623.168	41579.34
623.523	41701.15
623.879	41942.27
624.234	41767.14
624.589	41853.91
624.945	41996.96
625.3	42079.9
625.655	42197.63
626.01	42307.24
626.365	42356.95
626.72	42368.25
627.075	42488.47
627.43	42498.42
627.785	42468.36
628.14	42507.23
628.495	42709.94
628.85	42694.8
629.205	42549.94
629.559	42986.99
629.914	42778.86
630.269	42838.75
630.623	42872.19
630.978	42833.32
631.332	43048.46
631.687	43127.33
632.041	42961.91
632.396	43126.2
632.75	42918.29
633.104	43159.64
633.459	42981.34
633.813	43062.7
634.167	43086.42
634.521	43090.72
634.875	43100.89
635.229	43000.55
635.583	43001.68
635.937	42954.22
636.291	43005.52
636.645	43179.53
636.999	42956.03
637.352	43091.4
637.706	42930.95
638.06	43057.5
638.413	43030.38
638.767	42895.47
639.121	42883.04
639.474	42892.3
639.828	42975.01
640.181	42961.68
640.534	42994.45
640.888	42838.97
641.241	42863.83
641.594	42799.65
641.947	42968.91
642.301	42876.71
642.654	42923.04
643.007	42875.81
643.36	42780.89
643.713	42777.96
644.066	42952.19
644.419	42773.44
644.771	42657.51
645.124	42112.89
645.477	42055.04
645.83	41878.55
646.182	41728.27
646.535	41826.57
646.888	41842.61
647.24	41519.69
647.593	41816.4
647.945	41734.59
648.298	41423.19
648.65	41349.97
649.002	41400.82
649.355	41569.18
649.707	41495.28
650.059	41755.61
650.411	42237.18
650.763	42214.58
651.115	42621.35
651.467	42534.12
651.819	42316.27
652.171	42293.45
652.523	42368.02
652.875	42221.81
653.227	42152.44
653.578	42515.82
653.93	42383.62
654.282	42219.33
654.633	42127.58
654.985	42316.95
655.337	42211.64
655.688	42222.27
656.039	42376.16
656.391	42060.01
656.742	42162.38
657.094	42024.3
657.445	42236.5
657.796	42245.77
658.147	42154.47
658.498	42041.25
658.849	42189.95
659.2	42009.39
659.551	41930.3
659.902	42171.42
660.253	41977.07
660.604	42186.11
660.955	41991.31
661.306	42112.89
661.656	41990.86
662.007	42146.34
662.358	42009.84
662.708	42028.15
663.059	42024.76
663.409	41742.96
663.76	42035.6
664.11	41916.96
664.461	42075.15
664.811	42024.08
665.161	42032.67
665.511	41996.06
665.862	42069.95
666.212	42056.85
666.562	42006
666.912	41971.88
667.262	41945.44
667.612	41987.24
667.962	41803.52
668.312	41909.96
668.662	42170.97
669.011	42041.25
669.361	41857.53
669.711	41702.05
670.06	41852.56
670.41	41855.5
670.76	41735.5
671.109	41887.13
671.459	41794.03
671.808	41695.05
672.157	41865.21
672.507	41606.01
672.856	41613.92
673.205	41536.18
673.554	41776.85
673.904	41630.87
674.253	41797.42
674.602	41613.47
674.951	41086.25
675.3	40930.77
675.649	41590.64
675.998	41531.89
676.346	41492.12
676.695	41569.18
677.044	41438.56
677.393	41512.45
677.741	41444.21
678.09	41419.8
678.438	41359.46
678.787	41441.5
679.135	41384.77
679.484	41031.56
679.832	41347.94
680.181	41088.28
680.529	41154.05
680.877	41104.1
681.225	41050.32
681.573	41402.63
681.922	41046.7
682.27	40996.76
682.618	40894.84
682.966	40722.87
683.314	40984.11
683.661	40827.05
684.009	40716.32
684.357	40533.95
684.705	40406.95
685.053	40609.65
685.4	40485.14
685.748	40390.22
686.095	40313.39
686.443	40145.03
686.79	40124.02
687.138	40124.92
687.485	40147.29
687.832	39946.62
688.18	40042.44
688.527	39816.68
688.874	39794.31
689.221	39767.19
689.568	39651.03
689.915	39671.15
690.262	39622.79
690.609	39517.48
690.956	39313.42
691.303	39230.71
691.65	39134.66
691.997	39227.54
692.344	38987.77
692.69	38991.62
693.037	38930.6
693.383	38535.58
693.73	38703.94
694.077	38510.5
694.423	38472.31
694.769	38451.97
695.116	38369.71
695.462	38279.09
695.808	38134.01
696.155	38360.45
696.501	38056.5
696.847	37924.53
697.193	37612.44
697.539	37795.49
697.885	37507.59
698.231	37552.33
698.577	37400.92
698.923	37412.22
699.269	37178.33
699.614	37035.06
699.96	36966.13
700.306	37132.91
700.651	36831.67
700.997	36662.86
701.342	36676.42
701.688	36699.92
702.033	36522.53
702.379	36556.2
702.724	36539.93
703.069	36632.58
703.415	36080.28
703.76	36162.54
704.105	36162.99
704.45	36035.08
704.795	35826.95
705.14	35700.18
705.485	35587.19
705.83	35508.77
706.175	35647.98
706.52	35481.65
706.865	35370.69
707.209	35273.07
707.554	35246.63
707.899	35339.06
708.243	35008.9
708.588	35043.7
708.932	34792.4
709.277	34720.77
709.621	34708.56
709.966	34590.83
710.31	34732.74
710.654	34438.29
710.998	34431.74
711.342	34476.93
711.687	34350.83
712.031	34145.64
712.375	33967.34
712.719	34046.21
713.063	34168.69
713.407	34180.44
713.75	33923.5
714.094	33923.05
714.438	33732.77
714.782	33805.99
715.125	33631.3
715.469	33762.37
715.812	33593.57
716.156	33509.73
716.499	33287.13
716.843	33485.55
717.186	33177.31
717.53	33289.17
717.873	33357.64
718.216	33263.86
718.559	33121.94
718.902	32995.39
719.246	33070.64
719.589	32960.14
719.932	32862.74
720.275	32689.86
720.617	32730.54
720.96	32681.05
721.303	32647.6
721.646	32644.44
721.989	32441.51
722.331	32495.52
722.674	32427.95
723.016	32358.34
723.359	32303.43
723.701	32349.08
724.044	32041.52
724.386	32020.5
724.729	32141.85
725.071	31980.05
725.413	32063.89
725.755	32116.09
726.097	31948.19
726.439	31806.49
726.782	31786.61
727.124	31938.24
727.465	31645.14
727.807	31614.41
728.149	31595.2
728.491	31724.46
728.833	31540.29
729.175	31472.04
729.516	31526.5
729.858	31524.92
730.199	31514.3
730.541	31283.8
730.882	31241.76
731.224	31343.23
731.565	31283.8
731.906	31206.51
732.248	31171.93
732.589	31016.23
732.93	31001.32
733.271	30909.57
733.612	30851.49
733.953	30922
734.294	30744.6
734.635	30857.14
734.976	30935.78
735.317	30472.97
735.658	30649.24
735.999	30558.17
736.339	30575.11
736.68	30675.68
737.021	30579.18
737.361	30388
737.702	30447.89
738.042	30434.55
738.383	30386.42
738.723	30412.18
739.063	30245.63
739.404	30257.83
739.744	30300.32
740.084	30096.48
740.424	30242.47
740.764	30111.17
741.104	30212.41
741.444	29949.37
741.784	29929.71
742.124	30026.2
742.464	29873.44
742.804	29833.44
743.143	29826.21
743.483	29638.87
743.823	29620.11
744.162	29656.95
744.502	29614.01
744.841	29548.7
745.181	29692.88
745.52	29454.24
745.86	29479.78
746.199	29348.93
746.538	29422.15
746.877	29487.01
747.216	29430.06
747.556	29183.51
747.895	29291.98
748.234	29237.07
748.573	29144.42
748.911	29028.71
749.25	29119.11
749.589	29068.71
749.928	29083.18
750.267	29089.5
750.605	28997.53
750.944	28965.66
751.283	28941.26
751.621	28949.17
751.96	28722.06
752.298	28787.59
752.636	28701.04
752.975	28673.47
753.313	28547.82
753.651	28598.22
753.989	28445.9
754.327	28486.58
754.666	28287.04
755.004	28395.74
755.342	28422.63
755.679	28322.52
756.017	28088.63
756.355	28154.61
756.693	28047.72
757.031	28052.47
757.368	27982.87
757.706	27913.72
758.044	27737
758.381	27769.31
758.719	27730.9
