Data from hue_90_FLMS001491_96.txt Node
Date: Mon Feb 06 15:25:57 GMT 2017
User: dcchb
Spectrometer: FLMS00149
Trigger mode: 0
Integration Time (sec): 2.000000E-2
Scans to average: 10
Electric dark correction enabled: true
Nonlinearity correction enabled: false
Boxcar width: 0
XAxis mode: Wavelengths
Number of Pixels in Spectrum: 2048
>>>>>Begin Spectral Data<<<<<
341.393	3.22
341.776	3.22
342.16	3.22
342.543	-50.34
342.927	-58.7
343.31	-78.36
343.693	-65.48
344.077	-55.54
344.46	-62.09
344.843	-62.09
345.226	-52.37
345.61	-24.35
345.993	-19.83
346.376	8.42
346.759	-1.98
347.142	28.53
347.525	54.29
347.908	45.48
348.291	93.84
348.674	92.03
349.057	99.49
349.44	129.09
349.823	146.04
350.206	154.63
350.588	204.12
350.971	213.16
351.354	207.96
351.737	231.24
352.119	243.44
352.502	257.22
352.884	259.48
353.267	281.41
353.65	288.86
354.032	297.22
354.414	299.03
354.797	318.92
355.179	295.42
355.562	313.27
355.944	321.63
356.326	333.61
356.709	346.04
357.091	322.99
357.473	328.41
357.855	338.13
358.238	346.04
358.62	341.29
359.002	342.19
359.384	339.26
359.766	357.11
360.148	343.1
360.53	344.91
360.912	317.79
361.294	334.28
361.676	323.66
362.057	328.18
362.439	311.69
362.821	329.99
363.203	322.53
363.584	317.34
363.966	318.01
364.348	319.6
364.729	309.43
365.111	329.77
365.493	320.95
365.874	329.31
366.256	317.11
366.637	318.24
367.019	306.72
367.4	322.76
367.781	297.45
368.163	292.48
368.544	304.68
368.925	292.7
369.306	325.92
369.688	294.06
370.069	296.09
370.45	310.1
370.831	303.78
371.212	313.72
371.593	313.49
371.974	330.22
372.355	295.87
372.736	324.79
373.117	325.25
373.498	314.17
373.879	332.7
374.26	315.08
374.641	322.31
375.021	299.71
375.402	313.72
375.783	317.56
376.163	329.54
376.544	332.03
376.925	322.76
377.305	355.08
377.686	324.57
378.066	321.18
378.447	336.09
378.827	321.86
379.208	334.74
379.588	316.88
379.968	334.28
380.349	338.35
380.729	343.32
381.109	344.91
381.489	330.44
381.87	318.47
382.25	305.36
382.63	332.03
383.01	340.84
383.39	336.32
383.77	342.65
384.15	338.35
384.53	325.92
384.91	357.79
385.29	339.26
385.67	351.46
386.049	341.52
386.429	359.14
386.809	356.21
387.189	347.17
387.568	350.78
387.948	354.62
388.328	334.74
388.707	353.95
389.087	369.99
389.466	356.88
389.846	372.7
390.225	372.02
390.605	352.36
390.984	364.11
391.363	379.03
391.743	378.58
392.122	372.7
392.501	390.33
392.881	384.23
393.26	381.29
393.639	373.83
394.018	337.45
394.397	362.98
394.776	368.86
395.155	375.41
395.534	364.57
395.913	366.37
396.292	365.92
396.671	386.71
397.05	395.07
397.429	391.01
397.808	383.32
398.186	376.32
398.565	391.23
398.944	387.84
399.323	389.2
399.701	375.87
400.08	400.95
400.458	416.32
400.837	391.91
401.215	414.28
401.594	391.01
401.972	408.41
402.351	394.4
402.729	387.62
403.107	395.98
403.486	402.76
403.864	403.44
404.242	426.03
404.62	417.67
404.999	423.55
405.377	404.79
405.755	433.72
406.133	414.28
406.511	442.76
406.889	434.62
407.267	419.48
407.645	423.77
408.023	434.4
408.401	419.03
408.779	425.36
409.156	440.04
409.534	455.86
409.912	450.21
410.29	432.36
410.667	460.61
411.045	445.47
411.422	451.8
411.8	462.19
412.178	439.82
412.555	473.49
412.933	460.61
413.31	467.61
413.687	487.73
414.065	450.89
414.442	478.91
414.819	492.25
415.197	497.67
415.574	497.44
415.951	498.57
416.328	485.69
416.705	498.57
417.082	506.94
417.46	503.32
417.837	501.06
418.214	494.96
418.591	507.61
418.967	507.39
419.344	523.21
419.721	517.11
420.098	517.33
420.475	530.44
420.852	497.22
421.228	515.98
421.605	530.89
421.982	535.86
422.358	547.61
422.735	545.58
423.111	524.34
423.488	561.62
423.864	548.29
424.241	547.84
424.617	568.4
424.994	593.26
425.37	596.42
425.746	576.31
426.123	564.34
426.499	577.44
426.875	572.92
427.251	575.86
427.627	579.7
428.003	586.71
428.379	584
428.756	576.76
429.132	609.76
429.507	621.06
429.883	621.96
430.259	618.12
430.635	643.66
431.011	649.3
431.387	648.85
431.763	640.49
432.138	660.38
432.514	666.71
432.89	658.12
433.265	669.19
433.641	661.51
434.016	679.59
434.392	679.81
434.767	685.24
435.143	688.17
435.518	695.41
435.894	700.6
436.269	702.64
436.644	726.37
437.02	704.9
437.395	702.41
437.77	730.88
438.145	735.86
438.52	735.18
438.895	762.97
439.271	744.22
439.646	762.07
440.021	758.45
440.395	780.37
440.77	760.04
441.145	778.34
441.52	776.31
441.895	781.28
442.27	798
442.645	789.87
443.019	802.52
443.394	819.47
443.769	823.31
444.143	791.45
444.518	825.35
444.892	796.19
445.267	816.08
445.641	821.96
446.016	822.63
446.39	844.1
446.764	847.27
447.139	847.94
447.513	854.05
447.887	858.11
448.262	874.61
448.636	858.79
449.01	880.71
449.384	893.59
449.758	893.14
450.132	880.94
450.506	890.2
450.88	899.02
451.254	879.13
451.628	937.66
452.002	923.42
452.376	962.52
452.75	941.5
453.123	939.69
453.497	976.53
453.871	974.72
454.244	973.82
454.618	1004.78
454.992	988.96
455.365	977.66
455.739	1020.59
456.112	1019.69
456.486	1049.07
456.859	1046.58
457.232	1070.76
457.606	1086.58
457.979	1056.3
458.352	1112.57
458.725	1105.79
459.099	1101.5
459.472	1127.71
459.845	1094.27
460.218	1156.18
460.591	1162.74
460.964	1168.61
461.337	1210.42
461.71	1205.45
462.083	1230.53
462.456	1236.41
462.829	1235.5
463.201	1265.79
463.574	1261.72
463.947	1280.47
464.32	1304.88
464.692	1316.63
465.065	1328.16
465.438	1397.99
465.81	1376.29
466.183	1392.79
466.555	1433.01
466.928	1448.38
467.3	1456.74
467.672	1512.56
468.045	1474.59
468.417	1506.91
468.789	1519.34
469.161	1579.45
469.534	1622.16
469.906	1636.85
470.278	1628.94
470.65	1658.09
471.022	1697.86
471.394	1750.52
471.766	1750.07
472.138	1770.63
472.51	1846.56
472.882	1908.03
473.253	1909.84
473.625	1936.73
473.997	2003.17
474.369	2010.85
474.74	2040
475.112	2107.35
475.484	2145.31
475.855	2211.98
476.227	2210.62
476.598	2294.69
476.97	2345.76
477.341	2387.79
477.713	2448.81
478.084	2511.63
478.455	2599.08
478.827	2629.82
479.198	2723.15
479.569	2772.41
479.94	2842.24
480.311	2899.42
480.682	3009.92
481.053	3080.43
481.424	3184.61
481.795	3253.08
482.166	3322.68
482.537	3439.74
482.908	3539.17
483.279	3600.19
483.65	3674.76
484.021	3811.26
484.391	3876.79
484.762	3968.09
485.133	4076.79
485.503	4175.31
485.874	4303.67
486.244	4389.09
486.615	4491.01
486.985	4626.6
487.356	4755.64
487.726	4810.55
488.097	4945.92
488.467	5050.32
488.837	5205.12
489.207	5320.59
489.578	5475.17
489.948	5502.28
490.318	5671.32
490.688	5767.36
491.058	5891.88
491.428	6011.65
491.798	6152.66
492.168	6317.63
492.538	6407.12
492.908	6533.22
493.278	6641.01
493.648	6729.15
494.017	6860.22
494.387	6968.01
494.757	7076.71
495.126	7281.9
495.496	7368.45
495.866	7465.17
496.235	7604.6
496.605	7643.25
496.974	7778.84
497.344	7899.51
497.713	8055.89
498.082	8104.02
498.452	8243
498.821	8291.59
499.19	8431.47
499.559	8488.87
499.928	8619.72
500.298	8725.25
500.667	8823.33
501.036	8864.91
501.405	8993.94
501.774	9057.22
502.143	9189.65
502.512	9285.01
502.88	9368.4
503.249	9385.12
503.618	9550.09
503.987	9589.63
504.356	9681.16
504.724	9774.26
505.093	9748.05
505.462	9854.94
505.83	9929.29
506.199	10041.15
506.567	10120.92
506.936	10145.1
507.304	10224.19
507.672	10375.38
508.041	10341.93
508.409	10454.92
508.777	10534.92
509.145	10602.49
509.514	10627.35
509.882	10676.16
510.25	10704.63
510.618	10874.35
510.986	10860.56
511.354	11025.98
511.722	11087
512.09	11101.46
512.458	11123.38
512.826	11199.31
513.193	11177.39
513.561	11251.06
513.929	11299.19
514.297	11381.68
514.664	11446.76
515.032	11453.54
515.4	11499.87
515.767	11568.57
516.135	11613.08
516.502	11559.75
516.869	11698.28
517.237	11830.48
517.604	11699.86
517.972	11807.43
518.339	11829.35
518.706	11898.73
519.073	11863.25
519.44	11876.81
519.808	11962.91
520.175	11996.13
520.542	12085.84
520.909	12128.78
521.276	12072.96
521.643	12211.03
522.009	12226.63
522.376	12300.75
522.743	12292.16
523.11	12383.23
523.477	12404.93
523.843	12473.63
524.21	12569.67
524.577	12653.06
524.943	12547.07
525.31	12578.26
525.676	12698.03
526.043	12718.14
526.409	12760.62
526.776	12766.73
527.142	12787.29
527.508	12829.55
527.874	12843.11
528.241	12868.87
528.607	12851.47
528.973	12933.95
529.339	12954.29
529.705	12957.91
530.071	13049.43
530.437	12981.41
530.803	13170.11
531.169	13100.05
531.535	12926.5
531.901	13017.79
532.267	13039.49
532.632	13033.84
532.998	13013.73
533.364	13021.64
533.73	12963.56
534.095	13081.52
534.461	13001.97
534.826	13074.06
535.192	13066.38
535.557	13074.74
535.923	13048.75
536.288	13000.62
536.653	13046.27
537.019	12858.48
537.384	12923.56
537.749	12936.44
538.114	12895.76
538.479	12911.36
538.845	12913.84
539.21	12910
539.575	12835.2
539.94	12866.61
540.305	12862.54
540.67	12796.78
541.034	12830
541.399	12788.19
541.764	12849.66
542.129	12739.61
542.494	12734.41
542.858	12744.35
543.223	12679.72
543.587	12766.27
543.952	12708.87
544.316	12667.07
544.681	12580.97
545.045	12524.92
545.41	12573.96
545.774	12608.54
546.138	12535.09
546.503	12459.84
546.867	12387.98
547.231	12479.05
547.595	12405.83
547.959	12396.34
548.324	12422.78
548.688	12415.1
549.052	12376.68
549.416	12390.47
549.779	12337.36
550.143	12260.98
550.507	12445.38
550.871	12279.06
551.235	12238.6
551.599	12214.2
551.962	12233.63
552.326	12278.15
552.689	12251.03
553.053	12249.68
553.417	12200.87
553.78	12238.83
554.143	12113.86
554.507	12142.79
554.87	12180.98
555.234	12161.54
555.597	12025.73
555.96	12106.63
556.323	12053.3
556.686	12043.81
557.05	12033.41
557.413	12060.08
557.776	12043.58
558.139	12126.74
558.502	12057.37
558.865	12037.71
559.228	12119.29
559.59	12111.15
559.953	12103.92
560.316	12163.58
560.679	12129.68
561.041	12150.02
561.404	12071.6
561.767	12204.48
562.129	12036.12
562.492	12169.91
562.854	12134.43
563.217	12076.8
563.579	12181.88
563.941	12239.06
564.304	12184.37
564.666	12328.32
565.028	12247.42
565.39	12303.01
565.753	12259.85
566.115	12314.99
566.477	12330.13
566.839	12240.19
567.201	12302.78
567.563	12417.81
567.925	12377.81
568.287	12343.69
568.648	12371.71
569.01	12454.87
569.372	12470.46
569.734	12451.93
570.095	12436.79
570.457	12493.06
570.819	12475.21
571.18	12478.82
571.542	12571.7
571.903	12555.88
572.265	12639.72
572.626	12536.68
572.987	12547.75
573.349	12630.01
573.71	12559.95
574.071	12548.65
574.432	12696.22
574.794	12741.64
575.155	12672.27
575.516	12587.75
575.877	12710.46
576.238	12658.48
576.599	12736.9
576.96	12671.59
577.32	12714.98
577.681	12719.95
578.042	12787.52
578.403	12741.87
578.763	12715.88
579.124	12703.45
579.485	12751.36
579.845	12762.43
580.206	12786.16
580.566	12667.07
580.927	12716.11
581.287	12752.49
581.648	12749.33
582.008	12813.28
582.368	12731.25
582.728	12782.09
583.089	12808.99
583.449	12768.08
583.809	12732.83
584.169	12735.31
584.529	12796.1
584.889	12736.44
585.249	12700.74
585.609	12683.79
585.969	12699.16
586.329	12607.41
586.688	12616.22
587.048	12677.24
587.408	12670.46
587.768	12697.12
588.127	12660.51
588.487	12600.18
588.846	12682.43
589.206	12609.22
589.565	12556.11
589.925	12637.92
590.284	12563.34
590.643	12593.4
591.003	12619.61
591.362	12632.27
591.721	12586.84
592.08	12587.75
592.44	12634.3
592.799	12568.31
593.158	12592.95
593.517	12585.71
593.876	12618.71
594.235	12578.03
594.593	12597.01
594.952	12599.73
595.311	12498.94
595.67	12484.25
596.029	12651.48
596.387	12529.22
596.746	12631.36
597.104	12524.7
597.463	12498.03
597.822	12581.65
598.18	12538.26
598.538	12515.66
598.897	12663.45
599.255	12456.45
599.613	12627.3
599.972	12573.51
600.33	12586.17
600.688	12543.91
601.046	12554.08
601.404	12577.13
601.762	12505.26
602.12	12576.9
602.478	12561.99
602.836	12545.26
603.194	12477.47
603.552	12447.41
603.91	12481.31
604.268	12574.64
604.625	12472.72
604.983	12566.73
605.341	12476.56
605.698	12557.92
606.056	12575.09
606.413	12419.62
606.771	12593.62
607.128	12550.69
607.485	12559.73
607.843	12520.41
608.2	12602.21
608.557	12587.97
608.914	12564.7
609.272	12651.48
609.629	12699.16
609.986	12701.42
610.343	12606.5
610.7	12747.07
611.057	12774.86
611.414	12636.79
611.771	12685.6
612.127	12797.01
612.484	12797.01
612.841	12764.01
613.198	12696.22
613.554	12609.67
613.911	12791.36
614.267	12701.19
614.624	12801.98
614.98	12758.14
615.337	12910.45
615.693	12854.41
616.05	12802.43
616.406	12921.07
616.762	12793.84
617.118	12815.54
617.475	12812.83
617.831	12883.56
618.187	12905.71
618.543	12895.08
618.899	12898.47
619.255	12877.01
619.611	12865.25
619.967	12881.07
620.323	12928.3
620.678	12883.11
621.034	12902.77
621.39	12954.97
621.746	12897.57
622.101	13110.67
622.457	12921.07
622.812	12953.61
623.168	12937.57
623.523	12913.62
623.879	13016.66
624.234	12898.47
624.589	12958.36
624.945	12976.89
625.3	12939.15
625.655	12926.04
626.01	12958.13
626.365	12930.34
626.72	12999.49
627.075	12871.36
627.43	12923.11
627.785	12863.22
628.14	12921.52
628.495	12919.72
628.85	12850.34
629.205	12849.44
629.559	12912.26
629.914	12826.39
630.269	12841.3
630.623	12865.25
630.978	12865.71
631.332	12814.86
631.687	12824.35
632.041	12764.24
632.396	12872.94
632.75	12714.3
633.104	12698.03
633.459	12700.51
633.813	12707.74
634.167	12665.26
634.521	12726.73
634.875	12629.78
635.229	12688.54
635.583	12635.43
635.937	12640.63
636.291	12569.44
636.645	12681.08
636.999	12625.94
637.352	12558.6
637.706	12540.29
638.06	12624.81
638.413	12497.36
638.767	12530.8
639.121	12553.62
639.474	12441.54
639.828	12420.75
640.181	12503.91
640.534	12421.2
640.888	12470.92
641.241	12370.58
641.594	12427.07
641.947	12459.16
642.301	12395.21
642.654	12431.59
643.007	12404.02
643.36	12387.08
643.713	12383.46
644.066	12398.15
644.419	12319.73
644.771	12309.56
645.124	12246.06
645.477	12078.61
645.83	12058.72
646.182	11976.92
646.535	11933.3
646.888	11942.57
647.24	11912.74
647.593	12066.41
647.945	11996.58
648.298	11953.64
648.65	11898.05
649.002	11943.7
649.355	11949.12
649.707	11864.6
650.059	11957.93
650.411	12193.63
650.763	12138.04
651.115	12232.5
651.467	12163.58
651.819	12258.27
652.171	12190.02
652.523	12311.37
652.875	12210.13
653.227	12182.11
653.578	12253.29
653.93	12259.4
654.282	12184.37
654.633	12086.52
654.985	12244.25
655.337	12154.54
655.688	12120.64
656.039	12174.43
656.391	12084.48
656.742	12058.95
657.094	12102.79
657.445	12245.61
657.796	12202.9
658.147	12211.26
658.498	12204.03
658.849	12140.98
659.2	12105.73
659.551	12086.52
659.902	12231.6
660.253	12212.62
660.604	12213.75
660.955	12041.55
661.306	12216.01
661.656	12156.57
662.007	12186.85
662.358	12107.76
662.708	12226.85
663.059	12193.18
663.409	12120.19
663.76	12166.74
664.11	12212.16
664.461	12227.31
664.811	12161.77
665.161	12163.13
665.511	12225.95
665.862	12177.82
666.212	12268.21
666.562	12238.83
666.912	12206.97
667.262	12161.54
667.612	12194.76
667.962	12140.53
668.312	12181.21
668.662	12294.2
669.011	12281.54
669.361	12180.75
669.711	12196.57
670.06	12199.28
670.41	12188.44
670.76	12106.4
671.109	12173.07
671.459	12190.02
671.808	12094.2
672.157	12157.02
672.507	12029.12
672.856	12116.57
673.205	12077.48
673.554	12151.38
673.904	12101.21
674.253	12206.97
674.602	12025.73
674.951	11924.71
675.3	11856.69
675.649	12038.61
675.998	11968.78
676.346	12032.28
676.695	11999.74
677.044	11978.95
677.393	11996.58
677.741	11975.79
678.09	11990.7
678.438	11959.74
678.787	11820.76
679.135	11985.5
679.484	11844.72
679.832	11880.2
680.181	11778.73
680.529	11922.68
680.877	11868.22
681.225	11816.47
681.573	11959.97
681.922	11827.32
682.27	11771.5
682.618	11780.31
682.966	11744.83
683.314	11773.98
683.661	11718.39
684.009	11710.26
684.357	11654.44
684.705	11522.24
685.053	11606.53
685.4	11592.52
685.748	11505.74
686.095	11495.57
686.443	11528.79
686.79	11322.92
687.138	11438.17
687.485	11467.55
687.832	11349.59
688.18	11413.77
688.527	11360.89
688.874	11242.02
689.221	11257.39
689.568	11244.28
689.915	11210.84
690.262	11193.21
690.609	11221.68
690.956	11075.25
691.303	11145.53
691.65	11077.51
691.997	11045.87
692.344	10927.23
692.69	10974.91
693.037	10965.19
693.383	10809.49
693.73	10867.34
694.077	10807.91
694.423	10798.19
694.769	10762.71
695.116	10727.23
695.462	10758.19
695.808	10642.94
696.155	10658.31
696.501	10543.96
696.847	10545.32
697.193	10496.96
697.539	10493.34
697.885	10434.58
698.231	10423.29
698.577	10300.8
698.923	10417.64
699.269	10318.43
699.614	10235.27
699.96	10284.53
700.306	10283.63
700.651	10220.13
700.997	10175.83
701.342	10087.93
701.688	10057.65
702.033	10059.45
702.379	10087.7
702.724	10016.29
703.069	10024.88
703.415	9809.97
703.76	9874.37
704.105	9875.5
704.45	9794.6
704.795	9732.68
705.14	9710.99
705.485	9751.66
705.83	9739.01
706.175	9700.59
706.52	9702.17
706.865	9643.64
707.209	9624.21
707.554	9549.41
707.899	9514.38
708.243	9562.52
708.588	9497.43
708.932	9408.17
709.277	9459.47
709.621	9534.5
709.966	9379.47
710.31	9379.92
710.654	9297.21
710.998	9282.75
711.342	9339.92
711.687	9263.77
712.031	9211.57
712.375	9192.36
712.719	9184
713.063	9226.03
713.407	9239.14
713.75	9160.49
714.094	9192.81
714.438	9104.45
714.782	9045.24
715.125	9029.42
715.469	9071.46
715.812	8961.4
716.156	8989.65
716.499	9014.96
716.843	8948.52
717.186	8978.35
717.53	8934.74
717.873	8972.02
718.216	8938.58
718.559	8880.27
718.902	8865.13
719.246	8931.8
719.589	8829.43
719.932	8795.53
720.275	8824.91
720.617	8837.79
720.96	8854.74
721.303	8837.79
721.646	8782.88
721.989	8689.09
722.331	8834.63
722.674	8727.74
723.016	8745.14
723.359	8710.11
723.701	8743.78
724.044	8736.55
724.386	8684.35
724.729	8672.82
725.071	8622.43
725.413	8660.62
725.755	8641.19
726.097	8688.42
726.439	8697.45
726.782	8616.33
727.124	8692.03
727.465	8614.97
727.807	8623.33
728.149	8566.38
728.491	8544.92
728.833	8588.08
729.175	8540.17
729.516	8541.53
729.858	8539.49
730.199	8582.88
730.541	8593.28
730.882	8571.81
731.224	8563.22
731.565	8509.66
731.906	8524.13
732.248	8514.63
732.589	8503.56
732.93	8518.93
733.271	8446.39
733.612	8494.3
733.953	8518.02
734.294	8521.41
734.635	8534.07
734.976	8453.85
735.317	8462.88
735.658	8476.67
735.999	8492.04
736.339	8521.87
736.68	8474.41
737.021	8499.04
737.361	8492.71
737.702	8602.54
738.042	8560.96
738.383	8521.19
738.723	8559.15
739.063	8490.23
739.404	8614.75
739.744	8532.04
740.084	8540.17
740.424	8554.63
740.764	8568.87
741.104	8556.44
741.444	8583.33
741.784	8574.29
742.124	8571.58
742.464	8539.49
742.804	8645.48
743.143	8644.8
743.483	8713.73
743.823	8640.51
744.162	8684.57
744.502	8710.56
744.841	8671.69
745.181	8754.85
745.52	8729.77
745.86	8814.29
746.199	8821.97
746.538	8819.49
746.877	8974.74
747.216	8983.78
747.556	8946.04
747.895	9003.21
748.234	8977.67
748.573	9075.98
748.911	9130.44
749.25	9235.97
749.589	9204.11
749.928	9218.8
750.267	9286.37
750.605	9301.51
750.944	9353.71
751.283	9440.26
751.621	9564.55
751.96	9606.58
752.298	9710.99
752.636	9788.5
752.975	9793.02
753.313	9858.1
753.651	10003.18
753.989	10006.35
754.327	10150.3
754.666	10240.69
755.004	10326.11
755.342	10490.18
755.679	10575.37
756.017	10566.33
756.355	10808.13
756.693	10851.52
757.031	11018.3
757.368	11063.49
757.706	11205.41
758.044	11369.48
758.381	11518.62
758.719	11643.82
759.056	11656.25
