Data from hue_170_FLMS001491_00013.txt Node
Date: Tue Feb 07 16:48:19 GMT 2017
User: dcchb
Spectrometer: FLMS00149
Trigger mode: 0
Integration Time (sec): 2.000000E-2
Scans to average: 10
Electric dark correction enabled: true
Nonlinearity correction enabled: false
Boxcar width: 0
XAxis mode: Wavelengths
Number of Pixels in Spectrum: 2048
>>>>>Begin Spectral Data<<<<<
341.393	-11.45
341.776	-11.45
342.16	-11.45
342.543	-52.58
342.927	-57.55
343.31	-88.29
343.693	-75.86
344.077	-60.49
344.46	-51
344.843	-59.36
345.226	-29.08
345.61	-23.88
345.993	-14.62
346.376	-25.92
346.759	19.28
347.142	51.59
347.525	31.71
347.908	53.18
348.291	73.52
348.674	97.47
349.057	101.76
349.44	113.97
349.823	168.88
350.206	156.9
350.588	187.18
350.971	219.5
351.354	237.8
351.737	253.17
352.119	266.73
352.502	270.8
352.884	279.84
353.267	262.66
353.65	280.29
354.032	280.52
354.414	308.99
354.797	312.15
355.179	318.25
355.562	317.8
355.944	332.27
356.326	343.79
356.709	334.98
357.091	334.07
357.473	362.09
357.855	349.44
358.238	347.41
358.62	326.62
359.002	334.3
359.384	348.76
359.766	340.17
360.148	324.81
360.53	360.74
360.912	348.31
361.294	345.6
361.676	336.56
362.057	335.66
362.439	344.47
362.821	334.07
363.203	323.23
363.584	337.69
363.966	331.36
364.348	340.85
364.729	306.96
365.111	325.71
365.493	332.04
365.874	318.71
366.256	340.17
366.637	289.78
367.019	316.9
367.4	324.58
367.781	305.37
368.163	314.86
368.544	313.06
368.925	320.97
369.306	318.93
369.688	327.97
370.069	310.12
370.45	326.62
370.831	329.1
371.212	338.59
371.593	320.97
371.974	312.6
372.355	304.02
372.736	323.45
373.117	339.27
373.498	332.27
373.879	307.41
374.26	300.85
374.641	349.21
375.021	310.12
375.402	304.47
375.783	342.66
376.163	345.82
376.544	355.77
376.925	311.47
377.305	321.42
377.686	331.14
378.066	337.01
378.447	352.38
378.827	351.93
379.208	333.17
379.588	337.46
379.968	336.78
380.349	321.87
380.729	347.63
381.109	350.8
381.489	338.82
381.87	336.78
382.25	356.22
382.63	347.41
383.01	326.39
383.39	331.14
383.77	364.58
384.15	354.86
384.53	370
384.91	337.24
385.29	348.76
385.67	354.19
386.049	359.38
386.429	358.93
386.809	358.93
387.189	373.62
387.568	358.93
387.948	362.77
388.328	353.96
388.707	355.99
389.087	363
389.466	366.84
389.846	355.32
390.225	350.57
390.605	350.57
390.984	388.99
391.363	383.11
391.743	382.43
392.122	368.2
392.501	360.06
392.881	389.89
393.26	354.86
393.639	374.3
394.018	395.31
394.397	374.98
394.776	378.82
395.155	391.02
395.534	387.41
395.913	410.23
396.292	402.77
396.671	400.06
397.05	407.74
397.429	396.44
397.808	380.17
398.186	387.86
398.565	378.82
398.944	395.31
399.323	406.84
399.701	398.03
400.08	397.8
400.458	408.87
400.837	408.87
401.215	416.78
401.594	418.59
401.972	421.75
402.351	418.82
402.729	421.75
403.107	416.56
403.486	424.01
403.864	420.4
404.242	417.23
404.62	439.16
404.999	417.01
405.377	414.07
405.755	428.76
406.133	429.21
406.511	449.1
406.889	459.04
407.267	414.97
407.645	474.86
408.023	473.73
408.401	455.2
408.779	482.32
409.156	484.35
409.534	488.87
409.912	481.87
410.29	494.97
410.667	491.81
411.045	512.83
411.422	504.46
411.8	512.15
412.178	479.83
412.555	504.46
412.933	537.01
413.31	535.2
413.687	517.35
414.065	534.52
414.442	538.14
414.819	543.33
415.197	570.68
415.574	543.33
415.951	575.2
416.328	574.52
416.705	563.9
417.082	563.22
417.46	583.11
417.837	597.57
418.214	593.73
418.591	583.56
418.967	590.34
419.344	600.28
419.721	616.33
420.098	600.96
420.475	619.49
420.852	619.94
421.228	613.16
421.605	644.57
421.982	632.37
422.358	636.89
422.735	656.78
423.111	661.3
423.488	658.81
423.864	682.54
424.241	671.69
424.617	687.06
424.994	690.22
425.37	690.67
425.746	695.87
426.123	711.46
426.499	749.88
426.875	751.92
427.251	766.83
427.627	740.84
428.003	778.81
428.379	749.43
428.756	776.55
429.132	809.77
429.507	794.85
429.883	805.02
430.259	807.73
430.635	793.27
431.011	852.7
431.387	811.12
431.763	851.57
432.138	890.22
432.514	867.62
432.89	857.9
433.265	915.53
433.641	892.93
434.016	907.62
434.392	921.85
434.767	936.77
435.143	919.14
435.518	953.72
435.894	967.5
436.269	962.76
436.644	986.71
437.02	1016.32
437.395	1016.54
437.77	1040.04
438.145	1035.3
438.52	1044.56
438.895	1053.6
439.271	1045.47
439.646	1086.14
440.021	1085.47
440.395	1102.64
440.77	1084.56
441.145	1119.82
441.52	1140.61
441.895	1162.3
442.27	1150.55
442.645	1165.92
443.019	1158.23
443.394	1195.07
443.769	1181.51
444.143	1172.7
444.518	1216.31
444.892	1230.09
445.267	1244.11
445.641	1251.79
446.016	1234.61
446.39	1275.29
446.764	1280.71
447.139	1260.38
447.513	1266.93
447.887	1264.44
448.262	1287.72
448.636	1302.18
449.01	1299.92
449.384	1330.43
449.758	1308.74
450.132	1355.74
450.506	1354.84
450.88	1381.5
451.254	1389.64
451.628	1419.24
452.002	1420.6
452.376	1425.34
452.75	1447.94
453.123	1449.98
453.497	1454.27
453.871	1471.67
454.244	1500.82
454.618	1507.6
454.992	1533.82
455.365	1564.1
455.739	1596.86
456.112	1615.62
456.486	1634.38
456.859	1617.43
457.232	1671.89
457.606	1660.14
457.979	1686.81
458.352	1727.03
458.725	1743.98
459.099	1753.92
459.472	1788.72
459.845	1830.53
460.218	1829.18
460.591	1835.28
460.964	1847.25
461.337	1908.5
461.71	1924.31
462.083	1972
462.456	1980.13
462.829	1978.55
463.201	2005.89
463.574	2040.92
463.947	2032.56
464.32	2097.87
464.692	2129.73
465.065	2150.52
465.438	2179.9
465.81	2207.24
466.183	2242.72
466.555	2276.85
466.928	2295.6
467.3	2302.38
467.672	2366.11
468.045	2431.19
468.417	2456.05
468.789	2468.03
469.161	2512.77
469.534	2560
469.906	2628.93
470.278	2656.05
470.65	2697.85
471.022	2723.84
471.394	2783.95
471.766	2804.97
472.138	2911.18
472.51	2956.38
472.882	3005.19
473.253	3052.42
473.625	3132.19
473.997	3223.49
474.369	3209.25
474.74	3289.48
475.112	3377.61
475.484	3457.38
475.855	3516.81
476.227	3548.68
476.598	3691.95
476.97	3739.63
477.341	3848.56
477.713	3899.86
478.084	3942.79
478.455	4118.61
478.827	4168.32
479.198	4343.69
479.569	4320.63
479.94	4492.38
480.311	4513.85
480.682	4689.66
481.053	4794.75
481.424	4923.78
481.795	4982.31
482.166	5057.79
482.537	5177.56
482.908	5337.11
483.279	5393.15
483.65	5578.91
484.021	5699.13
484.391	5823.65
484.762	5869.97
485.133	5956.3
485.503	6144.99
485.874	6267.25
486.244	6328.94
486.615	6556.28
486.985	6646.9
487.356	6781.14
487.726	6926.22
488.097	7095.25
488.467	7147
488.837	7365.75
489.207	7515.58
489.578	7581.57
489.948	7733.2
490.318	7917.83
490.688	7945.62
491.058	8154.66
491.428	8292.51
491.798	8381.09
492.168	8538.83
492.538	8680.97
492.908	8806.39
493.278	8876
493.648	9078.02
494.017	9102.88
494.387	9261.3
494.757	9371.8
495.126	9497
495.496	9554.62
495.866	9665.81
496.235	9784.9
496.605	9903.99
496.974	10016.98
497.344	10173.59
497.713	10208.62
498.082	10285.22
498.452	10444.77
498.821	10481.15
499.19	10532.68
499.559	10650.86
499.928	10745.1
500.298	10863.29
500.667	10949.84
501.036	10942.38
501.405	11047.69
501.774	11026.67
502.143	11210.4
502.512	11231.87
502.88	11401.58
503.249	11368.13
503.618	11495.59
503.987	11566.32
504.356	11662.36
504.724	11707.11
505.093	11769.03
505.462	11743.26
505.83	11845.86
506.199	11917.05
506.567	12049.25
506.936	12012.18
507.304	12160.65
507.672	12193.42
508.041	12276.13
508.409	12371.27
508.777	12431.83
509.145	12514.09
509.514	12503.02
509.882	12551.83
510.25	12599.74
510.618	12726.06
510.986	12613.98
511.354	12750.24
511.722	12773.97
512.09	12952.95
512.458	12889.9
512.826	12945.04
513.193	12961.54
513.561	12942.33
513.929	13114.53
514.297	13107.97
514.664	13129.89
515.032	13132.15
515.4	13255.99
515.767	13208.99
516.135	13270
516.502	13176.9
516.869	13336.67
517.237	13441.53
517.604	13233.62
517.972	13544.57
518.339	13568.98
518.706	13463.22
519.073	13543.22
519.44	13590.9
519.808	13669.54
520.175	13537.57
520.542	13743.21
520.909	13683.33
521.276	13728.75
521.643	13820.95
522.009	13843.55
522.376	13768.52
522.743	13968.29
523.11	13896.43
523.477	14029.98
523.843	14005.8
524.21	14141.85
524.577	14143.65
524.943	14136.65
525.31	14125.35
525.676	14269.07
526.043	14199.7
526.409	14225.46
526.776	14326.7
527.142	14285.12
527.508	14326.93
527.874	14337.32
528.241	14335.96
528.607	14231.33
528.973	14410.54
529.339	14307.27
529.705	14387.26
530.071	14463.42
530.437	14399.47
530.803	14322.63
531.169	14384.55
531.535	14324.21
531.901	14362.4
532.267	14385
532.632	14322.41
532.998	14293.48
533.364	14311.56
533.73	14393.82
534.095	14420.93
534.461	14294.84
534.826	14370.31
535.192	14318.11
535.557	14318.79
535.923	14171.45
536.288	14263.2
536.653	14261.84
537.019	14177.1
537.384	14188.17
537.749	14140.49
538.114	14103.88
538.479	13977.33
538.845	14076.31
539.21	13953.15
539.575	13934.17
539.94	13985.92
540.305	13898.24
540.67	13781.18
541.034	13874.06
541.399	13809.88
541.764	13721.97
542.129	13758.58
542.494	13664.12
542.858	13758.58
543.223	13607.4
543.587	13628.41
543.952	13568.3
544.316	13511.58
544.681	13511.35
545.045	13512.48
545.41	13499.15
545.774	13494.86
546.138	13297.57
546.503	13380.96
546.867	13298.03
547.231	13325.82
547.595	13279.27
547.959	13262.32
548.324	13197.01
548.688	13142.78
549.052	13100.29
549.416	13068.2
549.779	13045.83
550.143	13080.86
550.507	13001.31
550.871	13025.94
551.235	12914.08
551.599	12948.2
551.962	12843.35
552.326	12782.33
552.689	12843.8
553.053	12736.46
553.417	12717.93
553.78	12788.89
554.143	12654.65
554.507	12729.23
554.87	12703.47
555.234	12756.8
555.597	12604.26
555.96	12635.9
556.323	12630.92
556.686	12611.04
557.05	12628.44
557.413	12638.16
557.776	12567.42
558.139	12569.46
558.502	12524.71
558.865	12474.09
559.228	12517.93
559.59	12552.06
559.953	12550.48
560.316	12568.78
560.679	12527.42
561.041	12558.84
561.404	12533.07
561.767	12545.28
562.129	12437.03
562.492	12565.39
562.854	12475.45
563.217	12472.74
563.579	12436.35
563.941	12515.45
564.304	12544.37
564.666	12589.34
565.028	12468.9
565.39	12518.84
565.753	12557.03
566.115	12666.86
566.477	12669.34
566.839	12613.07
567.201	12608.33
567.563	12611.72
567.925	12756.57
568.287	12565.62
568.648	12759.06
569.01	12659.17
569.372	12691.94
569.734	12713.86
570.095	12670.92
570.457	12715.22
570.819	12771.71
571.18	12683.8
571.542	12738.72
571.903	12746.4
572.265	12773.52
572.626	12748.21
572.987	12805.38
573.349	12797.93
573.71	12805.16
574.071	12778.72
574.432	12818.94
574.794	12846.06
575.155	12827.3
575.516	12699.85
575.877	12872.05
576.238	12866.62
576.599	12899.39
576.96	12855.78
577.32	12802.9
577.681	12938.71
578.042	12916.12
578.403	12780.3
578.763	12853.74
579.124	12895.1
579.485	12904.36
579.845	12886.29
580.206	12857.13
580.566	12909.79
580.927	12853.52
581.287	12990.24
581.648	12827.53
582.008	12814.87
582.368	12806.97
582.728	12863.01
583.089	12756.35
583.449	12811.03
583.809	12758.15
584.169	12753.41
584.529	12771.26
584.889	12847.42
585.249	12809.9
585.609	12696.91
585.969	12830.92
586.329	12735.78
586.688	12817.59
587.048	12725.61
587.408	12666.4
587.768	12661.66
588.127	12624.6
588.487	12598.38
588.846	12759.96
589.206	12625.28
589.565	12639.96
589.925	12727.87
590.284	12634.77
590.643	12617.14
591.003	12635.67
591.362	12662.11
591.721	12546.41
592.08	12618.5
592.44	12679.74
592.799	12614.43
593.158	12597.93
593.517	12564.71
593.876	12561.55
594.235	12571.27
594.593	12531.04
594.952	12563.58
595.311	12545.28
595.67	12590.7
596.029	12601.32
596.387	12627.08
596.746	12589.12
597.104	12451.72
597.463	12526.52
597.822	12528.33
598.18	12474.09
598.538	12484.71
598.897	12550.02
599.255	12474.77
599.613	12619.85
599.972	12557.71
600.33	12535.56
600.688	12487.43
601.046	12518.61
601.404	12590.02
601.762	12513.41
602.12	12569.91
602.478	12477.93
602.836	12578.27
603.194	12453.08
603.552	12478.61
603.91	12545.73
604.268	12493.98
604.625	12505.96
604.983	12485.39
605.341	12399.74
605.698	12467.09
606.056	12494.66
606.413	12406.98
606.771	12503.92
607.128	12550.7
607.485	12467.31
607.843	12515.22
608.2	12494.66
608.557	12585.73
608.914	12532.17
609.272	12602.23
609.629	12509.12
609.986	12620.3
610.343	12559.97
610.7	12660.98
611.057	12590.47
611.414	12546.18
611.771	12682.9
612.127	12626.63
612.484	12638.38
612.841	12692.62
613.198	12631.6
613.554	12671.15
613.911	12714.76
614.267	12682.9
614.624	12731.49
614.98	12681.09
615.337	12774.42
615.693	12736.68
616.05	12722.67
616.406	12775.55
616.762	12776.68
617.118	12765.16
617.475	12769.45
617.831	12806.74
618.187	12813.29
618.543	12795.89
618.899	12862.78
619.255	12881.09
619.611	12845.83
619.967	12799.96
620.323	12873.18
620.678	12843.57
621.034	12822.56
621.39	12772.16
621.746	12763.8
622.101	12889.68
622.457	12838.6
622.812	12844.93
623.168	12874.31
623.523	12850.35
623.879	12901.65
624.234	12832.73
624.589	12823.69
624.945	12884.93
625.3	12877.92
625.655	12836.34
626.01	12856.68
626.365	12849.9
626.72	12847.42
627.075	12927.87
627.43	12894.19
627.785	12835.67
628.14	12907.3
628.495	12841.54
628.85	12794.08
629.205	12792.95
629.559	12824.14
629.914	12818.26
630.269	12777.36
630.623	12731.04
630.978	12769.68
631.332	12847.42
631.687	12766.29
632.041	12743.46
632.396	12702.34
632.75	12685.61
633.104	12619.63
633.459	12614.2
633.813	12571.04
634.167	12601.55
634.521	12594.09
634.875	12554.32
635.229	12583.47
635.583	12537.37
635.937	12470.7
636.291	12472.06
636.645	12498.5
636.999	12399.52
637.352	12505.96
637.706	12407.43
638.06	12474.32
638.413	12456.01
638.767	12430.93
639.121	12442.46
639.474	12343.47
639.828	12404.94
640.181	12300.54
640.534	12407.88
640.888	12367.88
641.241	12343.47
641.594	12261.9
641.947	12343.02
642.301	12300.76
642.654	12292.85
643.007	12324.49
643.36	12307.54
643.713	12330.37
644.066	12308.45
644.419	12249.92
644.771	12133.99
645.124	12051.96
645.477	12089.24
645.83	11957.27
646.182	11961.34
646.535	11922.69
646.888	11926.08
647.24	11812.87
647.593	11912.53
647.945	11867.56
648.298	11841.12
648.65	11778.97
649.002	11746.88
649.355	11886.99
649.707	11835.01
650.059	11908.46
650.411	12084.27
650.763	12019.87
651.115	12154.55
651.467	12112.07
651.819	12119.98
652.171	12105.52
652.523	12062.58
652.875	12123.14
653.227	12029.58
653.578	12222.8
653.93	12131.73
654.282	11982.13
654.633	12124.72
654.985	12169.24
655.337	12097.83
655.688	12113.65
656.039	12199.07
656.391	12008.79
656.742	12114.78
657.094	12086.53
657.445	12144.16
657.796	12152.52
658.147	12055.8
658.498	12159.07
658.849	12133.99
659.2	12164.27
659.551	12083.37
659.902	12111.84
660.253	12133.54
660.604	12144.16
660.955	12089.92
661.306	12193.2
661.656	12046.08
662.007	12169.02
662.358	12147.32
662.708	12210.6
663.059	12214.21
663.409	12144.84
663.76	12208.34
664.11	12258.96
664.461	12240.65
664.811	12197.49
665.161	12219.41
665.511	12171.5
665.862	12214.21
666.212	12211.5
666.562	12169.92
666.912	12158.17
667.262	12170.6
667.612	12258.51
667.962	12221.9
668.312	12267.32
668.662	12276.36
669.011	12129.7
669.361	12210.15
669.711	12126.98
670.06	12197.72
670.41	12080.88
670.76	12130.6
671.109	12182.8
671.459	12173.99
671.808	12037.95
672.157	12151.84
672.507	12056.48
672.856	12101
673.205	12095.8
673.554	12143.71
673.904	12130.37
674.253	12197.26
674.602	12098.96
674.951	11924.73
675.3	11882.47
675.649	12047.89
675.998	12032.07
676.346	12026.87
676.695	12093.09
677.044	11987.55
677.393	11988.91
677.741	12021
678.09	11973.77
678.438	11945.75
678.787	11862.58
679.135	11868.01
679.484	11818.74
679.832	11864.62
680.181	11767.67
680.529	11784.17
680.877	11812.42
681.225	11784.85
681.573	11830.95
681.922	11736.71
682.27	11672.76
682.618	11691.29
682.966	11678.41
683.314	11702.14
683.661	11671.18
684.009	11605.64
684.357	11613.55
684.705	11528.36
685.053	11526.32
685.4	11541.46
685.748	11435.25
686.095	11391.41
686.443	11445.19
686.79	11390.28
687.138	11415.14
687.485	11413.1
687.832	11308.02
688.18	11320.9
688.527	11338.53
688.874	11191.41
689.221	11206.1
689.568	11197.06
689.915	11200.91
690.262	11100.12
690.609	11124.52
690.956	11036.39
691.303	10997.75
691.65	10999.78
691.997	11019.67
692.344	10939.67
692.69	10858.09
693.037	10896.96
693.383	10837.98
693.73	10792.56
694.077	10781.93
694.423	10721.6
694.769	10734.25
695.116	10663.97
695.462	10647.25
695.808	10590.98
696.155	10567.25
696.501	10559.12
696.847	10440.25
697.193	10400.02
697.539	10460.59
697.885	10365.45
698.231	10333.36
698.577	10345.79
698.923	10316.64
699.269	10236.41
699.614	10186.24
699.96	10143.53
700.306	10209.97
700.651	10112.8
700.997	10063.76
701.342	10018.11
701.688	9977.21
702.033	9957.32
702.379	9959.36
702.724	9831.45
703.069	9908.96
703.415	9775.41
703.76	9818.8
704.105	9808.85
704.45	9733.15
704.795	9659.7
705.14	9604.11
705.485	9596.65
705.83	9571.34
706.175	9572.93
706.52	9599.59
706.865	9492.7
707.209	9468.07
707.554	9415.64
707.899	9448.41
708.243	9377.9
708.588	9348.98
708.932	9273.95
709.277	9279.6
709.621	9252.71
709.966	9302.65
710.31	9258.13
710.654	9145.82
710.998	9251.58
711.342	9197.79
711.687	9144.69
712.031	9084.13
712.375	9065.82
712.719	9080.28
713.063	9057.69
713.407	9094.97
713.75	9034.18
714.094	9027.63
714.438	8953.28
714.782	9027.4
715.125	9012.04
715.469	8920.29
715.812	8929.1
716.156	8857.24
716.499	8865.15
716.843	8876.22
717.186	8851.14
717.53	8855.88
717.873	8911.02
718.216	8834.64
718.559	8775.66
718.902	8769.11
719.246	8766.85
719.589	8746.51
719.932	8719.16
720.275	8692.72
720.617	8698.15
720.96	8727.98
721.303	8672.16
721.646	8679.16
721.989	8609.11
722.331	8616.12
722.674	8631.71
723.016	8656.79
723.359	8629.45
723.701	8647.98
724.044	8536.57
724.386	8476.46
724.729	8599.62
725.071	8545.83
725.413	8554.2
725.755	8525.95
726.097	8475.33
726.439	8407.76
726.782	8527.98
727.124	8546.74
727.465	8484.37
727.807	8494.99
728.149	8498.15
728.491	8459.51
728.833	8514.2
729.175	8516.68
729.516	8486.85
729.858	8483.24
730.199	8453.86
730.541	8427.87
730.882	8446.4
731.224	8482.79
731.565	8397.36
731.906	8391.26
732.248	8451.15
732.589	8423.8
732.93	8499.06
733.271	8391.04
733.612	8477.81
733.953	8462.45
734.294	8452.28
734.635	8427.65
734.976	8525.95
735.317	8413.18
735.658	8345.16
735.999	8485.5
736.339	8463.58
736.68	8514.87
737.021	8499.73
737.361	8450.92
737.702	8528.89
738.042	8481.66
738.383	8505.61
738.723	8526.17
739.063	8530.02
739.404	8496.8
739.744	8518.49
740.084	8533.63
740.424	8517.36
740.764	8536.57
741.104	8608.66
741.444	8548.77
741.784	8551.71
742.124	8675.32
742.464	8646.17
742.804	8634.87
743.143	8610.01
743.483	8662.89
743.823	8683.23
744.162	8698.6
744.502	8778.6
744.841	8826.73
745.181	8804.13
745.52	8828.54
745.86	8845.71
746.199	8903.57
746.538	8918.48
746.877	9026.27
747.216	9079.38
747.556	9073.5
747.895	9123.9
748.234	9118.7
748.573	9186.5
748.911	9225.59
749.25	9401.86
749.589	9372.48
749.928	9459.71
750.267	9528.63
750.605	9623.77
750.944	9647.05
751.283	9789.87
751.621	9769.53
751.96	9863.54
752.298	9977.21
752.636	10040.48
752.975	10150.31
753.313	10194.83
753.651	10392.79
753.989	10484.99
754.327	10556.63
754.666	10663.97
755.004	10856.06
755.342	10971.31
755.679	11015.15
756.017	11159.78
756.355	11327
756.693	11498.98
757.031	11605.19
757.368	11764.06
757.706	11903.94
758.044	12026.65
758.381	12229.81
