Data from hue_100_FLMS001491_00058.txt Node
Date: Tue Feb 07 17:03:23 GMT 2017
User: dcchb
Spectrometer: FLMS00149
Trigger mode: 0
Integration Time (sec): 2.000000E-2
Scans to average: 10
Electric dark correction enabled: true
Nonlinearity correction enabled: false
Boxcar width: 0
XAxis mode: Wavelengths
Number of Pixels in Spectrum: 2048
>>>>>Begin Spectral Data<<<<<
341.393	-22.46
341.776	-22.46
342.16	-22.46
342.543	-74.43
342.927	-57.03
343.31	-70.59
343.693	-71.72
344.077	-73.08
344.46	-55.22
344.843	-47.32
345.226	-48.45
345.61	-17.49
345.993	-20.2
346.376	-0.08
346.759	8.73
347.142	12.12
347.525	43.3
347.908	55.73
348.291	88.5
348.674	95.05
349.057	100.7
349.44	127.37
349.823	135.28
350.206	148.84
350.588	193.36
350.971	195.62
351.354	209.18
351.737	222.73
352.119	247.14
352.502	267.25
352.884	258.44
353.267	258.89
353.65	271.32
354.032	302.96
354.414	309.96
354.797	328.95
355.179	313.58
355.562	329.17
355.944	329.85
356.326	321.71
356.709	335.73
357.091	335.95
357.473	340.92
357.855	326.69
358.238	335.27
358.62	343.64
359.002	308.61
359.384	346.35
359.766	326.01
360.148	338.89
360.53	322.17
360.912	323.75
361.294	337.99
361.676	346.57
362.057	327.59
362.439	339.12
362.821	346.57
363.203	310.19
363.584	318.78
363.966	331.43
364.348	314.03
364.729	321.26
365.111	315.16
365.493	320.13
365.874	330.53
366.256	309.06
366.637	310.19
367.019	295.05
367.4	324.88
367.781	329.62
368.163	297.76
368.544	292.79
368.925	325.1
369.306	319
369.688	316.74
370.069	304.99
370.45	297.99
370.831	317.87
371.212	313.58
371.593	293.47
371.974	320.81
372.355	302.51
372.736	321.49
373.117	315.61
373.498	321.71
373.879	335.05
374.26	311.09
374.641	336.86
375.021	312.68
375.402	323.3
375.783	310.42
376.163	335.73
376.544	322.62
376.925	323.52
377.305	319
377.686	325.78
378.066	326.69
378.447	341.83
378.827	325.1
379.208	340.02
379.588	333.92
379.968	336.18
380.349	322.39
380.729	339.12
381.109	364.65
381.489	345.44
381.87	318.78
382.25	337.99
382.63	339.34
383.01	376.63
383.39	332.79
383.77	347.48
384.15	343.18
384.53	334.82
384.91	338.66
385.29	358.32
385.67	344.31
386.049	362.39
386.429	357.42
386.809	349.06
387.189	340.47
387.568	365.78
387.948	356.29
388.328	363.07
388.707	355.61
389.087	375.27
389.466	370.08
389.846	369.62
390.225	373.69
390.605	374.59
390.984	377.08
391.363	366.01
391.743	383.86
392.122	366.91
392.501	369.17
392.881	382.5
393.26	380.24
393.639	383.41
394.018	399.45
394.397	383.41
394.776	380.47
395.155	374.37
395.534	401.49
395.913	370.3
396.292	389.51
396.671	378.66
397.05	378.89
397.429	389.06
397.808	397.87
398.186	395.84
398.565	382.5
398.944	399.9
399.323	386.12
399.701	399.9
400.08	415.05
400.458	425.44
400.837	417.98
401.215	410.3
401.594	416.85
401.972	415.05
402.351	403.75
402.729	411.66
403.107	426.8
403.486	436.29
403.864	423.86
404.242	424.54
404.62	411.43
404.999	429.96
405.377	438.77
405.755	429.73
406.133	448.49
406.511	457.98
406.889	460.69
407.267	454.82
407.645	442.16
408.023	464.76
408.401	471.54
408.779	436.97
409.156	467.7
409.534	465.67
409.912	444.65
410.29	457.53
410.667	448.49
411.045	462.95
411.422	457.3
411.8	480.35
412.178	495.27
412.555	505.21
412.933	484.42
413.31	482.39
413.687	523.52
414.065	500.47
414.442	481.26
414.819	513.57
415.197	504.53
415.574	499.34
415.951	516.06
416.328	511.99
416.705	525.1
417.082	517.19
417.46	531.65
417.837	537.3
418.214	516.06
418.591	539.34
418.967	506.12
419.344	518.09
419.721	544.76
420.098	568.71
420.475	557.41
420.852	541.82
421.228	545.44
421.605	561.03
421.982	571.88
422.358	573.23
422.735	581.37
423.111	548.15
423.488	578.43
423.864	573.91
424.241	568.71
424.617	611.2
424.994	582.5
425.37	584.08
425.746	604.87
426.123	608.71
426.499	624.76
426.875	610.52
427.251	604.19
427.627	629.73
428.003	611.88
428.379	640.12
428.756	620.01
429.132	646.9
429.507	638.32
429.883	628.15
430.259	669.95
430.635	657.75
431.011	670.18
431.387	678.09
431.763	691.2
432.138	691.2
432.514	691.65
432.89	705.21
433.265	706.79
433.641	695.94
434.016	703.17
434.392	717.64
434.767	736.62
435.143	720.57
435.518	752.89
435.894	728.48
436.269	737.07
436.644	730.52
437.02	769.39
437.395	754.02
437.77	760.57
438.145	777.75
438.52	799.44
438.895	784.98
439.271	795.37
439.646	823.85
440.021	818.88
440.395	804.19
440.77	826.11
441.145	796.28
441.52	829.5
441.895	843.06
442.27	853.9
442.645	844.19
443.019	876.28
443.394	864.75
443.769	877.18
444.143	839.67
444.518	854.81
444.892	864.75
445.267	891.42
445.641	883.73
446.016	901.36
446.39	908.14
446.764	900.46
447.139	899.78
447.513	909.27
447.887	905.2
448.262	928.7
448.636	948.82
449.01	948.14
449.384	940.46
449.758	954.01
450.132	992.66
450.506	951.08
450.88	979.1
451.254	990.85
451.628	993.34
452.002	995.14
452.376	1004.18
452.75	1009.15
453.123	1006.22
453.497	1031.53
453.871	1006.89
454.244	1067.46
454.618	1073.79
454.992	1064.29
455.365	1070.4
455.739	1100.23
456.112	1102.94
456.486	1134.35
456.859	1120.56
457.232	1135.25
457.606	1165.53
457.979	1164.4
458.352	1197.85
458.725	1201.01
459.099	1193.33
459.472	1191.75
459.845	1203.73
460.218	1252.99
460.591	1270.16
460.964	1270.39
461.337	1299.09
461.71	1316.72
462.083	1330.05
462.456	1323.04
462.829	1351.07
463.201	1381.12
463.574	1358.3
463.947	1427
464.32	1431.97
464.692	1457.28
465.065	1462.02
465.438	1496.15
465.81	1496.83
466.183	1497.28
466.555	1554.45
466.928	1568.01
467.3	1589.48
467.672	1586.54
468.045	1658.63
468.417	1655.46
468.789	1666.54
469.161	1725.75
469.534	1747.21
469.906	1771.17
470.278	1797.83
470.65	1837.16
471.022	1882.8
471.394	1916.7
471.766	1924.38
472.138	1938.4
472.51	2024.95
472.882	2044.16
473.253	2055.23
473.625	2122.8
473.997	2151.05
474.369	2196.47
474.74	2245.73
475.112	2315.56
475.484	2297.71
475.855	2382.23
476.227	2417.25
476.598	2518.27
476.97	2559.4
477.341	2613.41
477.713	2682.78
478.084	2720.52
478.455	2811.37
478.827	2887.52
479.198	2972.94
479.569	3014.53
479.94	3157.8
480.311	3187.63
480.682	3289.09
481.053	3403.67
481.424	3505.59
481.795	3534.06
482.166	3658.35
482.537	3706.26
482.908	3852.47
483.279	3913.94
483.65	4035.06
484.021	4143.99
484.391	4294.94
484.762	4334.72
485.133	4449.06
485.503	4533.58
485.874	4733.35
486.244	4819
486.615	4990.07
486.985	5082.72
487.356	5157.97
487.726	5224.86
488.097	5445.2
488.467	5494.91
488.837	5739.65
489.207	5799.08
489.578	6002.24
489.948	6099.64
490.318	6242.69
490.688	6356.81
491.058	6524.72
491.428	6697.37
491.798	6780.08
492.168	6943.46
492.538	7084.47
492.908	7178.48
493.278	7291.02
493.648	7448.31
494.017	7533.28
494.387	7750.45
494.757	7801.29
495.126	8025.92
495.496	8068.4
495.866	8227.72
496.235	8430.88
496.605	8576.64
496.974	8627.49
497.344	8744.54
497.713	8861.83
498.082	8981.15
498.452	9217.53
498.821	9187.7
499.19	9318.31
499.559	9449.16
499.928	9589.95
500.298	9654.12
500.667	9851.63
501.036	9809.15
501.405	10006.88
501.774	10056.6
502.143	10170.95
502.512	10242.58
502.88	10312.86
503.249	10428.57
503.618	10537.27
503.987	10648
504.356	10679.86
504.724	10818.84
505.093	10844.6
505.462	10960.53
505.83	11008.44
506.199	11143.35
506.567	11286.17
506.936	11224.93
507.304	11410.24
507.672	11518.93
508.041	11597.8
508.409	11645.71
508.777	11680.29
509.145	11833.28
509.514	11833.05
509.882	11952.82
510.25	11946.95
510.618	12074.85
510.986	12071.01
511.354	12206.6
511.722	12256.77
512.09	12438.23
512.458	12298.35
512.826	12546.03
513.193	12503.54
513.561	12544.67
513.929	12589.64
514.297	12758
514.664	12802.52
515.032	12836.64
515.4	12930.42
515.767	12928.39
516.135	13030.08
516.502	12807.26
516.869	13118.21
517.237	13101.04
517.604	13054.26
517.972	13187.82
518.339	13179
518.706	13145.33
519.073	13257.19
519.44	13273.01
519.808	13363.41
520.175	13356.17
520.542	13500.13
520.909	13535.83
521.276	13457.41
521.643	13599.56
522.009	13753
522.376	13663.28
522.743	13719.1
523.11	13872.32
523.477	13812.21
523.843	13892.66
524.21	14047.46
524.577	14059.88
524.943	14023.95
525.31	14164.51
525.676	14193.21
526.043	14140.56
526.409	14190.95
526.776	14289.48
527.142	14338.3
527.508	14318.63
527.874	14325.19
528.241	14253.55
528.607	14300.78
528.973	14438.63
529.339	14421.23
529.705	14442.02
530.071	14472.08
530.437	14479.76
530.803	14515.92
531.169	14589.36
531.535	14478.4
531.901	14451.51
532.267	14508.23
532.632	14547.78
532.998	14471.17
533.364	14517.05
533.73	14428.46
534.095	14474.56
534.461	14492.42
534.826	14512.08
535.192	14490.61
535.557	14558.4
535.923	14500.32
536.288	14497.84
536.653	14467.56
537.019	14360.67
537.384	14439.31
537.749	14385.3
538.114	14344.4
538.479	14331.06
538.845	14319.76
539.21	14205.42
539.575	14326.77
539.94	14218.98
540.305	14306.21
540.67	14298.52
541.034	14198.64
541.399	14193.67
541.764	14184.4
542.129	14165.19
542.494	14117.74
542.858	14121.58
543.223	14069.83
543.587	14077.74
543.952	13967.01
544.316	13993.22
544.681	14001.36
545.045	13990.51
545.41	13944.63
545.774	13874.35
546.138	13879.78
546.503	13912.09
546.867	13755.49
547.231	13879.1
547.595	13803.62
547.959	13749.61
548.324	13796.16
548.688	13716.84
549.052	13745.09
549.416	13658.77
549.779	13675.26
550.143	13707.58
550.507	13692.21
550.871	13634.81
551.235	13598.65
551.599	13618.31
551.962	13511.42
552.326	13537.41
552.689	13604.53
553.053	13382.61
553.417	13414.03
553.78	13619.9
554.143	13389.39
554.507	13456.28
554.87	13438.66
555.234	13448.83
555.597	13379.45
555.96	13442.27
556.323	13375.16
556.686	13355.04
557.05	13428.71
557.413	13328.83
557.776	13361.37
558.139	13436.4
558.502	13354.14
558.865	13283.86
559.228	13397.98
559.59	13353.91
559.953	13366.8
560.316	13477.75
560.679	13431.2
561.041	13492.44
561.404	13515.04
561.767	13487.47
562.129	13478.43
562.492	13476.85
562.854	13428.26
563.217	13394.59
563.579	13462.16
563.941	13501.03
564.304	13425.55
564.666	13540.8
565.028	13473.46
565.39	13499.45
565.753	13559.33
566.115	13635.71
566.477	13597.3
566.839	13637.3
567.201	13724.75
567.563	13645.43
567.925	13753
568.287	13733.11
568.648	13733.79
569.01	13774.47
569.372	13763.85
569.734	13687.01
570.095	13762.27
570.457	13842.49
570.819	13821.92
571.18	13783.73
571.542	13933.79
571.903	13904.63
572.265	13855.6
572.626	13876.61
572.987	13923.16
573.349	13968.14
573.71	13944.41
574.071	13897.4
574.432	13911.64
574.794	14044.07
575.155	13978.3
575.516	13898.08
575.877	13949.38
576.238	14016.5
576.599	14053.11
576.96	13969.49
577.32	14033.9
577.681	13970.4
578.042	14057.85
578.403	14035.25
578.763	14071.64
579.124	14036.38
579.485	14138.3
579.845	14153.67
580.206	14093.1
580.566	14088.36
580.927	14028.47
581.287	14023.05
581.648	13991.86
582.008	14055.14
582.368	14099.88
582.728	14067.57
583.089	14056.04
583.449	13994.58
583.809	14008.81
584.169	14034.57
584.529	13920.91
584.889	14086.1
585.249	14061.69
585.609	13948.02
585.969	14055.82
586.329	13922.26
586.688	13928.14
587.048	13931.07
587.408	13945.31
587.768	14009.26
588.127	13902.15
588.487	13919.78
588.846	13928.14
589.206	13905.09
589.565	13892.66
589.925	13993.67
590.284	13854.47
590.643	13843.39
591.003	13845.88
591.362	13977.85
591.721	13843.62
592.08	13912.54
592.44	13975.14
592.799	14018.08
593.158	13836.39
593.517	13821.02
593.876	13843.62
594.235	13845.65
594.593	13884.3
594.952	13908.7
595.311	13810.63
595.67	13836.16
596.029	13865.77
596.387	13886.78
596.746	13861.47
597.104	13696.96
597.463	13853.56
597.822	13797.07
598.18	13716.62
598.538	13766.33
598.897	13799.33
599.255	13645.21
599.613	13903.5
599.972	13794.58
600.33	13839.1
600.688	13733.79
601.046	13795.03
601.404	13830.96
601.762	13750.06
602.12	13908.93
602.478	13759.1
602.836	13757.29
603.194	13736.28
603.552	13848.36
603.91	13783.06
604.268	13782.38
604.625	13758.2
604.983	13792.77
605.341	13738.99
605.698	13785.09
606.056	13788.25
606.413	13731.53
606.771	13868.93
607.128	13865.31
607.485	13721.81
607.843	13786.9
608.2	13857.63
608.557	13890.4
608.914	13859.89
609.272	14010.85
609.629	13988.25
609.986	13974.69
610.343	13944.86
610.7	14077.29
611.057	14002.26
611.414	13874.58
611.771	14019.89
612.127	14050.17
612.484	14001.58
612.841	14062.6
613.198	13976.5
613.554	13942.83
613.911	14112.54
614.267	14105.53
614.624	14067.12
614.98	14046.78
615.337	14134.01
615.693	14183.72
616.05	14099.43
616.406	14204.74
616.762	14087
617.118	14093.1
617.475	14140.79
617.831	14184.85
618.187	14139.66
618.543	14181.24
618.899	14217.85
619.255	14233.44
619.611	14206.1
619.967	14309.6
620.323	14254.91
620.678	14301.23
621.034	14209.71
621.39	14198.86
621.746	14150.73
622.101	14315.25
622.457	14145.08
622.812	14296.71
623.168	14300.56
623.523	14238.64
623.879	14289.03
624.234	14224.85
624.589	14232.76
624.945	14326.32
625.3	14264.17
625.655	14249.26
626.01	14228.69
626.365	14253.33
626.72	14132.88
627.075	14281.8
627.43	14165.42
627.785	14193.89
628.14	14204.97
628.495	14266.88
628.85	14249.03
629.205	14125.19
629.559	14250.84
629.914	14103.73
630.269	14188.47
630.623	14140.11
630.978	14130.84
631.332	14161.8
631.687	14216.04
632.041	14132.2
632.396	14120.22
632.75	14061.69
633.104	14044.74
633.459	13961.81
633.813	13978.76
634.167	14078.19
634.521	13929.27
634.875	14070.28
635.229	14010.17
635.583	13846.33
635.937	13920.91
636.291	13885.88
636.645	13912.32
636.999	13895.37
637.352	13898.98
637.706	13802.26
638.06	13842.72
638.413	13830.06
638.767	13794.81
639.121	13774.47
639.474	13675.49
639.828	13697.63
640.181	13722.49
640.534	13726.79
640.888	13754.81
641.241	13664.41
641.594	13694.24
641.947	13753.68
642.301	13673.68
642.654	13667.58
643.007	13671.65
643.36	13662.15
643.713	13640.91
644.066	13621.7
644.419	13594.13
644.771	13465.1
645.124	13349.62
645.477	13399.11
645.83	13227.36
646.182	13141.94
646.535	13230.08
646.888	13201.83
647.24	13126.35
647.593	13169.74
647.945	13222.62
648.298	13189.85
648.65	13127.03
649.002	13094.49
649.355	13215.84
649.707	13179.91
650.059	13223.75
650.411	13426
650.763	13404.53
651.115	13560.91
651.467	13447.7
651.819	13537.86
652.171	13465.55
652.523	13456.74
652.875	13433.23
653.227	13343.52
653.578	13460.8
653.93	13377.87
654.282	13447.25
654.633	13451.99
654.985	13419.45
655.337	13413.12
655.688	13514.14
656.039	13506.68
656.391	13363.41
656.742	13398.21
657.094	13445.66
657.445	13508.71
657.796	13407.92
658.147	13424.65
658.498	13455.38
658.849	13391.65
659.2	13406.57
659.551	13355.04
659.902	13422.84
660.253	13456.74
660.604	13415.38
660.955	13401.6
661.306	13510.97
661.656	13424.42
662.007	13467.36
662.358	13417.19
662.708	13440.01
663.059	13460.13
663.409	13423.07
663.76	13514.59
664.11	13459
664.461	13483.18
664.811	13544.87
665.161	13522.05
665.511	13457.87
665.862	13469.17
666.212	13538.09
666.562	13485.66
666.912	13468.94
667.262	13416.51
667.612	13470.3
667.962	13468.04
668.312	13530.18
668.662	13542.61
669.011	13400.24
669.361	13487.47
669.711	13428.94
670.06	13404.53
670.41	13442.5
670.76	13440.47
671.109	13430.07
671.459	13355.95
671.808	13358.43
672.157	13413.35
672.507	13323.86
672.856	13321.82
673.205	13287.25
673.554	13376.51
673.904	13313.24
674.253	13357.08
674.602	13306.46
674.951	13134.49
675.3	13061.27
675.649	13331.54
675.998	13248.15
676.346	13355.5
676.695	13360.02
677.044	13254.03
677.393	13201.15
677.741	13318.66
678.09	13193.92
678.438	13171.32
678.787	13181.72
679.135	13221.49
679.484	13165.9
679.832	13125.9
680.181	13081.61
680.529	13168.83
680.877	13045
681.225	13006.8
681.573	13019.23
681.922	12990.53
682.27	12870.09
682.618	12923.19
682.966	12916.86
683.314	12924.1
683.661	12912.8
684.009	12798.67
684.357	12761.16
684.705	12782.86
685.053	12788.96
685.4	12793.93
685.748	12749.41
686.095	12681.16
686.443	12624.22
686.79	12511.68
687.138	12624.22
687.485	12592.35
687.832	12584.67
688.18	12600.94
688.527	12459.7
688.874	12466.25
689.221	12392.81
689.568	12373.15
689.915	12360.04
690.262	12357.78
690.609	12299.25
690.956	12240.72
691.303	12185.36
691.65	12234.4
691.997	12189.65
692.344	12053.16
692.69	12123.21
693.037	12070.78
693.383	11942.2
693.73	12039.6
694.077	11923.9
694.423	11938.58
694.769	11830.11
695.116	11756.67
695.462	11765.26
695.808	11702.88
696.155	11789.21
696.501	11702.66
696.847	11659.95
697.193	11593.06
697.539	11632.6
697.885	11561.42
698.231	11437.58
698.577	11477.58
698.923	11426.73
699.269	11344.02
699.614	11271.48
699.96	11263.12
700.306	11233.97
700.651	11173.41
700.997	11126.63
701.342	11069.91
701.688	11054.99
702.033	10988.1
702.379	10976.58
702.724	10960.98
703.069	11002.79
703.415	10908.78
703.76	10777.94
704.105	10836.47
704.45	10808.67
704.795	10752.17
705.14	10753.98
705.485	10683.02
705.83	10624.27
706.175	10615.23
706.52	10650.93
706.865	10567.32
707.209	10586.3
707.554	10499.98
707.899	10514.22
708.243	10469.24
708.588	10454.78
708.932	10372.52
709.277	10387.44
709.621	10337.95
709.966	10333.88
710.31	10400.55
710.654	10165.75
710.998	10292.53
711.342	10265.41
711.687	10168.69
712.031	10062.7
712.375	10108.58
712.719	10112.87
713.063	10204.39
713.407	10138.86
713.75	10058.41
714.094	10060.67
714.438	9964.4
714.782	9962.59
715.125	10010.05
715.469	9961.91
715.812	9949.48
716.156	9886.66
716.499	9844.85
716.843	9938.19
717.186	9834.01
717.53	9918.07
717.873	9884.85
718.216	9858.19
718.559	9797.85
718.902	9764.63
719.246	9744.07
719.589	9787.91
719.932	9699.1
720.275	9707.46
720.617	9671.75
720.96	9640.79
721.303	9650.96
721.646	9793.56
721.989	9624.52
722.331	9710.85
722.674	9646.67
723.016	9622.94
723.359	9607.35
723.701	9574.8
724.044	9538.65
724.386	9610.06
724.729	9566.9
725.071	9557.63
725.413	9614.58
725.755	9552.88
726.097	9489.84
726.439	9491.64
726.782	9512.21
727.124	9533.22
727.465	9458.65
727.807	9514.24
728.149	9453.23
728.491	9379.1
728.833	9354.7
729.175	9448.03
729.516	9458.65
729.858	9374.81
730.199	9413.91
730.541	9387.92
730.882	9345.66
731.224	9447.8
731.565	9372.55
731.906	9401.7
732.248	9377.97
732.589	9421.14
732.93	9382.27
733.271	9354.25
733.612	9395.37
733.953	9390.85
734.294	9395.83
734.635	9410.74
734.976	9437.41
735.317	9316.96
735.658	9345.66
735.999	9417.97
736.339	9356.96
736.68	9398.76
737.021	9370.97
737.361	9349.05
737.702	9400.12
738.042	9394.24
738.383	9426.33
738.723	9439.22
739.063	9394.47
739.404	9453.68
739.744	9408.71
740.084	9420.46
740.424	9435.15
740.764	9392.44
741.104	9422.49
741.444	9398.54
741.784	9432.89
742.124	9521.92
742.464	9544.52
742.804	9519.89
743.143	9520.57
743.483	9587.01
743.823	9553.34
744.162	9547.46
744.502	9704.97
744.841	9578.19
745.181	9711.75
745.52	9711.98
745.86	9774.57
746.199	9730.05
746.538	9838.53
746.877	9934.34
747.216	9921.69
747.556	9974.57
747.895	10009.6
748.234	10027.22
748.573	10041.01
748.911	10152.42
749.25	10205.52
749.589	10191.29
749.928	10355.8
750.267	10442.8
750.605	10424.5
750.944	10584.5
751.283	10551.95
751.621	10682.35
751.96	10736.81
752.298	10840.76
752.636	11017.7
752.975	10970.7
753.313	10981.1
753.651	11171.82
753.989	11227.64
754.327	11348.09
754.666	11449.56
755.004	11608.65
755.342	11823.56
755.679	11891.81
756.017	11901.98
756.355	12175.41
756.693	12277.33
757.031	12321.63
757.368	12424
757.706	12576.76
758.044	12792.8
758.381	12934.26
758.719	13028.5
