Data from hue_190_FLMS001491_00004.txt Node
Date: Tue Feb 07 16:44:42 GMT 2017
User: dcchb
Spectrometer: FLMS00149
Trigger mode: 0
Integration Time (sec): 2.000000E-2
Scans to average: 10
Electric dark correction enabled: true
Nonlinearity correction enabled: false
Boxcar width: 0
XAxis mode: Wavelengths
Number of Pixels in Spectrum: 2048
>>>>>Begin Spectral Data<<<<<
341.393	-11.26
341.776	-11.26
342.16	-11.26
342.543	-41.76
342.927	-69.79
343.31	-86.51
343.693	-58.94
344.077	-43.12
344.46	-77.92
344.843	-60.52
345.226	-49.9
345.61	-41.31
345.993	-27.53
346.376	5.01
346.759	22.64
347.142	12.47
347.525	42.53
347.908	79.14
348.291	89.53
348.674	88.18
349.057	106.25
349.44	121.62
349.823	161.17
350.206	158.23
350.588	192.58
350.971	193.94
351.354	252.92
351.737	226.48
352.119	265.57
352.502	266.48
352.884	282.29
353.267	297.89
353.65	289.53
354.032	318.45
354.414	316.64
354.797	318.68
355.179	316.42
355.562	334.04
355.944	307.6
356.326	350.99
356.709	345.8
357.091	333.82
357.473	349.64
357.855	342.86
358.238	358.9
358.62	348.73
359.002	346.47
359.384	355.29
359.766	351.67
360.148	349.19
360.53	330.88
360.912	327.49
361.294	353.93
361.676	343.54
362.057	317.55
362.439	322.97
362.821	328.17
363.203	346.7
363.584	320.49
363.966	327.72
364.348	327.27
364.729	327.27
365.111	327.49
365.493	316.19
365.874	327.49
366.256	316.42
366.637	314.61
367.019	317.55
367.4	291.33
367.781	308.96
368.163	301.5
368.544	318.45
368.925	317.55
369.306	308.73
369.688	324.55
370.069	311.22
370.45	326.14
370.831	318.23
371.212	324.33
371.593	307.38
371.974	308.28
372.355	325.68
372.736	313.48
373.117	315.74
373.498	322.75
373.879	306.02
374.26	325.91
374.641	324.55
375.021	317.77
375.402	305.8
375.783	336.3
376.163	306.93
376.544	314.16
376.925	336.53
377.305	332.01
377.686	355.51
378.066	326.36
378.447	343.31
378.827	330.43
379.208	335.17
379.588	347.38
379.968	347.15
380.349	338.79
380.729	333.82
381.109	322.75
381.489	316.87
381.87	335.85
382.25	347.6
382.63	337.66
383.01	314.38
383.39	342.41
383.77	347.6
384.15	336.53
384.53	345.12
384.91	358
385.29	356.19
385.67	354.84
386.049	352.58
386.429	361.16
386.809	346.93
387.189	362.97
387.568	364.33
387.948	360.94
388.328	388.05
388.707	350.99
389.087	337.43
389.466	355.06
389.846	363.42
390.225	358.45
390.605	376.76
390.984	359.13
391.363	354.84
391.743	378.79
392.122	369.98
392.501	380.82
392.881	381.73
393.26	369.98
393.639	379.24
394.018	350.77
394.397	386.7
394.776	390.77
395.155	381.95
395.534	388.51
395.913	371.33
396.292	408.39
396.671	400.48
397.05	390.99
397.429	387.6
397.808	373.14
398.186	410.43
398.565	381.5
398.944	412.01
399.323	386.47
399.701	394.83
400.08	422.18
400.458	407.49
400.837	409.07
401.215	418.56
401.594	415.62
401.972	401.84
402.351	409.52
402.729	418.79
403.107	426.25
403.486	426.02
403.864	419.69
404.242	438.67
404.62	425.79
404.999	428.96
405.377	456.08
405.755	423.76
406.133	462.86
406.511	462.63
406.889	461.5
407.267	450.88
407.645	459.47
408.023	473.25
408.401	481.39
408.779	476.41
409.156	472.8
409.534	500.14
409.912	506.02
410.29	501.5
410.667	520.93
411.045	529.97
411.422	543.08
411.8	543.3
412.178	554.83
412.555	560.48
412.933	555.96
413.31	550.54
413.687	573.59
414.065	569.07
414.442	597.77
414.819	612
415.197	621.04
415.574	614.72
415.951	622.17
416.328	630.31
416.705	644.55
417.082	640.48
417.46	652.45
417.837	645.45
418.214	686.13
418.591	680.7
418.967	694.04
419.344	685.45
419.721	721.61
420.098	724.54
420.475	721.61
420.852	734.94
421.228	741.04
421.605	751.21
421.982	765.45
422.358	792.11
422.735	800.02
423.111	804.32
423.488	823.3
423.864	828.5
424.241	855.61
424.617	876.86
424.994	864.43
425.37	878.66
425.746	889.74
426.123	922.28
426.499	922.73
426.875	921.6
427.251	956.4
427.627	944.65
428.003	994.82
428.379	999.79
428.756	981.49
429.132	1006.12
429.507	1014.7
429.883	1029.62
430.259	1044.99
430.635	1056.96
431.011	1082.73
431.387	1090.86
431.763	1096.74
432.138	1099.9
432.514	1130.86
432.89	1142.16
433.265	1181.03
433.641	1200.69
434.016	1196.4
434.392	1196.17
434.767	1242.04
435.143	1261.93
435.518	1292.66
435.894	1274.13
436.269	1319.1
436.644	1358.88
437.02	1377.63
437.395	1381.02
437.77	1405.43
438.145	1435.03
438.52	1456.5
438.895	1478.87
439.271	1480.68
439.646	1541.7
440.021	1554.58
440.395	1547.8
440.77	1562.49
441.145	1622.15
441.52	1623.05
441.895	1630.28
442.27	1647.23
442.645	1703.05
443.019	1717.06
443.394	1722.71
443.769	1732.88
444.143	1752.09
444.518	1770.39
444.892	1776.72
445.267	1825.76
445.641	1815.81
446.016	1812.65
446.39	1839.77
446.764	1858.3
447.139	1882.48
447.513	1865.53
447.887	1886.55
448.262	1899.2
448.636	1907.34
449.01	1948.24
449.384	1963.38
449.758	1962.48
450.132	1984.4
450.506	2018.52
450.88	2034.57
451.254	2023.27
451.628	2072.08
452.002	2111.85
452.376	2087.67
452.75	2130.61
453.123	2132.64
453.497	2177.84
453.871	2192.53
454.244	2213.77
454.618	2260.55
454.992	2271.4
455.365	2292.86
455.739	2331.51
456.112	2379.64
456.486	2397.04
456.859	2418.51
457.232	2475.91
457.606	2440.88
457.979	2479.75
458.352	2536.7
458.725	2543.03
459.099	2600.65
459.472	2644.27
459.845	2658.05
460.218	2666.41
460.591	2710.48
460.964	2715.45
461.337	2779.86
461.71	2821.21
462.083	2862.57
462.456	2863.24
462.829	2895.56
463.201	2954.99
463.574	2974.65
463.947	3020.75
464.32	3081.54
464.692	3081.54
465.065	3100.98
465.438	3168.09
465.81	3199.28
466.183	3276.79
466.555	3300.75
466.928	3321.31
467.3	3353.63
467.672	3410.8
468.045	3463.45
468.417	3495.54
468.789	3533.51
469.161	3571.25
469.534	3633.62
469.906	3695.54
470.278	3728.76
470.65	3780.28
471.022	3873.39
471.394	3928.07
471.766	3910.45
472.138	3956.77
472.51	4075.64
472.882	4115.19
473.253	4249.42
473.625	4271.57
473.997	4342.08
474.369	4385.69
474.74	4423.88
475.112	4495.97
475.484	4563.31
475.855	4653.48
476.227	4668.85
476.598	4838.56
476.97	4874.04
477.341	4987.93
477.713	5079.68
478.084	5090.98
478.455	5247.81
478.827	5303.41
479.198	5424.53
479.569	5405.32
479.94	5602.83
480.311	5623.85
480.682	5764.86
481.053	5920.11
481.424	6000.34
481.795	6079.43
482.166	6128.92
482.537	6195.13
482.908	6356.26
483.279	6450.95
483.65	6511.28
484.021	6663.14
484.391	6775.46
484.762	6813.65
485.133	6889.13
485.503	6940.2
485.874	7109.46
486.244	7234.43
486.615	7315.78
486.985	7392.62
487.356	7446.85
487.726	7624.7
488.097	7771.59
488.467	7756.9
488.837	7960.96
489.207	8006.84
489.578	8146.95
489.948	8253.16
490.318	8278.92
490.688	8323.21
491.058	8466.26
491.428	8583.32
491.798	8625.35
492.168	8762.07
492.538	8838.91
492.908	8936.53
493.278	8983.08
493.648	9131.1
494.017	9174.94
494.387	9222.17
494.757	9231.21
495.126	9423.52
495.496	9375.84
495.866	9481.83
496.235	9530.64
496.605	9596.85
496.974	9633.91
497.344	9690.18
497.713	9774.93
498.082	9830.74
498.452	9951.65
498.821	9928.59
499.19	9944.19
499.559	10017.86
499.928	10100.12
500.298	10114.58
500.667	10202.26
501.036	10143.5
501.405	10253.11
501.774	10218.98
502.143	10313.9
502.512	10362.93
502.88	10411.52
503.249	10416.27
503.618	10465.08
503.987	10477.06
504.356	10496.72
504.724	10617.39
505.093	10577.39
505.462	10566.77
505.83	10685.64
506.199	10723.83
506.567	10773.09
506.936	10714.11
507.304	10844.73
507.672	10882.47
508.041	10834.11
508.409	10944.16
508.777	11017.38
509.145	10959.98
509.514	10970.6
509.882	10959.53
510.25	11006.53
510.618	11038.17
510.986	10987.1
511.354	11042.46
511.722	11143.93
512.09	11226.19
512.458	11125.4
512.826	11146.64
513.193	11237.49
513.561	11160.2
513.929	11260.09
514.297	11270.48
514.664	11265.28
515.032	11302.12
515.4	11309.58
515.767	11277.26
516.135	11272.51
516.502	11213.53
516.869	11423.47
517.237	11344.38
517.604	11263.48
517.972	11354.09
518.339	11399.29
518.706	11278.39
519.073	11291.27
519.44	11340.76
519.808	11388.9
520.175	11265.06
520.542	11461.89
520.909	11433.19
521.276	11399.29
521.643	11432.74
522.009	11445.39
522.376	11420.53
522.743	11465.96
523.11	11539.4
523.477	11556.8
523.843	11550.02
524.21	11558.61
524.577	11584.37
524.943	11492.17
525.31	11507.76
525.676	11523.36
526.043	11550.02
526.409	11547.31
526.776	11548.44
527.142	11543.02
527.508	11558.61
527.874	11528.33
528.241	11512.28
528.607	11430.93
528.973	11479.29
529.339	11345.96
529.705	11508.89
530.071	11442.23
530.437	11437.71
530.803	11433.41
531.169	11424.6
531.535	11369.69
531.901	11292.63
532.267	11286.53
532.632	11272.29
532.998	11222.12
533.364	11218.28
533.73	11129.47
534.095	11188.22
534.461	11217.83
534.826	11004.5
535.192	11150.48
535.557	11031.84
535.923	10956.14
536.288	10957.27
536.653	10933.09
537.019	10862.13
537.384	10776.93
537.749	10820.55
538.114	10744.84
538.479	10626.88
538.845	10648.58
539.21	10554.57
539.575	10499.65
539.94	10477.51
540.305	10439.54
540.67	10377.17
541.034	10308.25
541.399	10310.51
541.764	10206.1
542.129	10160
542.494	10158.19
542.858	10200
543.223	10044.07
543.587	10039.55
543.952	9964.3
544.316	9961.81
544.681	9851.99
545.045	9841.37
545.41	9763.63
545.774	9801.59
546.138	9739
546.503	9595.04
546.867	9595.72
547.231	9597.3
547.595	9517.98
547.959	9511.66
548.324	9463.3
548.688	9386.69
549.052	9387.37
549.416	9245
549.779	9283.87
550.143	9261.49
550.507	9129.52
550.871	9114.38
551.235	9049.75
551.599	9057.43
551.962	8976.53
552.326	8949.19
552.689	8940.6
553.053	8806.36
553.417	8862.63
553.78	8879.81
554.143	8725.69
554.507	8776.53
554.87	8662.41
555.234	8740.15
555.597	8638.91
555.96	8578.12
556.323	8605.92
556.686	8559.37
557.05	8527.05
557.413	8536.99
557.776	8457.67
558.139	8418.35
558.502	8392.14
558.865	8373.38
559.228	8407.05
559.59	8401.18
559.953	8362.99
560.316	8388.52
560.679	8356.88
561.041	8279.6
561.404	8242.54
561.767	8339.26
562.129	8216.32
562.492	8269.66
562.854	8256.32
563.217	8190.79
563.579	8194.63
563.941	8292.71
564.304	8241.86
564.666	8240.96
565.028	8184.91
565.39	8200.05
565.753	8145.59
566.115	8164.8
566.477	8177.91
566.839	8148.53
567.201	8155.08
567.563	8098.59
567.925	8230.56
568.287	8145.59
568.648	8196.21
569.01	8173.84
569.372	8113.05
569.734	8121.18
570.095	8125.7
570.457	8205.25
570.819	8154.86
571.18	8099.26
571.542	8127.51
571.903	8125.03
572.265	8083.67
572.626	8159.83
572.987	8081.19
573.349	8106.5
573.71	8145.59
574.071	8111.92
574.432	8150.11
574.794	8140.39
575.155	8100.62
575.516	8094.29
575.877	8091.13
576.238	8085.48
576.599	8143.78
576.96	8097.46
577.32	8067.85
577.681	8058.36
578.042	8061.75
578.403	8085.93
578.763	8058.59
579.124	8113.28
579.485	8138.81
579.845	8099.94
580.206	8020.62
580.566	8007.06
580.927	8053.39
581.287	8115.08
581.648	8044.12
582.008	8019.49
582.368	8049.55
582.728	8003.9
583.089	8044.35
583.449	7998.93
583.809	8018.59
584.169	8026.05
584.529	8001.19
584.889	7987.4
585.249	7978.82
585.609	7925.03
585.969	7963.9
586.329	7885.26
586.688	7945.6
587.048	7857.24
587.408	7870.34
587.768	7904.92
588.127	7844.13
588.487	7862.43
588.846	7916.44
589.206	7824.7
589.565	7760.06
589.925	7804.81
590.284	7769.56
590.643	7831.93
591.003	7870.34
591.362	7853.17
591.721	7757.13
592.08	7787.86
592.44	7850.01
592.799	7797.58
593.158	7760.74
593.517	7725.49
593.876	7762.32
594.235	7732.04
594.593	7806.39
594.952	7741.99
595.311	7720.29
595.67	7718.94
596.029	7774.98
596.387	7770.23
596.746	7733.17
597.104	7595.55
597.463	7694.3
597.822	7724.81
598.18	7613.18
598.538	7658.37
598.897	7722.1
599.255	7595.55
599.613	7723.23
599.972	7614.31
600.33	7637.58
600.688	7609.79
601.046	7671.03
601.404	7639.16
601.762	7605.49
602.12	7652.72
602.478	7597.36
602.836	7619.05
603.194	7572.5
603.552	7633.29
603.91	7573.85
604.268	7638.26
604.625	7562.33
604.983	7583.8
605.341	7630.8
605.698	7598.49
606.056	7676.9
606.413	7639.62
606.771	7686.85
607.128	7671.48
607.485	7555.1
607.843	7611.14
608.2	7650.24
608.557	7640.75
608.914	7574.08
609.272	7654.08
609.629	7609.33
609.986	7603.46
610.343	7595.32
610.7	7666.06
611.057	7713.74
611.414	7651.82
611.771	7611.37
612.127	7686.62
612.484	7584.25
612.841	7668.77
613.198	7658.15
613.554	7628.99
613.911	7686.39
614.267	7671.71
614.624	7607.07
614.98	7644.36
615.337	7735.21
615.693	7734.08
616.05	7662.89
616.406	7710.57
616.762	7674.19
617.118	7695.66
617.475	7708.77
617.831	7651.14
618.187	7738.37
618.543	7710.12
618.899	7743.79
619.255	7717.58
619.611	7752.38
619.967	7799.84
620.323	7713.74
620.678	7671.48
621.034	7719.39
621.39	7701.31
621.746	7675.09
622.101	7780.85
622.457	7767.97
622.812	7793.51
623.168	7803.23
623.523	7741.53
623.879	7766.39
624.234	7716.9
624.589	7732.72
624.945	7767.07
625.3	7744.7
625.655	7712.16
626.01	7728.65
626.365	7760.52
626.72	7687.3
627.075	7716.68
627.43	7745.83
627.785	7750.57
628.14	7693.85
628.495	7700.4
628.85	7683.23
629.205	7716.45
629.559	7692.72
629.914	7663.8
630.269	7613.85
630.623	7635.77
630.978	7608.88
631.332	7656.34
631.687	7705.83
632.041	7639.84
632.396	7596.68
632.75	7618.83
633.104	7630.12
633.459	7620.18
633.813	7547.64
634.167	7579.73
634.521	7652.04
634.875	7560.97
635.229	7587.64
635.583	7518.26
635.937	7490.47
636.291	7502.67
636.645	7519.17
636.999	7525.95
637.352	7451.82
637.706	7470.35
638.06	7440.07
638.413	7435.55
638.767	7452.95
639.121	7467.19
639.474	7426.06
639.828	7457.47
640.181	7365.05
640.534	7425.38
640.888	7347.65
641.241	7351.49
641.594	7387.87
641.947	7393.75
642.301	7391.03
642.654	7405.95
643.007	7380.19
643.36	7363.69
643.713	7346.97
644.066	7360.53
644.419	7324.82
644.771	7270.81
645.124	7225.62
645.477	7210.02
645.83	7164.37
646.182	7096.58
646.535	7070.59
646.888	7169.35
647.24	7106.07
647.593	7121.89
647.945	7085.28
648.298	7151.49
648.65	7106.07
649.002	7089.35
649.355	7081.66
649.707	7087.54
650.059	7163.24
650.411	7202.79
650.763	7282.34
651.115	7302.9
651.467	7261.77
651.819	7332.28
652.171	7289.12
652.523	7222.9
652.875	7356.23
653.227	7276.46
653.578	7334.99
653.93	7255.9
654.282	7261.32
654.633	7252.96
654.985	7248.89
655.337	7269
655.688	7289.57
656.039	7347.65
656.391	7202.34
656.742	7317.59
657.094	7309.23
657.445	7342.9
657.796	7339.51
658.147	7284.14
658.498	7299.51
658.849	7337.93
659.2	7306.52
659.551	7343.13
659.902	7326.86
660.253	7362.33
660.604	7348.78
660.955	7323.47
661.306	7314.88
661.656	7367.31
662.007	7391.49
662.358	7326.86
662.708	7387.42
663.059	7304.03
663.409	7352.39
663.76	7365.27
664.11	7361.2
664.461	7341.54
664.811	7430.58
665.161	7376.35
665.511	7408.21
665.862	7394.65
666.212	7389.45
666.562	7401.88
666.912	7413.63
667.262	7363.01
667.612	7379.28
667.962	7361.2
668.312	7344.93
668.662	7378.83
669.011	7384.48
669.361	7407.08
669.711	7371.6
670.06	7354.88
670.41	7402.79
670.76	7306.97
671.109	7369.34
671.459	7288.66
671.808	7283.92
672.157	7374.54
672.507	7324.14
672.856	7336.35
673.205	7340.41
673.554	7379.74
673.904	7316.69
674.253	7383.13
674.602	7336.12
674.951	7250.47
675.3	7210.47
675.649	7278.27
675.998	7309.91
676.346	7254.31
676.695	7298.83
677.044	7251.83
677.393	7247.08
677.741	7219.29
678.09	7171.83
678.438	7249.34
678.787	7258.83
679.135	7191.27
679.484	7220.87
679.832	7158.27
680.181	7204.82
680.529	7173.87
680.877	7146.52
681.225	7116.47
681.573	7176.35
681.922	7121.66
682.27	7115.34
682.618	7116.69
682.966	7109.23
683.314	7092.96
683.661	7117.6
684.009	6993.53
684.357	6939.52
684.705	6952.18
685.053	6976.81
685.4	7009.35
685.748	6946.53
686.095	6955.11
686.443	6870.82
686.79	6852.52
687.138	6892.74
687.485	6899.75
687.832	6853.42
688.18	6884.16
688.527	6752.18
688.874	6871.73
689.221	6809.81
689.568	6736.36
689.915	6737.49
690.262	6738.17
690.609	6742.92
690.956	6661.11
691.303	6644.61
691.65	6651.39
691.997	6724.39
692.344	6631.05
692.69	6607.55
693.037	6635.35
693.383	6506.99
693.73	6501.34
694.077	6506.09
694.423	6481.45
694.769	6430.83
695.116	6396.48
695.462	6431.74
695.808	6394.68
696.155	6425.64
696.501	6309.93
696.847	6297.28
697.193	6311.06
697.539	6307
697.885	6216.83
698.231	6255.7
698.577	6263.15
698.923	6240.56
699.269	6197.39
699.614	6172.31
699.96	6089.15
700.306	6080.56
700.651	6044.86
700.997	6077.17
701.342	6033.1
701.688	6008.7
702.033	5993.56
702.379	5981.58
702.724	5980
703.069	5943.61
703.415	5907.91
703.76	5881.47
704.105	5851.64
704.45	5830.4
704.795	5815.03
705.14	5815.03
705.485	5753.34
705.83	5749.5
706.175	5756.95
706.52	5758.54
706.865	5709.04
707.209	5669.27
707.554	5645.77
707.899	5650.97
708.243	5688.25
708.588	5645.54
708.932	5589.27
709.277	5610.06
709.621	5619.1
709.966	5548.15
710.31	5535.26
710.654	5572.78
710.998	5521.03
711.342	5544.98
711.687	5554.7
712.031	5486.9
712.375	5506.11
712.719	5475.38
713.063	5416.85
713.407	5458.66
713.75	5434.93
714.094	5406.91
714.438	5392.44
714.782	5404.87
715.125	5406.91
715.469	5399.22
715.812	5399.9
716.156	5355.38
716.499	5319.22
716.843	5342.5
717.186	5309.73
717.53	5377.3
717.873	5359.45
718.216	5294.82
718.559	5290.98
718.902	5245.1
719.246	5328.49
719.589	5263.18
719.932	5295.5
720.275	5265.44
720.617	5281.49
720.96	5234.48
721.303	5245.1
721.646	5266.57
721.989	5283.07
722.331	5227.93
722.674	5222.28
723.016	5218.66
723.359	5203.75
723.701	5204.65
724.044	5229.51
724.386	5178.44
724.729	5203.3
725.071	5165.56
725.413	5207.14
725.755	5193.8
726.097	5171.66
726.439	5153.13
726.782	5153.35
727.124	5261.82
727.465	5169.62
727.807	5130.3
728.149	5158.78
728.491	5150.42
728.833	5151.77
729.175	5169.85
729.516	5193.58
729.858	5152.68
730.199	5207.82
730.541	5138.89
730.882	5149.74
731.224	5182.5
731.565	5128.27
731.906	5085.78
732.248	5157.19
732.589	5130.3
732.93	5101.83
733.271	5146.35
733.612	5180.47
733.953	5222.5
734.294	5130.3
734.635	5143.41
734.976	5178.66
735.317	5171.21
735.658	5182.96
735.999	5165.1
736.339	5232.9
736.68	5269.96
737.021	5194.03
737.361	5186.57
737.702	5215.05
738.042	5200.58
738.383	5232.9
738.723	5270.64
739.063	5239.23
739.404	5283.07
739.744	5238.1
740.084	5252.33
740.424	5274.93
740.764	5319.9
741.104	5322.16
741.444	5301.37
741.784	5322.39
742.124	5315.83
742.464	5335.27
742.804	5354.48
743.143	5443.06
743.483	5436.51
743.823	5413.69
744.162	5473.34
744.502	5494.81
744.841	5497.75
745.181	5552.44
745.52	5590.4
745.86	5606.67
746.199	5665.2
746.538	5687.58
746.877	5716.28
747.216	5766.44
747.556	5773.68
747.895	5822.49
748.234	5864.07
748.573	5888.7
748.911	5945.2
749.25	6045.53
749.589	6041.69
749.928	6168.69
750.267	6250.5
750.605	6275.13
750.944	6314.23
751.283	6401.91
751.621	6510.38
751.96	6512.19
752.298	6691.62
752.636	6727.78
752.975	6824.72
753.313	6891.84
753.651	6964.38
753.989	7102
754.327	7254.99
754.666	7328.89
755.004	7420.41
755.342	7600.97
755.679	7736.11
756.017	7882.77
756.355	8016.1
756.693	8052.26
757.031	8256.55
757.368	8366.83
757.706	8500.16
758.044	8618.12
758.381	8783.77
758.719	8975.85
759.056	9136.53
759.394	9262.85
759.731	9370.87
760.068	9622.16
760.405	9700.58
760.743	9876.17
761.08	10090.62
761.417	10299.88
761.754	10481.12
762.091	10620.33
762.428	10779.87
762.765	10966.99
763.102	11206.75
763.438	11287.66
763.775	11519.74
764.112	11677.48
764.449	11850.8
764.785	12074.98
765.122	12161.76
765.458	12316.33
765.795	12502.31
766.131	12616.21
766.467	12802.19
766.804	12923.32
