Data from hue_24_FLMS001491_00077.txt Node
Date: Tue Feb 07 17:12:44 GMT 2017
User: dcchb
Spectrometer: FLMS00149
Trigger mode: 0
Integration Time (sec): 2.000000E-2
Scans to average: 10
Electric dark correction enabled: true
Nonlinearity correction enabled: false
Boxcar width: 0
XAxis mode: Wavelengths
Number of Pixels in Spectrum: 2048
>>>>>Begin Spectral Data<<<<<
341.393	-16.88
341.776	-16.88
342.16	-16.88
342.543	-68.85
342.927	-67.05
343.31	-66.14
343.693	-73.15
344.077	-81.74
344.46	-60.94
344.843	-35.63
345.226	-44.9
345.61	-28.86
345.993	-16.88
346.376	-15.75
346.759	4.82
347.142	12.5
347.525	37.13
347.908	63.35
348.291	66.28
348.674	103.12
349.057	136.79
349.44	113.97
349.823	180.4
350.206	166.62
350.588	189.9
350.971	227.86
351.354	236.67
351.737	246.84
352.119	260.63
352.502	271.02
352.884	281.42
353.267	279.39
353.65	302.21
354.032	325.94
354.414	287.75
354.797	304.92
355.179	318.03
355.562	310.57
355.944	326.39
356.326	317.58
356.709	334.98
357.091	331.81
357.473	340.17
357.855	338.82
358.238	355.32
358.62	325.49
359.002	354.86
359.384	346.73
359.766	352.15
360.148	348.99
360.53	325.71
360.912	331.81
361.294	334.75
361.676	353.28
362.057	350.34
362.439	324.36
362.821	350.12
363.203	344.92
363.584	318.03
363.966	316.22
364.348	317.12
364.729	312.38
365.111	315.54
365.493	332.72
365.874	330.91
366.256	324.36
366.637	312.38
367.019	311.25
367.4	301.31
367.781	310.57
368.163	335.43
368.544	320.06
368.925	327.07
369.306	319.61
369.688	317.12
370.069	314.19
370.45	302.44
370.831	345.37
371.212	315.99
371.593	315.99
371.974	312.83
372.355	298.37
372.736	303.57
373.117	310.34
373.498	314.86
373.879	317.12
374.26	318.71
374.641	295.43
375.021	331.36
375.402	344.24
375.783	304.24
376.163	344.47
376.544	323.9
376.925	351.93
377.305	346.05
377.686	340.85
378.066	320.29
378.447	310.8
378.827	333.62
379.208	334.75
379.588	333.17
379.968	335.43
380.349	337.24
380.729	315.54
381.109	333.4
381.489	339.27
381.87	340.63
382.25	361.64
382.63	343.34
383.01	341.3
383.39	360.06
383.77	346.05
384.15	332.04
384.53	369.33
384.91	357.58
385.29	360.97
385.67	333.4
386.049	353.28
386.429	362.55
386.809	362.55
387.189	360.29
387.568	345.37
387.948	369.1
388.328	364.81
388.707	366.84
389.087	357.12
389.466	377.69
389.846	351.47
390.225	378.14
390.605	371.81
390.984	360.29
391.363	375.43
391.743	374.52
392.122	383.79
392.501	408.42
392.881	372.72
393.26	383.11
393.639	364.81
394.018	372.26
394.397	384.47
394.776	382.66
395.155	408.87
395.534	393.05
395.913	377.91
396.292	388.08
396.671	400.51
397.05	390.79
397.429	417.46
397.808	397.12
398.186	401.87
398.565	384.47
398.944	389.21
399.323	384.92
399.701	378.37
400.08	397.8
400.458	418.59
400.837	395.54
401.215	405.48
401.594	407.97
401.972	397.12
402.351	425.37
402.729	405.48
403.107	436.9
403.486	395.54
403.864	399.61
404.242	418.82
404.62	414.52
404.999	430.12
405.377	408.87
405.755	417.69
406.133	421.53
406.511	441.87
406.889	441.64
407.267	435.54
407.645	438.25
408.023	459.04
408.401	443
408.779	431.02
409.156	443
409.534	436.67
409.912	433.73
410.29	452.26
410.667	437.57
411.045	478.93
411.422	461.08
411.8	502.2
412.178	475.99
412.555	461.08
412.933	478.25
413.31	485.26
413.687	473.73
414.065	483.22
414.442	448.42
414.819	482.77
415.197	491.81
415.574	499.94
415.951	497.23
416.328	500.17
416.705	492.94
417.082	511.24
417.46	490.68
417.837	496.33
418.214	513.96
418.591	552.15
418.967	512.15
419.344	519.38
419.721	529.55
420.098	527.51
420.475	520.06
420.852	518.93
421.228	546.5
421.605	528.19
421.982	552.82
422.358	556.89
422.735	539.94
423.111	523.45
423.488	554.63
423.864	546.04
424.241	565.48
424.617	572.94
424.994	567.97
425.37	565.93
425.746	573.61
426.123	580.17
426.499	559.15
426.875	573.61
427.251	593.5
427.627	576.78
428.003	599.83
428.379	611.13
428.756	596.44
429.132	591.47
429.507	614.74
429.883	578.13
430.259	637.79
430.635	633.73
431.011	641.86
431.387	644.12
431.763	630.11
432.138	646.61
432.514	654.06
432.89	648.42
433.265	657.45
433.641	679.37
434.016	675.53
434.392	681.63
434.767	700.17
435.143	682.54
435.518	669.66
435.894	722.31
436.269	724.57
436.644	717.34
437.02	726.15
437.395	727.51
437.77	715.08
438.145	723.44
438.52	728.87
438.895	771.58
439.271	741.29
439.646	768.41
440.021	771.12
440.395	784
440.77	769.32
441.145	761.41
441.52	787.39
441.895	773.38
442.27	784.23
442.645	787.62
443.019	795.08
443.394	796.66
443.769	799.37
444.143	806.38
444.518	803.21
444.892	829.65
445.267	820.16
445.641	807.51
446.016	816.32
446.39	834.85
446.764	847.96
447.139	835.75
447.513	829.2
447.887	850.9
448.262	846.15
448.636	839.6
449.01	859.26
449.384	870.33
449.758	859.03
450.132	894.51
450.506	876.21
450.88	908.75
451.254	880.05
451.628	917.33
452.002	895.87
452.376	881.86
452.75	901.97
453.123	926.15
453.497	930.44
453.871	938.58
454.244	919.59
454.618	973.38
454.992	962.53
455.365	971.8
455.739	994.62
456.112	1025.81
456.486	993.49
456.859	1007.95
457.232	1052.92
457.606	1041.63
457.979	1059.48
458.352	1050.44
458.725	1077.1
459.099	1082.08
459.472	1060.83
459.845	1090.21
460.218	1105.35
460.591	1117.78
460.964	1120.49
461.337	1162.53
461.71	1184.9
462.083	1164.79
462.456	1178.12
462.829	1197.33
463.201	1184.67
463.574	1221.51
463.947	1240.26
464.32	1236.2
464.692	1223.09
465.065	1244.11
465.438	1278.23
465.81	1291.56
466.183	1307.15
466.555	1339.47
466.928	1339.47
467.3	1332.92
467.672	1340.15
468.045	1389.86
468.417	1386.93
468.789	1397.1
469.161	1439.58
469.534	1451.11
469.906	1485.91
470.278	1486.59
470.65	1529.3
471.022	1525.68
471.394	1562.97
471.766	1523.19
472.138	1578.79
472.51	1627.15
472.882	1630.99
473.253	1650.42
473.625	1689.07
473.997	1748.05
474.369	1751.66
474.74	1766.58
475.112	1781.72
475.484	1825.56
475.855	1844.77
476.227	1880.02
476.598	1904.88
476.97	1909.17
477.341	1989.62
477.713	2009.51
478.084	2047.7
478.455	2078.21
478.827	2093.12
479.198	2167.25
479.569	2219.67
479.94	2251.08
480.311	2275.04
480.682	2326.34
481.053	2405.66
481.424	2439.55
481.795	2434.36
482.166	2476.84
482.537	2524.3
482.908	2560.68
483.279	2628.02
483.65	2682.71
484.021	2730.39
484.391	2781.69
484.762	2789.83
485.133	2851.75
485.503	2898.75
485.874	2929.03
486.244	2962.93
486.615	3013.78
486.985	3088.8
487.356	3137.84
487.726	3181
488.097	3231.4
488.467	3261.23
488.837	3326.54
489.207	3422.35
489.578	3438.17
489.948	3497.38
490.318	3548.23
490.688	3564.5
491.058	3591.16
491.428	3663.48
491.798	3708.22
492.168	3791.38
492.538	3814.21
492.908	3827.31
493.278	3917.03
493.648	3936.69
494.017	3999.97
494.387	4032.51
494.757	4053.98
495.126	4119.96
495.496	4114.76
495.866	4175.78
496.235	4218.49
496.605	4280.64
496.974	4307.75
497.344	4311.14
497.713	4385.27
498.082	4405.83
498.452	4480.18
498.821	4457.58
499.19	4513.62
499.559	4541.42
499.928	4548.65
500.298	4597.01
500.667	4645.6
501.036	4648.76
501.405	4682.89
501.774	4671.13
502.143	4757.46
502.512	4746.39
502.88	4820.96
503.249	4782.09
503.618	4853.73
503.987	4882.88
504.356	4896.67
504.724	4925.14
505.093	4950.45
505.462	4997.91
505.83	4983.67
506.199	5067.96
506.567	5107.28
506.936	5095.53
507.304	5169.43
507.672	5202.87
508.041	5185.7
508.409	5281.97
508.777	5237.22
509.145	5294.17
509.514	5306.15
509.882	5312.7
510.25	5356.09
510.618	5380.95
510.986	5367.39
511.354	5458.68
511.722	5434.28
512.09	5543.88
512.458	5493.94
512.826	5590.88
513.193	5575.29
513.561	5634.27
513.929	5608.28
514.297	5724.67
514.664	5655.52
515.032	5688.28
515.4	5723.08
515.767	5723.08
516.135	5761.5
516.502	5785.23
516.869	5808.73
517.237	5782.07
517.604	5833.82
517.972	5946.13
518.339	5894.15
518.706	5962.17
519.073	5956.98
519.44	6018.44
519.808	6053.7
520.175	6033.13
520.542	6117.42
520.909	6143.86
521.276	6116.75
521.643	6158.33
522.009	6142.96
522.376	6248.27
522.743	6258.89
523.11	6341.6
523.477	6351.32
523.843	6388.83
524.21	6431.99
524.577	6488.26
524.943	6486
525.31	6547.02
525.676	6556.06
526.043	6615.04
526.409	6574.81
526.776	6665.66
527.142	6685.09
527.508	6785.43
527.874	6771.64
528.241	6795.6
528.607	6806.22
528.973	6885.54
529.339	6843.28
529.705	6967.8
530.071	6986.1
530.437	7006.44
530.803	7063.61
531.169	7088.47
531.535	7111.3
531.901	7099.77
532.267	7126.21
532.632	7203.5
532.998	7196.72
533.364	7277.85
533.73	7325.08
534.095	7358.3
534.461	7363.72
534.826	7431.51
535.192	7426.77
535.557	7456.15
535.923	7441.91
536.288	7500.21
536.653	7607.1
537.019	7531.17
537.384	7619.08
537.749	7657.95
538.114	7622.24
538.479	7636.93
538.845	7740.43
539.21	7699.53
539.575	7739.53
539.94	7822.24
540.305	7787.66
540.67	7884.16
541.034	7922.8
541.399	7925.51
541.764	7969.58
542.129	7996.92
542.494	8030.14
542.858	8106.3
543.223	8065.62
543.587	8060.65
543.952	8130.03
544.316	8196.24
544.681	8145.85
545.045	8218.39
545.41	8272.85
545.774	8283.02
546.138	8316.01
546.503	8335.9
546.867	8370.25
547.231	8398.04
547.595	8433.3
547.959	8499.28
548.324	8488.43
548.688	8507.42
549.052	8519.85
549.416	8573.86
549.779	8593.74
550.143	8653.85
550.507	8725.94
550.871	8697.92
551.235	8722.55
551.599	8722.33
551.962	8775.21
552.326	8792.61
552.689	8897.69
553.053	8837.13
553.417	8941.98
553.78	9010.23
554.143	8990.12
554.507	8919.38
554.87	8949.44
555.234	9078.02
555.597	9030.12
555.96	9072.6
556.323	9128.87
556.686	9184.91
557.05	9192.82
557.413	9200.28
557.776	9252.71
558.139	9308.07
558.502	9290.45
558.865	9303.1
559.228	9378.81
559.59	9408.64
559.953	9377.9
560.316	9558.24
560.679	9473.27
561.041	9561.85
561.404	9597.33
561.767	9668.52
562.129	9629.42
562.492	9709.19
562.854	9695.86
563.217	9747.84
563.579	9738.57
563.941	9836.42
564.304	9902.41
564.666	9923.2
565.028	9873.26
565.39	9983.54
565.753	10051.33
566.115	10029.64
566.477	10084.1
566.839	10061.95
567.201	10088.62
567.563	10203.42
567.925	10198.45
568.287	10279.12
568.648	10247.03
569.01	10357.31
569.372	10383.75
569.734	10276.41
570.095	10460.13
570.457	10417.65
570.819	10531.09
571.18	10536.29
571.542	10529.51
571.903	10614.48
572.265	10694.03
572.626	10672.11
572.987	10790.97
573.349	10830.75
573.71	10899.45
574.071	10952.1
574.432	10885.89
574.794	11068.48
575.155	11052.21
575.516	11101.25
575.877	11272.09
576.238	11237.06
576.599	11340.56
576.96	11423.27
577.32	11551.63
577.681	11583.04
578.042	11676.83
578.403	11775.58
578.763	11853.54
579.124	11985.52
579.485	12056.48
579.845	12190.71
580.206	12301.67
580.566	12336.7
580.927	12541.44
581.287	12676.57
581.648	12716.12
582.008	12977.13
582.368	13017.58
582.728	13189.33
583.089	13326.05
583.449	13420.51
583.809	13643.78
584.169	13798.58
584.529	13913.15
584.889	14127.38
585.249	14300.71
585.609	14423.87
585.969	14693.92
586.329	14864.99
586.688	15139.79
587.048	15315.37
587.408	15430.4
587.768	15694.57
588.127	15947.45
588.487	16125.75
588.846	16519.86
589.206	16596.92
589.565	16884.82
589.925	17249.79
590.284	17433.96
590.643	17700.85
591.003	18029.43
591.362	18403.43
591.721	18517.78
592.08	18797.99
592.44	19133.13
592.799	19420.58
593.158	19623.96
593.517	19963.84
593.876	20377.16
594.235	20489.7
594.593	20828.45
594.952	21177.37
595.311	21378.94
595.67	21656.22
596.029	22207.17
596.387	22436.32
596.746	22832.92
597.104	22991.1
597.463	23255.73
597.822	23699.79
598.18	23902.27
598.538	24159.66
598.897	24603.27
599.255	24636.71
599.613	25363.7
599.972	25496.12
600.33	25871.25
600.688	26000.52
601.046	26328.19
601.404	26787.61
601.762	26978.12
602.12	27329.3
602.478	27541.04
602.836	27932.22
603.194	28080.01
603.552	28301.93
603.91	28662.59
604.268	29016.03
604.625	29181.9
604.983	29604.94
605.341	29626.41
605.698	29991.15
606.056	30316.56
606.413	30612.6
606.771	30955.64
607.128	31168.52
607.485	31218.23
607.843	31545.23
608.2	31903.64
608.557	32224.31
608.914	32375.26
609.272	32693.22
609.629	32797.4
609.986	33302.7
610.343	33464.05
610.7	33704.04
611.057	33666.98
611.414	33866.98
611.771	34244.14
612.127	34461.99
612.484	34660.85
612.841	34999.83
613.198	35057.45
613.554	35261.29
613.911	35583.99
614.267	35771.33
614.624	35756.87
614.98	35840.48
615.337	36271.21
615.693	36514.59
616.05	36657.41
616.406	36881.36
616.762	36945.31
617.118	37039.55
617.475	37291.75
617.831	37388.92
618.187	37696.93
618.543	37699.42
618.899	38088.11
619.255	38097.37
619.611	38280.65
619.967	38517.93
620.323	38563.8
620.678	38608.32
621.034	38609.9
621.39	38802.44
621.746	38890.12
622.101	39416.66
622.457	39159.04
622.812	39289.66
623.168	39519.94
623.523	39633.6
623.879	39973.48
624.234	39713.38
624.589	39979.58
624.945	39879.02
625.3	40195.62
625.655	40097.77
626.01	40186.36
626.365	40380.03
626.72	40416.64
627.075	40436.52
627.43	40437.43
627.785	40495.73
628.14	40722.62
628.495	40647.59
628.85	40876.96
629.205	40560.36
629.559	40876.06
629.914	40789.51
630.269	40921.03
630.623	40968.03
630.978	40787.47
631.332	41044.42
631.687	41091.42
632.041	41055.71
632.396	41153.56
632.75	41083.28
633.104	41098.2
633.459	40962.38
633.813	40850.52
634.167	41026.34
634.521	41112.44
634.875	41303.62
635.229	41276.73
635.583	40870.41
635.937	41208.48
636.291	41209.38
636.645	41194.69
636.999	41098.2
637.352	41306.33
637.706	41088.03
638.06	41341.36
638.413	41182.94
638.767	41103.4
639.121	41156.05
639.474	41025.88
639.828	41019.78
640.181	41125.54
640.534	41121.7
640.888	41054.36
641.241	40877.64
641.594	40942.27
641.947	41122.15
642.301	40985.66
642.654	41115.15
643.007	41112.66
643.36	41025.21
643.713	40930.29
644.066	41096.39
644.419	41015.72
644.771	40657.98
645.124	40295.73
645.477	40271.1
645.83	40156.75
646.182	40038.34
646.535	39961.05
646.888	40133.25
647.24	39883.54
647.593	40086.25
647.945	39926.93
648.298	39796.54
648.65	39720.38
649.002	39644
649.355	39849.42
649.707	39681.74
650.059	40023.88
650.411	40355.85
650.763	40369.63
651.115	40886
651.467	40725.33
651.819	40740.24
652.171	40594.71
652.523	40499.12
652.875	40675.39
653.227	40518.1
653.578	40709.96
653.93	40627.48
654.282	40463.64
654.633	40306.36
654.985	40439.01
655.337	40565.33
655.688	40533.47
656.039	40594.94
656.391	40361.72
656.742	40418.44
657.094	40425.22
657.445	40631.54
657.796	40377.99
658.147	40464.32
658.498	40506.12
658.849	40446.69
659.2	40471.1
659.551	40385
659.902	40592.22
660.253	40254.61
660.604	40490.53
660.955	40216.19
661.306	40404.66
661.656	40315.39
662.007	40393.81
662.358	40229.07
662.708	40280.59
663.059	40370.08
663.409	39947.72
663.76	40465.9
664.11	40262.29
664.461	40362.63
664.811	40391.55
665.161	40392.23
665.511	40210.76
665.862	40324.66
666.212	40401.95
666.562	40317.2
666.912	40325.34
667.262	40206.92
667.612	40169.41
667.962	40314.04
668.312	40230.2
668.662	40345.22
669.011	40145.91
669.361	40067.94
669.711	40164.89
670.06	40095.51
670.41	40056.42
670.76	39875.86
671.109	40183.65
671.459	40154.04
671.808	40164.66
672.157	40178.9
672.507	39890.77
672.856	40003.76
673.205	39933.03
673.554	40170.31
673.904	39925.12
674.253	40108.62
674.602	40067.04
674.951	39532.82
675.3	39326.49
675.649	39904.56
675.998	39935.52
676.346	39773.49
676.695	39845.8
677.044	39648.75
677.393	39741.85
677.741	39877.67
678.09	39771
678.438	39745.24
678.787	39674.51
679.135	39821.4
679.484	39518.58
679.832	39615.53
680.181	39295.99
680.529	39521.29
680.877	39327.4
681.225	39333.5
681.573	39557.45
681.922	39307.74
682.27	39215.99
682.618	39236.55
682.966	39239.49
683.314	39274.29
683.661	39091.92
684.009	38842.89
684.357	38892.16
684.705	38922.21
685.053	38979.38
685.4	38811.48
685.748	38631.15
686.095	38629.79
686.443	38416.46
686.79	38439.51
687.138	38561.99
687.485	38552.05
687.832	38411.49
688.18	38492.17
688.527	38226.64
688.874	38227.77
689.221	38267.99
689.568	38030.94
689.915	38006.3
690.262	37886.08
690.609	37810.6
690.956	37665.07
691.303	37679.08
691.65	37412.19
691.997	37535.13
692.344	37238.19
692.69	37212.65
693.037	37348.02
693.383	37032.77
693.73	37084.97
694.077	36939.21
694.423	36889.95
694.769	36853.79
695.116	36618.32
695.462	36700.57
695.808	36541.26
696.155	36537.87
696.501	36407.93
696.847	36418.1
697.193	36159.57
697.539	36209.29
697.885	36017.2
698.231	35969.52
698.577	35961.16
698.923	35725.23
699.269	35642.3
699.614	35547.84
699.96	35462.42
700.306	35518.91
700.651	35391.68
700.997	35187.17
701.342	35139.71
701.688	35061.52
702.033	34951.02
702.379	35050.22
702.724	34772.94
703.069	34893.62
703.415	34415.66
703.76	34620.63
704.105	34565.26
704.45	34594.19
704.795	34318.72
705.14	34185.16
705.485	34197.14
705.83	34142.68
706.175	34113.07
706.52	33906.07
706.865	33935.45
707.209	33910.82
707.554	33826.3
707.899	33791.72
708.243	33570.49
708.588	33629.47
708.932	33370.94
709.277	33300.66
709.621	33322.81
709.966	33145.41
710.31	33258.18
710.654	32841.69
710.998	32989.03
711.342	33069.48
711.687	32865.42
712.031	32722.83
712.375	32668.59
712.719	32873.33
713.063	32549.5
713.407	32726.22
713.75	32500.23
714.094	32512.21
714.438	32430.63
714.782	32457.75
715.125	32258.88
715.469	32384.76
715.812	32046.69
716.156	32053.69
716.499	31956.29
716.843	32009.17
717.186	31775.28
717.53	31956.74
717.873	31995.61
718.216	31940.7
718.559	31756.52
718.902	31489.19
719.246	31694.38
719.589	31503.88
719.932	31358.34
720.275	31333.26
720.617	31294.84
720.96	31358.12
721.303	31349.08
721.646	31270.89
721.989	31023.89
722.331	31252.58
722.674	31082.87
723.016	31065.69
723.359	30908.86
723.701	31033.38
724.044	30865.25
724.386	30775.31
724.729	30797.45
725.071	30790.22
725.413	30634.75
725.755	30679.49
726.097	30524.01
726.439	30442.43
726.782	30482.88
727.124	30681.3
727.465	30395.88
727.807	30393.4
728.149	30220.97
728.491	30227.75
728.833	30106.85
729.175	30128.54
729.516	30029.79
729.858	30007.64
730.199	30037.25
730.541	30112.05
730.882	29948.89
731.224	30087.19
731.565	29786.18
731.906	29786.18
732.248	29847.42
732.589	29691.95
732.93	29480.88
733.271	29790.47
733.612	29610.59
733.953	29796.12
734.294	29548.67
734.635	29464.15
734.976	29506.64
735.317	29251.28
735.658	29363.14
735.999	29331.28
736.339	29317.27
736.68	29393.87
737.021	29168.57
737.361	29152.07
737.702	29227.78
738.042	29155.01
738.383	29161.34
738.723	29011.51
739.063	29005.86
739.404	29115.69
739.744	28993.88
740.084	28844.28
740.424	28809.03
740.764	28760.9
741.104	28873.89
741.444	28669.37
741.784	28577.85
742.124	28688.58
742.464	28640.45
742.804	28581.92
743.143	28468.25
743.483	28502.82
743.823	28376.27
744.162	28359.1
744.502	28488.36
744.841	28312.32
745.181	28532.88
745.52	28303.51
745.86	28366.56
746.199	28358.87
746.538	28200.46
746.877	28167.47
747.216	28266.9
747.556	28271.64
747.895	28107.58
748.234	28070.97
748.573	27926.34
748.911	27995.72
749.25	28039.56
749.589	27958.66
749.928	27866
750.267	27860.13
750.605	27846.34
750.944	27777.65
751.283	27678.89
751.621	27713.47
751.96	27677.53
752.298	27658.33
752.636	27579.23
752.975	27519.35
753.313	27461.04
753.651	27471.44
753.989	27272.12
754.327	27336.08
754.666	27186.47
755.004	27137.21
755.342	27276.87
755.679	27111.9
756.017	27056.53
756.355	27196.87
756.693	26972.24
757.031	27023.77
757.368	26894.73
757.706	26846.82
758.044	26748.07
758.381	26780.16
758.719	26573.84
759.056	26769.54
759.394	26514.4
759.731	26387.85
