Data from hue_110_FLMS001491_00001.txt Node
Date: Tue Feb 07 17:00:48 GMT 2017
User: dcchb
Spectrometer: FLMS00149
Trigger mode: 0
Integration Time (sec): 2.000000E-2
Scans to average: 10
Electric dark correction enabled: true
Nonlinearity correction enabled: false
Boxcar width: 0
XAxis mode: Wavelengths
Number of Pixels in Spectrum: 2048
>>>>>Begin Spectral Data<<<<<
341.393	-25.24
341.776	-25.24
342.16	-25.24
342.543	-92.36
342.927	-64.56
343.31	-71.11
343.693	-78.12
344.077	-65.24
344.46	-72.47
344.843	-34.28
345.226	-39.7
345.61	-25.01
345.993	-21.62
346.376	-11
346.759	4.59
347.142	41.2
347.525	48.66
347.908	49.33
348.291	72.61
348.674	105.15
349.057	97.02
349.44	106.73
349.823	130.91
350.206	153.51
350.588	199.16
350.971	206.17
351.354	216.34
351.737	226.73
352.119	246.39
352.502	256.79
352.884	294.53
353.267	276.9
353.65	282.55
354.032	308.54
354.414	312.6
354.797	305.6
355.179	323.23
355.562	313.96
355.944	325.71
356.326	324.36
356.709	325.94
357.091	335.66
357.473	346.73
357.855	325.94
358.238	322.1
358.62	343.34
359.002	341.76
359.384	325.03
359.766	344.24
360.148	309.89
360.53	326.62
360.912	328.65
361.294	314.41
361.676	329.55
362.057	335.2
362.439	325.71
362.821	341.53
363.203	321.19
363.584	310.57
363.966	319.38
364.348	336.33
364.729	331.36
365.111	301.98
365.493	318.48
365.874	325.94
366.256	317.58
366.637	304.92
367.019	311.47
367.4	307.18
367.781	311.93
368.163	293.17
368.544	309.22
368.925	306.96
369.306	308.76
369.688	319.84
370.069	306.05
370.45	310.12
370.831	295.43
371.212	302.89
371.593	318.03
371.974	326.84
372.355	308.09
372.736	323.68
373.117	317.12
373.498	311.02
373.879	322.32
374.26	316.67
374.641	317.35
375.021	337.91
375.402	298.59
375.783	312.6
376.163	316.45
376.544	325.49
376.925	326.84
377.305	322.55
377.686	322.77
378.066	330.01
378.447	308.09
378.827	331.59
379.208	309.89
379.588	329.33
379.968	334.07
380.349	339.95
380.729	332.27
381.109	328.2
381.489	348.08
381.87	328.65
382.25	323
382.63	337.01
383.01	340.63
383.39	331.36
383.77	356.45
384.15	349.89
384.53	326.84
384.91	357.58
385.29	342.21
385.67	353.06
386.049	332.49
386.429	349.67
386.809	350.12
387.189	348.08
387.568	365.26
387.948	357.8
388.328	361.64
388.707	362.55
389.087	355.32
389.466	365.48
389.846	366.39
390.225	333.4
390.605	334.98
390.984	371.13
391.363	346.28
391.743	382.43
392.122	359.16
392.501	371.59
392.881	370.46
393.26	374.3
393.639	389.89
394.018	360.06
394.397	391.02
394.776	366.16
395.155	373.39
395.534	377.91
395.913	394.64
396.292	397.57
396.671	382.21
397.05	391.7
397.429	395.09
397.808	387.86
398.186	398.7
398.565	399.61
398.944	404.13
399.323	407.74
399.701	372.94
400.08	393.51
400.458	394.18
400.837	395.77
401.215	414.52
401.594	401.87
401.972	400.06
402.351	410.23
402.729	403.45
403.107	397.35
403.486	400.51
403.864	401.19
404.242	413.39
404.62	434.86
404.999	420.85
405.377	412.26
405.755	434.86
406.133	413.17
406.511	413.17
406.889	419.72
407.267	449.1
407.645	436.9
408.023	447.29
408.401	441.19
408.779	445.48
409.156	453.39
409.534	440.29
409.912	440.51
410.29	464.24
410.667	463.79
411.045	468.31
411.422	451.81
411.8	461.98
412.178	472.6
412.555	468.76
412.933	471.7
413.31	495.88
413.687	485.03
414.065	475.31
414.442	476.22
414.819	483.9
415.197	501.3
415.574	503.56
415.951	467.4
416.328	501.07
416.705	532.49
417.082	524.58
417.46	515.76
417.837	508.76
418.214	519.6
418.591	517.35
418.967	505.59
419.344	537.01
419.721	548.76
420.098	518.7
420.475	528.87
420.852	537.01
421.228	546.95
421.605	563.67
421.982	533.16
422.358	538.14
422.735	574.07
423.111	554.18
423.488	558.25
423.864	553.28
424.241	574.97
424.617	590.34
424.994	598.7
425.37	581.75
425.746	609.32
426.123	593.5
426.499	590.56
426.875	612.48
427.251	615.42
427.627	609.77
428.003	625.59
428.379	627.62
428.756	624.01
429.132	605.93
429.507	657.23
429.883	638.47
430.259	616.1
430.635	645.03
431.011	662.88
431.387	656.78
431.763	684.35
432.138	687.74
432.514	683.22
432.89	702.65
433.265	671.24
433.641	699.49
434.016	712.14
434.392	724.57
434.767	724.12
435.143	705.36
435.518	729.54
435.894	741.29
436.269	749.66
436.644	745.14
437.02	758.92
437.395	754.4
437.77	776.1
438.145	780.84
438.52	786.49
438.895	807.06
439.271	771.35
439.646	791.24
440.021	802.54
440.395	800.28
440.77	795.08
441.145	824.46
441.52	847.51
441.895	821.07
442.27	817.45
442.645	852.25
443.019	847.51
443.394	849.54
443.769	856.32
444.143	853.16
444.518	876.21
444.892	863.32
445.267	860.84
445.641	899.03
446.016	876.43
446.39	886.37
446.764	878.47
447.139	900.84
447.513	904.23
447.887	917.56
448.262	906.94
448.636	895.64
449.01	937.45
449.384	934.74
449.758	944.23
450.132	946.03
450.506	936.09
450.88	968.18
451.254	962.31
451.628	957.11
452.002	989.65
452.376	994.39
452.75	1010.89
453.123	1037.33
453.497	1002.76
453.871	1007.5
454.244	1034.85
454.618	1064.9
454.992	1101.06
455.365	1085.92
455.739	1090.21
456.112	1099.25
456.486	1136.31
456.859	1125.24
457.232	1138.8
457.606	1129.08
457.979	1154.39
458.352	1193.94
458.725	1183.99
459.099	1220.6
459.472	1202.98
459.845	1215.86
460.218	1246.59
460.591	1261.28
460.964	1274.39
461.337	1281.39
461.71	1325.23
462.083	1300.83
462.456	1322.52
462.829	1348.74
463.201	1353.93
463.574	1412.24
463.947	1399.13
464.32	1435.29
464.692	1459.02
465.065	1454.5
465.438	1470.31
465.81	1512.12
466.183	1492.46
466.555	1559.13
466.928	1538.11
467.3	1596.41
467.672	1621.5
468.045	1655.62
468.417	1669.63
468.789	1688.84
469.161	1707.6
469.534	1734.49
469.906	1754.15
470.278	1792.57
470.65	1833.92
471.022	1864.2
471.394	1910.08
471.766	1944.88
472.138	1964.76
472.51	2020.58
472.882	2078.21
473.253	2111.65
473.625	2131.99
473.997	2203.4
474.369	2203.63
474.74	2255.38
475.112	2335.38
475.484	2373.12
475.855	2441.81
476.227	2479.33
476.598	2571.53
476.97	2562.49
477.341	2675.03
477.713	2734.91
478.084	2776.04
478.455	2883.38
478.827	2887
479.198	3035.02
479.569	3063.72
479.94	3198.18
480.311	3223.04
480.682	3342.36
481.053	3422.58
481.424	3522.92
481.795	3614.89
482.166	3715.45
482.537	3833.19
482.908	3917.93
483.279	4007.42
483.65	4102.79
484.021	4214.2
484.391	4279.28
484.762	4381.2
485.133	4453.51
485.503	4642.43
485.874	4775.99
486.244	4907.51
486.615	4979.6
486.985	5086.49
487.356	5233.61
487.726	5368.29
488.097	5522.64
488.467	5607.38
488.837	5772.57
489.207	5873.36
489.578	6041.95
489.948	6150.19
490.318	6275.84
490.688	6409.85
491.058	6542.27
491.428	6688.93
491.798	6842.38
492.168	7017.29
492.538	7055.25
492.908	7235.81
493.278	7366.66
493.648	7511.29
494.017	7616.14
494.387	7738.62
494.757	7924.61
495.126	8012.29
495.496	8119.18
495.866	8169.57
496.235	8431.26
496.605	8592.16
496.974	8611.37
497.344	8785.15
497.713	8873.96
498.082	9009.1
498.452	9090
498.821	9242.09
499.19	9352.59
499.559	9426.04
499.928	9509.2
500.298	9696.31
500.667	9822.64
501.036	9903.99
501.405	10031.67
501.774	10048.39
502.143	10229.41
502.512	10289.29
502.88	10415.62
503.249	10434.15
503.618	10605.67
503.987	10672.56
504.356	10712.33
504.724	10866.68
505.093	10950.74
505.462	11075.26
505.83	10985.54
506.199	11201.36
506.567	11289.72
506.936	11342.15
507.304	11448.58
507.672	11561.35
508.041	11594.12
508.409	11716.82
508.777	11813.09
509.145	11873.66
509.514	11901
509.882	12039.53
510.25	12030.26
510.618	12105.74
510.986	12169.24
511.354	12273.87
511.722	12337.15
512.09	12514.09
512.458	12460.31
512.826	12522.23
513.193	12586.41
513.561	12672.96
513.929	12703.24
514.297	12791.6
514.664	12873.86
515.032	12870.92
515.4	12993.85
515.767	13025.94
516.135	13087.64
516.502	12981.88
516.869	13197.69
517.237	13269.78
517.604	13280.63
517.972	13323.79
518.339	13359.27
518.706	13333.28
519.073	13446.27
519.44	13506.83
519.808	13582.76
520.175	13520.85
520.542	13702.31
520.909	13681.97
521.276	13672.25
521.643	13757.9
522.009	13803.1
522.376	13904.56
522.743	13926.94
523.11	13945.24
523.477	14068.85
523.843	14079.25
524.21	14180.94
524.577	14245.12
524.943	14272.46
525.31	14293.25
525.676	14452.8
526.043	14321.28
526.409	14430.2
526.776	14455.28
527.142	14454.15
527.508	14518.56
527.874	14545
528.241	14600.59
528.607	14600.36
528.973	14663.19
529.339	14631.32
529.705	14726.24
530.071	14686.01
530.437	14654.37
530.803	14820.25
531.169	14773.02
531.535	14759.46
531.901	14715.84
532.267	14739.57
532.632	14828.83
532.998	14761.26
533.364	14824.09
533.73	14789.74
534.095	14832
534.461	14845.56
534.826	14763.07
535.192	14811.21
535.557	14895.95
535.923	14722.85
536.288	14732.56
536.653	14802.17
537.019	14631.55
537.384	14767.37
537.749	14716.07
538.114	14768.04
538.479	14674.71
538.845	14606.47
539.21	14628.39
539.575	14661.83
539.94	14635.39
540.305	14615.96
540.67	14541.16
541.034	14509.07
541.399	14519.24
541.764	14448.05
542.129	14533.02
542.494	14426.36
542.858	14435.62
543.223	14435.62
543.587	14500.93
543.952	14367.83
544.316	14354.27
544.681	14269.07
545.045	14282.41
545.41	14367.83
545.774	14326.02
546.138	14267.94
546.503	14163.99
546.867	14215.29
547.231	14206.48
547.595	14178.68
547.959	14153.6
548.324	14098.23
548.688	14041.06
549.052	14018.23
549.416	14063.2
549.779	14008.06
550.143	13931.23
550.507	14105.01
550.871	14024.11
551.235	13894.39
551.599	13950.66
551.962	13983.66
552.326	13914.51
552.689	14000.83
553.053	13834.96
553.417	13831.35
553.78	13903.66
554.143	13791.57
554.507	13838.58
554.87	13760.39
555.234	13818.69
555.597	13755.19
555.96	13725.36
556.323	13714.51
556.686	13782.31
557.05	13735.75
557.413	13750.67
557.776	13765.81
558.139	13797.67
558.502	13725.81
558.865	13657.11
559.228	13791.8
559.59	13739.37
559.953	13742.53
560.316	13841.06
560.679	13755.42
561.041	13782.08
561.404	13756.77
561.767	13864.34
562.129	13711.12
562.492	13885.13
562.854	13794.28
563.217	13781.63
563.579	13806.26
563.941	13829.31
564.304	13795.87
564.666	13892.81
565.028	13880.16
565.39	13933.49
565.753	14047.61
566.115	13948.4
566.477	14040.15
566.839	14024.11
567.201	14091.68
567.563	14067.72
567.925	14110.21
568.287	14078.12
568.648	13993.37
569.01	14067.95
569.372	14101.85
569.734	14046.03
570.095	14157.21
570.457	14227.27
570.819	14173.03
571.18	14171.68
571.542	14214.84
571.903	14154.27
572.265	14263.2
572.626	14307.49
572.987	14274.5
573.349	14260.94
573.71	14327.38
574.071	14282.41
574.432	14338
574.794	14410.31
575.155	14362.86
575.516	14292.35
575.877	14364.89
576.238	14371.44
576.599	14436.3
576.96	14410.09
577.32	14374.38
577.681	14415.51
578.042	14465.68
578.403	14487.83
578.763	14449.63
579.124	14413.93
579.485	14430.43
579.845	14518.56
580.206	14456.64
580.566	14449.63
580.927	14374.16
581.287	14473.59
581.648	14426.58
582.008	14404.21
582.368	14452.57
582.728	14447.6
583.089	14410.77
583.449	14458.67
583.809	14476.98
584.169	14385.46
584.529	14399.24
584.889	14485.34
585.249	14288.96
585.609	14309.98
585.969	14310.43
586.329	14379.58
586.688	14375.74
587.048	14349.98
587.408	14318.56
587.768	14270.88
588.127	14292.58
588.487	14290.77
588.846	14288.96
589.206	14259.58
589.565	14305.91
589.925	14299.36
590.284	14271.79
590.643	14314.27
591.003	14313.82
591.362	14311.56
591.721	14206.48
592.08	14182.07
592.44	14298
592.799	14274.5
593.158	14181.84
593.517	14279.47
593.876	14222.75
594.235	14154.73
594.593	14104.11
594.952	14143.43
595.311	14107.5
595.67	14060.04
596.029	14182.07
596.387	14251
596.746	14216.87
597.104	14172.58
597.463	14096.88
597.822	14163.54
598.18	14157.21
598.538	14076.99
598.897	14205.57
599.255	14042.87
599.613	14287.6
599.972	14085.58
600.33	14233.14
600.688	14081.51
601.046	14274.95
601.404	14156.31
601.762	14141.62
602.12	14278.79
602.478	14212.35
602.836	14288.96
603.194	14078.8
603.552	14127.16
603.91	14138.46
604.268	14224.78
604.625	14105.69
604.983	14188.85
605.341	14106.59
605.698	14172.58
606.056	14174.39
606.413	14204.67
606.771	14202.86
607.128	14215.97
607.485	14228.17
607.843	14236.08
608.2	14356.98
608.557	14207.83
608.914	14216.42
609.272	14331.22
609.629	14288.28
609.986	14258.23
610.343	14224.56
610.7	14370.99
611.057	14295.74
611.414	14380.26
611.771	14261.62
612.127	14394.49
612.484	14324.67
612.841	14420.48
613.198	14304.33
613.554	14337.55
613.911	14415.28
614.267	14421.61
614.624	14347.49
614.98	14399.92
615.337	14530.99
615.693	14481.95
616.05	14415.74
616.406	14500.25
616.762	14502.74
617.118	14467.26
617.475	14479.01
617.831	14533.93
618.187	14488.05
618.543	14590.2
618.899	14543.19
619.255	14613.02
619.611	14648.5
619.967	14602.17
620.323	14682.4
620.678	14637.43
621.034	14511.78
621.39	14501.38
621.746	14584.09
622.101	14650.98
622.457	14558.56
622.812	14631.78
623.168	14691.89
623.523	14663.19
623.879	14706.8
624.234	14615.51
624.589	14692.79
624.945	14612.34
625.3	14633.13
625.655	14691.44
626.01	14632.68
626.365	14647.6
626.72	14586.81
627.075	14622.06
627.43	14544.09
627.785	14554.72
628.14	14695.73
628.495	14607.14
628.85	14592.91
629.205	14568.28
629.559	14546.81
629.914	14494.38
630.269	14561.95
630.623	14477.88
630.978	14520.37
631.332	14454.83
631.687	14548.61
632.041	14345.68
632.396	14488.28
632.75	14423.87
633.104	14473.59
633.459	14455.06
633.813	14450.99
634.167	14363.31
634.521	14393.36
634.875	14398.34
635.229	14343.87
635.583	14320.82
635.937	14315.85
636.291	14263.65
636.645	14330.54
636.999	14157.21
637.352	14291.22
637.706	14156.76
638.06	14242.63
638.413	14148.85
638.767	14269.98
639.121	14233.14
639.474	14146.59
639.828	14100.04
640.181	14112.02
640.534	14125.57
640.888	14058.23
641.241	14071.57
641.594	14099.36
641.947	14086.71
642.301	14034.5
642.654	14064.33
643.007	14079.47
643.36	14042.64
643.713	13948.63
644.066	14100.49
644.419	13908.86
644.771	13934.85
645.124	13828.18
645.477	13699.15
645.83	13620.73
646.182	13599.49
646.535	13502.99
646.888	13606.72
647.24	13515.42
647.593	13556.55
647.945	13505.03
648.298	13540.51
648.65	13450.56
649.002	13464.12
649.355	13449.43
649.707	13527.17
650.059	13563.33
650.411	13755.64
650.763	13742.31
651.115	13842.64
651.467	13797.45
651.819	13794.51
652.171	13819.14
652.523	13729.88
652.875	13746.6
653.227	13720.61
653.578	13816.43
653.93	13808.75
654.282	13811.46
654.633	13717.45
654.985	13829.99
655.337	13767.39
655.688	13739.14
656.039	13877.22
656.391	13791.8
656.742	13811.23
657.094	13863.21
657.445	13785.47
657.796	13822.98
658.147	13806.26
658.498	13780.27
658.849	13847.62
659.2	13806.71
659.551	13743.44
659.902	13848.07
660.253	13752.03
660.604	13902.3
660.955	13806.04
661.306	13814.4
661.656	13810.78
662.007	13854.85
662.358	13865.24
662.708	13853.04
663.059	13877.22
663.409	13764.45
663.76	13931
664.11	13832.7
664.461	13813.94
664.811	13886.94
665.161	13879.25
665.511	13827.28
665.862	13810.55
666.212	13909.76
666.562	13832.48
666.912	13825.47
667.262	13900.72
667.612	13862.98
667.962	13867.95
668.312	13860.5
668.662	13844.9
669.011	13818.69
669.361	13780.05
669.711	13829.09
670.06	13757.9
670.41	13749.77
670.76	13706.38
671.109	13877.45
671.459	13744.34
671.808	13823.44
672.157	13769.2
672.507	13701.41
672.856	13714.29
673.205	13705.02
673.554	13796.09
673.904	13714.96
674.253	13818.92
674.602	13780.27
674.951	13590
675.3	13469.55
675.649	13757.22
675.998	13672.25
676.346	13658.24
676.695	13717.9
677.044	13563.33
677.393	13714.29
677.741	13568.08
678.09	13559.71
678.438	13602.88
678.787	13535.53
679.135	13549.77
679.484	13497.34
679.832	13519.72
680.181	13429.1
680.529	13540.51
680.877	13392.03
681.225	13481.75
681.573	13520.62
681.922	13395.2
682.27	13314.3
682.618	13389.55
682.966	13293.51
683.314	13219.38
683.661	13161.53
684.009	13212.83
684.357	13185.03
684.705	13143.45
685.053	13204.02
685.4	13053.29
685.748	13107.75
686.095	13074.98
686.443	13006.51
686.79	12972.61
687.138	12985.04
687.485	12973.51
687.832	12940.52
688.18	12884.25
688.527	12797.02
688.874	12824.59
689.221	12842.44
689.568	12688.32
689.915	12731.94
690.262	12708.66
690.609	12668.89
690.956	12642.68
691.303	12657.82
691.65	12562
691.997	12560.87
692.344	12369.69
692.69	12402.91
693.037	12381.21
693.383	12247.21
693.73	12289.46
694.077	12228.9
694.423	12292.85
694.769	12221.9
695.116	12193.87
695.462	12185.29
695.808	12047.89
696.155	12129.47
696.501	11979.87
696.847	11976.7
697.193	11879.53
697.539	11938.06
697.885	11797.95
698.231	11730.16
698.577	11718.18
698.923	11704.17
699.269	11688.35
699.614	11502.82
699.96	11609.26
700.306	11536.26
700.651	11482.25
700.997	11434.57
701.342	11447.23
701.688	11338.76
702.033	11390.73
702.379	11316.38
702.724	11323.61
703.069	11257.4
703.415	11173.34
703.76	11178.08
704.105	11067.35
704.45	11115.26
704.795	11062.15
705.14	11023.06
705.485	11021.25
705.83	10940.35
706.175	10940.8
706.52	10872.1
706.865	10856.28
707.209	10892.44
707.554	10841.59
707.899	10850.86
708.243	10789.39
708.588	10818.32
708.932	10592.56
709.277	10600.92
709.621	10550.53
709.966	10583.75
710.31	10606.35
710.654	10530.64
710.998	10467.59
711.342	10483.18
711.687	10473.92
712.031	10364.54
712.375	10365.45
712.719	10412.23
713.063	10325.9
713.407	10364.09
713.75	10320.93
714.094	10276.64
714.438	10241.84
714.782	10201.61
715.125	10232.12
715.469	10264.89
715.812	10212.91
716.156	10147.6
716.499	10127.71
716.843	10151.89
717.186	10119.58
717.53	10112.8
717.873	10056.53
718.216	10099.47
718.559	10024.44
718.902	10012.01
719.246	10048.62
719.589	9997.77
719.932	9997.55
720.275	9894.05
720.617	9983.54
720.96	9929.98
721.303	9928.17
721.646	9964.33
721.989	9868.74
722.331	9852.69
722.674	9851.11
723.016	9879.81
723.359	9827.38
723.701	9863.09
724.044	9849.3
724.386	9774.5
724.729	9892.47
725.071	9732.02
725.413	9832.81
725.755	9823.09
726.097	9727.27
726.439	9734.5
726.782	9691.12
727.124	9778.57
727.465	9722.98
727.807	9704
728.149	9661.29
728.491	9675.3
728.833	9720.04
729.175	9654.51
729.516	9671.23
729.858	9677.33
730.199	9740.38
730.541	9691.57
730.882	9595.07
731.224	9696.54
731.565	9634.17
731.906	9655.18
732.248	9635.3
732.589	9639.14
732.93	9614.51
733.271	9640.04
733.612	9626.03
733.953	9651.79
734.294	9613.15
734.635	9560.5
734.976	9562.76
735.317	9550.55
735.658	9564.56
735.999	9540.16
736.339	9556.43
736.68	9685.01
737.021	9563.43
737.361	9536.54
737.702	9588.29
738.042	9634.39
738.383	9647.05
738.723	9587.84
739.063	9650.66
739.404	9554.4
739.744	9638.24
740.084	9648.4
740.424	9673.71
740.764	9678.46
741.104	9737.44
741.444	9721.4
741.784	9706.48
742.124	9736.09
742.464	9779.47
742.804	9779.25
743.143	9761.4
743.483	9823.32
743.823	9833.71
744.162	9849.76
744.502	9869.64
744.841	9909.19
745.181	9933.59
745.52	9947.15
745.86	10017.43
746.199	10039.81
746.538	10067.38
746.877	10148.73
747.216	10183.76
747.556	10169.97
747.895	10208.84
748.234	10281.16
748.573	10337.65
748.911	10363.19
749.25	10469.63
749.589	10471.43
749.928	10602.73
750.267	10667.59
750.605	10676.63
750.944	10814.02
751.283	10854.02
751.621	10894.25
751.96	10941.25
752.298	11128.14
752.636	11229.61
752.975	11291.53
753.313	11341.24
753.651	11492.42
753.989	11527.68
754.327	11691.97
754.666	11749.37
755.004	11866.2
755.342	12070.04
755.679	12097.38
756.017	12289.24
756.355	12450.36
756.693	12529.68
757.031	12717.7
757.368	12766.51
757.706	12931.93
