Data from hue_230_FLMS001491_00057.txt Node
Date: Tue Feb 07 16:37:27 GMT 2017
User: dcchb
Spectrometer: FLMS00149
Trigger mode: 0
Integration Time (sec): 2.000000E-2
Scans to average: 10
Electric dark correction enabled: true
Nonlinearity correction enabled: false
Boxcar width: 0
XAxis mode: Wavelengths
Number of Pixels in Spectrum: 2048
>>>>>Begin Spectral Data<<<<<
341.393	-13.46
341.776	-13.46
342.16	-13.46
342.543	-52.33
342.927	-67.47
343.31	-73.57
343.693	-81.93
344.077	-91.2
344.46	-59.79
344.843	-44.42
345.226	-50.52
345.61	-31.31
345.993	-13.46
346.376	2.36
346.759	20.21
347.142	22.7
347.525	52.53
347.908	73.09
348.291	82.13
348.674	96.14
349.057	97.05
349.44	113.77
349.823	129.59
350.206	169.81
350.588	179.53
350.971	207.33
351.354	208.68
351.737	238.28
352.119	246.87
352.502	243.71
352.884	261.33
353.267	271.05
353.65	271.5
354.032	300.43
354.414	302.46
354.797	318.06
355.179	313.08
355.562	322.12
355.944	329.36
356.326	334.33
356.709	319.19
357.091	326.42
357.473	319.41
357.855	351.95
358.238	332.52
358.62	351.5
359.002	324.61
359.384	328.9
359.766	336.14
360.148	330.71
360.53	332.75
360.912	327.77
361.294	336.14
361.676	340.43
362.057	310.15
362.439	316.02
362.821	321.45
363.203	321.22
363.584	307.66
363.966	305.63
364.348	333.88
364.729	322.12
365.111	314.67
365.493	307.89
365.874	312.63
366.256	310.15
366.637	319.19
367.019	298.17
367.4	318.73
367.781	321.67
368.163	296.81
368.544	312.86
368.925	299.3
369.306	323.71
369.688	315.34
370.069	308.57
370.45	289.58
370.831	325.51
371.212	315.34
371.593	323.25
371.974	309.24
372.355	305.4
372.736	314.89
373.117	311.73
373.498	312.18
373.879	314.21
374.26	317.6
374.641	308.11
375.021	285.52
375.402	309.47
375.783	303.59
376.163	315.12
376.544	321.22
376.925	328.45
377.305	319.19
377.686	309.7
378.066	326.87
378.447	323.25
378.827	327.32
379.208	330.94
379.588	344.27
379.968	321.9
380.349	311.28
380.729	330.71
381.109	308.79
381.489	339.98
381.87	328.45
382.25	316.93
382.63	329.36
383.01	316.7
383.39	317.83
383.77	318.96
384.15	328.9
384.53	316.47
384.91	317.6
385.29	330.26
385.67	336.14
386.049	343.59
386.429	334.1
386.809	340.2
387.189	350.6
387.568	356.47
387.948	349.47
388.328	332.07
388.707	342.24
389.087	362.8
389.466	359.64
389.846	356.25
390.225	345.17
390.605	374.55
390.984	366.19
391.363	374.55
391.743	370.03
392.122	353.31
392.501	367.32
392.881	362.35
393.26	343.82
393.639	392.63
394.018	388.34
394.397	348.11
394.776	395.57
395.155	362.8
395.534	384.27
395.913	373.42
396.292	372.07
396.671	375.91
397.05	384.72
397.429	391.5
397.808	399.86
398.186	378.62
398.565	389.47
398.944	375.46
399.323	374.55
399.701	399.86
400.08	391.73
400.458	383.37
400.837	370.48
401.215	389.92
401.594	402.12
401.972	395.79
402.351	423.14
402.729	419.97
403.107	419.52
403.486	430.37
403.864	414.33
404.242	424.72
404.62	435.79
404.999	411.84
405.377	449.13
405.755	462.69
406.133	431.05
406.511	452.52
406.889	432.63
407.267	449.58
407.645	455.45
408.023	466.75
408.401	480.76
408.779	478.28
409.156	486.64
409.534	503.36
409.912	495.45
410.29	488
410.667	502.68
411.045	513.53
411.422	504.04
411.8	503.36
412.178	510.37
412.555	513.98
412.933	544.94
413.31	557.82
413.687	544.94
414.065	546.53
414.442	559.18
414.819	566.41
415.197	584.04
415.574	554.43
415.951	579.52
416.328	599.86
416.705	574.77
417.082	592.17
417.46	633.53
417.837	635.34
418.214	636.24
418.591	632.17
418.967	622
419.344	630.82
419.721	662.68
420.098	661.78
420.475	682.34
420.852	658.39
421.228	700.42
421.605	671.95
421.982	701.55
422.358	700.65
422.735	724.83
423.111	732.73
423.488	737.48
423.864	768.89
424.241	751.49
424.617	761.89
424.994	782.23
425.37	761.43
425.746	775.22
426.123	808.44
426.499	823.13
426.875	795.78
427.251	857.93
427.627	851.38
428.003	871.94
428.379	875.33
428.756	889.34
429.132	867.42
429.507	890.47
429.883	910.58
430.259	905.84
430.635	927.08
431.011	916.01
431.387	959.85
431.763	976.34
432.138	970.02
432.514	990.81
432.89	982.45
433.265	1042.33
433.641	1019.06
434.016	1044.59
434.392	1058.83
434.767	1080.3
435.143	1058.6
435.518	1117.36
435.894	1130.01
436.269	1139.96
436.644	1157.13
437.02	1176.79
437.395	1181.76
437.77	1199.62
438.145	1222.44
438.52	1226.96
438.895	1250.01
439.271	1264.02
439.646	1267.86
440.021	1323.23
440.395	1318.48
440.77	1298.14
441.145	1321.19
441.52	1357.58
441.895	1374.98
442.27	1385.83
442.645	1368.65
443.019	1379.05
443.394	1382.44
443.769	1427.86
444.143	1433.51
444.518	1438.93
444.892	1433.51
445.267	1442.77
445.641	1484.35
446.016	1499.49
446.39	1475.54
446.764	1524.8
447.139	1512.38
447.513	1546.95
447.887	1539.95
448.262	1529.78
448.636	1573.84
449.01	1547.85
449.384	1591.92
449.758	1601.41
450.132	1611.13
450.506	1639.15
450.88	1625.37
451.254	1607.06
451.628	1633.05
452.002	1665.82
452.376	1717.57
452.75	1676.66
453.123	1697.68
453.497	1716.66
453.871	1727.51
454.244	1775.19
454.618	1801.63
454.992	1815.64
455.365	1827.4
455.739	1861.07
456.112	1882.99
456.486	1876.66
456.859	1880.73
457.232	1931.35
457.606	1975.19
457.979	1950.56
458.352	1998.01
458.725	2017.67
459.099	2042.31
459.472	2052.25
459.845	2032.14
460.218	2078.24
460.591	2104.9
460.964	2095.86
461.337	2178.12
461.71	2201.85
462.083	2212.47
462.456	2229.19
462.829	2228.06
463.201	2250.21
463.574	2247.72
463.947	2310.55
464.32	2344.67
464.692	2365.01
465.065	2353.94
465.438	2422.86
465.81	2432.8
466.183	2456.98
466.555	2472.35
466.928	2504.21
467.3	2503.76
467.672	2529.07
468.045	2620.37
468.417	2616.98
468.789	2632.35
469.161	2703.53
469.534	2712.12
469.906	2766.58
470.278	2785.34
470.65	2793.47
471.022	2849.97
471.394	2862.4
471.766	2898.33
472.138	2981.72
472.51	3014.48
472.882	3049.96
473.253	3045.22
473.625	3103.97
473.997	3101.71
474.369	3182.16
474.74	3228.94
475.112	3287.02
475.484	3308.49
475.855	3369.05
476.227	3386.9
476.598	3469.39
476.97	3479.33
477.341	3536.05
477.713	3562.04
478.084	3564.98
478.455	3697.4
478.827	3676.16
479.198	3776.27
479.569	3796.16
479.94	3846.55
480.311	3916.38
480.682	4026.21
481.053	4065.53
481.424	4117.05
481.795	4164.74
482.166	4200.21
482.537	4249.25
482.908	4331.28
483.279	4340.1
483.65	4469.59
484.021	4510.94
484.391	4562.92
484.762	4572.41
485.133	4582.8
485.503	4689.47
485.874	4775.79
486.244	4758.39
486.615	4843.59
486.985	4854.21
487.356	4963.58
487.726	4994.77
488.097	5122.45
488.467	5167.65
488.837	5252.62
489.207	5232.96
489.578	5293.74
489.948	5350.47
490.318	5442.44
490.688	5400.63
491.058	5534.87
491.428	5600.86
491.798	5599.05
492.168	5719.27
492.538	5672.49
492.908	5781.64
493.278	5820.74
493.648	5871.81
494.017	5912.94
494.387	5971.02
494.757	6025.93
495.126	6048.75
495.496	6005.59
495.866	6065.93
496.235	6161.29
496.605	6187.51
496.974	6171.24
497.344	6256.66
497.713	6221.18
498.082	6323.1
498.452	6364.23
498.821	6367.39
499.19	6414.17
499.559	6432.92
499.928	6456.65
500.298	6503.66
500.667	6539.59
501.036	6565.12
501.405	6597.44
501.774	6570.55
502.143	6645.35
502.512	6704.1
502.88	6651
503.249	6716.31
503.618	6698.23
503.987	6742.52
504.356	6803.31
504.724	6816.19
505.093	6804.21
505.462	6797.89
505.83	6858.68
506.199	6925.34
506.567	6941.16
506.936	6904.32
507.304	7020.93
507.672	7050.53
508.041	7017.77
508.409	7056.41
508.777	7111.55
509.145	7073.13
509.514	7157.88
509.882	7173.7
510.25	7143.87
510.618	7156.29
510.986	7174.83
511.354	7269.29
511.722	7292.34
512.09	7332.34
512.458	7314.26
512.826	7334.82
513.193	7316.52
513.561	7344.76
513.929	7414.37
514.297	7346.57
514.664	7436.06
515.032	7463.18
515.4	7453.91
515.767	7458.66
516.135	7511.09
516.502	7418.66
516.869	7538.66
517.237	7547.02
517.604	7498.66
517.972	7541.6
518.339	7590.86
518.706	7556.51
519.073	7563.74
519.44	7566.45
519.808	7631.31
520.175	7595.38
520.542	7681.25
520.909	7689.61
521.276	7627.69
521.643	7699.33
522.009	7724.42
522.376	7788.37
522.743	7831.98
523.11	7798.99
523.477	7905.88
523.843	7867.69
524.21	7919.66
524.577	7909.27
524.943	7945.88
525.31	7915.37
525.676	7954.47
526.043	8041.92
526.409	7944.07
526.776	8078.76
527.142	7988.36
527.508	8011.41
527.874	8021.58
528.241	8003.28
528.607	8039.89
528.973	8031.75
529.339	8045.09
529.705	8065.2
530.071	8108.13
530.437	8143.61
530.803	8101.13
531.169	8127.12
531.535	8091.41
531.901	8168.25
532.267	8095.48
532.632	8103.39
532.998	8071.98
533.364	8108.81
533.73	8142.48
534.095	8110.17
534.461	8136.83
534.826	8165.53
535.192	8122.37
535.557	8151.97
535.923	8074.91
536.288	8147
536.653	8130.73
537.019	8048.7
537.384	8098.87
537.749	8111.75
538.114	8072.88
538.479	8075.59
538.845	8060.45
539.21	7989.27
539.575	7965.09
539.94	7977.29
540.305	8065.2
540.67	8003.5
541.034	7943.62
541.399	7970.06
541.764	7986.78
542.129	7926.67
542.494	8009.15
542.858	7972.09
543.223	7963.96
543.587	7953.34
543.952	7937.97
544.316	7912.21
544.681	7928.7
545.045	7901.13
545.41	7916.27
545.774	7880.8
546.138	7865.2
546.503	7851.64
546.867	7857.97
547.231	7921.02
547.595	7804.64
547.959	7787.24
548.324	7811.19
548.688	7821.59
549.052	7757.18
549.416	7768.93
549.779	7733.91
550.143	7770.74
550.507	7768.03
550.871	7714.25
551.235	7697.52
551.599	7715.15
551.962	7723.29
552.326	7690.29
552.689	7753.12
553.053	7674.02
553.417	7648.03
553.78	7732.1
554.143	7674.47
554.507	7669.73
554.87	7702.95
555.234	7700.69
555.597	7626.34
555.96	7650.07
556.323	7648.49
556.686	7666.34
557.05	7732.78
557.413	7656.85
557.776	7705.88
558.139	7634.93
558.502	7701.82
558.865	7674.02
559.228	7646.23
559.59	7644.42
559.953	7646.23
560.316	7709.5
560.679	7673.8
561.041	7751.08
561.404	7741.82
561.767	7789.27
562.129	7700.01
562.492	7830.63
562.854	7783.85
563.217	7763.74
563.579	7772.78
563.941	7747.01
564.304	7836.73
564.666	7840.34
565.028	7841.47
565.39	7862.04
565.753	7796.96
566.115	7918.08
566.477	7859.78
566.839	7940.68
567.201	7925.99
567.563	7907.01
567.925	7992.66
568.287	7976.16
568.648	7939.1
569.01	7994.24
569.372	8042.83
569.734	8024.29
570.095	8077.85
570.457	8105.2
570.819	8033.56
571.18	8087.8
571.542	8122.15
571.903	8072.65
572.265	8150.85
572.626	8173.9
572.987	8180
573.349	8197.17
573.71	8169.15
574.071	8177.96
574.432	8207.57
574.794	8252.31
575.155	8350.16
575.516	8254.8
575.877	8203.05
576.238	8276.72
576.599	8302.48
576.96	8332.99
577.32	8300.45
577.681	8307.68
578.042	8382.48
578.403	8364.4
578.763	8340.22
579.124	8413.21
579.485	8407.11
579.845	8484.85
580.206	8460.44
580.566	8464.06
580.927	8481.23
581.287	8501.57
581.648	8473.1
582.008	8565.75
582.368	8528.46
582.728	8549.25
583.089	8576.37
583.449	8569.37
583.809	8612.53
584.169	8622.25
584.529	8539.99
584.889	8717.61
585.249	8595.58
585.609	8644.84
585.969	8673.32
586.329	8671.51
586.688	8651.4
587.048	8665.41
587.408	8656.14
587.768	8679.42
588.127	8638.52
588.487	8717.38
588.846	8725.52
589.206	8691.62
589.565	8697.5
589.925	8765.74
590.284	8679.19
590.643	8807.1
591.003	8789.02
591.362	8842.35
591.721	8759.42
592.08	8796.25
592.44	8776.14
592.799	8798.51
593.158	8811.84
593.517	8805.52
593.876	8833.09
594.235	8777.5
594.593	8774.11
594.952	8861.79
595.311	8828.57
595.67	8880.54
596.029	8930.49
596.387	8892.52
596.746	8966.87
597.104	8893.88
597.463	8890.49
597.822	8939.75
598.18	8934.1
598.538	8889.81
598.897	9006.87
599.255	8881
599.613	8970.26
599.972	8925.74
600.33	8997.83
600.688	8940.43
601.046	9010.03
601.404	9031.05
601.762	9062.46
602.12	8999.41
602.478	9018.17
602.836	8983.37
603.194	8965.96
603.552	9042.12
603.91	8986.76
604.268	9053.87
604.625	9000.31
604.983	9007.55
605.341	8993.76
605.698	9074.89
606.056	9108.79
606.413	9073.31
606.771	9085.06
607.128	9131.16
607.485	9051.39
607.843	9112.63
608.2	9132.97
608.557	9106.53
608.914	9108.11
609.272	9101.33
609.629	9141.33
609.986	9214.77
610.343	9130.71
610.7	9105.62
611.057	9170.71
611.414	9133.19
611.771	9154.21
612.127	9201.66
612.484	9175.45
612.841	9264.26
613.198	9226.3
613.554	9290.48
613.911	9266.97
614.267	9290.93
614.624	9256.8
614.98	9343.13
615.337	9263.58
615.693	9286.41
616.05	9224.94
616.406	9295
616.762	9246.64
617.118	9206.41
617.475	9289.12
617.831	9339.74
618.187	9364.15
618.543	9313.53
618.899	9328.67
619.255	9360.76
619.611	9391.49
619.967	9373.86
620.323	9428.55
620.678	9357.59
621.034	9365.28
621.39	9367.99
621.746	9327.09
622.101	9426.97
622.457	9288.44
622.812	9399.63
623.168	9461.09
623.523	9391.04
623.879	9376.58
624.234	9332.73
624.589	9395.33
624.945	9343.81
625.3	9446.86
625.655	9372.28
626.01	9400.76
626.365	9433.75
626.72	9368.44
627.075	9400.98
627.43	9338.61
627.785	9361.89
628.14	9403.47
628.495	9384.48
628.85	9319.4
629.205	9352.85
629.559	9335.9
629.914	9356.69
630.269	9275.11
630.623	9308.78
630.978	9269.91
631.332	9426.52
631.687	9265.62
632.041	9309.01
632.396	9263.58
632.75	9284.37
633.104	9222.46
633.459	9211.38
633.813	9247.99
634.167	9249.8
634.521	9235.11
634.875	9236.01
635.229	9215.68
635.583	9198.5
635.937	9132.97
636.291	9107.66
636.645	9159.41
636.999	9163.02
637.352	9185.39
637.706	9087.32
638.06	9118.28
638.413	9099.75
638.767	9099.29
639.121	9104.27
639.474	9012.29
639.828	9057.49
640.181	9013.65
640.534	9039.86
640.888	9057.94
641.241	8997.83
641.594	8963.93
641.947	9084.15
642.301	9038.05
642.654	9024.04
643.007	8989.24
643.36	9005.74
643.713	8985.85
644.066	8971.39
644.419	8907.44
644.771	8860.88
645.124	8787.89
645.477	8730.72
645.83	8734.56
646.182	8746.99
646.535	8659.76
646.888	8701.11
647.24	8674.22
647.593	8709.93
647.945	8638.52
648.298	8683.03
648.65	8606.2
649.002	8632.87
649.355	8660.89
649.707	8631.06
650.059	8674.9
650.411	8781.56
650.763	8772.52
651.115	8931.39
651.467	8818.4
651.819	8814.78
652.171	8836.48
652.523	8874.89
652.875	8805.97
653.227	8824.05
653.578	8818.85
653.93	8761
654.282	8840.32
654.633	8765.29
654.985	8808.68
655.337	8779.76
655.688	8841.9
656.039	8841.9
656.391	8780.88
656.742	8779.98
657.094	8862.01
657.445	8914.44
657.796	8852.97
658.147	8796.93
658.498	8828.57
658.849	8752.41
659.2	8811.17
659.551	8820.66
659.902	8816.36
660.253	8795.12
660.604	8860.43
660.955	8772.75
661.306	8837.61
661.656	8777.27
662.007	8863.82
662.358	8758.29
662.708	8815.23
663.059	8808.68
663.409	8811.17
663.76	8846.42
664.11	8854.56
664.461	8860.66
664.811	8833.76
665.161	8843.26
665.511	8772.3
665.862	8848.91
666.212	8905.85
666.562	8878.06
666.912	8797.61
667.262	8844.16
667.612	8816.59
667.962	8832.41
668.312	8858.4
668.662	8902.01
669.011	8811.84
669.361	8825.86
669.711	8822.92
670.06	8860.88
670.41	8818.17
670.76	8765.74
671.109	8831.73
671.459	8818.17
671.808	8756.48
672.157	8859.98
672.507	8782.47
672.856	8757.61
673.205	8716.71
673.554	8752.41
673.904	8678.29
674.253	8770.72
674.602	8729.81
674.951	8654.33
675.3	8604.39
675.649	8708.8
675.998	8675.58
676.346	8712.86
676.695	8692.3
677.044	8641.45
677.393	8668.12
677.741	8718.97
678.09	8701.56
678.438	8612.75
678.787	8683.26
679.135	8638.74
679.484	8599.19
679.832	8622.7
680.181	8474.23
680.529	8541.34
680.877	8561.91
681.225	8517.84
681.573	8535.92
681.922	8500.21
682.27	8507.67
682.618	8402.36
682.966	8481.91
683.314	8485.3
683.661	8406.43
684.009	8329.15
684.357	8404.85
684.705	8368.24
685.053	8370.27
685.4	8368.92
685.748	8282.59
686.095	8321.24
686.443	8245.08
686.79	8233.78
687.138	8299.77
687.485	8215.7
687.832	8206.66
688.18	8253.67
688.527	8126.89
688.874	8153.1
689.221	8164.63
689.568	8126.89
689.915	8094.8
690.262	8107
690.609	8038.31
690.956	8077.17
691.303	8095.93
691.65	8009.61
691.997	7966.67
692.344	7930.29
692.69	7890.29
693.037	7927.12
693.383	7840.34
693.73	7862.04
694.077	7805.77
694.423	7864.07
694.769	7763.96
695.116	7790.85
695.462	7724.87
695.808	7720.35
696.155	7744.98
696.501	7648.26
696.847	7679.22
697.193	7528.71
697.539	7613.68
697.885	7542.5
698.231	7482.16
698.577	7477.19
698.923	7486
699.269	7462.5
699.614	7367.59
699.96	7338.21
700.306	7363.3
700.651	7333.69
700.997	7286.46
701.342	7311.09
701.688	7255.05
702.033	7223.41
702.379	7204.2
702.724	7177.09
703.069	7185.22
703.415	7132.57
703.76	7123.98
704.105	7106.8
704.45	7049.18
704.795	7046.69
705.14	7073.36
705.485	7044.43
705.83	7008.95
706.175	6973.7
706.52	7011.21
706.865	6957.2
707.209	6921.05
707.554	6875.17
707.899	6914.27
708.243	6861.61
708.588	6772.35
708.932	6777.32
709.277	6817.32
709.621	6810.32
709.966	6795.85
710.31	6807.15
710.654	6766.02
710.998	6709.98
711.342	6733.03
711.687	6619.59
712.031	6643.09
712.375	6589.08
712.719	6632.47
713.063	6619.59
713.407	6664.78
713.75	6584.78
714.094	6597.89
714.438	6565.8
714.782	6510.21
715.125	6550.66
715.469	6525.8
715.812	6513.83
716.156	6516.09
716.499	6462.53
716.843	6496.43
717.186	6466.14
717.53	6512.7
717.873	6530.55
718.216	6473.37
718.559	6439.93
718.902	6407.84
719.246	6419.14
719.589	6331.91
719.932	6381.85
720.275	6347.95
720.617	6319.71
720.96	6406.26
721.303	6369.65
721.646	6366.71
721.989	6351.34
722.331	6371.68
722.674	6360.16
723.016	6312.25
723.359	6293.94
723.701	6330.33
724.044	6291.23
724.386	6278.35
724.729	6281.97
725.071	6266.37
725.413	6255.3
725.755	6274.51
726.097	6261.4
726.439	6229.99
726.782	6225.7
727.124	6270.89
727.465	6224.12
727.807	6246.26
728.149	6270.89
728.491	6227.05
728.833	6228.86
729.175	6176.89
729.516	6219.6
729.858	6218.24
730.199	6204.23
730.541	6258.92
730.882	6187.28
731.224	6198.13
731.565	6160.84
731.906	6182.99
732.248	6208.52
732.589	6221.63
732.93	6237.9
733.271	6141.86
733.612	6207.62
733.953	6180.95
734.294	6199.03
734.635	6164.23
734.976	6195.42
735.317	6203.78
735.658	6194.96
735.999	6223.66
736.339	6259.82
736.68	6268.18
737.021	6220.05
737.361	6175.3
737.702	6184.34
738.042	6207.17
738.383	6244
738.723	6212.82
739.063	6175.08
739.404	6241.74
739.744	6197.68
740.084	6204.23
740.424	6273.83
740.764	6226.83
741.104	6215.75
741.444	6242.42
741.784	6281.52
742.124	6311.12
742.464	6243.32
742.804	6264.79
743.143	6298.46
743.483	6270.22
743.823	6321.06
744.162	6317.9
744.502	6338.69
744.841	6354.06
745.181	6400.83
745.52	6460.95
745.86	6419.59
746.199	6441.29
746.538	6500.49
746.877	6538.91
747.216	6494.84
747.556	6582.52
747.895	6570.55
748.234	6631.34
748.573	6674.27
748.911	6687.83
749.25	6779.81
749.589	6814.61
749.928	6797.89
750.267	6878.79
750.605	6904.55
750.944	6946.36
751.283	6967.15
751.621	7139.12
751.96	7167.82
752.298	7219.12
752.636	7334.6
752.975	7283.98
753.313	7318.55
753.651	7437.19
753.989	7540.69
754.327	7572.56
754.666	7620.69
755.004	7753.12
755.342	7873.11
755.679	7954.01
756.017	8005.54
756.355	8127.34
756.693	8201.47
757.031	8317.17
757.368	8394
757.706	8535.24
758.044	8624.73
758.381	8655.69
758.719	8796.25
759.056	8918.51
759.394	9015.23
759.731	9142.91
760.068	9192.63
760.405	9348.78
760.743	9405.28
761.08	9612.28
761.417	9634.42
761.754	9845.04
762.091	9924.58
762.428	9995.54
762.765	10120.28
763.102	10249.32
763.438	10381.29
763.775	10459.48
764.112	10590.1
764.449	10722.53
764.785	10791
765.122	10835.52
765.458	10941.73
765.795	11088.85
766.131	11173.14
766.467	11193.7
766.804	11271.67
767.14	11445
767.476	11545.11
767.812	11572.9
768.148	11743.07
768.485	11747.59
768.821	11877.07
769.157	11892.89
