Data from hue_180_FLMS001491_00001.txt Node
Date: Tue Feb 07 16:46:28 GMT 2017
User: dcchb
Spectrometer: FLMS00149
Trigger mode: 0
Integration Time (sec): 2.000000E-2
Scans to average: 10
Electric dark correction enabled: true
Nonlinearity correction enabled: false
Boxcar width: 0
XAxis mode: Wavelengths
Number of Pixels in Spectrum: 2048
>>>>>Begin Spectral Data<<<<<
341.393	-6.79
341.776	-6.79
342.16	-6.79
342.543	-63.74
342.927	-68.03
343.31	-56.74
343.693	-66
344.077	-85.21
344.46	-73.46
344.843	-43.4
345.226	-37.3
345.61	-39.79
345.993	-14.7
346.376	-18.77
346.759	-2.95
347.142	37.95
347.525	55.13
347.908	59.19
348.291	76.82
348.674	88.8
349.057	120.43
349.44	127.89
349.823	156.59
350.206	167.89
350.588	198.62
350.971	214.22
351.354	236.82
351.737	227.1
352.119	244.05
352.502	275.23
352.884	278.4
353.267	292.41
353.65	293.31
354.032	292.18
354.414	300.32
354.797	319.07
355.179	298.06
355.562	343.25
355.944	337.83
356.326	329.69
356.709	335.8
357.091	342.8
357.473	352.74
357.855	335.8
358.238	318.62
358.62	338.51
359.002	349.58
359.384	331.95
359.766	342.8
360.148	346.64
360.53	331.73
360.912	329.92
361.294	346.42
361.676	351.16
362.057	357.49
362.439	343.71
362.821	329.24
363.203	309.58
363.584	320.43
363.966	337.6
364.348	340.09
364.729	333.54
365.111	317.04
365.493	323.59
365.874	310.94
366.256	335.34
366.637	304.84
367.019	317.49
367.4	323.82
367.781	303.48
368.163	315.23
368.544	314.78
368.925	295.8
369.306	329.69
369.688	315.23
370.069	333.54
370.45	317.27
370.831	318.62
371.212	307.1
371.593	326.76
371.974	309.81
372.355	331.05
372.736	312.97
373.117	333.99
373.498	322.01
373.879	327.89
374.26	308.23
374.641	313.88
375.021	328.79
375.402	304.38
375.783	334.21
376.163	331.28
376.544	317.27
376.925	333.08
377.305	333.99
377.686	330.82
378.066	327.21
378.447	330.15
378.827	345.51
379.208	330.6
379.588	334.67
379.968	350.26
380.349	354.55
380.729	347.1
381.109	346.87
381.489	337.38
381.87	350.26
382.25	338.96
382.63	331.28
383.01	339.41
383.39	334.44
383.77	340.54
384.15	329.92
384.53	350.49
384.91	354.55
385.29	360.43
385.67	340.32
386.049	351.16
386.429	353.42
386.809	355
387.189	371.73
387.568	351.39
387.948	363.37
388.328	368.11
388.707	370.6
389.087	372.63
389.466	352.29
389.846	379.18
390.225	386.42
390.605	369.02
390.984	367.21
391.363	379.64
391.743	395.46
392.122	379.41
392.501	384.16
392.881	395.68
393.26	373.31
393.639	381.22
394.018	384.38
394.397	382.12
394.776	397.04
395.155	405.62
395.534	384.38
395.913	393.42
396.292	392.52
396.671	399.98
397.05	404.27
397.429	409.69
397.808	386.42
398.186	402.24
398.565	407.88
398.944	398.62
399.323	406.98
399.701	412.18
400.08	403.82
400.458	419.86
400.837	421.67
401.215	404.72
401.594	433.65
401.972	426.42
402.351	416.25
402.729	421.44
403.107	424.83
403.486	420.77
403.864	472.29
404.242	436.13
404.62	456.92
404.999	441.78
405.377	451.5
405.755	449.69
406.133	470.03
406.511	482.46
406.889	471.39
407.267	486.3
407.645	456.7
408.023	496.02
408.401	529.92
408.779	492.4
409.156	521.1
409.534	516.58
409.912	531.27
410.29	515.9
410.667	547.54
411.045	543.25
411.422	557.94
411.8	556.81
412.178	552.06
412.555	577.15
412.933	595.22
413.31	595.45
413.687	607.43
414.065	609.69
414.442	606.75
414.819	618.05
415.197	637.26
415.574	667.09
415.951	644.94
416.328	642.45
416.705	671.83
417.082	652.17
417.46	701.21
417.837	650.14
418.214	687.88
418.591	710.25
418.967	709.8
419.344	726.97
419.721	712.74
420.098	752.73
420.475	763.13
420.852	732.85
421.228	778.27
421.605	772.39
421.982	788.21
422.358	815.33
422.735	827.53
423.111	797.93
423.488	831.6
423.864	864.37
424.241	876.12
424.617	867.53
424.994	892.39
425.37	885.39
425.746	909.34
426.123	921.09
426.499	947.76
426.875	942.79
427.251	945.5
427.627	958.83
428.003	979.17
428.379	1007.87
428.756	1027.3
429.132	1000.86
429.507	1050.13
429.883	1024.82
430.259	1058.72
430.635	1067.98
431.011	1047.64
431.387	1070.47
431.763	1119.05
432.138	1114.31
432.514	1153.85
432.89	1140.07
433.265	1171.93
433.641	1206.51
434.016	1183.01
434.392	1243.12
434.767	1267.3
435.143	1272.72
435.518	1276.34
435.894	1311.82
436.269	1339.84
436.644	1354.07
437.02	1386.84
437.395	1363.57
437.77	1408.54
438.145	1483.11
438.52	1455.31
438.895	1466.39
439.271	1476.33
439.646	1525.37
440.021	1519.04
440.395	1539.61
440.77	1517.01
441.145	1548.65
441.52	1587.51
441.895	1628.64
442.27	1636.1
442.645	1663.44
443.019	1673.84
443.394	1683.78
443.769	1702.77
444.143	1705.48
444.518	1714.97
444.892	1727.4
445.267	1732.82
445.641	1768.75
446.016	1784.12
446.39	1778.92
446.764	1820.95
447.139	1822.76
447.513	1823.67
447.887	1848.52
448.262	1875.42
448.636	1861.18
449.01	1912.48
449.384	1905.7
449.758	1933.95
450.132	1962.87
450.506	1985.7
450.88	1965.13
451.254	2014.85
451.628	2006.03
452.002	2085.35
452.376	2096.65
452.75	2063.21
453.123	2112.7
453.497	2128.52
453.871	2145.01
454.244	2194.5
454.618	2213.26
454.992	2255.97
455.365	2209.87
455.739	2315.86
456.112	2321.28
456.486	2309.76
456.859	2352.47
457.232	2402.86
457.606	2417.55
457.979	2436.53
458.352	2516.3
458.725	2524.21
459.099	2508.85
459.472	2599.69
459.845	2607.37
460.218	2644.44
460.591	2646.7
460.964	2688.95
461.337	2768.95
461.71	2793.36
462.083	2857.76
462.456	2855.5
462.829	2884.66
463.201	2906.8
463.574	2935.95
463.947	2967.14
464.32	3064.54
464.692	3060.7
465.065	3088.27
465.438	3149.06
465.81	3218.21
466.183	3210.75
466.555	3275.83
466.928	3364.42
467.3	3335.94
467.672	3385.43
468.045	3496.84
468.417	3523.96
468.789	3521.25
469.161	3575.26
469.534	3672.88
469.906	3761.02
470.278	3799.89
470.65	3786.78
471.022	3926.21
471.394	3934.12
471.766	3995.81
472.138	4071.52
472.51	4229.93
472.882	4264.73
473.253	4313.54
473.625	4376.37
473.997	4457.04
474.369	4516.93
474.74	4562.8
475.112	4644.16
475.484	4784.94
475.855	4836.69
476.227	4862.68
476.598	5030.36
476.97	5092.51
477.341	5226.74
477.713	5344.25
478.084	5309.9
478.455	5500.86
478.827	5547.86
479.198	5726.16
479.569	5746.28
479.94	5936.78
480.311	5990.56
480.682	6122.99
481.053	6321.18
481.424	6386.48
481.795	6470.78
482.166	6593.48
482.537	6656.99
482.908	6860.14
483.279	6894.27
483.65	7071.44
484.021	7219.23
484.391	7339.68
484.762	7353.01
485.133	7583.52
485.503	7694.02
485.874	7802.94
486.244	7930.62
486.615	8023.05
486.985	8210.62
487.356	8341.46
487.726	8387.11
488.097	8652.64
488.467	8691.28
488.837	8825.29
489.207	9041.33
489.578	9098.05
489.948	9185.06
490.318	9332.4
490.688	9411.94
491.058	9553.41
491.428	9669.56
491.798	9785.94
492.168	10039.72
492.538	10124.24
492.908	10163.79
493.278	10369.43
493.648	10384.35
494.017	10451.01
494.387	10554.74
494.757	10680.83
495.126	10829.08
495.496	10837.67
495.866	10904.78
496.235	11013.48
496.605	11111.11
496.974	11179.58
497.344	11232.68
497.713	11347.03
498.082	11373.25
498.452	11579.34
498.821	11587.25
499.19	11513.36
499.559	11731.65
499.928	11746.34
500.298	11805.78
500.667	11897.07
501.036	11869.05
501.405	12039.67
501.774	12037.41
502.143	12073.57
502.512	12191.3
502.88	12212.09
503.249	12257.97
503.618	12260
503.987	12386.33
504.356	12396.95
504.724	12567.79
505.093	12485.53
505.462	12552.42
505.83	12592.2
506.199	12713.1
506.567	12835.35
506.936	12773.21
507.304	12863.38
507.672	12915.35
508.041	12970.04
508.409	13021.56
508.777	13094.33
509.145	13045.29
509.514	13033.99
509.882	13148.79
510.25	13118.96
510.618	13214.33
510.986	13195.35
511.354	13293.2
511.722	13290.03
512.09	13321.9
512.458	13346.3
512.826	13409.8
513.193	13439.86
513.561	13447.77
513.929	13525.96
514.297	13574.54
514.664	13641.66
515.032	13465.62
515.4	13649.12
515.767	13668.33
516.135	13668.55
516.502	13549.01
516.869	13801.2
517.237	13658.61
517.604	13719.63
517.972	13743.58
518.339	13801.66
518.706	13841.43
519.073	13803.01
519.44	13771.6
519.808	13795.56
520.175	13787.65
520.542	13891.37
520.909	13899.73
521.276	13834.65
521.643	13961.43
522.009	13975.21
522.376	13981.54
522.743	13979.28
523.11	14016.57
523.477	14158.26
523.843	14108.09
524.21	14122.55
524.577	14194.64
524.943	14141.99
525.31	14132.5
525.676	14238.48
526.043	14265.6
526.409	14214.98
526.776	14254.3
527.142	14245.26
527.508	14218.14
527.874	14263.79
528.241	14233.74
528.607	14273.51
528.973	14364.13
529.339	14165.04
529.705	14333.62
530.071	14172.27
530.437	14254.53
530.803	14223.57
531.169	14219.05
531.535	14023.57
531.901	14037.58
532.267	14019.73
532.632	14123.23
532.998	14054.76
533.364	14043.46
533.73	13908.77
534.095	13984.02
534.461	13931.6
534.826	14021.76
535.192	13870.81
535.557	13917.36
535.923	13845.95
536.288	13793.3
536.653	13751.71
537.019	13623.58
537.384	13662
537.749	13652.96
538.114	13517.14
538.479	13455
538.845	13448.9
539.21	13344.95
539.575	13419.29
539.94	13335
540.305	13380.88
540.67	13180.88
541.034	13223.14
541.399	13170.94
541.764	13064.73
542.129	13047.1
542.494	12996.93
542.858	13030.15
543.223	12930.95
543.587	12903.83
543.952	12771.63
544.316	12732.53
544.681	12740.67
545.045	12714.68
545.41	12594.23
545.774	12578.41
546.138	12493.89
546.503	12505.87
546.867	12409.83
547.231	12407.34
547.595	12369.38
547.959	12269.49
548.324	12187.91
548.688	12217.29
549.052	12185.2
549.416	12055.04
549.779	12000.57
550.143	11975.04
550.507	11968.03
550.871	11895.94
551.235	11805.33
551.599	11789.05
551.962	11796.74
552.326	11742.95
552.689	11743.41
553.053	11583.41
553.417	11631.32
553.78	11697.31
554.143	11551.09
554.507	11559.68
554.87	11489.85
555.234	11500.02
555.597	11352
555.96	11401.95
556.323	11371.21
556.686	11257.77
557.05	11371.66
557.413	11312.23
557.776	11316.98
558.139	11264.32
558.502	11171.44
558.865	11222.52
559.228	11170.99
559.59	11107.49
559.953	11140.71
560.316	11215.51
560.679	11119.69
561.041	11159.47
561.404	11132.35
561.767	11133.25
562.129	11061.16
562.492	11112.24
562.854	11069.98
563.217	11023.42
563.579	11036.76
563.941	11091.45
564.304	11027.49
564.666	11060.71
565.028	11000.83
565.39	11011.9
565.753	11024.78
566.115	10965.35
566.477	11029.98
566.839	11003.09
567.201	11025.01
567.563	11001.05
567.925	11036.98
568.287	11001.5
568.648	11013.93
569.01	11050.77
569.372	11024.78
569.734	11026.14
570.095	10943.65
570.457	11067.49
570.819	11079.02
571.18	11070.66
571.542	11057.77
571.903	10940.04
572.265	11067.72
572.626	11076.76
572.987	11075.63
573.349	11096.42
573.71	11052.12
574.071	11066.14
574.432	11035.63
574.794	11193.82
575.155	11023.42
575.516	11069.53
575.877	11041.5
576.238	11108.39
576.599	11055.74
576.96	11065.23
577.32	11101.39
577.681	11069.98
578.042	11055.06
578.403	11039.02
578.763	11006.7
579.124	11017.1
579.485	11055.29
579.845	11063.42
580.206	11085.12
580.566	11088.06
580.927	10992.24
581.287	11090.54
581.648	11014.16
582.008	10989.53
582.368	11049.86
582.728	10953.14
583.089	11001.05
583.449	10953.37
583.809	10912.24
584.169	10963.77
584.529	10952.24
584.889	11001.05
585.249	10921.96
585.609	10880.38
585.969	10860.94
586.329	10888.29
586.688	10853.94
587.048	10860.72
587.408	10786.59
587.768	10777.33
588.127	10901.17
588.487	10787.27
588.846	10869.08
589.206	10750.44
589.565	10747.05
589.925	10834.5
590.284	10820.94
590.643	10834.96
591.003	10733.94
591.362	10750.21
591.721	10766.03
592.08	10739.82
592.44	10813.49
592.799	10772.81
593.158	10738.91
593.517	10702.53
593.876	10651.91
594.235	10719.48
594.593	10681.96
594.952	10688.29
595.311	10641.06
595.67	10583.89
596.029	10654.39
596.387	10633.15
596.746	10688.07
597.104	10638.12
597.463	10617.56
597.822	10652.14
598.18	10595.41
598.538	10508.41
598.897	10606.49
599.255	10540.95
599.613	10690.55
599.972	10547.51
600.33	10558.35
600.688	10552.93
601.046	10615.3
601.404	10607.39
601.762	10545.02
602.12	10607.62
602.478	10583.89
602.836	10586.6
603.194	10556.32
603.552	10572.82
603.91	10514.96
604.268	10603.32
604.625	10542.31
604.983	10551.57
605.341	10469.09
605.698	10567.62
606.056	10549.09
606.413	10561.74
606.771	10576.43
607.128	10623.21
607.485	10505.92
607.843	10542.31
608.2	10548.64
608.557	10620.95
608.914	10538.01
609.272	10606.49
609.629	10637.22
609.986	10682.19
610.343	10606.26
610.7	10639.25
611.057	10691.46
611.414	10642.19
611.771	10626.37
612.127	10660.5
612.484	10629.08
612.841	10723.77
613.198	10658.69
613.554	10627.05
613.911	10694.17
614.267	10697.56
614.624	10667.95
614.98	10689.42
615.337	10688.29
615.693	10691.46
616.05	10674.51
616.406	10704.56
616.762	10756.99
617.118	10730.55
617.475	10634.73
617.831	10684
618.187	10762.41
618.543	10735.75
618.899	10781.85
619.255	10789.98
619.611	10771.91
619.967	10784.11
620.323	10806.48
620.678	10800.83
621.034	10752.25
621.39	10733.94
621.746	10708.18
622.101	10921.73
622.457	10772.81
622.812	10762.41
623.168	10793.6
623.523	10775.75
623.879	10752.25
624.234	10667.73
624.589	10784.79
624.945	10765.8
625.3	10832.02
625.655	10742.08
626.01	10835.63
626.365	10825.24
626.72	10757.44
627.075	10760.83
627.43	10799.7
627.785	10697.56
628.14	10846.03
628.495	10772.13
628.85	10697.33
629.205	10764.22
629.559	10746.37
629.914	10632.02
630.269	10621.63
630.623	10640.61
630.978	10637.22
631.332	10647.16
631.687	10671.12
632.041	10612.81
632.396	10596.77
632.75	10609.88
633.104	10631.34
633.459	10521.07
633.813	10545.02
634.167	10606.71
634.521	10539.37
634.875	10527.84
635.229	10531.91
635.583	10521.07
635.937	10489.43
636.291	10473.83
636.645	10474.06
636.999	10511.35
637.352	10475.19
637.706	10364.23
638.06	10465.02
638.413	10498.69
638.767	10360.62
639.121	10398.13
639.474	10338.47
639.828	10444.46
640.181	10374.63
640.534	10384.57
640.888	10232.94
641.241	10305.03
641.594	10328.98
641.947	10311.35
642.301	10322.65
642.654	10252.82
643.007	10274.29
643.36	10326.27
643.713	10246.95
644.066	10286.95
644.419	10226.61
644.771	10151.81
645.124	10073.85
645.477	10069.78
645.83	9992.27
646.182	9967.18
646.535	9978.03
646.888	9929.22
647.24	9937.13
647.593	9963.34
647.945	9876.34
648.298	9925.15
648.65	9889.9
649.002	9903.91
649.355	9866.39
649.707	9940.74
650.059	9992.04
650.411	10076.33
650.763	10107.74
651.115	10229.77
651.467	10206.72
651.819	10125.82
652.171	10214.18
652.523	10184.35
652.875	10176.22
653.227	10111.81
653.578	10158.36
653.93	10218.02
654.282	10174.63
654.633	10144.58
654.985	10156.78
655.337	10152.26
655.688	10139.38
656.039	10177.57
656.391	10094.41
656.742	10078.36
657.094	10205.82
657.445	10211.47
657.796	10170.57
658.147	10192.94
658.498	10126.95
658.849	10190
659.2	10206.95
659.551	10284.01
659.902	10188.42
660.253	10211.92
660.604	10217.8
660.955	10159.94
661.306	10194.29
661.656	10240.39
662.007	10212.6
662.358	10269.77
662.708	10167.18
663.059	10210.11
663.409	10215.08
663.76	10270
664.11	10262.77
664.461	10292.6
664.811	10184.8
665.161	10271.81
665.511	10255.99
665.862	10172.15
666.212	10324.23
666.562	10220.73
666.912	10246.95
667.262	10248.53
667.612	10241.75
667.962	10285.82
668.312	10262.99
668.662	10273.61
669.011	10260.06
669.361	10252.37
669.711	10232.26
670.06	10203.56
670.41	10188.19
670.76	10221.86
671.109	10252.82
671.459	10210.56
671.808	10212.37
672.157	10251.69
672.507	10232.71
672.856	10158.36
673.205	10207.63
673.554	10187.74
673.904	10189.1
674.253	10262.77
674.602	10146.84
674.951	10028.42
675.3	9986.84
675.649	10209.89
675.998	10102.77
676.346	10117.91
676.695	10168.76
677.044	10014.86
677.393	10080.4
677.741	10098.7
678.09	10059.83
678.438	9997.92
678.787	10062.55
679.135	10056.9
679.484	10034.07
679.832	10030.68
680.181	9977.12
680.529	9938.93
680.877	9900.97
681.225	9901.42
681.573	9936.45
681.922	9896.67
682.27	9830.46
682.618	9830.01
682.966	9815.1
683.314	9816
683.661	9779.84
684.009	9702.78
684.357	9682.44
684.705	9635.66
685.053	9684.25
685.4	9701.43
685.748	9643.8
686.095	9628.89
686.443	9585.72
686.79	9573.29
687.138	9587.53
687.485	9566.51
687.832	9530.81
688.18	9577.36
688.527	9409.91
688.874	9457.14
689.221	9402.9
689.568	9406.07
689.915	9376.46
690.262	9332.4
690.609	9278.16
690.956	9281.55
691.303	9246.75
691.65	9238.39
691.997	9229.8
692.344	9121.1
692.69	9106.64
693.037	9177.6
693.383	9067.32
693.73	9138.95
694.077	8987.77
694.423	9031.16
694.769	8978.96
695.116	8926.98
695.462	8938.96
695.808	8864.16
696.155	8897.15
696.501	8759.53
696.847	8780.32
697.193	8734.9
697.539	8775.57
697.885	8661.45
698.231	8712.07
698.577	8675.01
698.923	8569.48
699.269	8539.87
699.614	8542.81
699.96	8497.39
700.306	8429.82
700.651	8434.79
700.997	8388.47
701.342	8371.97
701.688	8404.74
702.033	8369.48
702.379	8292.2
702.724	8287
703.069	8193.67
703.415	8169.71
703.76	8188.25
704.105	8176.04
704.45	8087.68
704.795	8086.1
705.14	8035.71
705.485	8058.98
705.83	7942.15
706.175	8033.9
706.52	7972.88
706.865	7950.51
707.209	7948.48
707.554	7943.05
707.899	7907.8
708.243	7843.4
708.588	7897.63
708.932	7790.06
709.277	7743.74
709.621	7769.73
709.966	7673.23
710.31	7774.47
710.654	7658.54
710.998	7603.4
711.342	7643.85
711.687	7637.3
712.031	7592.33
712.375	7586.23
712.719	7606.34
713.063	7542.61
713.407	7614.47
713.75	7515.27
714.094	7580.13
714.438	7471.65
714.782	7502.16
715.125	7457.87
715.469	7456.29
715.812	7473.01
716.156	7405.67
716.499	7390.75
716.843	7362.73
717.186	7334.48
717.53	7409.28
717.873	7361.15
718.216	7307.82
718.559	7317.99
718.902	7296.52
719.246	7343.52
719.589	7249.29
719.932	7279.12
720.275	7276.4
720.617	7290.64
720.96	7264.2
721.303	7252
721.646	7301.49
721.989	7244.54
722.331	7251.77
722.674	7212.23
723.016	7221.94
723.359	7263.75
723.701	7264.2
724.044	7176.29
724.386	7177.65
724.729	7184.2
725.071	7181.27
725.413	7196.86
725.755	7204.32
726.097	7202.06
726.439	7126.13
726.782	7129.29
727.124	7219.23
727.465	7132.23
727.807	7111.89
728.149	7120.93
728.491	7098.56
728.833	7176.29
729.175	7102.62
729.516	7212.23
729.858	7185.11
730.199	7145.33
730.541	7103.98
730.882	7056.75
731.224	7144.66
731.565	7085.45
731.906	7130.87
732.248	7127.48
732.589	7081.83
732.93	7131.78
733.271	7080.25
733.612	7099.91
733.953	7154.37
734.294	7121.61
734.635	7160.48
734.976	7153.02
735.317	7145.79
735.658	7152.57
735.999	7128.16
736.339	7140.82
736.68	7192.79
737.021	7188.27
737.361	7122.28
737.702	7213.58
738.042	7164.77
738.383	7151.44
738.723	7224.43
739.063	7206.58
739.404	7238.21
739.744	7230.98
740.084	7190.31
740.424	7259
740.764	7211.32
741.104	7326.8
741.444	7287.48
741.784	7305.78
742.124	7328.61
742.464	7317.31
742.804	7341.49
743.143	7394.37
743.483	7444.76
743.823	7446.57
744.162	7496.29
744.502	7478.66
744.841	7460.13
745.181	7640.91
745.52	7532.9
745.86	7616.28
746.199	7637.3
746.538	7727.92
746.877	7793.23
747.216	7740.57
747.556	7842.49
747.895	7898.08
748.234	7928.14
748.573	8015.59
748.911	8105.99
749.25	8169.26
749.589	8152.99
749.928	8307.11
750.267	8328.35
750.605	8412.19
750.944	8443.15
751.283	8630.95
751.621	8714.56
751.96	8751.39
752.298	8871.17
752.636	8973.31
752.975	9025.29
753.313	9102.8
753.651	9316.35
753.989	9339.18
754.327	9500.53
754.666	9581.88
755.004	9810.58
755.342	9902.1
755.679	10096.44
756.017	10185.48
756.355	10356.32
756.693	10481.74
757.031	10745.01
757.368	10839.47
757.706	10997.66
758.044	11208.96
758.381	11363.3
758.719	11503.19
759.056	11696.85
759.394	11794.48
