Data from hue_26_FLMS001491_00013.txt Node
Date: Tue Feb 07 17:13:37 GMT 2017
User: dcchb
Spectrometer: FLMS00149
Trigger mode: 0
Integration Time (sec): 2.000000E-2
Scans to average: 10
Electric dark correction enabled: true
Nonlinearity correction enabled: false
Boxcar width: 0
XAxis mode: Wavelengths
Number of Pixels in Spectrum: 2048
>>>>>Begin Spectral Data<<<<<
341.393	-2.63
341.776	-2.63
342.16	-2.63
342.543	-40.82
342.927	-69.29
343.31	-65.68
343.693	-52.34
344.077	-72.68
344.46	-70.65
344.843	-61.16
345.226	-37.65
345.61	-13.47
345.993	-39.69
346.376	-23.42
346.759	2.8
347.142	35.34
347.525	59.97
347.908	43.93
348.291	74.89
348.674	104.94
349.057	114.88
349.44	130.7
349.823	135.9
350.206	154.43
350.588	205.96
350.971	229.01
351.354	236.24
351.737	246.41
352.119	263.81
352.502	246.63
352.884	267.2
353.267	302.68
353.65	275.56
354.032	309.46
354.414	319.85
354.797	316.69
355.179	330.02
355.562	351.26
355.944	327.08
356.326	330.92
356.709	328.44
357.091	345.16
357.473	358.04
357.855	342
358.238	349.68
358.62	355.1
359.002	337.48
359.384	353.07
359.766	355.33
360.148	342.9
360.53	359.85
360.912	345.39
361.294	339.96
361.676	348.1
362.057	321.88
362.439	323.92
362.821	317.36
363.203	305.61
363.584	341.09
363.966	317.14
364.348	327.31
364.729	309.68
365.111	315.33
365.493	332.73
365.874	328.21
366.256	323.24
366.637	330.47
367.019	302.22
367.4	309.68
367.781	315.33
368.163	323.01
368.544	314.2
368.925	303.35
369.306	318.72
369.688	323.92
370.069	297.03
370.45	317.82
370.831	319.85
371.212	312.84
371.593	338.15
371.974	325.95
372.355	318.95
372.736	310.59
373.117	324.37
373.498	327.76
373.879	304.26
374.26	327.76
374.641	321.66
375.021	328.21
375.402	331.6
375.783	315.1
376.163	347.42
376.544	331.38
376.925	334.54
377.305	328.89
377.686	340.64
378.066	338.38
378.447	336.8
378.827	308.33
379.208	341.77
379.588	347.65
379.968	332.73
380.349	360.08
380.729	329.34
381.109	330.92
381.489	345.16
381.87	328.89
382.25	358.49
382.63	357.82
383.01	349.23
383.39	359.4
383.77	335.22
384.15	347.42
384.53	360.08
384.91	365.5
385.29	362.56
385.67	354.43
386.049	353.75
386.429	348.32
386.809	364.14
387.189	357.82
387.568	349.68
387.948	359.4
388.328	355.33
388.707	346.52
389.087	356.01
389.466	382.9
389.846	360.3
390.225	372.96
390.605	358.95
390.984	361.21
391.363	378.38
391.743	370.24
392.122	396.91
392.501	377.93
392.881	383.13
393.26	374.76
393.639	385.39
394.018	381.77
394.397	401.43
394.776	384.93
395.155	392.16
395.534	386.97
395.913	392.39
396.292	403.92
396.671	414.31
397.05	407.76
397.429	389
397.808	395.55
398.186	406.18
398.565	407.08
398.944	377.48
399.323	397.36
399.701	426.29
400.08	392.39
400.458	415.44
400.837	408.21
401.215	426.06
401.594	426.29
401.972	429.68
402.351	413.63
402.729	415.44
403.107	396.46
403.486	453.41
403.864	410.92
404.242	441.88
404.62	433.97
404.999	431.49
405.377	414.99
405.755	451.6
406.133	451.37
406.511	418.83
406.889	429.45
407.267	438.94
407.645	443.69
408.023	459.51
408.401	442.11
408.779	448.43
409.156	463.8
409.534	471.71
409.912	455.21
410.29	471.26
410.667	479.85
411.045	469.68
411.422	455.44
411.8	458.38
412.178	483.69
412.555	459.51
412.933	495.89
413.31	483.46
413.687	477.59
414.065	507.64
414.442	490.92
414.819	500.64
415.197	498.6
415.574	506.06
415.951	499.05
416.328	526.85
416.705	518.49
417.082	509.22
417.46	526.85
417.837	512.39
418.214	515.78
418.591	531.82
418.967	526.17
419.344	532.5
419.721	536.57
420.098	504.25
420.475	559.62
420.852	545.16
421.228	548.77
421.605	556.23
421.982	548.77
422.358	564.14
422.735	545.83
423.111	543.35
423.488	560.52
423.864	556.23
424.241	586.51
424.617	570.24
424.994	588.77
425.37	574.31
425.746	583.12
426.123	577.02
426.499	581.54
426.875	613.85
427.251	607.75
427.627	590.35
428.003	608.66
428.379	629.9
428.756	617.92
429.132	624.7
429.507	627.19
429.883	629.9
430.259	629.22
430.635	655.89
431.011	646.4
431.387	664.47
431.763	670.8
432.138	661.76
432.514	665.15
432.89	666.06
433.265	683.46
433.641	700.18
434.016	700.41
434.392	715.55
434.767	683
435.143	689.78
435.518	714.64
435.894	714.42
436.269	724.81
436.644	752.61
437.02	722.78
437.395	746.96
437.77	739.05
438.145	756
438.52	750.35
438.895	760.06
439.271	766.39
439.646	766.62
440.021	757.13
440.395	772.95
440.77	796.67
441.145	776.79
441.52	783.34
441.895	809.78
442.27	807.3
442.645	808.2
443.019	806.39
443.394	829.22
443.769	819.05
444.143	815.66
444.518	845.94
444.892	829.44
445.267	822.89
445.641	844.81
446.016	848.88
446.39	854.98
446.764	846.39
447.139	854.07
447.513	863.34
447.887	855.2
448.262	869.89
448.636	895.65
449.01	906.5
449.384	859.95
449.758	890.91
450.132	913.96
450.506	899.72
450.88	889.1
451.254	898.82
451.628	930.91
452.002	922.55
452.376	928.65
452.75	939.72
453.123	929.33
453.497	947.86
453.871	943.56
454.244	986.73
454.618	995.31
454.992	1011.81
455.365	1011.36
455.739	1024.01
456.112	1008.65
456.486	1045.03
456.859	1042.54
457.232	1046.61
457.606	1023.33
457.979	1071.47
458.352	1067.4
458.725	1073.5
459.099	1109.21
459.472	1121.19
459.845	1117.34
460.218	1144.91
460.591	1143.11
460.964	1179.94
461.337	1178.81
461.71	1195.31
462.083	1167.74
462.456	1173.84
462.829	1209.09
463.201	1210
463.574	1218.81
463.947	1226.49
464.32	1230.79
464.692	1297
465.065	1301.75
465.438	1288.64
465.81	1332.48
466.183	1334.74
466.555	1335.19
466.928	1349.2
467.3	1349.43
467.672	1395.75
468.045	1428.3
468.417	1438.69
468.789	1447.5
469.161	1443.89
469.534	1480.72
469.906	1489.09
470.278	1538.12
470.65	1541.74
471.022	1574.96
471.394	1595.75
471.766	1586.71
472.138	1652.7
472.51	1671.91
472.882	1661.06
473.253	1716.42
473.625	1733.82
473.997	1749.87
474.369	1752.81
474.74	1822.41
475.112	1819.25
475.484	1870.09
475.855	1889.75
476.227	1928.17
476.598	1953.25
476.97	2002.52
477.341	2039.58
477.713	2086.36
478.084	2058.79
478.455	2132.68
478.827	2191.67
479.198	2226.01
479.569	2243.87
479.94	2304.88
480.311	2346.24
480.682	2376.75
481.053	2449.96
481.424	2474.14
481.795	2510.75
482.166	2568.38
482.537	2612.22
482.908	2640.92
483.279	2696.74
483.65	2722.5
484.021	2853.34
484.391	2830.74
484.762	2863.29
485.133	2915.49
485.503	2979.67
485.874	3042.04
486.244	3092.21
486.615	3146.67
486.985	3221.24
487.356	3281.81
487.726	3249.72
488.097	3388.7
488.467	3411.07
488.837	3462.59
489.207	3523.61
489.578	3592.76
489.948	3618.29
490.318	3644.73
490.688	3690.61
491.058	3731.06
491.428	3813.32
491.798	3910.49
492.168	3964.27
492.538	4015.12
492.908	4019.64
493.278	4106.87
493.648	4138.96
494.017	4129.47
494.387	4233.19
494.757	4261.44
495.126	4330.59
495.496	4312.97
495.866	4414.88
496.235	4449.01
496.605	4460.53
496.974	4482.68
497.344	4553.86
497.713	4584.37
498.082	4631.6
498.452	4626.86
498.821	4692.16
499.19	4701.66
499.559	4755.21
499.928	4822.33
500.298	4805.83
500.667	4882.89
501.036	4874.76
501.405	4964.25
501.774	4962.21
502.143	4995.66
502.512	5055.09
502.88	5065.71
503.249	5121.76
503.618	5103.45
503.987	5166.73
504.356	5214.41
504.724	5172.6
505.093	5213.51
505.462	5279.95
505.83	5306.61
506.199	5325.37
506.567	5410.34
506.936	5404.01
507.304	5486.49
507.672	5522.65
508.041	5566.04
508.409	5560.84
508.777	5631.35
509.145	5568.75
509.514	5588.86
509.882	5704.12
510.25	5668.41
510.618	5724.68
510.986	5711.12
511.354	5759.93
511.722	5779.37
512.09	5839.25
512.458	5853.49
512.826	5856.65
513.193	5926.03
513.561	5929.87
513.929	5970.32
514.297	6041.73
514.664	6079.25
515.032	6053.94
515.4	6105.91
515.767	6092.35
516.135	6151.56
516.502	6126.7
516.869	6252.8
517.237	6225.91
517.604	6233.14
517.972	6311.78
518.339	6301.61
518.706	6328.28
519.073	6377.54
519.44	6370.31
519.808	6398.11
520.175	6415.96
520.542	6479.01
520.909	6499.8
521.276	6454.6
521.643	6547.26
522.009	6576.41
522.376	6693.69
522.743	6688.5
523.11	6678.33
523.477	6740.7
523.843	6886.23
524.21	6907.93
524.577	6901.6
524.943	6900.24
525.31	6947.02
525.676	6997.19
526.043	6986.79
526.409	7075.83
526.776	7121.03
527.142	7159.9
527.508	7202.16
527.874	7231.76
528.241	7252.32
528.607	7242.15
528.973	7340
529.339	7361.02
529.705	7480.57
530.071	7459.1
530.437	7496.38
530.803	7531.86
531.169	7557.17
531.535	7541.58
531.901	7613.22
532.267	7657.28
532.632	7721.01
532.998	7707
533.364	7796.26
533.73	7762.82
534.095	7881.69
534.461	7902.7
534.826	7871.52
535.192	7989.93
535.557	8030.38
535.923	7971.85
536.288	8017.28
536.653	8084.17
537.019	8044.39
537.384	8080.55
537.749	8126.65
538.114	8160.55
538.479	8159.64
538.845	8206.2
539.21	8234.44
539.575	8309.92
539.94	8274.22
540.305	8377.49
540.67	8368.23
541.034	8423.14
541.399	8507.66
541.764	8505.85
542.129	8593.98
542.494	8561.89
542.858	8672.17
543.223	8608.9
543.587	8739.52
543.952	8666.52
544.316	8698.39
544.681	8767.31
545.045	8774.77
545.41	8823.81
545.774	8858.61
546.138	8939.06
546.503	8913.3
546.867	8925.5
547.231	9005.27
547.595	9025.16
547.959	9082.11
548.324	9080.75
548.688	9157.36
549.052	9168.43
549.416	9175.44
549.779	9199.16
550.143	9226.51
550.507	9306.96
550.871	9279.39
551.235	9311.48
551.599	9375.21
551.962	9384.47
552.326	9401.42
552.689	9462.21
553.053	9440.06
553.417	9427.86
553.78	9572.71
554.143	9507.41
554.507	9560.96
554.87	9651.81
555.234	9768.64
555.597	9640.28
555.96	9709.89
556.323	9732.71
556.686	9783.1
557.05	9908.98
557.413	9770
557.776	9868.53
558.139	9928.64
558.502	9949.65
558.865	10008.64
559.228	10040.5
559.59	10003.44
559.953	10052.93
560.316	10184.22
560.679	10141.06
561.041	10204.11
561.404	10293.83
561.767	10269.42
562.129	10293.15
562.492	10359.81
562.854	10371.34
563.217	10344.22
563.579	10420.38
563.941	10457.44
564.304	10515.29
564.666	10551.67
565.028	10576.76
565.39	10655.4
565.753	10646.58
566.115	10710.09
566.477	10767.49
566.839	10851.78
567.201	10864.66
567.563	10899.23
567.925	11001.38
568.287	10965.67
568.648	10995.73
569.01	11053.13
569.372	11081.6
569.734	11060.58
570.095	11177.19
570.457	11172.22
570.819	11238.43
571.18	11325.89
571.542	11409.05
571.903	11358.2
572.265	11442.72
572.626	11548.93
572.987	11559.55
573.349	11604.3
573.71	11657.63
574.071	11693.79
574.432	11805.88
574.794	11867.34
575.155	11988.47
575.516	12009.49
575.877	11979.43
576.238	12085.87
576.599	12134.68
576.96	12286.54
577.32	12387.78
577.681	12445.18
578.042	12568.57
578.403	12567.21
578.763	12699.64
579.124	12832.74
579.485	12931.72
579.845	13022.12
580.206	13163.81
580.566	13233.41
580.927	13393.86
581.287	13533.06
581.648	13632.04
582.008	13789.1
582.368	13890.34
582.728	14061.64
583.089	14237.9
583.449	14327.62
583.809	14512.25
584.169	14686.48
584.529	14861.61
584.889	15128.95
585.249	15171.66
585.609	15368.72
585.969	15694.59
586.329	15790.86
586.688	15985.2
587.048	16246.21
587.408	16450.5
587.768	16644.39
588.127	16868.57
588.487	17048
588.846	17421.32
589.206	17585.61
589.565	17802.55
589.925	18215.88
590.284	18423.78
590.643	18651.57
591.003	18896.76
591.362	19238.67
591.721	19343.3
592.08	19690.64
592.44	20114.58
592.799	20284.07
593.158	20537.62
593.517	20946.88
593.876	21112.07
594.235	21405.17
594.593	21771.26
594.952	22116.79
595.311	22334.64
595.67	22661.86
596.029	23158.35
596.387	23331
596.746	23627.49
597.104	23933.24
597.463	24271.31
597.822	24495.26
598.18	24845.31
598.538	25127.33
598.897	25435.57
599.255	25576.36
599.613	26188.55
599.972	26383.8
600.33	26805.26
600.688	26849.77
601.046	27243.21
601.404	27605.01
601.762	27889.52
602.12	28219.23
602.478	28535.83
602.836	28851.76
603.194	28904.41
603.552	29256.04
603.91	29404.28
604.268	29899.19
604.625	30013.08
604.983	30548.66
605.341	30439.28
605.698	30901.42
606.056	31291.01
606.413	31442.42
606.771	31789.31
607.128	32075.4
607.485	32045.34
607.843	32331.89
608.2	32646.01
608.557	32986.34
608.914	33106.33
609.272	33450.73
609.629	33705.64
609.986	34064.5
610.343	34039.64
610.7	34636.01
611.057	34670.81
611.414	34878.94
611.771	35013.63
612.127	35396.22
612.484	35525.48
612.841	35798.47
613.198	35816.54
613.554	35992.13
613.911	36555.28
614.267	36602.29
614.624	36657.43
614.98	36906.46
615.337	37170.63
615.693	37277.07
616.05	37414.47
616.406	37739.66
616.762	37754.35
617.118	37865.53
617.475	38107.78
617.831	38190.27
618.187	38472.29
618.543	38440.43
618.899	38772.17
619.255	38879.51
619.611	38997.7
619.967	39170.58
620.323	39442.89
620.678	39296
621.034	39431.36
621.39	39552.27
621.746	39629.55
622.101	40229.76
622.457	39946.61
622.812	40026.15
623.168	40450.77
623.523	40200.16
623.879	40587.04
624.234	40366.03
624.589	40544.1
624.945	40724.89
625.3	40738.67
625.655	40777.09
626.01	40931.66
626.365	40977.09
626.72	41093.92
627.075	41034.03
627.43	41086.01
627.785	41088.95
628.14	41206.01
628.495	41435.83
628.85	41345.89
629.205	41279.45
629.559	41633.34
629.914	41410.3
630.269	41596.05
630.623	41588.82
630.978	41583.17
631.332	41758.99
631.687	41831.3
632.041	41765.99
632.396	41806.44
632.75	41678.54
633.104	41856.84
633.459	41651.19
633.813	41634.47
634.167	41832.88
634.521	41743.17
634.875	41795.37
635.229	41871.53
635.583	41578.65
635.937	41771.87
636.291	41684.86
636.645	41714.02
636.999	41727.12
637.352	41923.05
637.706	41581.59
638.06	41819.32
638.413	41754.24
638.767	41649.84
639.121	41871.75
639.474	41468.15
639.828	41613.23
640.181	41674.02
640.534	41572.32
640.888	41684.41
641.241	41494.36
641.594	41521.48
641.947	41798.76
642.301	41580.69
642.654	41708.37
643.007	41746.11
643.36	41555.15
643.713	41550.18
644.066	41805.09
644.419	41458.2
644.771	41204.88
645.124	40921.49
645.477	40813.93
645.83	40596.98
646.182	40547.04
646.535	40288.29
646.888	40502.52
647.24	40349.76
647.593	40649.41
647.945	40441.73
648.298	40193.6
648.65	40168.75
649.002	40086.49
649.355	40119.03
649.707	40232.7
650.059	40406.71
650.411	40943.41
650.763	41009.4
651.115	41319
651.467	41213.46
651.819	41159.91
652.171	41073.13
652.523	41065.22
652.875	41047.59
653.227	40987.71
653.578	41189.06
653.93	41262.5
654.282	41117.65
654.633	40872.23
654.985	41056.86
655.337	40966.69
655.688	40906.35
656.039	41121.04
656.391	40798.33
656.742	40912.46
657.094	40946.35
657.445	41034.26
657.796	40916.3
658.147	40836.98
658.498	40623.88
658.849	40832.23
659.2	40783.87
659.551	40718.11
659.902	40954.49
660.253	40836.98
660.604	40825
660.955	40556.31
661.306	40847.37
661.656	40714.27
662.007	40756.75
662.358	40762.85
662.708	40813.93
663.059	40697.77
663.409	40515.86
663.76	40827.94
664.11	40729.18
664.461	40787.49
664.811	40833.14
665.161	40696.42
665.511	40560.6
665.862	40709.07
666.212	40808.05
666.562	40826.13
666.912	40618
667.262	40683.08
667.612	40705.68
667.962	40637.89
668.312	40580.03
668.662	40799.01
669.011	40684.66
669.361	40615.06
669.711	40636.08
670.06	40566.7
670.41	40505.91
670.76	40331.91
671.109	40703.42
671.459	40505.69
671.808	40461.62
672.157	40520.6
672.507	40213.49
672.856	40258.24
673.205	40290.55
673.554	40617.1
673.904	40365.58
674.253	40568.74
674.602	40359.02
674.951	39940.05
675.3	39808.98
675.649	40321.74
675.998	40194.73
676.346	40421.39
676.695	40434.95
677.044	40107.73
677.393	40185.47
677.741	40152.7
678.09	40204
678.438	40104.34
678.787	40217.11
679.135	40087.84
679.484	39858.47
679.832	40023.67
680.181	39800.39
680.529	39904.12
680.877	39714.75
681.225	39617.57
681.573	39952.71
681.922	39548.2
682.27	39471.14
682.618	39550.01
682.966	39488.76
683.314	39578.48
683.661	39400.86
684.009	39285.83
684.357	39086.74
684.705	39302.33
685.053	39270.92
685.4	39246.74
685.748	38994.77
686.095	38947.99
686.443	38827.31
686.79	38773.3
687.138	38880.87
687.485	38858.27
687.832	38643.59
688.18	38727.2
688.527	38533.53
688.874	38411.5
689.221	38481.56
689.568	38403.82
689.915	38238.18
690.262	38265.29
690.609	38112.3
690.956	38059.87
691.303	37975.58
691.65	37824.17
691.997	37918.64
692.344	37617.63
692.69	37659.21
693.037	37618.98
693.383	37289.27
693.73	37437.97
694.077	37210.41
694.423	37186.45
694.769	37081.82
695.116	37042.05
695.462	36994.37
695.808	36766.58
696.155	36895.61
696.501	36674.15
696.847	36619.46
697.193	36394.16
697.539	36468.5
697.885	36192.35
698.231	36159.59
698.577	36275.06
698.923	36137.44
699.269	36000.72
699.614	35838.46
699.96	35693.16
700.306	35834.62
700.651	35552.6
700.997	35446.16
701.342	35501.75
701.688	35400.74
702.033	35195.32
702.379	35190.12
702.724	35243.68
703.069	35252.04
703.415	34800.75
703.76	34899.96
704.105	34939.05
704.45	34811.15
704.795	34499.74
705.14	34396.92
705.485	34360.76
705.83	34369.35
706.175	34355.79
706.52	34322.57
706.865	34106.98
707.209	34174.1
707.554	34043.94
707.899	34073.99
708.243	33846.65
708.588	33724.17
708.932	33689.82
709.277	33686.43
709.621	33676.49
709.966	33449.83
710.31	33532.99
710.654	33200.34
710.998	33267.23
711.342	33238.31
711.687	33163.73
712.031	33099.33
712.375	32831.09
712.719	33093.68
713.063	32815.27
713.407	33013.68
713.75	32853.91
714.094	32770.07
714.438	32512
714.782	32641.49
715.125	32496.18
715.469	32627.93
715.812	32388.61
716.156	32291.44
716.499	32289.41
716.843	32163.08
717.186	32083.08
717.53	32155.62
717.873	32123.76
718.216	31966.02
718.559	31884.44
718.902	31756.54
719.246	31808.51
719.589	31699.82
719.932	31629.08
720.275	31608.29
720.617	31553.83
720.96	31498.92
721.303	31484.23
721.646	31513.38
721.989	31375.53
722.331	31411.69
722.674	31368.3
723.016	31266.38
723.359	31192.26
723.701	31286.95
724.044	30997.69
724.386	30961.08
724.729	31246.27
725.071	30957.91
725.413	30987.29
725.755	30861.65
726.097	30728.77
726.439	30752.04
726.782	30651.26
727.124	30764.25
727.465	30623.46
727.807	30561.99
728.149	30447.19
728.491	30391.15
728.833	30441.09
729.175	30283.81
729.516	30298.05
729.858	30250.36
730.199	30309.34
730.541	30240.42
730.882	30137.37
731.224	30267.31
731.565	30023.02
731.906	29894.21
732.248	29875.01
732.589	29881.33
732.93	29733.54
733.271	29879.07
733.612	29637.27
733.953	29847.66
734.294	29595.46
734.635	29579.19
734.976	29620.77
735.317	29628.91
735.658	29420.1
735.999	29538.29
736.339	29555.24
736.68	29600.89
737.021	29410.38
737.361	29272.99
737.702	29475.69
738.042	29436.82
738.383	29366.09
738.723	29286.55
739.063	29304.17
739.404	29261.69
739.744	29080.9
740.084	29034.12
740.424	29105.53
740.764	28965.2
741.104	29174.91
741.444	28934.24
741.784	28847.01
742.124	28886.33
742.464	28840.91
742.804	28780.8
743.143	28727.92
743.483	28654.92
743.823	28522.27
744.162	28600.91
744.502	28641.59
744.841	28478.66
745.181	28641.14
745.52	28627.81
745.86	28406.57
746.199	28319.57
746.538	28455.16
746.877	28419.68
747.216	28313.46
747.556	28210.19
747.895	28257.65
748.234	28203.18
748.573	28203.86
748.911	28058.1
749.25	28181.72
749.589	28033.47
749.928	27928.16
750.267	28108.5
750.605	27953.93
750.944	27821.5
751.283	27871.44
751.621	27847.94
751.96	27549.87
752.298	27627.61
752.636	27772.46
752.975	27467.16
753.313	27390.33
753.651	27477.1
753.989	27441.62
754.327	27354.39
754.666	27241.63
755.004	27322.3
755.342	27283.21
755.679	27245.02
756.017	27004.12
756.355	27059.03
756.693	26962.77
757.031	27039.37
757.368	26882.77
757.706	26808.42
758.044	26849.1
758.381	26860.4
758.719	26666.73
759.056	26657.69
759.394	26671.02
759.731	26472.38
