Data from hue_32_FLMS001491_00085.txt Node
Date: Tue Feb 07 17:24:01 GMT 2017
User: dcchb
Spectrometer: FLMS00149
Trigger mode: 0
Integration Time (sec): 2.000000E-2
Scans to average: 10
Electric dark correction enabled: true
Nonlinearity correction enabled: false
Boxcar width: 0
XAxis mode: Wavelengths
Number of Pixels in Spectrum: 2048
>>>>>Begin Spectral Data<<<<<
341.393	-18.95
341.776	-18.95
342.16	-18.95
342.543	-69.12
342.927	-79.97
343.31	-71.38
343.693	-64.83
344.077	-57.82
344.46	-53.53
344.843	-46.52
345.226	-65.51
345.61	-45.39
345.993	-22.34
346.376	-14.66
346.759	4.55
347.142	39.58
347.525	59.91
347.908	51.78
348.291	72.57
348.674	101.04
349.057	112.57
349.44	133.81
349.823	142.4
350.206	166.35
350.588	192.34
350.971	226.46
351.354	229.17
351.737	242.73
352.119	253.35
352.502	263.98
352.884	287.25
353.267	292.22
353.65	302.85
354.032	327.7
354.414	293.13
354.797	316.18
355.179	332.9
355.562	324.99
355.944	334.93
356.326	339.68
356.709	322.28
357.091	349.85
357.473	356.86
357.855	353.69
358.238	338.78
358.62	355.27
359.002	347.36
359.384	350.3
359.766	358.89
360.148	346.01
360.53	339.23
360.912	343.52
361.294	346.01
361.676	324.99
362.057	332.22
362.439	334.26
362.821	313.24
363.203	340.58
363.584	334.26
363.966	322.96
364.348	330.64
364.729	329.51
365.111	324.09
365.493	311.43
365.874	301.94
366.256	327.48
366.637	323.86
367.019	323.41
367.4	306.91
367.781	341.49
368.163	327.25
368.544	330.42
368.925	325.22
369.306	334.03
369.688	306.46
370.069	296.74
370.45	288.38
370.831	316.4
371.212	327.7
371.593	314.37
371.974	318.66
372.355	304.88
372.736	331.77
373.117	329.74
373.498	303.07
373.879	315.27
374.26	323.18
374.641	319.34
375.021	333.35
375.402	319.79
375.783	332
376.163	329.51
376.544	337.42
376.925	343.52
377.305	324.09
377.686	342.62
378.066	324.54
378.447	305.1
378.827	319.12
379.208	338.1
379.588	326.57
379.968	345.56
380.349	314.6
380.729	336.97
381.109	342.84
381.489	332.9
381.87	335.39
382.25	350.53
382.63	349.62
383.01	338.55
383.39	337.65
383.77	352.34
384.15	360.7
384.53	351.88
384.91	350.75
385.29	341.04
385.67	363.86
386.049	366.8
386.429	354.82
386.809	346.69
387.189	358.89
387.568	365.67
387.948	352.34
388.328	352.79
388.707	369.28
389.087	365.22
389.466	374.71
389.846	376.74
390.225	379.45
390.605	377.42
390.984	366.12
391.363	380.58
391.743	376.29
392.122	390.07
392.501	376.97
392.881	407.93
393.26	378.1
393.639	400.24
394.018	381.26
394.397	379.45
394.776	379.91
395.155	393.69
395.534	415.16
395.913	400.02
396.292	398.44
396.671	413.35
397.05	395.5
397.429	390.75
397.808	405.22
398.186	393.01
398.565	397.08
398.944	419
399.323	386.23
399.701	390.3
400.08	415.16
400.458	399.57
400.837	409.96
401.215	393.69
401.594	411.99
401.972	407.93
402.351	396.4
402.729	410.41
403.107	407.7
403.486	432.79
403.864	432.56
404.242	410.19
404.62	418.77
404.999	422.16
405.377	419.9
405.755	420.81
406.133	432.11
406.511	440.47
406.889	430.75
407.267	435.05
407.645	447.93
408.023	458.77
408.401	444.54
408.779	444.99
409.156	467.13
409.534	469.39
409.912	464.42
410.29	465.33
410.667	452.9
411.045	462.61
411.422	483.41
411.8	489.73
412.178	475.5
412.555	468.94
412.933	483.18
413.31	485.89
413.687	516.85
414.065	500.58
414.442	493.57
414.819	493.35
415.197	490.86
415.574	515.04
415.951	518.66
416.328	504.42
416.705	507.13
417.082	515.49
417.46	523.63
417.837	518.88
418.214	501.26
418.591	523.86
418.967	540.35
419.344	535.16
419.721	531.54
420.098	540.8
420.475	518.21
420.852	557.3
421.228	550.3
421.605	544.65
421.982	569.05
422.358	556.62
422.735	578.54
423.111	569.05
423.488	576.06
423.864	571.09
424.241	594.36
424.617	592.1
424.994	583.29
425.37	574.02
425.746	580.58
426.123	598.43
426.499	589.62
426.875	586
427.251	587.81
427.627	606.57
428.003	617.41
428.379	622.84
428.756	617.19
429.132	644.53
429.507	638.66
429.883	662.38
430.259	654.93
430.635	667.58
431.011	646.34
431.387	656.73
431.763	655.83
432.138	664.19
432.514	675.72
432.89	686.34
433.265	696.51
433.641	693.34
434.016	696.28
434.392	702.61
434.767	717.98
435.143	708.26
435.518	732.89
435.894	722.5
436.269	740.57
436.644	727.47
437.02	744.19
437.395	748.94
437.77	755.71
438.145	762.95
438.52	786.9
438.895	786
439.271	783.96
439.646	786.9
440.021	779.67
440.395	796.62
440.77	788.26
441.145	774.92
441.52	807.01
441.895	813.11
442.27	799.1
442.645	816.5
443.019	841.81
443.394	823.74
443.769	831.19
444.143	837.07
444.518	823.74
444.892	855.15
445.267	871.42
445.641	850.85
446.016	861.7
446.39	851.31
446.764	883.17
447.139	870.51
447.513	896.5
447.887	884.52
448.262	907.12
448.636	900.8
449.01	893.56
449.384	905.99
449.758	899.89
450.132	906.22
450.506	928.59
450.88	904.86
451.254	928.59
451.628	963.39
452.002	957.07
452.376	947.12
452.75	943.73
453.123	961.81
453.497	982.15
453.871	986.67
454.244	987.8
454.618	1009.49
454.992	1008.59
455.365	1019.44
455.739	1062.6
456.112	1066.21
456.486	1066.67
456.859	1065.54
457.232	1092.88
457.606	1087.68
457.979	1083.39
458.352	1110.96
458.725	1115.48
459.099	1132.65
459.472	1150.05
459.845	1149.83
460.218	1153.22
460.591	1167.46
460.964	1175.36
461.337	1205.65
461.71	1233.22
462.083	1222.59
462.456	1240
462.829	1253.1
463.201	1280.22
463.574	1270.96
463.947	1282.93
464.32	1315.93
464.692	1306.43
465.065	1344.4
465.438	1365.42
465.81	1387.34
466.183	1399.99
466.555	1405.19
466.928	1422.14
467.3	1443.61
467.672	1460.55
468.045	1488.35
468.417	1506.2
468.789	1523.83
469.161	1515.69
469.534	1586.88
469.906	1595.24
470.278	1656.26
470.65	1628.91
471.022	1654.67
471.394	1730.83
471.766	1718.63
472.138	1753.2
472.51	1778.06
472.882	1775.12
473.253	1803.37
473.625	1853.76
473.997	1900.09
474.369	1922.24
474.74	1978.73
475.112	2016.7
475.484	2063.02
475.855	2083.82
476.227	2139.41
476.598	2177.82
476.97	2220.08
477.341	2259.63
477.713	2329.68
478.084	2343.47
478.455	2433.41
478.827	2465.95
479.198	2570.13
479.569	2536.91
479.94	2648.77
480.311	2655.78
480.682	2728.32
481.053	2811.25
481.424	2866.85
481.795	2948.43
482.166	3009.89
482.537	3059.38
482.908	3174.86
483.279	3175.54
483.65	3297.79
484.021	3340.73
484.391	3448.75
484.762	3514.96
485.133	3568.97
485.503	3626.15
485.874	3709.76
486.244	3833.6
486.615	3895.75
486.985	3970.32
487.356	4087.38
487.726	4100.71
488.097	4248.73
488.467	4317.43
488.837	4406.01
489.207	4488.72
489.578	4600.59
489.948	4690.98
490.318	4803.29
490.688	4838.77
491.058	4883.06
491.428	4993.57
491.798	5076.28
492.168	5235.6
492.538	5237.18
492.908	5380.45
493.278	5460.22
493.648	5497.96
494.017	5620.22
494.387	5691.4
494.757	5760.55
495.126	5902.92
495.496	5897.05
495.866	5991.06
496.235	6075.8
496.605	6167.1
496.974	6193.09
497.344	6288.68
497.713	6347.21
498.082	6435.79
498.452	6513.3
498.821	6553.98
499.19	6633.07
499.559	6720.76
499.928	6804.6
500.298	6905.16
500.667	6950.81
501.036	6953.52
501.405	7086.85
501.774	7120.74
502.143	7223.57
502.512	7256.11
502.88	7312.38
503.249	7371.36
503.618	7451.13
503.987	7500.85
504.356	7525.03
504.724	7598.7
505.093	7655.87
505.462	7688.41
505.83	7772.71
506.199	7886.83
506.567	7956.43
506.936	7936.32
507.304	8046.14
507.672	8071.68
508.041	8160.04
508.409	8265.57
508.777	8291.79
509.145	8326.36
509.514	8401.62
509.882	8383.54
510.25	8478.68
510.618	8473.7
510.986	8539.01
511.354	8642.51
511.722	8690.65
512.09	8838.67
512.458	8775.84
512.826	8931.09
513.193	8922.73
513.561	8980.36
513.929	9000.92
514.297	9155.04
514.664	9203.85
515.032	9207.47
515.4	9317.98
515.767	9258.54
516.135	9296.96
516.502	9344.64
516.869	9444.3
517.237	9511.64
517.604	9456.95
517.972	9619.21
518.339	9661.7
518.706	9698.08
519.073	9706.44
519.44	9815.59
519.808	9890.84
520.175	9790.96
520.542	9977.62
520.909	10015.13
521.276	10047.22
521.643	10058.75
522.009	10199.76
522.376	10253.77
522.743	10227.78
523.11	10341.9
523.477	10433.43
523.843	10502.35
524.21	10578.73
524.577	10620.77
524.943	10660.99
525.31	10710.71
525.676	10875.45
526.043	10853.98
526.409	10976.46
526.776	10981.66
527.142	11009
527.508	11089.23
527.874	11204.03
528.241	11267.98
528.607	11288.09
528.973	11515.66
529.339	11400.86
529.705	11543
530.071	11680.85
530.437	11653.96
530.803	11724.01
531.169	11797.91
531.535	11811.47
531.901	11850.79
532.267	11888.98
532.632	11970.11
532.998	12062.08
533.364	12000.16
533.73	12074.96
534.095	12246.03
534.461	12209.42
534.826	12386.6
535.192	12374.39
535.557	12400.38
535.923	12459.36
536.288	12477.44
536.653	12555.18
537.019	12560.83
537.384	12616.19
537.749	12776.19
538.114	12679.69
538.479	12794.72
538.845	12690.09
539.21	12798.79
539.575	12828.84
539.94	12962.17
540.305	12986.13
540.67	12925.34
541.034	13060.25
541.399	13096.63
541.764	13165.33
542.129	13234.48
542.494	13221.83
542.858	13433.12
543.223	13329.4
543.587	13455.72
543.952	13480.8
544.316	13526.45
544.681	13519.45
545.045	13568.71
545.41	13708.14
545.774	13794.47
546.138	13790.4
546.503	13958.98
546.867	13907.23
547.231	13995.37
547.595	14016.16
547.959	14007.8
548.324	14098.41
548.688	14086.21
549.052	14208.92
549.416	14214.12
549.779	14263.61
550.143	14301.8
550.507	14383.38
550.871	14337.05
551.235	14420.44
551.599	14517.84
551.962	14492.53
552.326	14604.84
552.689	14731.39
553.053	14554.45
553.417	14643.71
553.78	14870.82
554.143	14785.4
554.507	14888.22
554.87	14888.9
555.234	15158.27
555.597	14993.31
555.96	15038.05
556.323	15190.14
556.686	15186.07
557.05	15233.53
557.413	15263.36
557.776	15269.91
558.139	15377.93
558.502	15484.14
558.865	15415.44
559.228	15560.98
559.59	15603.91
559.953	15687.75
560.316	15698.6
560.679	15819.5
561.041	15835.09
561.404	15998.7
561.767	16015.2
562.129	15905.6
562.492	16158.25
562.854	16110.34
563.217	16152.82
563.579	16307.17
563.941	16285.25
564.304	16376.77
564.666	16440.05
565.028	16501.52
565.39	16424
565.753	16611.79
566.115	16593.26
566.477	16641.17
566.839	16781.06
567.201	16934.27
567.563	16811.79
567.925	17068.73
568.287	16980.6
568.648	17063.08
569.01	17248.39
569.372	17215.39
569.734	17304.43
570.095	17380.81
570.457	17485.67
570.819	17569.06
571.18	17517.31
571.542	17578.55
571.903	17680.47
572.265	17743.52
572.626	17886.56
572.987	17866.9
573.349	17914.36
573.71	18074.58
574.071	18166.78
574.432	18275.48
574.794	18454.91
575.155	18429.6
575.516	18531.74
575.877	18657.39
576.238	18656.49
576.599	18870.49
576.96	18885.18
577.32	19033.43
577.681	19199.98
578.042	19313.87
578.403	19447.65
578.763	19579.4
579.124	19703.46
579.485	19892.61
579.845	20029.11
580.206	20190.91
580.566	20339.61
580.927	20433.16
581.287	20629.09
581.648	20865.02
582.008	20989.53
582.368	21075.18
582.728	21346.13
583.089	21437.43
583.449	21631.1
583.809	21862.96
584.169	22074.48
584.529	22336.84
584.889	22606.89
585.249	22725.76
585.609	22864.06
585.969	23124.17
586.329	23167.55
586.688	23591.95
587.048	23692.96
587.408	23915.11
587.768	24200.07
588.127	24380.18
588.487	24506.5
588.846	25048.86
589.206	25139.48
589.565	25232.13
589.925	25703.31
590.284	25919.35
590.643	26076.86
591.003	26420.12
591.362	26646.56
591.721	26998.87
592.08	27160.67
592.44	27476.14
592.799	27778.28
593.158	27893.98
593.517	28248.1
593.876	28497.13
594.235	28754.75
594.593	28967.63
594.952	29302.53
595.311	29448.29
595.67	29728.29
596.029	30129.63
596.387	30333.92
596.746	30704.31
597.104	30810.97
597.463	30971.19
597.822	31370.95
598.18	31468.81
598.538	31529.59
598.897	32118.05
599.255	32115.34
599.613	32626.06
599.972	32648.44
600.33	32959.84
600.688	33041.19
601.046	33454.74
601.404	33757.33
601.762	33861.96
602.12	34160.26
602.478	34428.5
602.836	34637.31
603.194	34630.76
603.552	34944.65
603.91	35001.14
604.268	35421.7
604.625	35438.87
604.983	35705.53
605.341	35715.7
605.698	36227.32
606.056	36325.63
606.413	36444.04
606.771	36703.24
607.128	36890.58
607.485	36854.2
607.843	37181.2
608.2	37393.17
608.557	37601.53
608.914	37737.34
609.272	37989.76
609.629	38055.07
609.986	38462.29
610.343	38316.76
610.7	38728.28
611.057	38795.84
611.414	38881.72
611.771	39053.01
612.127	39281.26
612.484	39327.58
612.841	39629.95
613.198	39667.46
613.554	39671.98
613.911	40045.98
614.267	40217.05
614.624	40089.37
614.98	40333.88
615.337	40727.32
615.693	40575.91
616.05	40800.31
616.406	41052.28
616.762	40979.97
617.118	41018.61
617.475	41058.61
617.831	41279.85
618.187	41499.28
618.543	41501.99
618.899	41792.83
619.255	41717.35
619.611	41844.13
619.967	41936.55
620.323	42297
620.678	42177.68
621.034	42019.04
621.39	42061.75
621.746	42303.77
622.101	42802.07
622.457	42500.38
622.812	42526.37
623.168	42779.47
623.523	42674.84
623.879	43014.04
624.234	42734.27
624.589	43000.03
624.945	42894.27
625.3	43139.23
625.655	43084.32
626.01	43153.92
626.365	43369.74
626.72	43235.5
627.075	43304.43
627.43	43265.78
627.785	43263.98
628.14	43303.07
628.495	43434.82
628.85	43357.76
629.205	43246.57
629.559	43515.27
629.914	43552.56
630.269	43546.68
630.623	43383.97
630.978	43370.19
631.332	43580.8
631.687	43747.58
632.041	43492.67
632.396	43747.8
632.75	43532.89
633.104	43575.38
633.459	43571.99
633.813	43503.74
634.167	43499
634.521	43641.14
634.875	43609.73
635.229	43545.55
635.583	43344.88
635.937	43438.89
636.291	43368.38
636.645	43424.65
636.999	43413.12
637.352	43555.95
637.706	43221.04
638.06	43443.86
638.413	43390.3
638.767	43430.07
639.121	43329.74
639.474	43219.46
639.828	43238.21
640.181	43389.4
640.534	43310.08
640.888	43177.2
641.241	43110.76
641.594	43151.66
641.947	43263.52
642.301	43155.05
642.654	43158.89
643.007	43167.25
643.36	43195.95
643.713	43061.95
644.066	43291.09
644.419	43071.66
644.771	42828.73
645.124	42416.09
645.477	42377.45
645.83	42292.25
646.182	41889.77
646.535	41821.98
646.888	41966.16
647.24	41703.34
647.593	42066.94
647.945	41865.59
648.298	41716.67
648.65	41698.37
649.002	41579.27
649.355	41892.49
649.707	41735.43
650.059	41914.86
650.411	42280.95
650.763	42432.36
651.115	42739.47
651.467	42658.12
651.819	42658.34
652.171	42542.19
652.523	42473.49
652.875	42396.65
653.227	42331.12
653.578	42594.16
653.93	42465.13
654.282	42459.93
654.633	42339.93
654.985	42375.19
655.337	42399.37
655.688	42409.08
656.039	42393.26
656.391	42255.41
656.742	42346.71
657.094	42367.28
657.445	42398.46
657.796	42438.46
658.147	42209.31
658.498	42251.12
658.849	42354.85
659.2	42374.73
659.551	42134.97
659.902	42328.18
660.253	42292.93
660.604	42379.48
660.955	42139.03
661.306	42227.62
661.656	42172.25
662.007	42103.33
662.358	42311.91
662.708	42083.44
663.059	42262.42
663.409	41929.77
663.76	42147.62
664.11	42174.96
664.461	42080.28
664.811	42201.63
665.161	42146.94
665.511	42079.83
665.862	42063.78
666.212	42077.57
666.562	42119.15
666.912	41840.74
667.262	41926.61
667.612	41913.05
667.962	42102.42
668.312	41974.97
668.662	42146.49
669.011	41835.09
669.361	41848.19
669.711	41985.82
670.06	41956.21
670.41	41829.66
670.76	41799.16
671.109	41977.46
671.459	41839.38
671.808	41759.61
672.157	41880.96
672.507	41592.38
672.856	41538.37
673.205	41806.39
673.554	41870.11
673.904	41765.48
674.253	41843
674.602	41746.5
674.951	41155.56
675.3	41017.71
675.649	41581.76
675.998	41552.83
676.346	41642.55
676.695	41721.64
677.044	41430.13
677.393	41457.24
677.741	41641.42
678.09	41545.15
678.438	41332.73
678.787	41496.79
679.135	41438.26
679.484	41133.18
679.832	41226.74
680.181	41006.18
680.529	41168.89
680.877	41175.89
681.225	41044.6
681.573	41085.28
681.922	40985.17
682.27	40930.25
682.618	40916.24
682.966	40794.89
683.314	41035.11
683.661	40809.35
684.009	40546.53
684.357	40479.19
684.705	40630.6
685.053	40642.12
685.4	40484.16
685.748	40335.46
686.095	40175.92
686.443	40276.48
686.79	40049.82
687.138	40388.34
687.485	40261.79
687.832	39968.24
688.18	40099.31
688.527	39812.09
688.874	39905.42
689.221	39843.95
689.568	39667.69
689.915	39499.1
690.262	39572.32
690.609	39473.34
690.956	39388.37
691.303	39396.73
691.65	39157.19
691.997	39128.04
692.344	38983.64
692.69	38860.25
693.037	38910.64
693.383	38627.71
693.73	38680.82
694.077	38416.87
694.423	38466.81
694.769	38362.41
695.116	38320.15
695.462	38280.83
695.808	38142.08
696.155	38338
696.501	37853.5
696.847	37872.03
697.193	37628.19
697.539	37813.27
697.885	37627.06
698.231	37420.51
698.577	37522.21
698.923	37428.42
699.269	37204.25
699.614	37162.44
699.96	37030.02
700.306	37250.57
700.651	36884.03
700.997	36852.17
701.342	36659.4
701.688	36657.37
702.033	36550.03
702.379	36482.01
702.724	36502.57
703.069	36550.71
703.415	35999.76
703.76	36022.81
704.105	35982.13
704.45	35935.58
704.795	35838.86
705.14	35772.65
705.485	35701.24
705.83	35560.45
706.175	35500.11
706.52	35461.47
706.865	35322.26
707.209	35289.95
707.554	35148.71
707.899	35341.7
708.243	35070.74
708.588	35131.99
708.932	34740.36
709.277	34875.27
709.621	34865.78
709.966	34611.77
710.31	34676.86
710.654	34330.2
710.998	34446.13
711.342	34484.77
711.687	34273.93
712.031	34227.38
712.375	34146.02
712.719	34091.11
713.063	34143.54
713.407	34224.67
713.75	33882.98
714.094	33748.97
714.438	33646.6
714.782	33846.37
715.125	33576.09
715.469	33622.65
715.812	33319.38
716.156	33322.09
716.499	33403.22
716.843	33313.73
717.186	33096.11
717.53	33261.3
717.873	33330.68
718.216	33261.53
718.559	32982.44
718.902	32755.33
719.246	32860.41
719.589	32825.38
719.932	32594.2
720.275	32683.69
720.617	32638.49
720.96	32525.73
721.303	32445.95
721.646	32643.69
721.989	32476.46
722.331	32496.35
722.674	32351.95
723.016	32430.81
723.359	32326.41
723.701	32424.49
724.044	32142.69
724.386	32011.16
724.729	32185.85
725.071	32051.61
725.413	31999.86
725.755	31939.08
726.097	31861.34
726.439	31770.49
726.782	31835.8
727.124	31822.69
727.465	31726.88
727.807	31693.21
728.149	31543.38
728.491	31535.24
728.833	31678.29
729.175	31536.15
729.516	31408.02
729.858	31270.39
730.199	31352.65
730.541	31328.47
730.882	31344.74
731.224	31374.8
731.565	31041.25
731.906	30967.12
732.248	31105.65
732.589	30905.66
732.93	30773
733.271	30868.37
733.612	30834.92
733.953	30904.75
734.294	30781.82
734.635	30679.22
734.976	30811.65
735.317	30544.99
735.658	30501.37
735.999	30448.04
736.339	30466.12
736.68	30580.92
737.021	30412.11
737.361	30330.76
737.702	30443.07
738.042	30355.39
738.383	30236.75
738.723	30355.84
739.063	30140.93
739.404	30285.11
739.744	30060.03
740.084	30028.17
740.424	29980.48
740.764	30058.9
741.104	30044.21
741.444	29722.41
741.784	29796.53
742.124	29881.95
742.464	29826.14
742.804	29648.06
743.143	29633.37
743.483	29675.41
743.823	29483.77
744.162	29496.65
744.502	29487.39
744.841	29436.32
745.181	29608.29
745.52	29411.91
745.86	29497.56
746.199	29300.5
746.538	29395.19
746.877	29426.15
747.216	29322.42
747.556	29265.93
747.895	29214.63
748.234	29171.46
748.573	29044.46
748.911	29189.77
749.25	28977.57
749.589	28933.96
749.928	28918.36
750.267	29011.47
750.605	28865.71
750.944	28836.56
751.283	28761.98
751.621	28852.38
751.96	28661.87
752.298	28624.81
752.636	28494.19
752.975	28287.19
753.313	28366.51
753.651	28509.56
753.989	28265.95
754.327	28247.87
754.666	28225.5
755.004	28218.5
755.342	28202.22
755.679	28180.53
756.017	28051.27
756.355	28091.49
756.693	27935.56
757.031	28026.64
757.368	27712.52
