Data from hue_270_FLMS001491_00062.txt Node
Date: Tue Feb 07 15:57:32 GMT 2017
User: dcchb
Spectrometer: FLMS00149
Trigger mode: 0
Integration Time (sec): 2.000000E-2
Scans to average: 10
Electric dark correction enabled: true
Nonlinearity correction enabled: false
Boxcar width: 0
XAxis mode: Wavelengths
Number of Pixels in Spectrum: 2048
>>>>>Begin Spectral Data<<<<<
341.393	-12.5
341.776	-12.5
342.16	-12.5
342.543	-66.28
342.927	-59.96
343.31	-58.15
343.693	-56.79
344.077	-68.32
344.46	-52.72
344.843	-71.26
345.226	-40.52
345.61	-35.1
345.993	-25.15
346.376	-1.65
346.759	-2.56
347.142	38.8
347.525	35.18
347.908	64.11
348.291	81.28
348.674	107.95
349.057	84.9
349.44	125.12
349.823	134.62
350.206	159.02
350.588	180.94
350.971	174.84
351.354	218.45
351.737	227.95
352.119	229.08
352.502	259.13
352.884	262.52
353.267	272.01
353.65	290.32
354.032	293.26
354.414	295.51
354.797	291
355.179	314.05
355.562	308.85
355.944	323.31
356.326	311.56
356.709	311.33
357.091	324.89
357.473	319.47
357.855	319.02
358.238	323.08
358.62	319.02
359.002	343.2
359.384	350.2
359.766	333.25
360.148	323.99
360.53	338.9
360.912	324.89
361.294	317.89
361.676	321.73
362.057	321.28
362.439	313.14
362.821	329.86
363.203	317.89
363.584	323.99
363.966	321.95
364.348	308.85
364.729	327.38
365.111	291.67
365.493	302.07
365.874	295.74
366.256	320.82
366.637	327.6
367.019	304.55
367.4	309.3
367.781	297.32
368.163	287.15
368.544	307.94
368.925	288.74
369.306	299.81
369.688	313.37
370.069	323.99
370.45	300.03
370.831	299.81
371.212	312.24
371.593	289.87
371.974	295.51
372.355	309.75
372.736	303.2
373.117	318.79
373.498	291.9
373.879	310.43
374.26	313.14
374.641	313.37
375.021	308.85
375.402	303.42
375.783	316.98
376.163	332.58
376.544	309.75
376.925	334.38
377.305	302.75
377.686	313.59
378.066	322.63
378.447	305.01
378.827	310.66
379.208	335.29
379.588	319.92
379.968	321.95
380.349	344.1
380.729	327.38
381.109	326.47
381.489	320.15
381.87	330.54
382.25	329.41
382.63	336.87
383.01	327.83
383.39	319.69
383.77	369.86
384.15	341.62
384.53	330.99
384.91	352.46
385.29	342.75
385.67	338.45
386.049	321.05
386.429	333.93
386.809	361.05
387.189	338.68
387.568	338.9
387.948	326.7
388.328	314.95
388.707	360.37
389.087	329.19
389.466	358.34
389.846	368.73
390.225	371.45
390.605	359.92
390.984	373.25
391.363	356.98
391.743	346.81
392.122	361.05
392.501	370.77
392.881	370.09
393.26	359.47
393.639	368.51
394.018	376.64
394.397	378
394.776	379.81
395.155	388.62
395.534	382.74
395.913	388.62
396.292	374.16
396.671	389.75
397.05	383.87
397.429	385.68
397.808	365.12
398.186	382.07
398.565	402.4
398.944	388.39
399.323	386.81
399.701	389.52
400.08	395.85
400.458	405.34
400.837	407.83
401.215	392.46
401.594	421.39
401.972	409.86
402.351	420.48
402.729	411.22
403.107	419.81
403.486	420.03
403.864	424.55
404.242	422.74
404.62	427.94
404.999	442.63
405.377	428.17
405.755	436.3
406.133	444.89
406.511	436.08
406.889	467.26
407.267	447.6
407.645	469.3
408.023	496.87
408.401	462.52
408.779	477.66
409.156	478.33
409.534	500.48
409.912	492.8
410.29	499.13
410.667	490.31
411.045	511.78
411.422	512.46
411.8	511.1
412.178	551.55
412.555	547.49
412.933	550.65
413.31	547.71
413.687	547.71
414.065	586.35
414.442	549.97
414.819	571.89
415.197	613.92
415.574	596.52
415.951	595.39
416.328	611.21
416.705	606.02
417.082	606.24
417.46	638.1
417.837	614.6
418.214	625.68
418.591	647.14
418.967	633.36
419.344	651.66
419.721	651.44
420.098	659.35
420.475	682.85
420.852	677.65
421.228	674.49
421.605	690.31
421.982	687.59
422.358	737.99
422.735	709.06
423.111	725.11
423.488	746.58
423.864	749.74
424.241	766.46
424.617	763.75
424.994	794.03
425.37	789.51
425.746	786.58
426.123	806.69
426.499	818.89
426.875	795.39
427.251	839
427.627	855.73
428.003	863.86
428.379	890.53
428.756	858.66
429.132	901.6
429.507	891.43
429.883	875.61
430.259	918.32
430.635	904.09
431.011	933.01
431.387	964.88
431.763	959.45
432.138	968.94
432.514	971.43
432.89	1006.46
433.265	1053.01
433.641	1030.41
434.016	1046
434.392	1045.78
434.767	1076.51
435.143	1089.84
435.518	1092.1
435.894	1117.87
436.269	1138.2
436.644	1140.24
437.02	1177.53
437.395	1181.14
437.77	1204.42
438.145	1227.69
438.52	1229.73
438.895	1252.33
439.271	1247.81
439.646	1275.38
440.021	1251.65
440.395	1291.42
440.77	1304.98
441.145	1306.56
441.52	1358.09
441.895	1370.97
442.27	1359.67
442.645	1359.44
443.019	1387.46
443.394	1381.14
443.769	1422.49
444.143	1398.54
444.518	1407.8
444.892	1427.01
445.267	1422.72
445.641	1448.48
446.016	1447.12
446.39	1457.52
446.764	1482.6
447.139	1466.56
447.513	1492.55
447.887	1528.48
448.262	1510.17
448.636	1524.64
449.01	1520.57
449.384	1531.41
449.758	1573.45
450.132	1593.56
450.506	1561.24
450.88	1598.08
451.254	1591.53
451.628	1607.34
452.002	1602.83
452.376	1627.23
452.75	1643.73
453.123	1661.35
453.497	1695.48
453.871	1694.35
454.244	1697.74
454.618	1735.93
454.992	1742.48
455.365	1727.79
455.739	1778.64
456.112	1795.81
456.486	1801.69
456.859	1836.72
457.232	1852.31
457.606	1838.98
457.979	1872.87
458.352	1884.85
458.725	1919.88
459.099	1926.88
459.472	1942.7
459.845	1959.65
460.218	1982.93
460.591	1973.66
460.964	1986.09
461.337	2047.11
461.71	2066.77
462.083	2079.42
462.456	2093.66
462.829	2077.84
463.201	2131.62
463.574	2133.43
463.947	2174.11
464.32	2209.14
464.692	2213.88
465.065	2171.85
465.438	2237.61
465.81	2273.09
466.183	2258.85
466.555	2300.89
466.928	2329.36
467.3	2324.61
467.672	2341.11
468.045	2410.26
468.417	2376.36
468.789	2466.53
469.161	2439.41
469.534	2519.64
469.906	2514.21
470.278	2559.64
470.65	2563.48
471.022	2581.33
471.394	2649.13
471.766	2682.34
472.138	2662.91
472.51	2730.93
472.882	2737.94
473.253	2792.17
473.625	2798.5
473.997	2868.55
474.369	2899.06
474.74	2934.09
475.112	2964.6
475.484	2998.04
475.855	3021.77
476.227	3038.04
476.598	3134.08
476.97	3152.61
477.341	3195.55
477.713	3191.71
478.084	3210.92
478.455	3255.89
478.827	3297.02
479.198	3388.54
479.569	3425.83
479.94	3453.85
480.311	3516.45
480.682	3539.72
481.053	3661.3
481.424	3671.7
481.795	3713.05
482.166	3724.58
482.537	3742.88
482.908	3833.95
483.279	3849.09
483.65	3905.36
484.021	3997.11
484.391	4014.51
484.762	4042.31
485.133	4057
485.503	4115.3
485.874	4232.36
486.244	4228.97
486.615	4254.96
486.985	4336.54
487.356	4359.59
487.726	4398.91
488.097	4460.83
488.467	4515.97
488.837	4538.12
489.207	4555.29
489.578	4633.71
489.948	4639.58
490.318	4706.7
490.688	4696.08
491.058	4780.14
491.428	4823.98
491.798	4820.82
492.168	4929.52
492.538	4916.86
492.908	4948.95
493.278	4988.95
493.648	5045.67
494.017	5113.24
494.387	5122.28
494.757	5170.87
495.126	5253.35
495.496	5212.9
495.866	5253.35
496.235	5259.45
496.605	5291.54
496.974	5342.16
497.344	5376.51
497.713	5408.37
498.082	5376.74
498.452	5459.67
498.821	5438.43
499.19	5500.8
499.559	5527.24
499.928	5558.65
500.298	5590.97
500.667	5576.05
501.036	5569.73
501.405	5557.52
501.774	5649.95
502.143	5711.19
502.512	5673.45
502.88	5713.23
503.249	5687.46
503.618	5710.74
503.987	5774.92
504.356	5838.19
504.724	5823.05
505.093	5865.31
505.462	5833.9
505.83	5851.3
506.199	5887.91
506.567	5971.3
506.936	5876.61
507.304	5971.52
507.672	5988.25
508.041	5998.87
508.409	6013.56
508.777	6007.46
509.145	6050.62
509.514	6051.75
509.882	6129.71
510.25	6092.88
510.618	6082.26
510.986	6108.24
511.354	6193.44
511.722	6170.39
512.09	6256.26
512.458	6233.21
512.826	6236.38
513.193	6270.95
513.561	6280.22
513.929	6269.82
514.297	6311.18
514.664	6351.85
515.032	6348.69
515.4	6391.63
515.767	6343.49
516.135	6399.54
516.502	6368.58
516.869	6421.23
517.237	6456.93
517.604	6416.26
517.972	6498.97
518.339	6497.16
518.706	6432.98
519.073	6482.7
519.44	6526.09
519.808	6557.5
520.175	6508.01
520.542	6587.33
520.909	6549.81
521.276	6546.42
521.643	6631.62
522.009	6618.06
522.376	6678.17
522.743	6662.58
523.11	6661.68
523.477	6778.51
523.843	6734.44
524.21	6807.66
524.577	6812.41
524.943	6844.04
525.31	6830.03
525.676	6890.82
526.043	6907.32
526.409	6889.24
526.776	6993.19
527.142	6924.95
527.508	6974.66
527.874	6987.54
528.241	6970.14
528.607	6987.99
528.973	7013.98
529.339	7100.76
529.705	7074.55
530.071	7166.29
530.437	7154.77
530.803	7143.02
531.169	7242.9
531.535	7160.42
531.901	7214.65
532.267	7204.71
532.632	7233.64
532.998	7301.21
533.364	7242.9
533.73	7286.74
534.095	7292.39
534.461	7271.15
534.826	7324.71
535.192	7415.33
535.557	7348.89
535.923	7349.57
536.288	7360.64
536.653	7425.95
537.019	7380.3
537.384	7384.59
537.749	7416.01
538.114	7432.05
538.479	7427.76
538.845	7468.89
539.21	7394.76
539.575	7435.44
539.94	7432.28
540.305	7437.7
540.67	7499.85
541.034	7477.47
541.399	7519.05
541.764	7500.07
542.129	7528.09
542.494	7503.69
542.858	7533.29
543.223	7527.42
543.587	7536.91
543.952	7504.82
544.316	7559.96
544.681	7511.82
545.045	7620.97
545.41	7627.75
545.774	7602.44
546.138	7585.49
546.503	7623.01
546.867	7565.83
547.231	7580.97
547.595	7663.46
547.959	7599.73
548.324	7620.52
548.688	7620.75
549.052	7709.11
549.416	7628.66
549.779	7630.24
550.143	7742.55
550.507	7723.12
550.871	7746.39
551.235	7717.01
551.599	7754.08
551.962	7740.74
552.326	7705.94
552.689	7811.02
553.053	7752.04
553.417	7777.8
553.78	7770.35
554.143	7842.21
554.507	7826.39
554.87	7849.67
555.234	7900.29
555.597	7825.94
555.96	7815.77
556.323	7906.39
556.686	7869.33
557.05	7953.17
557.413	7934.64
557.776	7913.85
558.139	7964.47
558.502	7950.91
558.865	8016.44
559.228	8084.91
559.59	8046.95
559.953	8069.55
560.316	8126.95
560.679	8114.52
561.041	8155.65
561.404	8194.97
561.767	8205.82
562.129	8182.09
562.492	8298.24
562.854	8270.67
563.217	8306.83
563.579	8337.79
563.941	8390.67
564.304	8354.74
564.666	8429.99
565.028	8444
565.39	8413.04
565.753	8489.88
566.115	8434.06
566.477	8534.39
566.839	8552.02
567.201	8573.49
567.563	8629.98
567.925	8634.5
568.287	8650.55
568.648	8618.69
569.01	8774.16
569.372	8821.17
569.734	8768.06
570.095	8817.1
570.457	8850.09
570.819	8901.62
571.18	8932.12
571.542	8882.18
571.903	8938.68
572.265	8976.42
572.626	8997.21
572.987	9005.79
573.349	9069.07
573.71	9078.79
574.071	9053.25
574.432	9208.95
574.794	9201.27
575.155	9213.47
575.516	9167.82
575.877	9258.67
576.238	9277.2
576.599	9297.31
576.96	9428.38
577.32	9323.3
577.681	9356.75
578.042	9456.86
578.403	9379.57
578.763	9505.89
579.124	9439
579.485	9493.01
579.845	9506.12
580.206	9573.01
580.566	9584.54
580.927	9635.61
581.287	9655.27
581.648	9750.86
582.008	9716.28
582.368	9741.82
582.728	9763.74
583.089	9752.67
583.449	9845.55
583.809	9838.31
584.169	9888.48
584.529	9884.64
584.889	9972.77
585.249	9921.48
585.609	9947.01
585.969	10016.39
586.329	9993.11
586.688	10051.64
587.048	9957.86
587.408	10121.7
587.768	10017.52
588.127	10141.81
588.487	10163.5
588.846	10211.86
589.206	10136.16
589.565	10208.93
589.925	10321.69
590.284	10241.69
590.643	10290.96
591.003	10287.79
591.362	10332.54
591.721	10406.89
592.08	10382.26
592.44	10441.91
592.799	10455.02
593.158	10400.56
593.517	10494.57
593.876	10521.91
594.235	10506.55
594.593	10535.02
594.952	10595.58
595.311	10613.21
595.67	10591.06
596.029	10702.92
596.387	10666.09
596.746	10621.12
597.104	10665.19
597.463	10675.58
597.822	10735.01
598.18	10677.39
598.538	10685.52
598.897	10849.36
599.255	10688.46
599.613	10887.55
599.972	10778.4
600.33	10853.88
600.688	10772.75
601.046	10911.96
601.404	10925.52
601.762	10907.21
602.12	10993.76
602.478	10868.57
602.836	10960.09
603.194	10896.82
603.552	10997.61
603.91	10919.19
604.268	10932.07
604.625	11004.61
604.983	10985.63
605.341	10944.73
605.698	11065.4
606.056	11023.37
606.413	11012.52
606.771	11101.56
607.128	11020.88
607.485	11048.23
607.843	10981.79
608.2	11062.69
608.557	11078.06
608.914	11080.54
609.272	11154.21
609.629	11207.09
609.986	11206.87
610.343	11153.53
610.7	11257.94
611.057	11230.14
611.414	11189.47
611.771	11232.85
612.127	11255.23
612.484	11243.25
612.841	11313.08
613.198	11261.55
613.554	11285.28
613.911	11352.63
614.267	11262.46
614.624	11344.72
614.98	11338.16
615.337	11352.85
615.693	11419.29
616.05	11375.68
616.406	11398.95
616.762	11377.94
617.118	11363.02
617.475	11376.58
617.831	11431.72
618.187	11475.56
618.543	11472.85
618.899	11540.19
619.255	11502.68
619.611	11411.83
619.967	11469.23
620.323	11530.47
620.678	11503.58
621.034	11411.15
621.39	11511.94
621.746	11529.34
622.101	11571.6
622.457	11468.33
622.812	11554.43
623.168	11549.46
623.523	11488.89
623.879	11535.9
624.234	11482.11
624.589	11581.32
624.945	11613.64
625.3	11561.43
625.655	11479.4
626.01	11530.47
626.365	11561.21
626.72	11523.24
627.075	11543.58
627.43	11489.8
627.785	11443.24
628.14	11544.71
628.495	11514.2
628.85	11497.25
629.205	11435.56
629.559	11477.14
629.914	11423.36
630.269	11484.15
630.623	11466.52
630.978	11405.73
631.332	11473.3
631.687	11562.11
632.041	11440.98
632.396	11461.55
632.75	11342.91
633.104	11377.03
633.459	11323.7
633.813	11418.39
634.167	11364.38
634.521	11324.38
634.875	11306.3
635.229	11391.72
635.583	11274.21
635.937	11234.66
636.291	11237.6
636.645	11245.96
636.999	11281.67
637.352	11209.13
637.706	11141.56
638.06	11205.28
638.413	11225.17
638.767	11182.46
639.121	11215.91
639.474	11057.04
639.828	11115.12
640.181	11146.3
640.534	11186.53
640.888	11087.32
641.241	11070.37
641.594	11026.98
641.947	11107.43
642.301	11098.62
642.654	11133.65
643.007	11104.5
643.36	11092.52
643.713	11023.59
644.066	11091.62
644.419	11032.63
644.771	10956.48
645.124	10812.3
645.477	10883.26
645.83	10783.83
646.182	10695.02
646.535	10698.18
646.888	10675.13
647.24	10666.77
647.593	10666.77
647.945	10642.81
648.298	10647.11
648.65	10595.58
649.002	10581.8
649.355	10643.27
649.707	10596.03
650.059	10681.46
650.411	10831.28
650.763	10756.03
651.115	10946.76
651.467	10846.42
651.819	10846.88
652.171	10857.72
652.523	10840.55
652.875	10801.91
653.227	10795.8
653.578	10891.85
653.93	10917.38
654.282	10787.22
654.633	10797.16
654.985	10822.02
655.337	10900.66
655.688	10801.68
656.039	10828.35
656.391	10823.83
656.742	10778.4
657.094	10829.25
657.445	10904.95
657.796	10908.8
658.147	10823.6
658.498	10827.67
658.849	10809.14
659.2	10852.3
659.551	10749.93
659.902	10867.89
660.253	10811.85
660.604	10897.04
660.955	10779.31
661.306	10844.62
661.656	10836.03
662.007	10824.96
662.358	10826.54
662.708	10901.79
663.059	10873.77
663.409	10773.88
663.76	10833.09
664.11	10899.98
664.461	10842.36
664.811	10860.66
665.161	10828.35
665.511	10816.14
665.862	10789.48
666.212	10901.34
666.562	10855.46
666.912	10840.55
667.262	10853.43
667.612	10860.21
667.962	10893.43
668.312	10821.57
668.662	10876.03
669.011	10824.28
669.361	10879.64
669.711	10770.27
670.06	10841.23
670.41	10794.9
670.76	10750.83
671.109	10781.34
671.459	10771.17
671.808	10758.06
672.157	10791.74
672.507	10745.41
672.856	10701.79
673.205	10720.55
673.554	10737.5
673.904	10738.86
674.253	10804.17
674.602	10732.3
674.951	10558.75
675.3	10493.44
675.649	10692.53
675.998	10608.24
676.346	10716.94
676.695	10661.8
677.044	10644.85
677.393	10698.41
677.741	10695.47
678.09	10621.35
678.438	10557.84
678.787	10626.77
679.135	10624.96
679.484	10502.7
679.832	10574.57
680.181	10467.9
680.529	10437.4
680.877	10456.38
681.225	10438.75
681.573	10571.4
681.922	10413.21
682.27	10378.19
682.618	10414.8
682.966	10371.41
683.314	10376.15
683.661	10349.71
684.009	10314.01
684.357	10253.67
684.705	10338.64
685.053	10252.32
685.4	10230.85
685.748	10205.31
686.095	10228.36
686.443	10156.95
686.79	10164.63
687.138	10179.1
687.485	10192.88
687.832	10151.3
688.18	10102.04
688.527	10060
688.874	10041.47
689.221	9982.27
689.568	10010.29
689.915	9982.04
690.262	9909.95
690.609	9873.79
690.956	9858.43
691.303	9900.69
691.65	9711.76
691.997	9757.41
692.344	9756.28
692.69	9691.65
693.037	9735.49
693.383	9535.05
693.73	9717.64
694.077	9621.15
694.423	9605.55
694.769	9577.08
695.116	9519
695.462	9491.88
695.808	9454.82
696.155	9479
696.501	9445.1
696.847	9366.46
697.193	9360.59
697.539	9385.67
697.885	9187.03
698.231	9276.97
698.577	9276.3
698.923	9182.74
699.269	9195.39
699.614	9079.24
699.96	9123.08
700.306	9104.55
700.651	9033.14
700.997	9051.22
701.342	9020.48
701.688	9042.86
702.033	8891.45
702.379	8942.52
702.724	8882.41
703.069	8879.02
703.415	8840.6
703.76	8763.77
704.105	8750.66
704.45	8780.94
704.795	8712.02
705.14	8671.57
705.485	8648.74
705.83	8682.64
706.175	8665.92
706.52	8569.42
706.865	8533.26
707.209	8582.75
707.554	8560.16
707.899	8478.8
708.243	8477.9
708.588	8416.88
708.932	8392.93
709.277	8371.01
709.621	8350.67
709.966	8330.33
710.31	8294.4
710.654	8225.93
710.998	8262.99
711.342	8300.95
711.687	8258.7
712.031	8208.08
712.375	8243.55
712.719	8184.57
713.063	8200.17
713.407	8155.2
713.75	8137.34
714.094	8134.63
714.438	8073.16
714.782	8078.81
715.125	8054.18
715.469	8100.28
715.812	8077.46
716.156	8025.03
716.499	8027.29
716.843	8079.49
717.186	7944.35
717.53	8013.05
717.873	8025.26
718.216	7935.09
718.559	7993.84
718.902	7874.75
719.246	7882.43
719.589	7888.31
719.932	7903.9
720.275	7955.88
720.617	7868.42
720.96	7797.46
721.303	7906.84
721.646	7863.23
721.989	7762.21
722.331	7843.56
722.674	7888.99
723.016	7793.17
723.359	7864.13
723.701	7830.46
724.044	7753.17
724.386	7727.41
724.729	7778.03
725.071	7778.03
725.413	7759.73
725.755	7773.96
726.097	7738.71
726.439	7677.92
726.782	7732.83
727.124	7727.86
727.465	7696.22
727.807	7724.25
728.149	7679.73
728.491	7648.77
728.833	7677.24
729.175	7682.21
729.516	7646.73
729.858	7672.04
730.199	7704.59
730.541	7695.32
730.882	7608.09
731.224	7660.97
731.565	7615.77
731.906	7670.01
732.248	7606.96
732.589	7617.81
732.93	7548.43
733.271	7611.48
733.612	7649.9
733.953	7605.15
734.294	7568.54
734.635	7607.41
734.976	7606.28
735.317	7607.86
735.658	7594.98
735.999	7641.31
736.339	7555.44
736.68	7673.63
737.021	7613.06
737.361	7581.88
737.702	7623.91
738.042	7572.39
738.383	7625.72
738.723	7595.89
739.063	7655.77
739.404	7641.31
739.744	7681.31
740.084	7682.67
740.424	7667.07
740.764	7666.17
741.104	7717.69
741.444	7695.77
741.784	7611.93
742.124	7647.64
742.464	7692.61
742.804	7687.86
743.143	7732.38
743.483	7747.75
743.823	7716.79
744.162	7712.27
744.502	7782.55
744.841	7757.24
745.181	7780.52
745.52	7806.28
745.86	7856.45
746.199	7901.19
746.538	7940.29
746.877	7937.57
747.216	8008.31
747.556	8007.63
747.895	8046.27
748.234	8046.95
748.573	8059.6
748.911	8150.9
749.25	8245.14
749.589	8157
749.928	8285.81
750.267	8397.45
750.605	8406.26
750.944	8489.65
751.283	8483.32
751.621	8630.44
751.96	8633.37
752.298	8754.28
752.636	8840.83
752.975	8811.68
753.313	8880.37
753.651	9040.6
753.989	9139.8
754.327	9264.54
754.666	9311.77
755.004	9440.13
755.342	9563.75
755.679	9666.79
756.017	9715.83
756.355	9881.93
756.693	9998.99
757.031	10173
757.368	10163.05
757.706	10336.83
758.044	10435.14
758.381	10641.01
758.719	10690.27
759.056	10890.94
759.394	11009.81
759.731	11080.99
760.068	11187.21
760.405	11393.3
760.743	11524.15
761.08	11702.22
761.417	11808.43
761.754	11992.83
762.091	12174.52
762.428	12270.12
762.765	12403.67
763.102	12675.08
763.438	12809.54
