Data from hue_34_FLMS001491_00018.txt Node
Date: Tue Feb 07 17:25:16 GMT 2017
User: dcchb
Spectrometer: FLMS00149
Trigger mode: 0
Integration Time (sec): 2.000000E-2
Scans to average: 10
Electric dark correction enabled: true
Nonlinearity correction enabled: false
Boxcar width: 0
XAxis mode: Wavelengths
Number of Pixels in Spectrum: 2048
>>>>>Begin Spectral Data<<<<<
341.393	-21.5
341.776	-21.5
342.16	-21.5
342.543	-88.16
342.927	-78.44
343.31	-71.66
343.693	-68.05
344.077	-78.9
344.46	-51.78
344.843	-36.86
345.226	-34.6
345.61	-38.9
345.993	-26.69
346.376	9.01
346.759	-12.23
347.142	20.08
347.525	26.86
347.908	53.08
348.291	75.22
348.674	106.18
349.057	129.23
349.44	123.81
349.823	147.76
350.206	155
350.588	189.57
350.971	211.49
351.354	242
351.737	268.67
352.119	237.25
352.502	274.54
352.884	266.86
353.267	278.16
353.65	279.96
354.032	294.65
354.414	305.95
354.797	322.22
355.179	333.3
355.562	341.21
355.944	315.9
356.326	322.22
356.709	349.12
357.091	333.07
357.473	339.85
357.855	333.07
358.238	324.26
358.62	335.1
359.002	343.01
359.384	339.62
359.766	341.66
360.148	353.63
360.53	342.34
360.912	352.73
361.294	322.9
361.676	303.69
362.057	329.23
362.439	346.63
362.821	331.71
363.203	330.36
363.584	295.11
363.966	324.26
364.348	312.51
364.729	327.65
365.111	342.56
365.493	324.26
365.874	327.87
366.256	308.21
366.637	321.77
367.019	316.35
367.4	322.9
367.781	330.58
368.163	303.69
368.544	328.55
368.925	330.13
369.306	327.19
369.688	319.74
370.069	311.83
370.45	313.86
370.831	325.39
371.212	323.81
371.593	300.98
371.974	314.31
372.355	319.51
372.736	323.58
373.117	292.62
373.498	314.54
373.879	319.29
374.26	300.53
374.641	330.58
375.021	323.13
375.402	338.04
375.783	303.24
376.163	328.1
376.544	330.58
376.925	313.18
377.305	331.49
377.686	318.38
378.066	332.62
378.447	332.62
378.827	344.82
379.208	324.93
379.588	332.17
379.968	341.21
380.349	357.02
380.729	321.32
381.109	340.08
381.489	339.62
381.87	348.66
382.25	352.5
382.63	338.49
383.01	351.15
383.39	343.92
383.77	329.23
384.15	343.47
384.53	352.28
384.91	348.44
385.29	344.14
385.67	348.89
386.049	372.62
386.429	347.76
386.809	339.85
387.189	353.41
387.568	354.99
387.948	353.18
388.328	353.18
388.707	343.24
389.087	366.74
389.466	382.79
389.846	364.71
390.225	370.13
390.605	363.35
390.984	362
391.363	378.72
391.743	368.1
392.122	369.23
392.501	379.85
392.881	380.53
393.26	376.91
393.639	376.01
394.018	359.28
394.397	378.27
394.776	373.07
395.155	357.7
395.534	378.27
395.913	369.91
396.292	392.28
396.671	379.17
397.05	391.15
397.429	391.15
397.808	386.4
398.186	391.37
398.565	394.54
398.944	402.45
399.323	392.05
399.701	399.28
400.08	416.68
400.458	381.66
400.837	418.49
401.215	415.33
401.594	400.64
401.972	415.78
402.351	389.34
402.729	399.28
403.107	395.89
403.486	413.97
403.864	398.83
404.242	392.05
404.62	409.45
404.999	420.98
405.377	411.03
405.755	414.42
406.133	440.41
406.511	443.35
406.889	437.93
407.267	424.37
407.645	441.09
408.023	422.11
408.401	422.56
408.779	433.18
409.156	457.81
409.534	461.2
409.912	439.06
410.29	466.63
410.667	461.88
411.045	448.55
411.422	452.62
411.8	478.6
412.178	483.8
412.555	462.33
412.933	450.81
413.31	457.59
413.687	463.91
414.065	465.27
414.442	477.47
414.819	475.89
415.197	506.4
415.574	504.37
415.951	470.69
416.328	485.61
416.705	511.37
417.082	490.81
417.46	472.05
417.837	521.09
418.214	492.84
418.591	488.09
418.967	511.6
419.344	499.62
419.721	510.47
420.098	515.44
420.475	525.83
420.852	527.87
421.228	513.86
421.605	543.91
421.982	561.76
422.358	533.52
422.735	544.36
423.111	529.22
423.488	536.68
423.864	564.02
424.241	554.08
424.617	570.13
424.994	577.13
425.37	559.96
425.746	561.54
426.123	553.18
426.499	578.04
426.875	573.06
427.251	582.33
427.627	560.18
428.003	586.17
428.379	574.87
428.756	601.76
429.132	587.07
429.507	620.52
429.883	632.95
430.259	625.27
430.635	626.4
431.011	611.26
431.387	624.81
431.763	648.32
432.138	637.24
432.514	632.05
432.89	614.87
433.265	652.84
433.641	663.68
434.016	662.33
434.392	680.41
434.767	693.51
435.143	686.51
435.518	685.15
435.894	677.47
436.269	715.21
436.644	707.75
437.02	719.27
437.395	732.38
437.77	725.6
438.145	732.83
438.52	738.03
438.895	720.63
439.271	719.73
439.646	759.05
440.021	747.97
440.395	738.03
440.77	751.82
441.145	764.92
441.52	765.15
441.895	769.9
442.27	767.64
442.645	752.27
443.019	792.04
443.394	766.05
443.769	765.15
444.143	764.7
444.518	805.37
444.892	813.28
445.267	811.7
445.641	813.28
446.016	807.18
446.39	820.06
446.764	804.47
447.139	839.5
447.513	832.72
447.887	876.33
448.262	852.38
448.636	810.8
449.01	866.62
449.384	865.03
449.758	852.6
450.132	884.24
450.506	878.82
450.88	874.07
451.254	886.5
451.628	884.92
452.002	898.48
452.376	894.86
452.75	905.03
453.123	914.3
453.497	915.43
453.871	922.89
454.244	941.87
454.618	966.27
454.992	957.23
455.365	963.11
455.739	975.54
456.112	978.25
456.486	981.64
456.859	1002.88
457.232	992.49
457.606	1032.94
457.979	1027.29
458.352	1038.36
458.725	1054.41
459.099	1058.02
459.472	1088.08
459.845	1070.23
460.218	1103.45
460.591	1096.89
460.964	1097.8
461.337	1118.81
461.71	1161.98
462.083	1147.06
462.456	1154.97
462.829	1178.25
463.201	1210.56
463.574	1182.54
463.947	1221.18
464.32	1244.68
464.692	1256.66
465.065	1267.74
465.438	1281.29
465.81	1312.93
466.183	1312.71
466.555	1308.41
466.928	1341.41
467.3	1324
467.672	1373.72
468.045	1391.8
468.417	1396.55
468.789	1413.27
469.161	1433.38
469.534	1438.8
469.906	1488.07
470.278	1502.08
470.65	1534.17
471.022	1586.6
471.394	1574.62
471.766	1611
472.138	1622.75
472.51	1667.27
472.882	1704.11
473.253	1712.24
473.625	1737.55
473.997	1779.81
474.369	1787.95
474.74	1825.23
475.112	1849.64
475.484	1926.47
475.855	2003.53
476.227	1979.13
476.598	2028.39
476.97	2074.95
477.341	2088.73
477.713	2158.56
478.084	2192.91
478.455	2258.67
478.827	2299.8
479.198	2344.99
479.569	2395.84
479.94	2481.04
480.311	2544.76
480.682	2564.2
481.053	2637.42
481.424	2718.32
481.795	2771.42
482.166	2810.29
482.537	2910.63
482.908	2998.09
483.279	3034.92
483.65	3097.29
484.021	3170.96
484.391	3253.22
484.762	3325.08
485.133	3366.44
485.503	3474.23
485.874	3601.91
486.244	3610.95
486.615	3748.35
486.985	3810.49
487.356	3889.14
487.726	3965.07
488.097	4079.19
488.467	4083.25
488.837	4276.92
489.207	4297.94
489.578	4406.86
489.948	4399.4
490.318	4563.92
490.688	4664.71
491.058	4735.67
491.428	4820.86
491.798	4929.33
492.168	5045.71
492.538	5068.54
492.908	5210.91
493.278	5292.04
493.648	5364.58
494.017	5416.33
494.387	5549.88
494.757	5594.4
495.126	5729.99
495.496	5754.85
495.866	5800.05
496.235	5895.41
496.605	5985.8
496.974	6054.73
497.344	6158.68
497.713	6230.54
498.082	6292.91
498.452	6373.14
498.821	6404.32
499.19	6475.51
499.559	6583.75
499.928	6686.35
500.298	6732.68
500.667	6768.38
501.036	6845.22
501.405	6914.37
501.774	6922.05
502.143	7032.1
502.512	7079.11
502.88	7204.75
503.249	7280.46
503.618	7269.84
503.987	7350.96
504.356	7455.82
504.724	7472.09
505.093	7556.38
505.462	7599.32
505.83	7666.21
506.199	7687.68
506.567	7802.7
506.936	7884.51
507.304	8010.38
507.672	8018.97
508.041	8040.21
508.409	8096.26
508.777	8121.79
509.145	8234.33
509.514	8316.82
509.882	8333.99
510.25	8361.79
510.618	8422.35
510.986	8442.24
511.354	8590.93
511.722	8658.5
512.09	8677.71
512.458	8700.53
512.826	8781.21
513.193	8769.01
513.561	8882
513.929	8941.21
514.297	9007.64
514.664	9098.72
515.032	9112.27
515.4	9170.13
515.767	9188.88
516.135	9220.97
516.502	9247.86
516.869	9378.71
517.237	9457.8
517.604	9376.22
517.972	9488.08
518.339	9498.71
518.706	9614.18
519.073	9576.67
519.44	9610.79
519.808	9696.89
520.175	9752.71
520.542	9850.56
520.909	9909.32
521.276	9924.46
521.643	10020.5
522.009	10069.09
522.376	10060.05
522.743	10128.07
523.11	10237.89
523.477	10340.94
523.843	10376.2
524.21	10514.95
524.577	10530.99
524.943	10540.94
525.31	10594.72
525.676	10705
526.043	10812.12
526.409	10783.87
526.776	10982.73
527.142	10953.58
527.508	11033.13
527.874	11154.25
528.241	11117.42
528.607	11158.55
528.973	11319.22
529.339	11323.74
529.705	11381.59
530.071	11495.71
530.437	11458.43
530.803	11480.12
531.169	11620.01
531.535	11623.62
531.901	11719.21
532.267	11737.74
532.632	11839.66
532.998	11873.56
533.364	11926.89
533.73	11957.4
534.095	12040.56
534.461	12108.58
534.826	12114.46
535.192	12207.33
535.557	12278.07
535.923	12292.98
536.288	12255.92
536.653	12486.42
537.019	12404.84
537.384	12463.82
537.749	12564.61
538.114	12506.31
538.479	12597.38
538.845	12653.88
539.21	12647.55
539.575	12702.01
539.94	12804.38
540.305	12857.94
540.67	12834.66
541.034	12944.26
541.399	12985.84
541.764	13047.76
542.129	13077.59
542.494	13137.93
542.858	13180.19
543.223	13184.03
543.587	13321.43
543.952	13264.03
544.316	13277.81
544.681	13376.12
545.045	13412.95
545.41	13518.94
545.774	13585.38
546.138	13674.64
546.503	13656.56
546.867	13660.18
547.231	13774.07
547.595	13805.71
547.959	13845.26
548.324	13918.7
548.688	13927.29
549.052	14056.1
549.416	14021.52
549.779	14003.22
550.143	14073.5
550.507	14138.36
550.871	14245.25
551.235	14207.51
551.599	14355.07
551.962	14298.8
552.326	14519.82
552.689	14453.15
553.053	14481.85
553.417	14517.1
553.78	14732.01
554.143	14690.43
554.507	14720.04
554.87	14833.93
555.234	14916.87
555.597	14769.53
555.96	14857.89
556.323	14980.14
556.686	14989.18
557.05	15056.75
557.413	15159.8
557.776	15192.57
558.139	15242.06
558.502	15243.41
558.865	15266.91
559.228	15365.9
559.59	15322.05
559.953	15479.79
560.316	15621.03
560.679	15681.14
561.041	15667.58
561.404	15750.29
561.767	15900.34
562.129	15850.85
562.492	15983.96
562.854	15975.6
563.217	15984.41
563.579	16054.24
563.941	16121.36
564.304	16155.25
564.666	16291.75
565.028	16313.44
565.39	16445.64
565.753	16430.95
566.115	16430.05
566.477	16470.73
566.839	16581.23
567.201	16706.2
567.563	16764.05
567.925	16848.57
568.287	16822.13
568.648	16936.02
569.01	17000.65
569.372	17108.9
569.734	17145.51
570.095	17257.82
570.457	17263.47
570.819	17347.31
571.18	17313.87
571.542	17387.54
571.903	17456.69
572.265	17657.13
572.626	17742.33
572.987	17791.82
573.349	17868.88
573.71	17988.88
574.071	17998.37
574.432	18023
574.794	18296.89
575.155	18330.56
575.516	18309.32
575.877	18455.08
576.238	18506.15
576.599	18582.99
576.96	18720.38
577.32	18789.99
577.681	18918.34
578.042	19084.44
578.403	19193.37
578.763	19227.49
579.124	19473.13
579.485	19595.39
579.845	19840.58
580.206	19981.37
580.566	19953.57
580.927	20147.69
581.287	20363.73
581.648	20527.34
582.008	20621.12
582.368	20796.49
582.728	21080.1
583.089	21199.64
583.449	21422.69
583.809	21628.1
584.169	21727.76
584.529	21974.54
584.889	22318.25
585.249	22243.23
585.609	22495.43
585.969	22842.76
586.329	22948.07
586.688	23257.89
587.048	23522.74
587.408	23535.17
587.768	23843.86
588.127	23966.8
588.487	24224.87
588.846	24647.46
589.206	24630.06
589.565	24974.23
589.925	25283.83
590.284	25547.77
590.643	25726.98
591.003	26118.38
591.362	26402.44
591.721	26502.33
592.08	26786.16
592.44	27045.81
592.799	27316.54
593.158	27482.19
593.517	27719.47
593.876	28015.05
594.235	28038.1
594.593	28464.99
594.952	28746.79
595.311	28820.68
595.67	29242.59
596.029	29625.41
596.387	29765.74
596.746	30060.42
597.104	30227.43
597.463	30285.96
597.822	30755.1
598.18	31001.64
598.538	31005.26
598.897	31524.11
599.255	31455.64
599.613	32139.69
599.972	32174.04
600.33	32441.15
600.688	32483.64
601.046	32798.43
601.404	33125.88
601.762	33262.37
602.12	33573.55
602.478	33745.53
602.836	33941.45
603.194	33941.68
603.552	34307.32
603.91	34288.56
604.268	34621.66
604.625	34749.79
604.983	35054.19
605.341	35057.36
605.698	35388.65
606.056	35641.75
606.413	35701.63
606.771	35885.13
607.128	36127.84
607.485	36085.12
607.843	36349.98
608.2	36723.53
608.557	36758.55
608.914	36821.15
609.272	37046
609.629	37260.69
609.986	37614.58
610.343	37471.75
610.7	37848.92
611.057	38032.87
611.414	38074.22
611.771	38228.8
612.127	38527.32
612.484	38458.4
612.841	38725.06
613.198	38752.17
613.554	38799.4
613.911	39176.57
614.267	39175.89
614.624	39260.41
614.98	39275.78
615.337	39716.44
615.693	39710.11
616.05	39659.72
616.406	40086.83
616.762	39898.58
617.118	40098.8
617.475	40202.98
617.831	40389.87
618.187	40440.26
618.543	40628.96
618.899	40859.01
619.255	40856.98
619.611	40851.78
619.967	41160.7
620.323	41289.96
620.678	41047.71
621.034	41046.12
621.39	41104.88
621.746	41265.1
622.101	41874.58
622.457	41559.33
622.812	41569.95
623.168	41741.02
623.523	41664.19
623.879	42059.43
624.234	41781.92
624.589	42055.59
624.945	42012.43
625.3	41997.74
625.655	42041.13
626.01	42284.06
626.365	42271.85
626.72	42373.77
627.075	42294.68
627.43	42250.84
627.785	42216.71
628.14	42437.05
628.495	42458.06
628.85	42446.31
629.205	42249.26
629.559	42539.19
629.914	42411.74
630.269	42558.4
630.623	42413.77
630.978	42267.33
631.332	42647.21
631.687	42760.66
632.041	42557.04
632.396	42626.87
632.75	42514.79
633.104	42631.17
633.459	42438.86
633.813	42465.97
634.167	42443.6
634.521	42404.51
634.875	42564.73
635.229	42511.4
635.583	42358.63
635.937	42344.4
636.291	42304.4
636.645	42443.83
636.999	42285.41
637.352	42433.66
637.706	42267.79
638.06	42399.08
638.413	42345.07
638.767	42266.88
639.121	42391.17
639.474	42205.87
639.828	42249.48
640.181	42195.25
640.534	42258.97
640.888	42190.27
641.241	41955.25
641.594	42064.18
641.947	42201.57
642.301	42121.58
642.654	42132.65
643.007	42170.84
643.36	42164.74
643.713	42139.43
644.066	42217.84
644.419	41966.33
644.771	41851.07
645.124	41459.45
645.477	41229.62
645.83	41136.52
646.182	40840.71
646.535	40874.15
646.888	40855.85
647.24	40591.67
647.593	40912.34
647.945	40816.07
648.298	40708.51
648.65	40805
649.002	40514.84
649.355	40720.03
649.707	40576.76
650.059	41031.89
650.411	41374.25
650.763	41454.93
651.115	41709.16
651.467	41694.02
651.819	41634.81
652.171	41533.12
652.523	41475.72
652.875	41574.25
653.227	41249.28
653.578	41468.94
653.93	41418.32
654.282	41415.38
654.633	41214.03
654.985	41383.06
655.337	41403.63
655.688	41367.7
656.039	41388.71
656.391	41178.1
656.742	41214.26
657.094	41371.54
657.445	41512.78
657.796	41311.65
658.147	41278.43
658.498	41302.61
658.849	41291.09
659.2	41298.32
659.551	41228.94
659.902	41220.13
660.253	41016.07
660.604	41280.47
660.955	41025.56
661.306	41270.98
661.656	41120.92
662.007	41167.7
662.358	41096.07
662.708	41060.81
663.059	41092.9
663.409	40832.57
663.76	41196.63
664.11	41094.26
664.461	41071.89
664.811	41200.47
665.161	41033.47
665.511	40960.25
665.862	40981.72
666.212	41069.4
666.562	41051.55
666.912	41043.64
667.262	40961.83
667.612	41023.3
667.962	41084.09
668.312	41124.09
668.662	41218.32
669.011	41086.12
669.361	41061.26
669.711	40947.14
670.06	40906.69
670.41	40872.34
670.76	40827.37
671.109	41035.5
671.459	40888.84
671.808	40821.27
672.157	40964.32
672.507	40737.43
672.856	40666.02
673.205	40808.16
673.554	40963.64
673.904	40663.31
674.253	40828.95
674.602	40842.06
674.951	40289.31
675.3	39982.65
675.649	40765
675.998	40715.06
676.346	40762.29
676.695	40757.77
677.044	40537.44
677.393	40686.59
677.741	40546.48
678.09	40473.26
678.438	40538.34
678.787	40532.47
679.135	40476.2
679.484	40166.15
679.832	40313.94
680.181	40120.27
680.529	40222.19
680.877	40090.67
681.225	40155.3
681.573	40306.03
681.922	39962.99
682.27	39888.41
682.618	39997.11
682.966	39824.91
683.314	39798.7
683.661	39632.6
684.009	39625.82
684.357	39610
684.705	39608.2
685.053	39607.52
685.4	39535.2
685.748	39304.93
686.095	39342.44
686.443	39186.51
686.79	39074.65
687.138	39297.47
687.485	39278.49
687.832	39012.73
688.18	39152.61
688.527	38860.64
688.874	38907.42
689.221	38831.95
689.568	38672.4
689.915	38645.28
690.262	38591.95
690.609	38464.95
690.956	38496.59
691.303	38362.35
691.65	38145.41
691.997	38182.92
692.344	37958.07
692.69	38006.66
693.037	37964.62
693.383	37666.55
693.73	37794.23
694.077	37527.57
694.423	37636.04
694.769	37360.8
695.116	37414.58
695.462	37376.84
695.808	37162.84
696.155	37402.38
696.501	37103.85
696.847	37009.62
697.193	36764.2
697.539	36944.76
697.885	36576.86
698.231	36476.53
698.577	36618.9
698.923	36479.69
699.269	36315.63
699.614	36130.32
699.96	36149.53
700.306	36080.15
700.651	35866.37
700.997	35844.68
701.342	35789.54
701.688	35634.52
702.033	35602.65
702.379	35637.68
702.724	35594.74
703.069	35441.75
703.415	35173.06
703.76	35211.02
704.105	35215.99
704.45	35037.92
704.795	34927.64
705.14	34855.78
705.485	34682
705.83	34657.59
706.175	34639.74
706.52	34428.67
706.865	34505.96
707.209	34460.76
707.554	34277.49
707.899	34396.58
708.243	34188.68
708.588	34207.89
708.932	33841.57
709.277	33898.97
709.621	33893.32
709.966	33761.12
710.31	33850.16
710.654	33551.86
710.998	33459.2
711.342	33737.62
711.687	33394.35
712.031	33293.79
712.375	33295.14
712.719	33294.69
713.063	33236.61
713.407	33230.28
713.75	33152.32
714.094	33082.94
714.438	32906.68
714.782	33065.09
715.125	32631.88
715.469	32880.69
715.812	32636.18
716.156	32493.35
716.499	32531.77
716.843	32525.44
717.186	32365.45
717.53	32531.32
717.873	32400.25
718.216	32327.71
718.559	32306.24
718.902	32030.54
719.246	32047.94
719.589	32082.52
719.932	31838.46
720.275	31908.74
720.617	31889.75
720.96	31842.75
721.303	31868.74
721.646	31805.01
721.989	31509.88
722.331	31696.09
722.674	31664.9
723.016	31704.9
723.359	31612.93
723.701	31640.27
724.044	31372.03
724.386	31309.21
724.729	31377.9
725.071	31341.29
725.413	31325.48
725.755	31207.74
726.097	31046.16
726.439	30953.06
726.782	31016.78
727.124	31116.67
727.465	30956.22
727.807	30880.74
728.149	30888.2
728.491	30762.1
728.833	30867.86
729.175	30644.14
729.516	30652.27
729.858	30614.08
730.199	30647.53
730.541	30496.35
730.882	30531.37
731.224	30509.9
731.565	30263.58
731.906	30478.94
732.248	30253.64
732.589	30173.42
732.93	30065.85
733.271	30176.35
733.612	30161.21
733.953	30157.14
734.294	29964.83
734.635	29876.47
734.976	29951.95
735.317	29778.85
735.658	29816.59
735.999	29709.47
736.339	29730.72
736.68	29777.04
737.021	29841.67
737.361	29491.63
737.702	29745.63
738.042	29634.67
738.383	29562.81
738.723	29550.83
739.063	29505.86
739.404	29508.12
739.744	29350.39
740.084	29336.6
740.424	29376.15
740.764	29368.92
741.104	29337.73
741.444	29259.09
741.784	29063.84
742.124	29206.66
742.464	29048.93
742.804	29055.03
743.143	28982.26
743.483	28990.85
743.823	28873.79
744.162	28905.88
744.502	28896.84
744.841	28639.44
745.181	28812.77
745.52	28765.09
745.86	28737.75
746.199	28656.17
746.538	28638.99
746.877	28556.74
747.216	28670.86
747.556	28435.38
747.895	28467.25
748.234	28380.47
748.573	28333.24
748.911	28251.66
749.25	28215.5
749.589	28169.85
749.928	28282.39
750.267	28214.82
750.605	28185.9
750.944	28090.98
751.283	27968.28
751.621	28060.93
751.96	27858.45
752.298	27756.53
752.636	27900.93
752.975	27737.1
753.313	27652.13
753.651	27702.29
753.989	27564.22
754.327	27401.74
754.666	27404.9
755.004	27427.05
755.342	27448.52
755.679	27379.59
756.017	27237.45
756.355	27274.51
756.693	27155.19
757.031	27166.72
757.368	26985.25
757.706	27031.13
