Data from hue_22_FLMS001491_00084.txt Node
Date: Tue Feb 07 17:10:46 GMT 2017
User: dcchb
Spectrometer: FLMS00149
Trigger mode: 0
Integration Time (sec): 2.000000E-2
Scans to average: 10
Electric dark correction enabled: true
Nonlinearity correction enabled: false
Boxcar width: 0
XAxis mode: Wavelengths
Number of Pixels in Spectrum: 2048
>>>>>Begin Spectral Data<<<<<
341.393	-8.02
341.776	-8.02
342.16	-8.02
342.543	-62.03
342.927	-54.12
343.31	-62.71
343.693	-51.86
344.077	-57.29
344.46	-59.77
344.843	-56.16
345.226	-48.93
345.61	-22.03
345.993	-8.93
346.376	-0.79
346.759	5.54
347.142	13.45
347.525	34.01
347.908	53.67
348.291	51.64
348.674	96.16
349.057	114.01
349.44	113.78
349.823	147.68
350.206	181.13
350.588	190.39
350.971	208.92
351.354	208.47
351.737	235.14
352.119	262.7
352.502	258.41
352.884	291.18
353.267	267.68
353.65	299.77
354.032	299.77
354.414	292.53
354.797	339.99
355.179	337.96
355.562	336.83
355.944	355.58
356.326	347.22
356.709	343.61
357.091	325.08
357.473	338.18
357.855	339.54
358.238	336.6
358.62	344.06
359.002	355.81
359.384	350.84
359.766	365.75
360.148	354.23
360.53	344.74
360.912	345.87
361.294	347
361.676	337.96
362.057	338.18
362.439	346.54
362.821	346.09
363.203	325.75
363.584	341.35
363.966	320.78
364.348	336.83
364.729	334.12
365.111	336.6
365.493	330.95
365.874	313.1
366.256	327.11
366.637	328.24
367.019	327.11
367.4	313.1
367.781	304.74
368.163	324.4
368.544	304.29
368.925	340.89
369.306	323.95
369.688	337.96
370.069	294.57
370.45	324.85
370.831	310.39
371.212	321.69
371.593	323.72
371.974	324.17
372.355	322.59
372.736	320.1
373.117	341.57
373.498	325.75
373.879	319.88
374.26	325.98
374.641	322.14
375.021	329.37
375.402	335.7
375.783	330.73
376.163	352.42
376.544	317.62
376.925	321.01
377.305	341.57
377.686	327.11
378.066	336.38
378.447	348.58
378.827	337.05
379.208	344.74
379.588	335.25
379.968	336.83
380.349	340.44
380.729	348.8
381.109	350.61
381.489	364.4
381.87	330.27
382.25	346.32
382.63	361.23
383.01	366.43
383.39	358.75
383.77	373.44
384.15	342.93
384.53	353.32
384.91	354.68
385.29	376.15
385.67	358.3
386.049	379.99
386.429	364.62
386.809	371.18
387.189	357.84
387.568	364.85
387.948	339.54
388.328	364.85
388.707	377.05
389.087	386.32
389.466	375.7
389.846	388.58
390.225	386.32
390.605	375.24
390.984	366.88
391.363	389.93
391.743	391.97
392.122	361.91
392.501	390.39
392.881	374.57
393.26	376.15
393.639	383.83
394.018	393.1
394.397	393.1
394.776	382.48
395.155	411.4
395.534	386.77
395.913	399.2
396.292	400.33
396.671	409.59
397.05	416.6
397.429	398.29
397.808	403.94
398.186	400.1
398.565	410.72
398.944	416.6
399.323	415.7
399.701	403.49
400.08	418.41
400.458	404.4
400.837	432.87
401.215	416.83
401.594	422.7
401.972	425.86
402.351	425.19
402.729	425.41
403.107	439.65
403.486	425.41
403.864	424.28
404.242	436.49
404.62	440.78
404.999	434.45
405.377	431.29
405.755	439.42
406.133	459.76
406.511	451.63
406.889	457.5
407.267	458.63
407.645	450.27
408.023	460.89
408.401	466.77
408.779	469.48
409.156	468.12
409.534	458.86
409.912	480.1
410.29	479.65
410.667	466.54
411.045	465.41
411.422	503.6
411.8	502.25
412.178	466.99
412.555	511.51
412.933	492.98
413.31	502.7
413.687	514.9
414.065	497.5
414.442	520.1
414.819	503.38
415.197	502.47
415.574	520.78
415.951	502.92
416.328	538.4
416.705	522.81
417.082	562.36
417.46	523.72
417.837	542.47
418.214	557.39
418.591	558.29
418.967	534.56
419.344	542.02
419.721	552.19
420.098	567.56
420.475	541.57
420.852	580.89
421.228	567.78
421.605	558.52
421.982	572.75
422.358	572.08
422.735	582.24
423.111	599.42
423.488	597.84
423.864	581.34
424.241	605.07
424.617	599.42
424.994	578.63
425.37	612.53
425.746	584.05
426.123	632.41
426.499	644.39
426.875	635.58
427.251	652.3
427.627	613.2
428.003	630.15
428.379	659.3
428.756	637.61
429.132	637.38
429.507	638.74
429.883	691.62
430.259	675.58
430.635	692.07
431.011	673.54
431.387	675.12
431.763	711.28
432.138	695.91
432.514	716.48
432.89	711.05
433.265	712.64
433.641	719.19
434.016	728.91
434.392	753.77
434.767	742.69
435.143	745.18
435.518	734.33
435.894	746.08
436.269	747.89
436.644	772.97
437.02	773.65
437.395	787.21
437.77	779.75
438.145	796.48
438.52	786.98
438.895	808
439.271	805.74
439.646	812.52
440.021	840.77
440.395	818.17
440.77	821.79
441.145	829.02
441.52	846.87
441.895	855.01
442.27	834.89
442.645	836.02
443.019	866.76
443.394	861.33
443.769	887.55
444.143	872.41
444.518	887.55
444.892	879.19
445.267	881.67
445.641	895.23
446.016	896.59
446.39	889.58
446.764	902.69
447.139	937.04
447.513	926.64
447.887	947.43
448.262	927.09
448.636	951.5
449.01	953.31
449.384	949.92
449.758	946.98
450.132	979.97
450.506	966.19
450.88	974.78
451.254	968.45
451.628	981.33
452.002	986.98
452.376	1002.12
452.75	1041.22
453.123	1022.01
453.497	1011.61
453.871	1023.59
454.244	1062.23
454.618	1041.44
454.992	1094.77
455.365	1081.21
455.739	1107.65
456.112	1114.43
456.486	1137.94
456.859	1127.99
457.232	1131.16
457.606	1140.87
457.979	1155.56
458.352	1174.09
458.725	1182.23
459.099	1169.8
459.472	1204.15
459.845	1230.82
460.218	1224.26
460.591	1242.11
460.964	1229.91
461.337	1269.23
461.71	1267.65
462.083	1324.6
462.456	1311.04
462.829	1312.39
463.201	1323.47
463.574	1334.99
463.947	1365.95
464.32	1407.08
464.692	1390.81
465.065	1415.44
465.438	1396.91
465.81	1449.57
466.183	1466.06
466.555	1467.87
466.928	1493.86
467.3	1484.82
467.672	1514.2
468.045	1553.07
468.417	1596.91
468.789	1560.98
469.161	1609.79
469.534	1646.62
469.906	1635.32
470.278	1660.18
470.65	1677.36
471.022	1716.45
471.394	1734.76
471.766	1773.4
472.138	1742.89
472.51	1802.78
472.882	1839.16
473.253	1847.75
473.625	1867.63
473.997	1937.46
474.369	1948.31
474.74	1956.45
475.112	2020.62
475.484	2045.26
475.855	2068.31
476.227	2085.71
476.598	2152.15
476.97	2155.54
477.341	2235.99
477.713	2257.45
478.084	2219.72
478.455	2306.04
478.827	2369.99
479.198	2456.55
479.569	2442.76
479.94	2518.01
480.311	2516.21
480.682	2619.25
481.053	2655.86
481.424	2684.56
481.795	2751.23
482.166	2773.37
482.537	2800.94
482.908	2878.23
483.279	2929.98
483.65	2970.88
484.021	3021.95
484.391	3067.83
484.762	3109.64
485.133	3165
485.503	3225.79
485.874	3271.67
486.244	3297.43
486.615	3383.75
486.985	3460.14
487.356	3484.99
487.726	3543.52
488.097	3662.39
488.467	3605.22
488.837	3733.35
489.207	3735.38
489.578	3856.73
489.948	3897.19
490.318	3933.34
490.688	4000.91
491.058	4033.68
491.428	4087.69
491.798	4105.99
492.168	4182.38
492.538	4272.77
492.908	4254.69
493.278	4383.73
493.648	4367
494.017	4408.58
494.387	4458.53
494.757	4543.27
495.126	4614.91
495.496	4598.18
495.866	4650.39
496.235	4696.03
496.605	4706.66
496.974	4740.55
497.344	4762.47
497.713	4855.13
498.082	4906.65
498.452	4944.39
498.821	5023.48
499.19	4972.86
499.559	5035.01
499.928	5037.72
500.298	5116.14
500.667	5176.02
501.036	5185.29
501.405	5196.36
501.774	5275.91
502.143	5338.73
502.512	5330.14
502.88	5380.99
503.249	5350.93
503.618	5427.99
503.987	5443.36
504.356	5446.75
504.724	5497.14
505.093	5510.48
505.462	5527.43
505.83	5552.06
506.199	5631.6
506.567	5684.48
506.936	5633.86
507.304	5745.95
507.672	5777.14
508.041	5775.33
508.409	5878.15
508.777	5825.72
509.145	5890.58
509.514	5884.7
509.882	5950.92
510.25	5958.37
510.618	6031.82
510.986	6042.44
511.354	6048.54
511.722	6112.95
512.09	6187.29
512.458	6132.61
512.826	6250.12
513.193	6255.77
513.561	6256.22
513.929	6282.43
514.297	6358.14
514.664	6366.95
515.032	6343.22
515.4	6433.16
515.767	6425.93
516.135	6487.85
516.502	6465.48
516.869	6558.58
517.237	6558.81
517.604	6542.77
517.972	6619.37
518.339	6653.27
518.706	6653.95
519.073	6675.64
519.44	6757.9
519.808	6775.08
520.175	6782.31
520.542	6866.15
520.909	6878.12
521.276	6849.65
521.643	6958.57
522.009	6982.08
522.376	7018.69
522.743	7013.04
523.11	7123.99
523.477	7176.65
523.843	7132.58
524.21	7247.61
524.577	7304.78
524.943	7375.74
525.31	7362.41
525.676	7413.48
526.043	7437.21
526.409	7441.95
526.776	7537.32
527.142	7616.18
527.508	7587.71
527.874	7670.65
528.241	7731.21
528.607	7705.67
528.973	7825.67
529.339	7797.65
529.705	7920.81
530.071	7930.98
530.437	8017.76
530.803	8048.26
531.169	7988.38
531.535	8058.66
531.901	8035.61
532.267	8085.32
532.632	8163.51
532.998	8207.13
533.364	8274.47
533.73	8255.72
534.095	8346.33
534.461	8340.46
534.826	8402.83
535.192	8469.72
535.557	8488.48
535.923	8503.62
536.288	8469.95
536.653	8636.04
537.019	8582.26
537.384	8567.8
537.749	8699.77
538.114	8677.62
538.479	8739.09
538.845	8765.76
539.21	8708.81
539.575	8803.5
539.94	8744.52
540.305	8886.21
540.67	8884.63
541.034	8963.95
541.399	8997.39
541.764	9004.4
542.129	9039.65
542.494	9105.18
542.858	9048.01
543.223	9124.17
543.587	9178.63
543.952	9168.01
544.316	9218.4
544.681	9321.9
545.045	9384.05
545.41	9340.88
545.774	9404.39
546.138	9403.03
546.503	9434.67
546.867	9425.18
547.231	9555.34
547.595	9601.22
547.959	9605.51
548.324	9646.41
548.688	9631.5
549.052	9729.57
549.416	9673.3
549.779	9766.41
550.143	9753.08
550.507	9830.81
550.871	9880.98
551.235	9811.15
551.599	9955.56
551.962	9960.08
552.326	9974.99
552.689	10034.88
553.053	10016.8
553.417	10077.36
553.78	10141.77
554.143	10075.55
554.507	10221.31
554.87	10208.43
555.234	10301.99
555.597	10236.68
555.96	10312.84
556.323	10260.18
556.686	10289.33
557.05	10408.88
557.413	10455.88
557.776	10497.01
558.139	10630.57
558.502	10563
558.865	10520.51
559.228	10623.11
559.59	10669.89
559.953	10671.24
560.316	10834.63
560.679	10812.48
561.041	10832.37
561.404	10941.29
561.767	11024.91
562.129	10875.08
562.492	10983.33
562.854	11055.19
563.217	11012.03
563.579	11068.52
563.941	11112.36
564.304	11166.83
564.666	11303.32
565.028	11325.01
565.39	11258.8
565.753	11342.64
566.115	11406.37
566.477	11528.62
566.839	11498.79
567.201	11603.88
567.563	11566.36
567.925	11617.89
568.287	11622.18
568.648	11685.68
569.01	11794.15
569.372	11844.55
569.734	11861.27
570.095	11867.37
570.457	11986.92
570.819	11948.05
571.18	11931.32
571.542	12105.11
571.903	12137.19
572.265	12220.81
572.626	12261.49
572.987	12242.05
573.349	12313.46
573.71	12485.43
574.071	12442.05
574.432	12557.75
574.794	12619.89
575.155	12670.29
575.516	12644.75
575.877	12767.69
576.238	12928.59
576.599	12943.28
576.96	12949.6
577.32	13060.33
577.681	13199.31
578.042	13228.92
578.403	13293.55
578.763	13465.3
579.124	13502.58
579.485	13574.45
579.845	13830.26
580.206	13781.9
580.566	13972.85
580.927	14092.17
581.287	14218.27
581.648	14293.52
582.008	14504.14
582.368	14531.71
582.728	14792.04
583.089	14882.21
583.449	15138.25
583.809	15244.23
584.169	15415.75
584.529	15623.66
584.889	15833.82
585.249	15992.46
585.609	16164.21
585.969	16382.28
586.329	16475.84
586.688	16739.56
587.048	16958.31
587.408	17090.29
587.768	17359.2
588.127	17558.75
588.487	17761
588.846	18137.49
589.206	18265.4
589.565	18452.51
589.925	18991.25
590.284	19133.17
590.643	19438.92
591.003	19802.98
591.362	20040.94
591.721	20267.6
592.08	20636.86
592.44	20990.97
592.799	21211.31
593.158	21447.01
593.517	21778.3
593.876	22095.35
594.235	22289.7
594.593	22757.25
594.952	23038.15
595.311	23264.13
595.67	23665.71
596.029	24027.5
596.387	24422.75
596.746	24705.23
597.104	24954.49
597.463	25206
597.822	25741.58
598.18	25823.39
598.538	26159.43
598.897	26688.45
599.255	26763.25
599.613	27409.56
599.972	27601.42
600.33	28003.22
600.688	28070.11
601.046	28499.25
601.404	28839.35
601.762	29089.29
602.12	29504.42
602.478	29809.72
602.836	30160
603.194	30280.67
603.552	30580.78
603.91	30734.9
604.268	31294.66
604.625	31425.5
604.983	31776.68
605.341	31985.94
605.698	32417.57
606.056	32632.02
606.413	32914.05
606.771	33334.15
607.128	33603.75
607.485	33636.52
607.843	33933.46
608.2	34377.06
608.557	34574.12
608.914	34878.29
609.272	35250.49
609.629	35408.67
609.986	35810.02
610.343	35753.07
610.7	36324.81
611.057	36491.36
611.414	36501.07
611.771	36831.91
612.127	37132.24
612.484	37330.88
612.841	37632.8
613.198	37722.51
613.554	37846.58
613.911	38334.02
614.267	38463.28
614.624	38454.02
614.98	38755.93
615.337	38975.81
615.693	39277.5
616.05	39272.07
616.406	39765.85
616.762	39630.71
617.118	39962.45
617.475	39990.47
617.831	40263.91
618.187	40499.61
618.543	40538.93
618.899	40844.24
619.255	40841.75
619.611	40990.45
619.967	41377.78
620.323	41637.66
620.678	41438.35
621.034	41560.83
621.39	41645.8
621.746	41784.78
622.101	42234.71
622.457	42068.39
622.812	42195.16
623.168	42418.66
623.523	42463.86
623.879	42736.39
624.234	42442.16
624.589	42857.29
624.945	42918.76
625.3	42998.53
625.655	43018.42
626.01	43110.84
626.365	43255.02
626.72	43135.48
627.075	43276.04
627.43	43382.7
627.785	43344.96
628.14	43544.05
628.495	43533.66
628.85	43589.25
629.205	43642.13
629.559	43849.36
629.914	43793.54
630.269	43805.29
630.623	43800.77
630.978	43660.21
631.332	44045.73
631.687	44176.13
632.041	43949.92
632.396	44143.13
632.75	44109.24
633.104	44046.64
633.459	43934.33
633.813	43951.73
634.167	43980.43
634.521	44123.47
634.875	44226.75
635.229	44062.23
635.583	43982.23
635.937	44028.56
636.291	43963.48
636.645	44050.93
636.999	43801.67
637.352	44074.43
637.706	43891.16
638.06	44109.01
638.413	44059.07
638.767	43939.97
639.121	44149.69
639.474	43765.29
639.828	43905.17
640.181	44003.02
640.534	44022.23
640.888	43900.65
641.241	43891.16
641.594	43948.79
641.947	44034.66
642.301	43851.62
642.654	44063.59
643.007	43979.75
643.36	44012.06
643.713	43864.27
644.066	43961.89
644.419	43867.21
644.771	43500.21
645.124	43086.89
645.477	43145.65
645.83	43074.91
646.182	42702.49
646.535	42768.93
646.888	42832.21
647.24	42740.46
647.593	42762.15
647.945	42809.83
648.298	42814.81
648.65	42538.88
649.002	42553.12
649.355	42752.89
649.707	42633.57
650.059	42704.53
650.411	43067.23
650.763	43147.45
651.115	43622.69
651.467	43488.01
651.819	43552.87
652.171	43408.69
652.523	43418.18
652.875	43409.37
653.227	43288.01
653.578	43572.07
653.93	43469.7
654.282	43175.02
654.633	43038.76
654.985	43193.78
655.337	43235.81
655.688	43328.69
656.039	43412.76
656.391	43133.22
656.742	43132.76
657.094	43130.96
657.445	43242.37
657.796	43255.7
658.147	43221.58
658.498	43128.7
658.849	43277.17
659.2	43233.1
659.551	43167.57
659.902	43249.6
660.253	43029.49
660.604	43159.66
660.955	42816.39
661.306	43197.62
661.656	43070.62
662.007	42989.94
662.358	43008.93
662.708	43024.07
663.059	43212.08
663.409	42764.64
663.76	43132.09
664.11	43210.5
664.461	43092.77
664.811	43161.46
665.161	43057.96
665.511	42866.1
665.862	42990.62
666.212	43119.43
666.562	43026.78
666.912	43064.29
667.262	42904.97
667.612	43069.49
667.962	43104.97
668.312	43052.99
668.662	43266.77
669.011	43072.2
669.361	42914.46
669.711	42922.15
670.06	42977.06
670.41	42789.27
670.76	42950.85
671.109	42988.36
671.459	42857.07
671.808	42794.47
672.157	42920.79
672.507	42689.84
672.856	42773.23
673.205	42784.07
673.554	42912.66
673.904	42773
674.253	42830.17
674.602	42803.28
674.951	42253.92
675.3	42075.84
675.649	42637.41
675.998	42572.1
676.346	42560.8
676.695	42829.27
677.044	42372.33
677.393	42401.26
677.741	42552.21
678.09	42543.4
678.438	42390.41
678.787	42481.93
679.135	42523.51
679.484	42259.57
679.832	42613.68
680.181	42020.48
680.529	42335.05
680.877	42075.84
681.225	42198.1
681.573	42338.89
681.922	42014.15
682.27	41855.06
682.618	41991.78
682.966	41761.05
683.314	42036.3
683.661	41744.33
684.009	41535.97
684.357	41770.31
684.705	41521.96
685.053	41582.07
685.4	41486.71
685.748	41414.62
686.095	41404.9
686.443	41204
686.79	41157.67
687.138	41113.61
687.485	41226.15
687.832	41078.13
688.18	41087.17
688.527	40943.44
688.874	40974.63
689.221	40850.56
689.568	40715.43
689.915	40737.35
690.262	40560.63
690.609	40478.37
690.956	40329.22
691.303	40315.89
691.65	40156.57
691.997	40143.24
692.344	39881.32
692.69	39823.47
693.037	39886.07
693.383	39500.09
693.73	39835.22
694.077	39438.17
694.423	39452.18
694.769	39445.4
695.116	39373.32
695.462	39322.69
695.808	39171.06
696.155	39201.34
696.501	38929.94
696.847	38812.65
697.193	38666.67
697.539	38792.09
697.885	38582.15
698.231	38537.86
698.577	38538.53
698.923	38378.76
699.269	38277.75
699.614	37949.4
699.96	37986.01
700.306	38027.81
700.651	37878.67
700.997	37768.16
701.342	37751.21
701.688	37665.79
702.033	37517.54
702.379	37551.67
702.724	37398
703.069	37472.12
703.415	37052.47
703.76	37101.51
704.105	37141.51
704.45	37018.12
704.795	36779.03
705.14	36671.47
705.485	36717.11
705.83	36414.3
706.175	36654.29
706.52	36475.76
706.865	36165.94
707.209	36288.88
707.554	36212.27
707.899	36238.93
708.243	36049.79
708.588	36000.3
708.932	35804.14
709.277	35725.05
709.621	35788.55
709.966	35501.55
710.31	35497.94
710.654	35343.82
710.998	35356.92
711.342	35328.22
711.687	35228.11
712.031	34961.23
712.375	34899.99
712.719	35029.47
713.063	34957.61
713.407	35157.38
713.75	34777.28
714.094	34878.97
714.438	34627
714.782	34721.91
715.125	34645.76
715.469	34608.47
715.812	34482.6
716.156	34300.45
716.499	34319.44
716.843	34358.53
717.186	34118.09
717.53	34291.64
717.873	34260.91
718.216	34003.96
718.559	33965.1
718.902	33743.41
719.246	33856.17
719.589	33696.85
719.932	33576.63
720.275	33652.56
720.617	33556.97
720.96	33531.43
721.303	33570.98
721.646	33533.47
721.989	33199.69
722.331	33414.83
722.674	33294.38
723.016	33328.28
723.359	33333.02
723.701	33182.29
724.044	33114.27
724.386	32914.05
724.729	33022.97
725.071	32935.74
725.413	32839.25
725.755	32868.85
726.097	32722.87
726.439	32581.18
726.782	32670.21
727.124	32768.06
727.465	32497.11
727.807	32497.79
728.149	32546.6
728.491	32298.7
728.833	32408.75
729.175	32270.22
729.516	32276.55
729.858	32231.13
730.199	32127.86
730.541	32114.52
730.882	32003.57
731.224	32091.7
731.565	31907.07
731.906	31866.17
732.248	32061.64
732.589	31752.72
732.93	31700.07
733.271	31717.92
733.612	31642.44
733.953	31667.3
734.294	31612.39
734.635	31574.65
734.976	31623.91
735.317	31515.22
735.658	31420.08
735.999	31494.65
736.339	31357.71
736.68	31389.57
737.021	31345.5
737.361	31186.86
737.702	31286.75
738.042	31227.77
738.383	31117.49
738.723	31172.85
739.063	31083.82
739.404	31067.09
739.744	31028.45
740.084	30837.27
740.424	30945.29
740.764	30890.6
741.104	30895.8
741.444	30620.32
741.784	30529.03
742.124	30668.01
742.464	30668.91
742.804	30638.63
743.143	30425.3
743.483	30544.17
743.823	30441.8
744.162	30356.83
744.502	30367.9
744.841	30165.42
745.181	30359.54
745.52	30237.06
745.86	30281.8
746.199	30220.11
746.538	30222.6
746.877	30144.86
747.216	30152.54
747.556	30150.73
747.895	30162.94
748.234	29847.69
748.573	29941.47
748.911	29890.63
749.25	29896.95
749.589	29797.52
749.928	29794.13
750.267	29760.69
750.605	29684.98
750.944	29664.64
751.283	29522.05
751.621	29676.17
751.96	29422.39
752.298	29296.97
752.636	29333.8
752.975	29238.21
753.313	29201.15
753.651	29323.64
753.989	28989.41
754.327	29046.35
754.666	29014.49
755.004	28961.84
755.342	29016.98
755.679	28921.84
756.017	28714.61
756.355	28872.12
756.693	28719.13
757.031	28703.09
757.368	28512.36
757.706	28501.06
758.044	28429.42
758.381	28345.13
758.719	28323.21
759.056	28345.58
