Data from hue_330_FLMS001491_84.txt Node
Date: Mon Feb 06 15:46:02 GMT 2017
User: dcchb
Spectrometer: FLMS00149
Trigger mode: 0
Integration Time (sec): 2.000000E-2
Scans to average: 10
Electric dark correction enabled: true
Nonlinearity correction enabled: false
Boxcar width: 0
XAxis mode: Wavelengths
Number of Pixels in Spectrum: 2048
>>>>>Begin Spectral Data<<<<<
341.393	-6.23
341.776	-6.23
342.16	-6.23
342.543	-62.72
342.927	-60.69
343.31	-52.56
343.693	-90.75
344.077	-50.75
344.46	-67.7
344.843	-50.75
345.226	-58.66
345.61	-38.54
345.993	-18.88
346.376	-17.53
346.759	13.43
347.142	22.47
347.525	46.2
347.908	68.8
348.291	63.6
348.674	121.45
349.057	110.15
349.44	138.17
349.823	165.52
350.206	161.9
350.588	190.6
350.971	222.47
351.354	230.15
351.737	232.86
352.119	274.89
352.502	280.77
352.884	274.67
353.267	266.08
353.65	263.37
354.032	295.46
354.414	328.9
354.797	315.57
355.179	308.34
355.562	323.03
355.944	320.54
356.326	329.81
356.709	339.98
357.091	356.02
357.473	354.21
357.855	320.99
358.238	330.26
358.62	333.88
359.002	337.72
359.384	362.12
359.766	347.66
360.148	345.17
360.53	331.84
360.912	337.27
361.294	334.78
361.676	336.59
362.057	340.2
362.439	341.33
362.821	334.1
363.203	337.94
363.584	321.22
363.966	303.82
364.348	321.45
364.729	308.11
365.111	323.48
365.493	338.85
365.874	316.02
366.256	312.41
366.637	313.31
367.019	318.73
367.4	328.23
367.781	303.59
368.163	319.41
368.544	313.08
368.925	314.21
369.306	323.71
369.688	296.14
370.069	304.5
370.45	316.7
370.831	295.46
371.212	301.33
371.593	322.8
371.974	309.02
372.355	306.98
372.736	305.4
373.117	314.21
373.498	313.08
373.879	320.77
374.26	331.62
374.641	309.02
375.021	306.31
375.402	302.92
375.783	328.68
376.163	332.52
376.544	296.81
376.925	337.04
377.305	322.58
377.686	326.64
378.066	323.93
378.447	328
378.827	356.93
379.208	318.51
379.588	310.6
379.968	341.56
380.349	343.59
380.729	313.54
381.109	332.07
381.489	325.29
381.87	334.78
382.25	339.98
382.63	328
383.01	361.22
383.39	337.27
383.77	341.56
384.15	338.85
384.53	359.41
384.91	341.56
385.29	351.95
385.67	344.5
386.049	349.92
386.429	346.76
386.809	369.35
387.189	364.84
387.568	370.26
387.948	347.89
388.328	360.32
388.707	358.28
389.087	339.3
389.466	356.7
389.846	360.99
390.225	374.78
390.605	374.1
390.984	356.25
391.363	374.1
391.743	371.16
392.122	381.11
392.501	375.46
392.881	386.98
393.26	356.7
393.639	375.23
394.018	369.35
394.397	371.39
394.776	379.07
395.155	377.49
395.534	384.27
395.913	376.59
396.292	393.53
396.671	389.24
397.05	380.88
397.429	390.15
397.808	395.12
398.186	382.91
398.565	380.43
398.944	395.79
399.323	402.57
399.701	412.07
400.08	403.48
400.458	396.92
400.837	408.68
401.215	425.4
401.594	424.95
401.972	411.16
402.351	419.52
402.729	413.87
403.107	409.35
403.486	413.2
403.864	424.27
404.242	440.09
404.62	422.01
404.999	436.25
405.377	452.29
405.755	440.09
406.133	431.27
406.511	440.99
406.889	441.44
407.267	456.36
407.645	469.01
408.023	459.3
408.401	466.98
408.779	462.23
409.156	463.14
409.534	469.47
409.912	467.88
410.29	488.9
410.667	478.73
411.045	488.45
411.422	494.55
411.8	506.3
412.178	505.4
412.555	540.65
412.933	510.14
413.31	508.79
413.687	532.51
414.065	540.65
414.442	556.47
414.819	553.76
415.197	557.82
415.574	541.78
415.951	559.63
416.328	574.77
416.705	582
417.082	584.94
417.46	583.81
417.837	603.7
418.214	586.98
418.591	622
418.967	598.28
419.344	618.16
419.721	621.33
420.098	640.08
420.475	625.85
420.852	644.6
421.228	654.32
421.605	633.08
421.982	664.49
422.358	662.45
422.735	658.84
423.111	684.37
423.488	703.81
423.864	679.63
424.241	705.17
424.617	719.4
424.994	718.72
425.37	716.92
425.746	744.03
426.123	707.42
426.499	725.73
426.875	739.74
427.251	750.36
427.627	772.06
428.003	751.04
428.379	774.99
428.756	774.77
429.132	772.28
429.507	798.5
429.883	807.31
430.259	810.47
430.635	816.35
431.011	824.03
431.387	822.68
431.763	856.8
432.138	831.26
432.514	863.35
432.89	837.36
433.265	902
433.641	878.27
434.016	911.49
434.392	896.35
434.767	916.46
435.143	920.53
435.518	941.09
435.894	933.63
436.269	942
436.644	963.92
437.02	987.64
437.395	967.76
437.77	1011.15
438.145	996.68
438.52	977.93
438.895	1017.25
439.271	1025.61
439.646	1028.77
440.021	1061.99
440.395	1042.78
440.77	1028.32
441.145	1035.55
441.52	1064.25
441.895	1047.3
442.27	1086.17
442.645	1066.06
443.019	1105.83
443.394	1083.01
443.769	1109.22
444.143	1117.36
444.518	1116.23
444.892	1110.35
445.267	1118.49
445.641	1113.29
446.016	1112.16
446.39	1126.4
446.764	1123.46
447.139	1114.87
447.513	1135.89
447.887	1165.49
448.262	1179.28
448.636	1161.2
449.01	1158.03
449.384	1158.71
449.758	1175.44
450.132	1227.19
450.506	1183.8
450.88	1188.32
451.254	1212.95
451.628	1196.9
452.002	1207.07
452.376	1241.42
452.75	1235.55
453.123	1245.04
453.497	1280.29
453.871	1255.43
454.244	1270.12
454.618	1302.44
454.992	1306.96
455.365	1308.54
455.739	1327.52
456.112	1322.55
456.486	1302.89
456.859	1325.26
457.232	1311.93
457.606	1380.18
457.979	1353.06
458.352	1380.4
458.725	1386.5
459.099	1427.18
459.472	1397.35
459.845	1425.6
460.218	1417.24
460.591	1429.67
460.964	1459.27
461.337	1481.64
461.71	1508.31
462.083	1497.01
462.456	1505.82
462.829	1504.69
463.201	1553.5
463.574	1534.07
463.947	1575.42
464.32	1618.36
464.692	1593.96
465.065	1640.28
465.438	1614.75
465.81	1650.22
466.183	1631.02
466.555	1678.92
466.928	1652.94
467.3	1671.02
467.672	1709.21
468.045	1754.85
468.417	1709.88
468.789	1753.5
469.161	1774.74
469.534	1802.31
469.906	1837.34
470.278	1826.72
470.65	1827.17
471.022	1857.23
471.394	1910.11
471.766	1897.68
472.138	1915.3
472.51	1969.09
472.882	1963.66
473.253	1996.2
473.625	2006.83
473.997	2072.59
474.369	2073.04
474.74	2112.13
475.112	2104.45
475.484	2144
475.855	2157.78
476.227	2148.06
476.598	2208.85
476.97	2273.49
477.341	2284.78
477.713	2314.39
478.084	2350.55
478.455	2355.74
478.827	2408.17
479.198	2440.71
479.569	2435.52
479.94	2497.21
480.311	2514.16
480.682	2557.55
481.053	2611.1
481.424	2668.5
481.795	2652.01
482.166	2708.73
482.537	2747.15
482.908	2774.26
483.279	2785.79
483.65	2825.34
484.021	2895.84
484.391	2931.32
484.762	2902.4
485.133	2949.63
485.503	2989.17
485.874	3066.01
486.244	3066.46
486.615	3077.98
486.985	3119.79
487.356	3200.69
487.726	3194.82
488.097	3288.6
488.467	3290.63
488.837	3355.04
489.207	3356.85
489.578	3397.3
489.948	3437.3
490.318	3462.61
490.688	3440.91
491.058	3531.53
491.428	3549.61
491.798	3599.55
492.168	3694.47
492.538	3671.41
492.908	3683.39
493.278	3746.44
493.648	3723.84
494.017	3783.05
494.387	3840.22
494.757	3841.58
495.126	3857.17
495.496	3925.87
495.866	3871.86
496.235	3931.07
496.605	3983.72
496.974	3993.44
497.344	3986.89
497.713	4033.44
498.082	4046.09
498.452	4082.7
498.821	4100.56
499.19	4129.48
499.559	4199.08
499.928	4167.67
500.298	4186.43
500.667	4239.76
501.036	4210.38
501.405	4262.59
501.774	4273.43
502.143	4299.42
502.512	4302.58
502.88	4345.52
503.249	4352.07
503.618	4371.74
503.987	4402.24
504.356	4381.23
504.724	4428.46
505.093	4432.52
505.462	4462.13
505.83	4493.09
506.199	4512.3
506.567	4519.75
506.936	4502.81
507.304	4593.65
507.672	4596.36
508.041	4611.28
508.409	4616.02
508.777	4653.08
509.145	4675.46
509.514	4694.44
509.882	4694.89
510.25	4697.38
510.618	4746.41
510.986	4754.55
511.354	4780.76
511.722	4795
512.09	4801.55
512.458	4836.36
512.826	4873.42
513.193	4887.2
513.561	4891.72
513.929	4952.29
514.297	4999.06
514.664	4957.03
515.032	4961.55
515.4	5027.76
515.767	4984.15
516.135	5061.21
516.502	4999.97
516.869	5070.02
517.237	5073.41
517.604	5027.09
517.972	5084.03
518.339	5099.4
518.706	5071.6
519.073	5136.24
519.44	5134.2
519.808	5178.04
520.175	5149.79
520.542	5237.93
520.909	5213.75
521.276	5226.4
521.643	5303.24
522.009	5334.87
522.376	5343.01
522.743	5352.95
523.11	5345.27
523.477	5428.43
523.843	5459.84
524.21	5512.5
524.577	5520.63
524.943	5495.1
525.31	5589.56
525.676	5634.3
526.043	5599.95
526.409	5608.76
526.776	5710.46
527.142	5676.11
527.508	5717.46
527.874	5740.74
528.241	5787.07
528.607	5759.27
528.973	5821.87
529.339	5837.01
529.705	5907.97
530.071	5960.17
530.437	5963.33
530.803	6002.2
531.169	6023.9
531.535	6007.17
531.901	6026.38
532.267	6108.41
532.632	6119.26
532.998	6149.54
533.364	6156.1
533.73	6167.85
534.095	6190.22
534.461	6233.38
534.826	6281.74
535.192	6276.32
535.557	6336.43
535.923	6344.34
536.288	6312.48
536.653	6413.26
537.019	6342.76
537.384	6423.66
537.749	6440.61
538.114	6434.73
538.479	6509.53
538.845	6589.08
539.21	6521.06
539.575	6553.15
539.94	6585.91
540.305	6625.91
540.67	6633.14
541.034	6669.53
541.399	6666.36
541.764	6701.17
542.129	6773.71
542.494	6765.12
542.858	6790.43
543.223	6854.83
543.587	6914.72
543.952	6876.98
544.316	6888.51
544.681	6889.41
545.045	6967.37
545.41	6959.92
545.774	6983.19
546.138	7068.61
546.503	7047.15
546.867	7067.26
547.231	7128.05
547.595	7129.63
547.959	7089.18
548.324	7175.05
548.688	7211.66
549.052	7192.23
549.416	7253.92
549.779	7286.46
550.143	7281.04
550.507	7298.21
550.871	7318.55
551.235	7363.3
551.599	7399.23
551.962	7458.66
552.326	7404.42
552.689	7519.9
553.053	7370.75
553.417	7516.74
553.78	7521.03
554.143	7538.43
554.507	7536.17
554.87	7671.76
555.234	7674.7
555.597	7623.63
555.96	7658.43
556.323	7678.99
556.686	7718.54
557.05	7761.7
557.413	7785.43
557.776	7798.09
558.139	7843.28
558.502	7843.96
558.865	7861.59
559.228	7904.98
559.59	7933.68
559.953	7978.65
560.316	8062.71
560.679	8027.46
561.041	8094.12
561.404	8084.63
561.767	8178.19
562.129	8062.71
562.492	8224.06
562.854	8186.78
563.217	8207.57
563.579	8191.75
563.941	8288.47
564.304	8320.11
564.666	8365.08
565.028	8362.14
565.39	8336.83
565.753	8383.61
566.115	8424.51
566.477	8461.57
566.839	8448.01
567.201	8550.61
567.563	8593.09
567.925	8549.93
568.287	8652.98
568.648	8663.6
569.01	8661.79
569.372	8769.81
569.734	8683.03
570.095	8755.8
570.457	8812.75
570.819	8882.13
571.18	8840.32
571.542	8923.03
571.903	8972.52
572.265	8941.78
572.626	8998.96
572.987	9080.99
573.349	9126.64
573.71	9193.98
574.071	9197.15
574.432	9298.39
574.794	9393.07
575.155	9390.13
575.516	9387.87
575.877	9534.54
576.238	9633.07
576.599	9663.12
576.96	9742.44
577.32	9787.19
577.681	9888.2
578.042	9983.57
578.403	10035.99
578.763	10084.13
579.124	10225.82
579.485	10361.86
579.845	10479.37
580.206	10522.99
580.566	10607.73
580.927	10781.74
581.287	10888.85
581.648	10958.68
582.008	11116.19
582.368	11263.53
582.728	11433.24
583.089	11567.7
583.449	11673.01
583.809	11860.58
584.169	12065.09
584.529	12169.72
584.889	12450.39
585.249	12543.5
585.609	12745.98
585.969	12958.63
586.329	13208.11
586.688	13433.19
587.048	13664.37
587.408	13757.93
587.768	14064.14
588.127	14222.78
588.487	14493.28
588.846	14808.3
589.206	14961.74
589.565	15190.43
589.925	15498.45
590.284	15745.22
590.643	15978.44
591.003	16257.3
591.362	16547.01
591.721	16759.66
592.08	17048.92
592.44	17398.06
592.799	17573.42
593.158	17763.93
593.517	18170.47
593.876	18513.28
594.235	18690.45
594.593	18983.33
594.952	19316.43
595.311	19564.1
595.67	19818.79
596.029	20277.31
596.387	20525.66
596.746	20751.87
597.104	21093.78
597.463	21283.38
597.822	21604.05
598.18	21837.04
598.538	22328.33
598.897	22571.71
599.255	22691.03
599.613	23289.2
599.972	23429.77
600.33	23705.69
600.688	23839.25
601.046	24306.8
601.404	24653.01
601.762	24783.4
602.12	25227.01
602.478	25467.68
602.836	25708.35
603.194	25870.61
603.552	26110.82
603.91	26363.25
604.268	26683.92
604.625	26909
604.983	27111.48
605.341	27294.97
605.698	27691.35
606.056	27948.06
606.413	28307.6
606.771	28469.41
607.128	28715.05
607.485	28682.28
607.843	29015.61
608.2	29414.92
608.557	29703.72
608.914	29824.63
609.272	30051.29
609.629	30455.8
609.986	30633.42
610.343	30657.6
610.7	31086.51
611.057	31214.19
611.414	31376.9
611.771	31685.59
612.127	31851.24
612.484	31946.38
612.841	32327.16
613.198	32245.13
613.554	32581.39
613.911	32792.46
614.267	32988.84
614.624	33133.01
614.98	33413.01
615.337	33640.34
615.693	33695.26
616.05	33712.88
616.406	34052.54
616.762	34088.69
617.118	34126.66
617.475	34274.45
617.831	34620.43
618.187	34740.2
618.543	34903.36
618.899	35299.51
619.255	35144.26
619.611	35361.65
619.967	35549.67
620.323	35617.69
620.678	35559.16
621.034	35788.31
621.39	35883.45
621.746	35946.95
622.101	36353.72
622.457	36224.01
622.812	36116.21
623.168	36482.08
623.523	36517.1
623.879	36694.05
624.234	36546.03
624.589	36730.21
624.945	36836.87
625.3	36960.93
625.655	37063.31
626.01	37166.35
626.365	37225.56
626.72	37192.12
627.075	37259.68
627.43	37345.56
627.785	37389.62
628.14	37420.81
628.495	37475.72
628.85	37525.44
629.205	37468.49
629.559	37794.81
629.914	37661.48
630.269	37723.63
630.623	37737.19
630.978	37680.46
631.332	37805.43
631.687	37985.77
632.041	37792.78
632.396	37948.71
632.75	37762.72
633.104	37925.43
633.459	37897.86
633.813	37904.19
634.167	37994.35
634.521	38050.17
634.875	38021.92
635.229	38051.75
635.583	37957.52
635.937	37858.76
636.291	38014.01
636.645	37938.76
636.999	37886.33
637.352	38029.83
637.706	37819.67
638.06	38096.5
638.413	38113.22
638.767	37893.79
639.121	37980.12
639.474	37854.92
639.828	37852.89
640.181	37962.49
640.534	37993.45
640.888	37928.82
641.241	37729.95
641.594	37872.55
641.947	37886.79
642.301	37736.96
642.654	37884.07
643.007	37899.22
643.36	37887.92
643.713	37727.47
644.066	37974.92
644.419	37721.37
644.771	37579.68
645.124	37227.14
645.477	37299.68
645.83	36837.55
646.182	36975.62
646.535	36889.52
646.888	36847.27
647.24	36685.46
647.593	36882.07
647.945	36738.12
648.298	36653.37
648.65	36593.94
649.002	36427.39
649.355	36659.25
649.707	36504.45
650.059	36619.47
650.411	37090.88
650.763	37176.75
651.115	37682.72
651.467	37476.85
651.819	37484.09
652.171	37409.51
652.523	37395.73
652.875	37416.29
653.227	37219.01
653.578	37447.7
653.93	37343.98
654.282	37193.02
654.633	37139.69
654.985	37150.76
655.337	37144.66
655.688	37270.76
656.039	37397.99
656.391	37068.73
656.742	37175.84
657.094	37206.35
657.445	37444.09
657.796	37139.01
658.147	37119.57
658.498	37146.01
658.849	37202.51
659.2	37187.37
659.551	37071.21
659.902	37315.5
660.253	37187.14
660.604	37181.04
660.955	37059.24
661.306	37217.2
661.656	37070.76
662.007	37027.15
662.358	37067.37
662.708	37080.48
663.059	37130.42
663.409	36882.74
663.76	37159.8
664.11	37059.01
664.461	37068.5
664.811	37038.22
665.161	37004.55
665.511	37006.81
665.862	37111.89
666.212	37139.24
666.562	37117.54
666.912	36955.96
667.262	36915.96
667.612	36847.49
667.962	36958
668.312	36901.28
668.662	37017.88
669.011	36816.98
669.361	36886.36
669.711	36877.77
670.06	36811.11
670.41	36777.66
670.76	36816.08
671.109	37014.94
671.459	36895.17
671.808	36861.5
672.157	36920.71
672.507	36766.59
672.856	36686.82
673.205	36718.46
673.554	36782.41
673.904	36739.92
674.253	36863.76
674.602	36642.75
674.951	36302.87
675.3	36041.41
675.649	36594.62
675.998	36633.49
676.346	36645.91
676.695	36682.07
677.044	36440.27
677.393	36525.69
677.741	36639.59
678.09	36459.48
678.438	36541.28
678.787	36463.77
679.135	36481.85
679.484	36286.38
679.832	36423.77
680.181	36112.82
680.529	36285.02
680.877	36272.37
681.225	36325.02
681.573	36388.07
681.922	36057.23
682.27	35974.75
682.618	36028.53
682.966	35894.07
683.314	36020.62
683.661	35877.35
684.009	35766.62
684.357	35720.06
684.705	35731.81
685.053	35578.37
685.4	35566.62
685.748	35396.46
686.095	35448.43
686.443	35448.21
686.79	35330.47
687.138	35409.34
687.485	35309.23
687.832	35225.16
688.18	35165.73
688.527	35011.16
688.874	35078.72
689.221	34965.06
689.568	34978.61
689.915	34892.29
690.262	34781.33
690.609	34735.46
690.956	34552.18
691.303	34730.71
691.65	34504.5
691.997	34526.65
692.344	34247.79
692.69	34237.62
693.037	34183.83
693.383	33982.03
693.73	34168.01
694.077	33894.8
694.423	33824.75
694.769	33806.89
695.116	33776.61
695.462	33761.02
695.808	33514.25
696.155	33702.94
696.501	33369.62
696.847	33376.85
697.193	33220.92
697.539	33220.24
697.885	33076.97
698.231	32876.07
698.577	33033.13
698.923	32914.04
699.269	32642.4
699.614	32583.87
699.96	32527.38
700.306	32502.97
700.651	32426.14
700.997	32406.93
701.342	32285.8
701.688	32229.99
702.033	32113.15
702.379	31983.89
702.724	32061.85
703.069	32100.05
703.415	31558.37
703.76	31686.5
704.105	31774.18
704.45	31551.36
704.795	31550.68
705.14	31397.92
705.485	31368.54
705.83	31323.57
706.175	31334.87
706.52	31209.45
706.865	31159.51
707.209	31078.15
707.554	30791.83
707.899	31062.56
708.243	30715.68
708.588	30773.75
708.932	30507.09
709.277	30526.75
709.621	30625.28
709.966	30405.63
710.31	30474.78
710.654	30264.61
710.998	30281.56
711.342	30333.09
711.687	30148.46
712.031	30004.06
712.375	29922.7
712.719	29939.88
713.063	29902.36
713.407	30018.97
713.75	29826.89
714.094	29823.95
714.438	29659.88
714.782	29646.78
715.125	29567.23
715.469	29607.68
715.812	29378.76
716.156	29143.29
716.499	29239.1
716.843	29219.22
717.186	29176.51
717.53	29368.59
717.873	29346.67
718.216	29131.54
718.559	29106
718.902	29005.21
719.246	28981.48
719.589	28864.42
719.932	28675.5
720.275	28759.34
720.617	28777.2
720.96	28699.01
721.303	28748.27
721.646	28628.27
721.989	28411.33
722.331	28665.33
722.674	28523.64
723.016	28423.08
723.359	28380.82
723.701	28445.9
724.044	28190.32
724.386	28229.41
724.729	28191.22
725.071	28199.81
725.413	28121.85
725.755	28094.05
726.097	28072.58
726.439	27805.24
726.782	27926.14
727.124	27954.84
727.465	27803.89
727.807	27679.6
728.149	27821.29
728.491	27600.73
728.833	27680.05
729.175	27544.46
729.516	27494.74
729.858	27436.44
730.199	27469.89
730.541	27513.05
730.882	27305.37
731.224	27537
731.565	27210.23
731.906	27306.5
732.248	27196.9
732.589	27191.25
732.93	27064.7
733.271	27033.96
733.612	27066.28
733.953	27157.58
734.294	26923.91
734.635	26916.23
734.976	27011.82
735.317	26765.27
735.658	26767.53
735.999	26861.54
736.339	26708.1
736.68	26824.03
737.021	26670.81
737.361	26539.97
737.702	26737.93
738.042	26588.1
738.383	26585.16
738.723	26546.07
739.063	26548.55
739.404	26449.35
739.744	26440.76
740.084	26372.74
740.424	26478.95
740.764	26346.75
741.104	26416.81
741.444	26168.22
741.784	26123.48
742.124	26180.65
742.464	26183.14
742.804	26016.59
743.143	25979.98
743.483	26028.12
743.823	25911.96
744.162	25844.84
744.502	25958.74
744.841	25804.62
745.181	26035.35
745.52	25734.11
745.86	25858.85
746.199	25719.87
746.538	25704.06
746.877	25679.2
747.216	25787.44
747.556	25622.48
747.895	25540.9
748.234	25415.02
748.573	25380.45
748.911	25457.28
749.25	25306.55
749.589	25239.89
749.928	25330.05
750.267	25273.78
750.605	25131.64
750.944	25169.15
751.283	25087.12
751.621	25107.24
751.96	25026.11
752.298	25008.48
752.636	25014.81
752.975	24820.69
753.313	24736.62
753.651	24953.12
753.989	24721.03
754.327	24638.77
754.666	24565.55
755.004	24562.84
755.342	24625.89
755.679	24469.51
756.017	24377.99
756.355	24450.98
756.693	24342.06
757.031	24414.82
757.368	24222.96
757.706	24240.14
758.044	24144.32
758.381	24089.41
758.719	23996.3
759.056	24087.6
759.394	23898.91
759.731	23815.07
