Data from hue_100_FLMS001491_00066.txt Node
Date: Tue Feb 07 17:03:30 GMT 2017
User: dcchb
Spectrometer: FLMS00149
Trigger mode: 0
Integration Time (sec): 2.000000E-2
Scans to average: 10
Electric dark correction enabled: true
Nonlinearity correction enabled: false
Boxcar width: 0
XAxis mode: Wavelengths
Number of Pixels in Spectrum: 2048
>>>>>Begin Spectral Data<<<<<
341.393	-33.66
341.776	-33.66
342.16	-33.66
342.543	-57.39
342.927	-66.88
343.31	-63.49
343.693	-58.06
344.077	-75.92
344.46	-57.84
344.843	-44.73
345.226	-32.98
345.61	-32.53
345.993	-22.13
346.376	-11.74
346.759	6.57
347.142	14.93
347.525	45.44
347.908	58.32
348.291	79.11
348.674	86.11
349.057	108.94
349.44	125.21
349.823	149.39
350.206	169.95
350.588	197.3
350.971	223.96
351.354	223.96
351.737	256.73
352.119	255.15
352.502	264.41
352.884	279.55
353.267	286.79
353.65	295.15
354.032	305.99
354.414	292.44
354.797	329.95
355.179	328.37
355.562	330.85
355.944	339.67
356.326	364.98
356.709	334.02
357.091	329.05
357.473	340.34
357.855	326.33
358.238	358.42
358.62	335.82
359.002	332.89
359.384	343.51
359.766	339.67
360.148	346.9
360.53	357.52
360.912	310.74
361.294	355.49
361.676	337.18
362.057	325.43
362.439	337.86
362.821	337.86
363.203	340.34
363.584	333.79
363.966	315.94
364.348	334.69
364.729	345.77
365.111	315.94
365.493	323.4
365.874	330.17
366.256	312.77
366.637	315.94
367.019	333.56
367.4	342.38
367.781	338.54
368.163	303.96
368.544	287.46
368.925	305.09
369.306	324.07
369.688	320.91
370.069	314.58
370.45	332.43
370.831	316.39
371.212	336.5
371.593	319.55
371.974	351.64
372.355	327.46
372.736	312.1
373.117	340.57
373.498	304.64
373.879	324.98
374.26	332.89
374.641	319.1
375.021	301.7
375.402	341.93
375.783	336.5
376.163	318.2
376.544	337.41
376.925	317.07
377.305	350.29
377.686	331.53
378.066	361.59
378.447	328.14
378.827	341.02
379.208	341.7
379.588	331.98
379.968	328.82
380.349	334.02
380.729	323.62
381.109	325.2
381.489	356.84
381.87	346.45
382.25	346.9
382.63	353
383.01	355.71
383.39	341.93
383.77	375.6
384.15	366.78
384.53	339.21
384.91	348.48
385.29	361.13
385.67	343.96
386.049	379.21
386.429	346.9
386.809	346.67
387.189	365.2
387.568	367.46
387.948	351.42
388.328	390.96
388.707	373.34
389.087	350.06
389.466	373.34
389.846	395.71
390.225	362.72
390.605	386.44
390.984	378.08
391.363	388.48
391.743	379.67
392.122	381.02
392.501	386.67
392.881	373.34
393.26	385.54
393.639	390.29
394.018	410.62
394.397	404.98
394.776	394.81
395.155	391.87
395.534	421.25
395.913	407.01
396.292	381.7
396.671	415.82
397.05	425.31
397.429	396.84
397.808	429.83
398.186	411.53
398.565	419.44
398.944	413.11
399.323	426.22
399.701	420.79
400.08	408.14
400.458	426.9
400.837	421.7
401.215	424.86
401.594	450.62
401.972	425.77
402.351	421.47
402.729	407.24
403.107	419.89
403.486	419.21
403.864	455.6
404.242	451.53
404.62	431.42
404.999	441.58
405.377	453.11
405.755	436.39
406.133	447.91
406.511	465.76
406.889	463.28
407.267	463.73
407.645	478.42
408.023	494.46
408.401	474.58
408.779	496.05
409.156	483.17
409.534	456.95
409.912	497.85
410.29	472.77
410.667	490.62
411.045	493.56
411.422	488.59
411.8	495.37
412.178	511.64
412.555	518.87
412.933	494.01
413.31	519.32
413.687	525.88
414.065	522.03
414.442	511.19
414.819	523.39
415.197	540.34
415.574	535.59
415.951	545.99
416.328	530.62
416.705	520.23
417.082	562.26
417.46	546.89
417.837	563.16
418.214	564.52
418.591	547.8
418.967	563.84
419.344	554.8
419.721	572.65
420.098	585.08
420.475	551.86
420.852	587.12
421.228	568.59
421.605	569.04
421.982	599.09
422.358	593.44
422.735	591.19
423.111	605.42
423.488	600
423.864	619.66
424.241	631.86
424.617	612.2
424.994	621.92
425.37	620.11
425.746	636.83
426.123	643.61
426.499	644.06
426.875	665.31
427.251	644.29
427.627	658.3
428.003	667.12
428.379	692.43
428.756	686.32
429.132	670.28
429.507	681.8
429.883	673.44
430.259	694.01
430.635	710.05
431.011	696.04
431.387	731.29
431.763	726.55
432.138	717.28
432.514	749.6
432.89	734.91
433.265	750.73
433.641	743.95
434.016	740.11
434.392	759.32
434.767	777.85
435.143	775.59
435.518	788.92
435.894	772.65
436.269	769.71
436.644	802.48
437.02	805.42
437.395	822.14
437.77	814.23
438.145	822.82
438.52	828.69
438.895	843.16
439.271	854.23
439.646	869.82
440.021	868.47
440.395	880.89
440.77	860.78
441.145	860.78
441.52	917.5
441.895	905.53
442.27	903.72
442.645	909.82
443.019	905.75
443.394	938.97
443.769	934.9
444.143	916.83
444.518	938.29
444.892	918.41
445.267	948.46
445.641	938.75
446.016	951.85
446.39	970.16
446.764	978.75
447.139	992.08
447.513	968.8
447.887	997.95
448.262	1004.73
448.636	1013.32
449.01	988.91
449.384	993.43
449.758	1010.61
450.132	1031.85
450.506	1041.34
450.88	1039.08
451.254	1054.68
451.628	1068.01
452.002	1092.19
452.376	1090.38
452.75	1090.38
453.123	1085.86
453.497	1115.92
453.871	1124.05
454.244	1151.17
454.618	1144.84
454.992	1167.22
455.365	1154.33
455.739	1183.71
456.112	1194.33
456.486	1216.25
456.859	1212.86
457.232	1256.48
457.606	1264.61
457.979	1289.47
458.352	1273.65
458.725	1273.2
459.099	1318.4
459.472	1320.43
459.845	1320.21
460.218	1366.08
460.591	1373.09
460.964	1382.35
461.337	1405.63
461.71	1424.84
462.083	1407.66
462.456	1440.2
462.829	1466.19
463.201	1476.81
463.574	1494.66
463.947	1523.14
464.32	1559.3
464.692	1573.76
465.065	1597.94
465.438	1615.56
465.81	1619.86
466.183	1643.13
466.555	1685.85
466.928	1699.4
467.3	1707.54
467.672	1731.27
468.045	1806.97
468.417	1820.76
468.789	1838.84
469.161	1820.76
469.534	1879.51
469.906	1957.7
470.278	1977.82
470.65	2026.85
471.022	2036.34
471.394	2081.77
471.766	2096.91
472.138	2134.2
472.51	2221.65
472.882	2256.23
473.253	2336.9
473.625	2342.33
473.997	2381.42
474.369	2456.45
474.74	2491.47
475.112	2536.9
475.484	2613.96
475.855	2649.21
476.227	2712.26
476.598	2790.22
476.97	2840.62
477.341	2947.06
477.713	2995.64
478.084	3044
478.455	3170.78
478.827	3223.88
479.198	3327.84
479.569	3357.67
479.94	3539.81
480.311	3544.55
480.682	3719.92
481.053	3815.73
481.424	3926.01
481.795	3983.19
482.166	4111.09
482.537	4180.47
482.908	4361.03
483.279	4485.32
483.65	4593.11
484.021	4753.79
484.391	4810.74
484.762	4950.84
485.133	5053.21
485.503	5221.8
485.874	5355.58
486.244	5430.38
486.615	5615.23
486.985	5786.98
487.356	5931.61
487.726	6051.15
488.097	6219.51
488.467	6332.73
488.837	6560.52
489.207	6700.63
489.578	6886.61
489.948	6961.41
490.318	7257.9
490.688	7336.77
491.058	7458.8
491.428	7656.76
491.798	7858.79
492.168	8057.66
492.538	8121.83
492.908	8352.56
493.278	8512.11
493.648	8590.75
494.017	8797.75
494.387	8981.25
494.757	9080.23
495.126	9314.8
495.496	9445.64
495.866	9562.47
496.235	9725.86
496.605	9835.91
496.974	9947.32
497.344	10120.65
497.713	10266.18
498.082	10396.12
498.452	10653.75
498.821	10655.55
499.19	10729
499.559	11004.24
499.928	11104.35
500.298	11201.98
500.667	11378.7
501.036	11507.73
501.405	11599.03
501.774	11656.88
502.143	11814.39
502.512	11832.02
502.88	12020.94
503.249	12133.48
503.618	12212.8
503.987	12268.62
504.356	12427.48
504.724	12562.62
505.093	12627.7
505.462	12705.89
505.83	12879.68
506.199	12904.53
506.567	13153.79
506.936	13188.59
507.304	13384.75
507.672	13432.2
508.041	13480.34
508.409	13631.07
508.777	13694.8
509.145	13801.46
509.514	13791.97
509.882	13913.55
510.25	13887.78
510.618	14155.8
510.986	14081.68
511.354	14248.68
511.722	14321.22
512.09	14454.78
512.458	14404.38
512.826	14559.18
513.193	14648.44
513.561	14704.26
513.929	14746.07
514.297	14833.3
514.664	14852.05
515.032	15021.31
515.4	15039.84
515.767	14979.96
516.135	15168.2
516.502	15127.3
516.869	15233.51
517.237	15386.05
517.604	15276.45
517.972	15369.1
518.339	15541.75
518.706	15468.08
519.073	15606.84
519.44	15538.81
519.808	15645.7
520.175	15659.04
520.542	15814.06
520.909	15850.67
521.276	15833.5
521.643	15922.99
522.009	16016.99
522.376	16106.26
522.743	16062.87
523.11	16201.17
523.477	16298.79
523.843	16280.72
524.21	16398.68
524.577	16440.49
524.943	16408.62
525.31	16461.05
525.676	16673.02
526.043	16620.59
526.409	16607.26
526.776	16740.82
527.142	16698.78
527.508	16781.72
527.874	16856.07
528.241	16744.66
528.607	16767.48
528.973	16928.16
529.339	16767.03
529.705	16918.44
530.071	16992.11
530.437	17019
530.803	17027.59
531.169	17130.19
531.535	17003.86
531.901	16971.32
532.267	17010.64
532.632	16941.26
532.998	16968.61
533.364	17018.78
533.73	17058.32
534.095	17132.22
534.461	17005.44
534.826	16965.44
535.192	17080.24
535.557	17067.14
535.923	16927.48
536.288	16928.61
536.653	16908.27
537.019	16850.42
537.384	16899.68
537.749	16956.4
538.114	16870.76
538.479	16823.3
538.845	16855.39
539.21	16647.94
539.575	16720.25
539.94	16733.36
540.305	16783.98
540.67	16659.69
541.034	16690.65
541.399	16758.44
541.764	16677.99
542.129	16588.5
542.494	16516.42
542.858	16519.13
543.223	16443.88
543.587	16449.98
543.952	16462.86
544.316	16428.73
544.681	16341.96
545.045	16423.76
545.41	16388.28
545.774	16253.82
546.138	16137.89
546.503	16225.12
546.867	16182.87
547.231	16141.51
547.595	16135.64
547.959	16196.65
548.324	16073.26
548.688	16061.51
549.052	16007.95
549.416	15992.59
549.779	15888.64
550.143	15913.27
550.507	15953.72
550.871	15963.21
551.235	15888.41
551.599	15888.41
551.962	15773.84
552.326	15798.24
552.689	15831.46
553.053	15693.39
553.417	15687.96
553.78	15782.2
554.143	15669.43
554.507	15668.75
554.87	15703.56
555.234	15723.44
555.597	15604.58
555.96	15586.27
556.323	15558.93
556.686	15482.09
557.05	15550.11
557.413	15684.8
557.776	15520.28
558.139	15600.73
558.502	15601.41
558.865	15508.31
559.228	15609.1
559.59	15531.13
559.953	15558.02
560.316	15642.77
560.679	15642.99
561.041	15656.55
561.404	15654.29
561.767	15708.98
562.129	15605.93
562.492	15665.82
562.854	15676.44
563.217	15509.89
563.579	15550.34
563.941	15654.97
564.304	15635.76
564.666	15752.37
565.028	15752.82
565.39	15786.04
565.753	15756.21
566.115	15809.32
566.477	15838.47
566.839	15821.29
567.201	15891.8
567.563	15771.12
567.925	15898.35
568.287	15832.14
568.648	15919.82
569.01	15918.69
569.372	15953.27
569.734	15923.66
570.095	15981.97
570.457	15914.4
570.819	15960.72
571.18	15949.65
571.542	15993.49
571.903	15979.03
572.265	16048.18
572.626	16015.86
572.987	15984.9
573.349	16049.54
573.71	16163.88
574.071	16205.69
574.432	16032.59
574.794	16209.76
575.155	16235.29
575.516	16136.54
575.877	16223.09
576.238	16164.11
576.599	16238.23
576.96	16185.35
577.32	16143.32
577.681	16172.02
578.042	16187.61
578.403	16250.89
578.763	16254.95
579.124	16241.17
579.485	16232.81
579.845	16279.59
580.206	16254.05
580.566	16216.31
580.927	16119.36
581.287	16153.26
581.648	16191.9
582.008	16268.29
582.368	16253.82
582.728	16180.61
583.089	16238.01
583.449	16227.38
583.809	16231.68
584.169	16279.13
584.529	16137.89
584.889	16233.49
585.249	16080.5
585.609	16086.14
585.969	16139.25
586.329	16079.14
586.688	16144.9
587.048	16121.85
587.408	16018.58
587.768	15999.37
588.127	16044.11
588.487	15994.4
588.846	16122.3
589.206	16005.47
589.565	15993.27
589.925	16111
590.284	16062.64
590.643	16042.53
591.003	16036.65
591.362	16061.74
591.721	16033.94
592.08	16012.25
592.44	16054.28
592.799	16043.43
593.158	16003.89
593.517	15975.41
593.876	15887.73
594.235	15886.6
594.593	15907.39
594.952	15923.89
595.311	15887.51
595.67	15941.29
596.029	16055.64
596.387	15981.74
596.746	15977
597.104	15869.65
597.463	15893.16
597.822	15950.78
598.18	15886.83
598.538	15852.25
598.897	15861.07
599.255	15767.74
599.613	16064.22
599.972	15894.74
600.33	15896.77
600.688	15749.66
601.046	15956.88
601.404	15853.38
601.762	15927.96
602.12	15931.57
602.478	15900.39
602.836	15886.6
603.194	15785.81
603.552	15854.06
603.91	15861.52
604.268	15925.25
604.625	15876.66
604.983	15900.39
605.341	15800.73
605.698	15964.79
606.056	15935.41
606.413	15888.64
606.771	16000.72
607.128	15922.99
607.485	15842.31
607.843	15881.86
608.2	15946.04
608.557	16005.92
608.914	15969.54
609.272	16076.88
609.629	16007.5
609.986	16085.01
610.343	15994.62
610.7	16186.93
611.057	16084.34
611.414	16045.02
611.771	16039.59
612.127	16206.37
612.484	16132.02
612.841	16196.65
613.198	16181.51
613.554	16075.98
613.911	16181.06
614.267	16179.7
614.624	16179.7
614.98	16146.26
615.337	16228.97
615.693	16169.08
616.05	16188.06
616.406	16317.33
616.762	16181.28
617.118	16182.87
617.475	16189.19
617.831	16246.59
618.187	16263.54
618.543	16289.76
618.899	16331.11
619.255	16309.87
619.611	16366.14
619.967	16382.41
620.323	16407.94
620.678	16386.25
621.034	16283.43
621.39	16381.96
621.746	16358.68
622.101	16517.09
622.457	16362.75
622.812	16398.68
623.168	16445.23
623.523	16347.38
623.879	16454.5
624.234	16382.63
624.589	16411.33
624.945	16334.73
625.3	16376.76
625.655	16393.93
626.01	16381.73
626.365	16396.19
626.72	16386.93
627.075	16412.46
627.43	16414.5
627.785	16296.31
628.14	16312.81
628.495	16390.77
628.85	16320.04
629.205	16312.58
629.559	16435.74
629.914	16230.1
630.269	16340.6
630.623	16255.63
630.978	16235.07
631.332	16357.1
631.687	16271.45
632.041	16197.78
632.396	16192.81
632.75	16205.24
633.104	16191.23
633.459	16101.96
633.813	16121.62
634.167	16040.72
634.521	16106.48
634.875	16158.69
635.229	16060.38
635.583	16010.21
635.937	16130.89
636.291	16063.55
636.645	16015.64
636.999	15915.75
637.352	16101.51
637.706	15888.86
638.06	15981.51
638.413	15965.92
638.767	15885.25
639.121	15965.02
639.474	15748.3
639.828	15755.31
640.181	15773.84
640.534	15800.95
640.888	15775.19
641.241	15592.37
641.594	15754.18
641.947	15772.71
642.301	15761.41
642.654	15773.16
643.007	15748.53
643.36	15734.74
643.713	15663.11
644.066	15771.8
644.419	15629.89
644.771	15629.89
645.124	15466.27
645.477	15432.6
645.83	15345.83
646.182	15299.95
646.535	15264.25
646.888	15194.42
647.24	15140.18
647.593	15219.73
647.945	15189.67
648.298	15047.53
648.65	15060.41
649.002	15038.49
649.355	15198.94
649.707	15129.33
650.059	15195.09
650.411	15388.99
650.763	15410.91
651.115	15571.58
651.467	15506.73
651.819	15540.62
652.171	15356.9
652.523	15451.59
652.875	15366.39
653.227	15400.06
653.578	15482.32
653.93	15462.21
654.282	15445.26
654.633	15411.59
654.985	15441.64
655.337	15533.39
655.688	15459.72
656.039	15528.65
656.391	15377.91
656.742	15443
657.094	15468.08
657.445	15494.52
657.796	15404.13
658.147	15410.91
658.498	15443.22
658.849	15576.1
659.2	15534.29
659.551	15460.85
659.902	15494.75
660.253	15477.57
660.604	15550.57
660.955	15427.18
661.306	15486.61
661.656	15562.54
662.007	15559.83
662.358	15480.06
662.708	15462.43
663.059	15483
663.409	15498.59
663.76	15571.36
664.11	15501.08
664.461	15593.73
664.811	15490.23
665.161	15527.74
665.511	15465.37
665.862	15533.39
666.212	15445.26
666.562	15549.66
666.912	15567.97
667.262	15536.33
667.612	15484.35
667.962	15517.12
668.312	15601.19
668.662	15612.94
669.011	15508.76
669.361	15481.41
669.711	15550.11
670.06	15485.03
670.41	15475.54
670.76	15469.89
671.109	15533.62
671.459	15540.85
671.808	15475.31
672.157	15461.53
672.507	15341.31
672.856	15407.07
673.205	15474.86
673.554	15449.33
673.904	15380.17
674.253	15428.08
674.602	15346.73
674.951	15163.68
675.3	15057.47
675.649	15263.57
675.998	15317.8
676.346	15308.76
676.695	15267.64
677.044	15219.5
677.393	15233.51
677.741	15276.67
678.09	15199.61
678.438	15244.59
678.787	15150.12
679.135	15116.23
679.484	15103.35
679.832	15165.49
680.181	15090.92
680.529	15106.96
680.877	15090.01
681.225	15124.14
681.573	15102.22
681.922	15021.31
682.27	14916.68
682.618	14986.74
682.966	14957.36
683.314	14885.05
683.661	14943.8
684.009	14841.21
684.357	14786.97
684.705	14751.04
685.053	14669.23
685.4	14743.58
685.748	14613.87
686.095	14520.99
686.443	14520.31
686.79	14479.41
687.138	14578.84
687.485	14495.45
687.832	14485.51
688.18	14423.59
688.527	14361.22
688.874	14387.21
689.221	14313.08
689.568	14284.84
689.915	14219.3
690.262	14280.09
690.609	14192.41
690.956	14169.59
691.303	14187.66
691.65	13970.72
691.997	14038.52
692.344	13911.74
692.69	13914
693.037	13893.43
693.383	13742.7
693.73	13817.05
694.077	13716.72
694.423	13716.94
694.769	13761.46
695.116	13648.02
695.462	13537.51
695.808	13518.08
696.155	13493.9
696.501	13415.93
696.847	13417.29
697.193	13403.05
697.539	13350.4
697.885	13243.51
698.231	13234.24
698.577	13161.7
698.923	13195.37
699.269	13134.81
699.614	13006.68
699.96	13040.8
700.306	12978.88
700.651	12870.64
700.997	12768.49
701.342	12832.9
701.688	12785.21
702.033	12689.4
702.379	12663.18
702.724	12712.9
703.069	12691.21
703.415	12559.46
703.76	12515.39
704.105	12452.12
704.45	12549.74
704.795	12392.46
705.14	12367.6
705.485	12342.06
705.83	12323.08
706.175	12338.9
706.52	12269.75
706.865	12199.47
707.209	12166.93
707.554	12052.58
707.899	12114.5
708.243	12027.27
708.588	11979.13
708.932	11947.27
709.277	11828.4
709.621	11903.88
709.966	11774.85
710.31	11839.7
710.654	11745.69
710.998	11728.75
711.342	11767.39
711.687	11676.54
712.031	11660.05
712.375	11644.45
712.719	11665.7
713.063	11624.79
713.407	11660.5
713.75	11467.06
714.094	11516.55
714.438	11451.69
714.782	11420.5
715.125	11426.83
715.469	11426.15
715.812	11402.65
716.156	11310.23
716.499	11320.85
716.843	11353.39
717.186	11321.52
717.53	11357.23
717.873	11327.63
718.216	11258.02
718.559	11177.57
718.902	11161.75
719.246	11198.82
719.589	11159.49
719.932	11163.11
720.275	11160.4
720.617	11094.41
720.96	11049.44
721.303	11036.33
721.646	11106.84
721.989	11120.63
722.331	11087.18
722.674	11079.27
723.016	11011.48
723.359	10989.33
723.701	11043.34
724.044	10962.44
724.386	10935.77
724.729	11042.44
725.071	10993.85
725.413	10966.05
725.755	10987.52
726.097	10972.16
726.439	10876.11
726.782	10951.59
727.124	10948.88
727.465	10891.93
727.807	10889.22
728.149	10899.16
728.491	10865.49
728.833	10895.77
729.175	10874.08
729.516	10855.55
729.858	10824.81
730.199	10825.04
730.541	10824.81
730.882	10854.19
731.224	10814.87
731.565	10797.7
731.906	10820.75
732.248	10790.69
732.589	10796.34
732.93	10819.16
733.271	10797.7
733.612	10727.87
733.953	10877.02
734.294	10756.12
734.635	10762.89
734.976	10759.51
735.317	10793.85
735.658	10754.08
735.999	10827.53
736.339	10775.55
736.68	10772.84
737.021	10754.08
737.361	10749.11
737.702	10852.84
738.042	10763.57
738.383	10782.56
738.723	10886.28
739.063	10814.19
739.404	10924.47
739.744	10888.09
740.084	10883.8
740.424	10933.74
740.764	10928.77
741.104	10946.84
741.444	10890.12
741.784	10896
742.124	11018.71
742.464	11008.09
742.804	10981.19
743.143	11042.21
743.483	11023.68
743.823	11050.8
744.162	11033.62
744.502	11108.2
744.841	11115.88
745.181	11235.88
745.52	11208.31
745.86	11243.56
746.199	11326.27
746.538	11285.14
746.877	11439.26
747.216	11451.01
747.556	11530.11
747.895	11593.61
748.234	11700.5
748.573	11711.12
748.911	11772.59
749.25	11924.45
749.589	11827.5
749.928	11902.53
750.267	12056.87
750.605	12218
750.944	12177.55
751.283	12345.9
751.621	12384.32
751.96	12512.68
752.298	12639.23
752.636	12726.23
752.975	12746.57
753.313	12783.18
753.651	12975.94
753.989	13083.96
754.327	13271.98
754.666	13319.44
755.004	13472.65
755.342	13692.99
755.679	13817.5
756.017	13911.29
