Data from hue_110_FLMS001491_00051.txt Node
Date: Tue Feb 07 17:01:30 GMT 2017
User: dcchb
Spectrometer: FLMS00149
Trigger mode: 0
Integration Time (sec): 2.000000E-2
Scans to average: 10
Electric dark correction enabled: true
Nonlinearity correction enabled: false
Boxcar width: 0
XAxis mode: Wavelengths
Number of Pixels in Spectrum: 2048
>>>>>Begin Spectral Data<<<<<
341.393	-26.6
341.776	-26.6
342.16	-26.6
342.543	-67.27
342.927	-58.68
343.31	-62.3
343.693	-88.74
344.077	-65.24
344.46	-72.7
344.843	-55.07
345.226	-33.6
345.61	-8.97
345.993	-31.57
346.376	-25.92
346.759	33.74
347.142	35.1
347.525	41.65
347.908	69.22
348.291	80.97
348.674	82.55
349.057	100.86
349.44	131.14
349.823	138.37
350.206	161.65
350.588	191.93
350.971	197.35
351.354	219.95
351.737	227.86
352.119	221.08
352.502	250.46
352.884	266.96
353.267	267.63
353.65	280.52
354.032	270.57
354.414	301.31
354.797	280.97
355.179	310.57
355.562	321.87
355.944	323.23
356.326	333.17
356.709	313.28
357.091	323.23
357.473	316.67
357.855	332.94
358.238	339.95
358.62	339.5
359.002	326.39
359.384	332.72
359.766	321.64
360.148	327.29
360.53	348.54
360.912	318.71
361.294	334.98
361.676	337.46
362.057	338.14
362.439	318.48
362.821	330.46
363.203	303.57
363.584	295.2
363.966	324.58
364.348	292.94
364.729	304.47
365.111	300.4
365.493	309.44
365.874	325.94
366.256	311.47
366.637	313.06
367.019	301.08
367.4	296.56
367.781	289.1
368.163	306.96
368.544	304.92
368.925	293.17
369.306	315.99
369.688	300.85
370.069	314.19
370.45	313.06
370.831	288.88
371.212	310.57
371.593	310.12
371.974	298.37
372.355	305.83
372.736	301.08
373.117	301.98
373.498	324.58
373.879	305.6
374.26	299.72
374.641	291.14
375.021	324.36
375.402	283.68
375.783	324.36
376.163	308.54
376.544	324.36
376.925	315.09
377.305	332.94
377.686	344.69
378.066	317.58
378.447	320.06
378.827	339.04
379.208	297.01
379.588	307.18
379.968	310.57
380.349	317.12
380.729	320.51
381.109	328.88
381.489	328.88
381.87	341.76
382.25	318.93
382.63	324.81
383.01	343.34
383.39	321.87
383.77	342.21
384.15	322.32
384.53	338.37
384.91	347.86
385.29	343.11
385.67	353.28
386.049	346.5
386.429	324.13
386.809	347.18
387.189	337.24
387.568	341.76
387.948	330.46
388.328	343.34
388.707	363.9
389.087	343.56
389.466	340.85
389.846	365.03
390.225	365.48
390.605	370.91
390.984	341.53
391.363	372.49
391.743	348.54
392.122	345.37
392.501	353.96
392.881	367.97
393.26	378.37
393.639	357.35
394.018	362.77
394.397	362.77
394.776	355.54
395.155	365.71
395.534	338.14
395.913	365.48
396.292	374.52
396.671	381.08
397.05	377.24
397.429	365.94
397.808	385.6
398.186	377.91
398.565	391.02
398.944	390.57
399.323	379.95
399.701	379.27
400.08	363.45
400.458	387.86
400.837	391.7
401.215	397.57
401.594	386.28
401.972	377.01
402.351	384.69
402.729	409.1
403.107	375.43
403.486	398.25
403.864	400.96
404.242	415.2
404.62	412.72
404.999	398.03
405.377	404.35
405.755	399.83
406.133	391.7
406.511	409.1
406.889	416.78
407.267	399.83
407.645	414.52
408.023	420.17
408.401	414.75
408.779	433.05
409.156	416.78
409.534	422.21
409.912	416.33
410.29	434.86
410.667	438.48
411.045	452.94
411.422	438.48
411.8	439.61
412.178	443.67
412.555	443.67
412.933	452.71
413.31	460.62
413.687	450.45
414.065	451.13
414.442	459.04
414.819	471.02
415.197	463.79
415.574	468.53
415.951	488.42
416.328	489.55
416.705	475.31
417.082	461.3
417.46	480.06
417.837	494.07
418.214	486.61
418.591	495.65
418.967	471.24
419.344	506.95
419.721	498.81
420.098	495.42
420.475	518.93
420.852	501.3
421.228	519.15
421.605	513.05
421.982	525.03
422.358	536.55
422.735	515.31
423.111	521.19
423.488	539.04
423.864	520.06
424.241	516.22
424.617	525.48
424.994	558.93
425.37	530.9
425.746	529.1
426.123	542.43
426.499	561.19
426.875	544.69
427.251	588.53
427.627	557.57
428.003	577.91
428.379	588.08
428.756	556.44
429.132	581.75
429.507	599.38
429.883	599.6
430.259	615.65
430.635	593.5
431.011	624.01
431.387	603.44
431.763	625.14
432.138	614.29
432.514	621.75
432.89	631.24
433.265	655.19
433.641	654.52
434.016	628.08
434.392	653.16
434.767	661.52
435.143	659.94
435.518	664.69
435.894	676.89
436.269	678.92
436.644	680.05
437.02	691.58
437.395	693.39
437.77	711.69
438.145	705.59
438.52	710.79
438.895	713.5
439.271	696.32
439.646	721.63
440.021	734.29
440.395	727.28
440.77	717.34
441.145	730.45
441.52	745.36
441.895	773.38
442.27	776.32
442.645	778.81
443.019	764.34
443.394	777
443.769	781.52
444.143	765.47
444.518	785.36
444.892	770.9
445.267	809.09
445.641	783.1
446.016	795.3
446.39	817
446.764	809.09
447.139	814.74
447.513	817.68
447.887	812.93
448.262	839.14
448.636	817.68
449.01	821.29
449.384	884.57
449.758	845.92
450.132	847.28
450.506	837.56
450.88	850.9
451.254	859.94
451.628	883.21
452.002	890.22
452.376	899.93
452.75	897.67
453.123	913.04
453.497	924.79
453.871	913.72
454.244	918.69
454.618	943.32
454.992	958.69
455.365	960.27
455.739	955.98
456.112	986.26
456.486	988.75
456.859	1014.06
457.232	1000.72
457.606	1022.87
457.979	1030.1
458.352	1049.53
458.725	1073.71
459.099	1056.99
459.472	1066.03
459.845	1096.31
460.218	1119.36
460.591	1129.08
460.964	1101.74
461.337	1141.74
461.71	1152.36
462.083	1162.53
462.456	1173.83
462.829	1194.84
463.201	1210.89
463.574	1214.28
463.947	1262.64
464.32	1266.7
464.692	1301.05
465.065	1282.75
465.438	1304.67
465.81	1338.79
466.183	1341.05
466.555	1373.82
466.928	1381.73
467.3	1404.78
467.672	1410.65
468.045	1471.44
468.417	1434.38
468.789	1473.03
469.161	1489.07
469.534	1518.67
469.906	1544.89
470.278	1563.42
470.65	1616.98
471.022	1655.85
471.394	1667.6
471.766	1694.94
472.138	1748.05
472.51	1767.26
472.882	1814.03
473.253	1813.81
473.625	1858.78
473.997	1937.65
474.369	1983.07
474.74	2000.24
475.112	2022.84
475.484	2105.55
475.855	2141.48
476.227	2183.97
476.598	2254.93
476.97	2280.46
477.341	2358.65
477.713	2376.51
478.084	2440.91
478.455	2513.9
478.827	2573.56
479.198	2674.35
479.569	2719.1
479.94	2807.68
480.311	2861.69
480.682	2985.3
481.053	3074.34
481.424	3166.99
481.795	3215.81
482.166	3310.72
482.537	3367.21
482.908	3497.15
483.279	3561.56
483.65	3676.13
484.021	3825.51
484.391	3860.76
484.762	3992.28
485.133	4052.39
485.503	4151.37
485.874	4308.43
486.244	4356.79
486.615	4526.51
486.985	4646.95
487.356	4768.76
487.726	4861.64
488.097	5041.07
488.467	5089.2
488.837	5241.29
489.207	5420.72
489.578	5484.22
489.948	5655.74
490.318	5777.32
490.688	5903.42
491.058	6005.79
491.428	6156.97
491.798	6234.48
492.168	6481.71
492.538	6536.17
492.908	6687.8
493.278	6812.32
493.648	6977.74
494.017	7053.9
494.387	7209.37
494.757	7323.49
495.126	7386.77
495.496	7542.02
495.866	7649.14
496.235	7785.85
496.605	7919.18
496.974	8022.23
497.344	8172.29
497.713	8311.94
498.082	8376.57
498.452	8513.07
498.821	8629.45
499.19	8701.76
499.559	8813.62
499.928	8986.05
500.298	9025.14
500.667	9158.47
501.036	9183.78
501.405	9345.36
501.774	9371.8
502.143	9523.21
502.512	9586.26
502.88	9765.92
503.249	9721.85
503.618	9808.85
503.987	9879.58
504.356	10025.8
504.724	10073.03
505.093	10134.95
505.462	10210.2
505.83	10309.18
506.199	10412.23
506.567	10520.7
506.936	10571.09
507.304	10704.87
507.672	10598.89
508.041	10803.63
508.409	10868.94
508.777	10892.67
509.145	11054.7
509.514	11131.98
509.882	11137.63
510.25	11128.14
510.618	11275.03
510.986	11270.96
511.354	11289.72
511.722	11420.79
512.09	11517.51
512.458	11476.83
512.826	11559.09
513.193	11637.5
513.561	11627.11
513.929	11724.96
514.297	11772.87
514.664	11821
515.032	11861.45
515.4	11934.67
515.767	12029.81
516.135	12052.64
516.502	11959.3
516.869	12141.45
517.237	12157.49
517.604	12145.51
517.972	12237.71
518.339	12273.65
518.706	12234.78
519.073	12346.64
519.44	12373.08
519.808	12479.29
520.175	12298.96
520.542	12498.05
520.909	12537.37
521.276	12517.71
521.643	12580.98
522.009	12627.31
522.376	12640.19
522.743	12697.36
523.11	12714.99
523.477	12803.58
523.843	12741.66
524.21	12936.91
524.577	12949.79
524.943	12947.3
525.31	13018.26
525.676	13095.55
526.043	13078.82
526.409	13053.51
526.776	13122.44
527.142	13098.71
527.508	13156.56
527.874	13135.77
528.241	13176.67
528.607	13134.64
528.973	13264.35
529.339	13157.01
529.705	13237.69
530.071	13271.81
530.437	13292.15
530.803	13355.65
531.169	13341.87
531.535	13316.78
531.901	13303
532.267	13213.51
532.632	13282.89
532.998	13269.55
533.364	13256.45
533.73	13271.59
534.095	13383.9
534.461	13318.36
534.826	13290.57
535.192	13262.32
535.557	13350.45
535.923	13290.12
536.288	13280.63
536.653	13255.77
537.019	13144.58
537.384	13173.51
537.749	13109.56
538.114	13139.61
538.479	13104.13
538.845	13091.03
539.21	13029.56
539.575	12994.98
539.94	12987.75
540.305	13045.38
540.67	12850.13
541.034	12945.04
541.399	12892.61
541.764	12875.89
542.129	12958.15
542.494	12779.62
542.858	12751.6
543.223	12764.25
543.587	12755.67
543.952	12662.11
544.316	12693.52
544.681	12654.65
545.045	12674.77
545.41	12703.24
545.774	12646.07
546.138	12611.49
546.503	12566.97
546.867	12437.48
547.231	12566.52
547.595	12623.92
547.959	12482
548.324	12396.81
548.688	12382.12
549.052	12368.56
549.416	12327.66
549.779	12281.1
550.143	12242.69
550.507	12269.8
550.871	12239.97
551.235	12218.73
551.599	12253.99
551.962	12192.07
552.326	12173.31
552.689	12114.55
553.053	12117.04
553.417	12101.45
553.78	12249.47
554.143	12018.06
554.507	12041.34
554.87	12109.58
555.234	12108.68
555.597	11985.07
555.96	12019.64
556.323	12010.6
556.686	11941.68
557.05	11982.81
557.413	11933.99
557.776	11953.65
558.139	11956.82
558.502	11930.38
558.865	11845.41
559.228	11910.94
559.59	11896.48
559.953	11955.24
560.316	11971.73
560.679	11901.68
561.041	12069.58
561.404	11920.44
561.767	12006.53
562.129	11895.13
562.492	11983.71
562.854	11941.45
563.217	11939.19
563.579	11972.64
563.941	12065.06
564.304	11964.73
564.666	12087.66
565.028	12082.01
565.39	12036.36
565.753	12091.5
566.115	12101.9
566.477	12069.58
566.839	12091.96
567.201	12189.58
567.563	12167.21
567.925	12143.71
568.287	12195
568.648	12152.97
569.01	12217.83
569.372	12172.86
569.734	12118.85
570.095	12286.08
570.457	12263.48
570.819	12211.05
571.18	12260.99
571.542	12293.53
571.903	12273.19
572.265	12306.19
572.626	12260.99
572.987	12327.43
573.349	12302.12
573.71	12375.34
574.071	12343.02
574.432	12336.47
574.794	12414.43
575.155	12365.17
575.516	12350.71
575.877	12322.46
576.238	12302.8
576.599	12508.22
576.96	12348.9
577.32	12400.87
577.681	12390.71
578.042	12508.44
578.403	12509.57
578.763	12414.43
579.124	12446.3
579.485	12499.18
579.845	12458.05
580.206	12446.07
580.566	12473.19
580.927	12425.73
581.287	12465.05
581.648	12427.09
582.008	12420.08
582.368	12333.53
582.728	12448.1
583.089	12438.84
583.449	12384.38
583.809	12354.55
584.169	12393.64
584.529	12312.52
584.889	12479.29
585.249	12332.18
585.609	12355.68
585.969	12354.77
586.329	12306.19
586.688	12296.7
587.048	12359.07
587.408	12255.34
587.768	12346.86
588.127	12236.59
588.487	12266.87
588.846	12303.48
589.206	12253.08
589.565	12258.51
589.925	12221.67
590.284	12220.54
590.643	12275.91
591.003	12257.38
591.362	12266.41
591.721	12171.28
592.08	12166.76
592.44	12213.76
592.799	12226.42
593.158	12231.39
593.517	12216.7
593.876	12179.19
594.235	12171.05
594.593	12230.71
594.952	12213.08
595.311	12234.78
595.67	12188.9
596.029	12169.02
596.387	12195.91
596.746	12176.25
597.104	12181.45
597.463	12138.06
597.822	12116.14
598.18	12092.18
598.538	12149.36
598.897	12189.35
599.255	12106.42
599.613	12215.34
599.972	12131.73
600.33	12190.03
600.688	12137.38
601.046	12225.96
601.404	12177.83
601.762	12057.15
602.12	12172.86
602.478	12118.4
602.836	12158.62
603.194	12090.83
603.552	12190.03
603.91	12065.29
604.268	12172.63
604.625	12122.92
604.983	12122.69
605.341	12037.49
605.698	12133.76
606.056	12221.22
606.413	12219.64
606.771	12184.38
607.128	12131.73
607.485	12119.3
607.843	12116.36
608.2	12173.99
608.557	12169.69
608.914	12154.33
609.272	12175.8
609.629	12200.43
609.986	12178.28
610.343	12195.91
610.7	12234.33
611.057	12224.83
611.414	12282.69
611.771	12258.73
612.127	12324.49
612.484	12304.83
612.841	12272.06
613.198	12287.88
613.554	12296.02
613.911	12443.81
614.267	12320.88
614.624	12320.42
614.98	12202.91
615.337	12369.69
615.693	12291.72
616.05	12388.9
616.406	12370.37
616.762	12363.81
617.118	12415.34
617.475	12354.77
617.831	12435.68
618.187	12402.46
618.543	12460.99
618.899	12566.75
619.255	12454.66
619.611	12471.83
619.967	12489.23
620.323	12601.55
620.678	12430.93
621.034	12442.46
621.39	12415.56
621.746	12558.16
622.101	12653.98
622.457	12400.87
622.812	12569.46
623.168	12473.19
623.523	12449.01
623.879	12500.08
624.234	12448.56
624.589	12533.07
624.945	12460.31
625.3	12493.3
625.655	12536.46
626.01	12476.13
626.365	12492.62
626.72	12478.61
627.075	12483.81
627.43	12467.31
627.785	12394.32
628.14	12406.3
628.495	12509.12
628.85	12494.66
629.205	12372.17
629.559	12523.13
629.914	12438.39
630.269	12529.46
630.623	12417.6
630.978	12339.86
631.332	12391.16
631.687	12479.29
632.041	12352.29
632.396	12327.66
632.75	12307.77
633.104	12387.77
633.459	12331.5
633.813	12322.68
634.167	12277.26
634.521	12320.88
634.875	12352.97
635.229	12285.62
635.583	12227.55
635.937	12207.21
636.291	12158.39
636.645	12238.17
636.999	12146.64
637.352	12197.94
637.706	12142.12
638.06	12176.7
638.413	12180.99
638.767	12118.85
639.121	12130.15
639.474	12053.99
639.828	12021.45
640.181	12088.34
640.534	12030.49
640.888	12038.17
641.241	12041.34
641.594	12009.92
641.947	12004.27
642.301	11984.39
642.654	11921.79
643.007	12041.34
643.36	11918.4
643.713	11995.69
644.066	12020.09
644.419	11910.27
644.771	11822.81
645.124	11735.81
645.477	11677.5
645.83	11713.21
646.182	11616.49
646.535	11625.98
646.888	11527.23
647.24	11597.73
647.593	11625.53
647.945	11604.29
648.298	11543.5
648.65	11538.98
649.002	11462.59
649.355	11551.86
649.707	11521.35
650.059	11585.08
650.411	11736.49
650.763	11751.4
651.115	11858.52
651.467	11787.33
651.819	11876.14
652.171	11795.24
652.523	11786.43
652.875	11783.94
653.227	11710.27
653.578	11873.2
653.93	11792.08
654.282	11729.25
654.633	11719.54
654.985	11745.75
655.337	11754.56
655.688	11728.58
656.039	11870.27
656.391	11797.27
656.742	11774.68
657.094	11860.55
657.445	11788.91
657.796	11856.71
658.147	11825.75
658.498	11917.27
658.849	11890.15
659.2	11821.23
659.551	11807.9
659.902	11925.86
660.253	11809.7
660.604	11922.69
660.955	11805.18
661.306	11796.14
661.656	11855.35
662.007	11751.85
662.358	11871.62
662.708	11916.59
663.059	11912.75
663.409	11858.06
663.76	11937.84
664.11	11848.35
664.461	11903.71
664.811	11957.27
665.161	11899.87
665.511	11899.42
665.862	11908.68
666.212	11895.13
666.562	11927.67
666.912	11862.13
667.262	11852.19
667.612	11821.91
667.962	11867.78
668.312	11890.61
668.662	11856.71
669.011	11859.87
669.361	11839.08
669.711	11846.76
670.06	11824.62
670.41	11807.22
670.76	11719.76
671.109	11847.67
671.459	11831.85
671.808	11787.33
672.157	11846.76
672.507	11756.82
672.856	11757.73
673.205	11743.49
673.554	11832.08
673.904	11804.05
674.253	11857.84
674.602	11776.71
674.951	11619.43
675.3	11523.16
675.649	11738.07
675.998	11726.09
676.346	11739.65
676.695	11771.51
677.044	11566.09
677.393	11665.98
677.741	11648.35
678.09	11682.93
678.438	11614.45
678.787	11748.24
679.135	11654
679.484	11578.52
679.832	11613.1
680.181	11505.53
680.529	11576.72
680.877	11541.91
681.225	11437.51
681.573	11569.94
681.922	11453.1
682.27	11356.16
682.618	11490.39
682.966	11411.75
683.314	11484.06
683.661	11412.43
684.009	11321.13
684.357	11345.54
684.705	11271.86
685.053	11339.21
685.4	11339.89
685.748	11244.97
686.095	11237.52
686.443	11219.44
686.79	11158.42
687.138	11178.99
687.485	11208.14
687.832	11082.72
688.18	11132.21
688.527	10981.93
688.874	10974.25
689.221	10960.01
689.568	10981.93
689.915	10912.55
690.262	10883.17
690.609	10890.18
690.956	10842.5
691.303	10832.33
691.65	10729.73
691.997	10755.04
692.344	10680.69
692.69	10737.64
693.037	10645.67
693.383	10533.13
693.73	10627.81
694.077	10545.78
694.423	10507.82
694.769	10427.82
695.116	10416.75
695.462	10439.57
695.808	10329.29
696.155	10397.54
696.501	10252.23
696.847	10218.78
697.193	10144.21
697.539	10182.4
697.885	10142.4
698.231	10083.2
698.577	10095.4
698.923	10022.41
699.269	10089.97
699.614	9937.44
699.96	9941.5
700.306	9917.1
700.651	9869.87
700.997	9894.05
701.342	9775.86
701.688	9768.63
702.033	9724.79
702.379	9748.06
702.724	9658.12
703.069	9721.62
703.415	9596.88
703.76	9528.86
704.105	9553.27
704.45	9579.48
704.795	9481.86
705.14	9457.9
705.485	9462.19
705.83	9360.05
706.175	9400.5
706.52	9413.61
706.865	9300.39
707.209	9343.55
707.554	9233.05
707.899	9250
708.243	9258.13
708.588	9223.56
708.932	9147.85
709.277	9097.01
709.621	9136.55
709.966	9089.55
710.31	9066.5
710.654	9020.62
710.998	9024.92
711.342	9014.75
711.687	9038.48
712.031	8931.36
712.375	8897.69
712.719	8944.69
713.063	8921.87
713.407	8948.99
713.75	8866.96
714.094	8845.04
714.438	8791.93
714.782	8845.26
715.125	8771.82
715.469	8828.31
715.812	8724.14
716.156	8762.1
716.499	8732.27
716.843	8728.88
717.186	8704.02
717.53	8714.64
717.873	8699.5
718.216	8647.07
718.559	8678.94
718.902	8616.34
719.246	8639.84
719.589	8635.1
719.932	8607.98
720.275	8595.55
720.617	8541.99
720.96	8569.79
721.303	8597.13
721.646	8531.6
721.989	8486.18
722.331	8541.54
722.674	8482.79
723.016	8544.93
723.359	8470.13
723.701	8538.6
724.044	8486.18
724.386	8491.6
724.729	8460.87
725.071	8466.51
725.413	8473.75
725.755	8486.85
726.097	8424.93
726.439	8351.72
726.782	8317.37
727.124	8452.96
727.465	8341.55
727.807	8362.56
728.149	8390.13
728.491	8292.28
728.833	8377.25
729.175	8324.6
729.516	8326.86
729.858	8329.12
730.199	8367.53
730.541	8332.28
730.882	8265.39
731.224	8281.43
731.565	8291.15
731.906	8290.93
732.248	8276.24
732.589	8281.43
732.93	8320.3
733.271	8296.35
733.612	8325.95
733.953	8324.6
734.294	8352.17
734.635	8274.43
734.976	8412.05
735.317	8308.33
735.658	8263.58
735.999	8356.24
736.339	8345.61
736.68	8286.18
737.021	8325.28
737.361	8346.07
737.702	8354.43
738.042	8348.55
738.383	8281.66
738.723	8343.35
739.063	8361.66
739.404	8403.01
739.744	8391.71
740.084	8393.52
740.424	8456.57
740.764	8399.85
741.104	8428.78
741.444	8387.65
741.784	8451.37
742.124	8501.32
742.464	8484.82
742.804	8481.88
743.143	8488.21
743.483	8550.35
743.823	8466.29
744.162	8540.19
744.502	8581.99
744.841	8668.54
745.181	8628.77
745.52	8646.62
745.86	8698.15
746.199	8693.18
746.538	8795.55
746.877	8894.75
747.216	8872.38
747.556	8863.57
747.895	8986.95
748.234	8971.36
748.573	9007.97
748.911	9095.42
749.25	9118.7
749.589	9148.76
749.928	9286.38
750.267	9427.17
750.605	9459.48
750.944	9479.37
751.283	9506.71
751.621	9596.43
751.96	9664.68
752.298	9803.2
752.636	9888.85
752.975	10047.49
753.313	9987.6
753.651	10189.18
753.989	10305.79
754.327	10386.46
754.666	10421.94
755.004	10538.55
755.342	10737.64
755.679	10811.31
756.017	10908.71
756.355	11076.16
756.693	11204.97
757.031	11280.23
757.368	11424.4
757.706	11608.8
758.044	11670.72
758.381	11835.01
758.719	11962.47
759.056	12106.64
759.394	12348.45
