Data from hue_36_FLMS001491_00090.txt Node
Date: Tue Feb 07 17:30:26 GMT 2017
User: dcchb
Spectrometer: FLMS00149
Trigger mode: 0
Integration Time (sec): 2.000000E-2
Scans to average: 10
Electric dark correction enabled: true
Nonlinearity correction enabled: false
Boxcar width: 0
XAxis mode: Wavelengths
Number of Pixels in Spectrum: 2048
>>>>>Begin Spectral Data<<<<<
341.393	-3.11
341.776	-3.11
342.16	-3.11
342.543	-64.35
342.927	-66.16
343.31	-44.91
343.693	-74.74
344.077	-69.77
344.46	-55.31
344.843	-62.99
345.226	-56.67
345.61	-29.1
345.993	-27.06
346.376	-4.46
346.759	25.82
347.142	36.21
347.525	44.12
347.908	63.33
348.291	61.98
348.674	80.73
349.057	112.82
349.44	157.34
349.823	122.77
350.206	182.65
350.588	201.63
350.971	236.89
351.354	230.56
351.737	249.99
352.119	252.48
352.502	259.71
352.884	276.43
353.267	280.95
353.65	282.31
354.032	275.53
354.414	324.57
354.797	331.8
355.179	320.95
355.562	330.67
355.944	326.83
356.326	351.01
356.709	327.96
357.091	337.45
357.473	353.49
357.855	342.42
358.238	344.23
358.62	329.99
359.002	338.8
359.384	338.13
359.766	340.61
360.148	351.46
360.53	349.88
360.912	339.03
361.294	329.99
361.676	346.94
362.057	337.9
362.439	343.32
362.821	331.8
363.203	336.77
363.584	332.7
363.966	330.9
364.348	316.66
364.729	331.35
365.111	306.26
365.493	333.16
365.874	326.83
366.256	310.33
366.637	323.89
367.019	325.25
367.4	311.69
367.781	306.04
368.163	310.1
368.544	306.26
368.925	294.96
369.306	324.57
369.688	329.09
370.069	313.27
370.45	305.59
370.831	307.39
371.212	311.46
371.593	313.27
371.974	301.52
372.355	322.53
372.736	321.4
373.117	318.92
373.498	312.36
373.879	307.85
374.26	316.21
374.641	295.42
375.021	307.85
375.402	321.4
375.783	327.96
376.163	337.67
376.544	320.5
376.925	307.17
377.305	319.6
377.686	324.79
378.066	309.65
378.447	327.73
378.827	339.26
379.208	329.31
379.588	325.7
379.968	326.6
380.349	340.61
380.729	342.19
381.109	367.73
381.489	341.74
381.87	332.25
382.25	338.35
382.63	362.31
383.01	351.69
383.39	352.36
383.77	349.88
384.15	343.78
384.53	321.18
384.91	336.54
385.29	345.58
385.67	364.57
386.049	347.17
386.429	352.59
386.809	352.82
387.189	353.72
387.568	357.56
387.948	350.33
388.328	374.06
388.707	358.24
389.087	338.58
389.466	359.6
389.846	360.27
390.225	369.99
390.605	371.8
390.984	358.92
391.363	359.14
391.743	346.04
392.122	358.01
392.501	348.97
392.881	381.29
393.26	369.31
393.639	379.48
394.018	367.28
394.397	372.93
394.776	386.94
395.155	372.25
395.534	382.42
395.913	368.18
396.292	377
396.671	373.61
397.05	382.87
397.429	385.81
397.808	378.58
398.186	388.75
398.565	362.98
398.944	371.35
399.323	393.94
399.701	385.81
400.08	382.65
400.458	392.14
400.837	396.88
401.215	397.56
401.594	403.44
401.972	389.2
402.351	395.75
402.729	404.34
403.107	386.04
403.486	396.66
403.864	407.96
404.242	382.87
404.62	396.43
404.999	406.37
405.377	413.6
405.755	423.55
406.133	401.18
406.511	402.98
406.889	407.73
407.267	410.67
407.645	407.28
408.023	417.67
408.401	454.51
408.779	425.13
409.156	428.07
409.534	429.65
409.912	432.36
410.29	451.34
410.667	459.93
411.045	434.62
411.422	421.51
411.8	439.59
412.178	446.82
412.555	462.64
412.933	452.93
413.31	444.34
413.687	457.22
414.065	469.87
414.442	467.84
414.819	472.36
415.197	474.85
415.574	454.51
415.951	467.39
416.328	483.89
416.705	519.59
417.082	497.67
417.46	472.13
417.837	482.08
418.214	504.68
418.591	496.31
418.967	497.44
419.344	498.8
419.721	487.05
420.098	496.99
420.475	494.28
420.852	482.08
421.228	496.77
421.605	508.07
421.982	508.74
422.358	512.59
422.735	519.59
423.111	513.49
423.488	521.4
423.864	527.95
424.241	527.27
424.617	526.82
424.994	545.35
425.37	529.53
425.746	549.87
426.123	546.26
426.499	550.1
426.875	537.44
427.251	553.04
427.627	567.5
428.003	555.97
428.379	578.35
428.756	596.88
429.132	569.76
429.507	584.45
429.883	608.4
430.259	599.59
430.635	591.91
431.011	594.84
431.387	597.55
431.763	600.27
432.138	602.53
432.514	603.43
432.89	615.41
433.265	616.09
433.641	629.87
434.016	618.57
434.392	649.76
434.767	639.59
435.143	618.35
435.518	640.27
435.894	649.08
436.269	635.29
436.644	653.37
437.02	654.28
437.395	686.14
437.77	682.07
438.145	683.88
438.52	654.73
438.895	683.88
439.271	666.93
439.646	711
440.021	705.57
440.395	689.98
440.77	687.27
441.145	703.31
441.52	718.46
441.895	700.15
442.27	719.81
442.645	713.71
443.019	711
443.394	724.11
443.769	723.43
444.143	716.2
444.518	723.65
444.892	718.91
445.267	750.77
445.641	740.38
446.016	734.95
446.39	743.99
446.764	758.91
447.139	760.04
447.513	765.23
447.887	751.68
448.262	779.02
448.636	767.72
449.01	764.33
449.384	781.73
449.758	803.88
450.132	814.95
450.506	803.2
450.88	789.19
451.254	807.49
451.628	805.91
452.002	811.33
452.376	823.54
452.75	820.15
453.123	819.24
453.497	828.06
453.871	839.13
454.244	829.41
454.618	890.65
454.992	880.71
455.365	872.35
455.739	874.38
456.112	880.26
456.486	901.95
456.859	903.54
457.232	902.41
457.606	918.22
457.979	932.69
458.352	943.08
458.725	939.69
459.099	981.73
459.472	980.82
459.845	988.28
460.218	975.17
460.591	995.74
460.964	1011.1
461.337	1022.85
461.71	1011.33
462.083	1042.51
462.456	1045.9
462.829	1064.89
463.201	1074.15
463.574	1082.29
463.947	1099.01
464.32	1115.28
464.692	1107.82
465.065	1133.59
465.438	1159.12
465.81	1160.03
466.183	1157.09
466.555	1207.48
466.928	1206.35
467.3	1190.99
467.672	1244.77
468.045	1252
468.417	1232.11
468.789	1292.45
469.161	1277.76
469.534	1300.36
469.906	1318.44
470.278	1351.43
470.65	1379.68
471.022	1382.17
471.394	1420.36
471.766	1444.99
472.138	1493.35
472.51	1490.86
472.882	1531.32
473.253	1537.19
473.625	1554.59
473.997	1590.07
474.369	1607.92
474.74	1638.21
475.112	1692.67
475.484	1717.3
475.855	1760.01
476.227	1771.99
476.598	1846.56
476.97	1850.86
477.341	1906.67
477.713	1930.63
478.084	1972.89
478.455	2030.06
478.827	2064.63
479.198	2137.18
479.569	2146.44
479.94	2282.93
480.311	2266.89
480.682	2345.53
481.053	2425.98
481.424	2482.93
481.795	2541.68
482.166	2590.04
482.537	2677.05
482.908	2741
483.279	2794.33
483.65	2895.57
484.021	2941.9
484.391	3034.1
484.762	3067.77
485.133	3139.63
485.503	3203.36
485.874	3325.84
486.244	3361.1
486.615	3480.42
486.985	3545.73
487.356	3649.68
487.726	3673.63
488.097	3792.73
488.467	3861.42
488.837	4004.47
489.207	4088.54
489.578	4146.61
489.948	4216.67
490.318	4347.74
490.688	4405.36
491.058	4531.69
491.428	4629.77
491.798	4736.66
492.168	4839.25
492.538	4893.49
492.908	5012.58
493.278	5095.52
493.648	5118.11
494.017	5254.83
494.387	5349.29
494.757	5422.51
495.126	5514.49
495.496	5592.68
495.866	5644.65
496.235	5751.32
496.605	5826.8
496.974	5904.76
497.344	6010.29
497.713	6093.68
498.082	6146.79
498.452	6283.28
498.821	6360.57
499.19	6365.76
499.559	6487.34
499.928	6537.06
500.298	6637.17
500.667	6731.63
501.036	6752.42
501.405	6906.77
501.774	6893.21
502.143	6941.57
502.512	7028.57
502.88	7137.95
503.249	7202.58
503.618	7273.09
503.987	7276.7
504.356	7407.09
504.724	7528.22
505.093	7531.61
505.462	7590.14
505.83	7688.44
506.199	7715.56
506.567	7863.13
506.936	7880.53
507.304	7963.24
507.672	8018.38
508.041	8061.31
508.409	8131.37
508.777	8249.33
509.145	8292.72
509.514	8332.94
509.882	8416.11
510.25	8485.26
510.618	8532.71
510.986	8567.06
511.354	8605.48
511.722	8735.42
512.09	8775.64
512.458	8798.92
512.826	8907.39
513.193	8924.79
513.561	8915.3
513.929	9087.28
514.297	9104.68
514.664	9177.89
515.032	9250.21
515.4	9340.6
515.767	9358.91
516.135	9515.06
516.502	9381.73
516.869	9530.43
517.237	9642.97
517.604	9588.73
517.972	9653.81
518.339	9751.44
518.706	9779.46
519.073	9840.02
519.44	9871.66
519.808	10025.56
520.175	9994.82
520.542	10156.4
520.909	10101.03
521.276	10170.41
521.643	10262.84
522.009	10320.92
522.376	10382.83
522.743	10401.82
523.11	10561.13
523.477	10648.59
523.843	10698.98
524.21	10771.52
524.577	10884.06
524.943	10804.29
525.31	10937.85
525.676	11054.91
526.043	11146.2
526.409	11152.53
526.776	11185.07
527.142	11307.1
527.508	11269.59
527.874	11437.95
528.241	11523.37
528.607	11516.36
528.973	11613.54
529.339	11692.86
529.705	11732.18
530.071	11803.59
530.437	11923.13
530.803	11977.59
531.169	12046.75
531.535	12013.07
531.901	12061.66
532.267	12136.69
532.632	12198.83
532.998	12277.47
533.364	12296
533.73	12309.56
534.095	12495.55
534.461	12534.64
534.826	12488.54
535.192	12663.45
535.557	12752.94
535.923	12688.99
536.288	12826.84
536.653	12773.28
537.019	12795.2
537.384	12862.77
537.749	12945.25
538.114	12961.07
538.479	13018.02
538.845	13098.24
539.21	13150.67
539.575	13166.04
539.94	13227.05
540.305	13328.29
540.67	13284.9
541.034	13353.38
541.399	13443.77
541.764	13538.01
542.129	13550.89
542.494	13548.85
542.858	13662.75
543.223	13687.38
543.587	13755.85
543.952	13737.1
544.316	13837.88
544.681	13891.89
545.045	13972.8
545.41	14110.42
545.774	14003.76
546.138	14089.86
546.503	14199.91
546.867	14115.84
547.231	14316.97
547.595	14305.67
547.959	14443.74
548.324	14370.53
548.688	14436.06
549.052	14588.15
549.416	14500.01
549.779	14560.8
550.143	14631.76
550.507	14684.42
550.871	14744.75
551.235	14720.35
551.599	14838.31
551.962	14980.45
552.326	14981.13
552.689	15074.69
553.053	14942.04
553.417	15143.39
553.78	15246.66
554.143	15228.81
554.507	15285.76
554.87	15317.85
555.234	15502.02
555.597	15335.92
555.96	15467.22
556.323	15572.98
556.686	15535.02
557.05	15616.37
557.413	15648.46
557.776	15669.93
558.139	15773.65
558.502	15837.61
558.865	16001.67
559.228	16017.04
559.59	15996.47
559.953	16135.68
560.316	16191.5
560.679	16185.17
561.041	16309.91
561.404	16325.28
561.767	16465.16
562.129	16405.5
562.492	16676.45
562.854	16572.73
563.217	16549.23
563.579	16600.52
563.941	16809.11
564.304	16791.71
564.666	16995.32
565.028	16953.51
565.39	17087.29
565.753	17057.69
566.115	17186.27
566.477	17214.52
566.839	17312.37
567.201	17481.18
567.563	17437.34
567.925	17487.96
568.287	17534.28
568.648	17564.34
569.01	17652.47
569.372	17847.95
569.734	17784.9
570.095	17866.25
570.457	18010.66
570.819	18103.76
571.18	18067.6
571.542	18153.93
571.903	18261.5
572.265	18333.13
572.626	18325
572.987	18419.46
573.349	18478.89
573.71	18563.41
574.071	18702.16
574.432	18836.62
574.794	18934.25
575.155	18994.81
575.516	18960.24
575.877	19133.56
576.238	19232.09
576.599	19333.11
576.96	19383.28
577.32	19489.94
577.681	19644.06
578.042	19656.26
578.403	19796.37
578.763	19940.32
579.124	20216.47
579.485	20231.61
579.845	20464.38
580.206	20549.12
580.566	20642.23
580.927	20829.79
581.287	20976.23
581.648	21083.8
582.008	21278.59
582.368	21408.31
582.728	21514.97
583.089	21748.64
583.449	21917.22
583.809	22078.35
584.169	22280.83
584.529	22340.49
584.889	22815.28
585.249	22770.53
585.609	22811.43
585.969	23214.59
586.329	23338.88
586.688	23587.23
587.048	23817.28
587.408	23932.76
587.768	24108.35
588.127	24241.9
588.487	24506.53
588.846	24993.3
589.206	24888.67
589.565	25037.82
589.925	25404.81
590.284	25536.33
590.643	25850
591.003	26099.03
591.362	26278.91
591.721	26595.97
592.08	26619.92
592.44	26930.87
592.799	27206.12
593.158	27316.85
593.517	27435.04
593.876	27890.4
594.235	27954.12
594.593	28224.85
594.952	28595.46
595.311	28627.33
595.67	28842.01
596.029	29235.9
596.387	29499.39
596.746	29670.46
597.104	29795.21
597.463	29918.82
597.822	30284.91
598.18	30414.4
598.538	30589.76
598.897	30908.4
599.255	30801.73
599.613	31473.58
599.972	31418.89
600.33	31897.52
600.688	31898.2
601.046	32187.46
601.404	32297.96
601.762	32403.95
602.12	32738.86
602.478	32935.24
602.836	33011.84
603.194	33077.15
603.552	33248.9
603.91	33303.81
604.268	33646.63
604.625	33718.72
604.983	34067.41
605.341	33994.42
605.698	34301.98
606.056	34448.19
606.413	34476.89
606.771	34706.94
607.128	35054.73
607.485	34860.16
607.843	35076.65
608.2	35422.4
608.557	35638.89
608.914	35503.76
609.272	35887.25
609.629	35912.56
609.986	36210.4
610.343	36129.95
610.7	36699.88
611.057	36517.51
611.414	36644.29
611.771	36783.95
612.127	37038.86
612.484	37095.58
612.841	37298.51
613.198	37209.47
613.554	37360.43
613.911	37565.62
614.267	37776.24
614.624	37793.19
614.98	37989.79
615.337	38061.65
615.693	38141.65
616.05	38220.52
616.406	38533.51
616.762	38344.58
617.118	38425.71
617.475	38598.82
617.831	38730.79
618.187	38704.8
618.543	38848.07
618.899	39189.08
619.255	39096.66
619.611	39131.46
619.967	39384.78
620.323	39461.62
620.678	39343.2
621.034	39360.38
621.39	39501.16
621.746	39327.16
622.101	39844.66
622.457	39535.29
622.812	39810.08
623.168	39932.11
623.523	39887.6
623.879	40001.26
624.234	39888.5
624.589	40128.94
624.945	40121.71
625.3	40228.15
625.655	40254.37
626.01	40379.56
626.365	40390.86
626.72	40421.37
627.075	40311.09
627.43	40323.74
627.785	40430.86
628.14	40430.63
628.495	40624.07
628.85	40420.46
629.205	40365.1
629.559	40609.16
629.914	40484.42
630.269	40648.03
630.623	40553.57
630.978	40388.15
631.332	40626.78
631.687	40703.39
632.041	40552.66
632.396	40711.53
632.75	40395.38
633.104	40591.53
633.459	40337.98
633.813	40351.09
634.167	40506.79
634.521	40475.38
634.875	40585.2
635.229	40554.02
635.583	40524.87
635.937	40449.61
636.291	40545.88
636.645	40416.39
636.999	40497.3
637.352	40417.3
637.706	40312.67
638.06	40429.95
638.413	40430.86
638.767	40221.6
639.121	40349.5
639.474	40177.53
639.828	40390.18
640.181	40372.78
640.534	40227.25
640.888	40232.9
641.241	40016.63
641.594	40257.76
641.947	40221.82
642.301	40072
642.654	40214.37
643.007	40347.02
643.36	40126.01
643.713	40145.22
644.066	40191.77
644.419	39939.57
644.771	39737.32
645.124	39342.3
645.477	39290.77
645.83	39055.07
646.182	38930.78
646.535	38917.9
646.888	39081.74
647.24	38798.13
647.593	39169.42
647.945	39032.25
648.298	38842.65
648.65	38794.74
649.002	38777.12
649.355	38888.53
649.707	38770.56
650.059	38882.2
650.411	39370.09
650.763	39402.64
651.115	39831.78
651.467	39519.7
651.819	39713.36
652.171	39403.77
652.523	39429.98
652.875	39535.29
653.227	39345.91
653.578	39615.74
653.93	39499.58
654.282	39345.69
654.633	39159.03
654.985	39295.29
655.337	39352.69
655.688	39407.83
656.039	39599.02
656.391	39223.21
656.742	39309.31
657.094	39340.94
657.445	39430.88
657.796	39296.2
658.147	39228.4
658.498	39218.91
658.849	39347.5
659.2	39198.8
659.551	39271.79
659.902	39359.7
660.253	39278.57
660.604	39214.17
660.955	39028.41
661.306	39250.32
661.656	39149.08
662.007	39195.41
662.358	39204.45
662.708	39182.53
663.059	39024.57
663.409	38977.56
663.76	39092.59
664.11	39220.72
664.461	39316.76
664.811	39060.05
665.161	39098.69
665.511	39054.62
665.862	39016.21
666.212	39167.16
666.562	39175.07
666.912	39019.14
667.262	38922.65
667.612	39151.34
667.962	39059.37
668.312	39051.23
668.662	39201.96
669.011	39175.52
669.361	39046.49
669.711	38992.93
670.06	38959.94
670.41	38749.55
670.76	38862.54
671.109	39076.32
671.459	38949.31
671.808	38750
672.157	39021.86
672.507	38641.07
672.856	38675.88
673.205	38785.25
673.554	38917.68
673.904	38851.92
674.253	38982.99
674.602	38871.8
674.951	38224.81
675.3	38096.23
675.649	38660.06
675.998	38627.29
676.346	38761.75
676.695	38709.77
677.044	38427.97
677.393	38525.15
677.741	38762.2
678.09	38604.92
678.438	38495.32
678.787	38558.59
679.135	38528.53
679.484	38180.97
679.832	38521.08
680.181	38194.08
680.529	38395.21
680.877	38248.99
681.225	38131.71
681.573	38370.12
681.922	37895.11
682.27	38001.32
682.618	38075.44
682.966	37942.34
683.314	37989.57
683.661	37825.5
684.009	37610.82
684.357	37629.58
684.705	37651.27
685.053	37651.04
685.4	37561.78
685.748	37347.78
686.095	37395.91
686.443	37387.1
686.79	37111.62
687.138	37391.62
687.485	37292.41
687.832	37202.47
688.18	37178.97
688.527	37010.83
688.874	36922.7
689.221	36853.78
689.568	36810.16
689.915	36735.81
690.262	36801.12
690.609	36639.09
690.956	36567
691.303	36548.47
691.65	36217.86
691.997	36388.25
692.344	36144.64
692.69	36011.99
693.037	36077.53
693.383	35906.46
693.73	35942.61
694.077	35696.29
694.423	35703.07
694.769	35678.21
695.116	35601.83
695.462	35519.35
695.808	35402.06
696.155	35530.65
696.501	35216.08
696.847	35209.98
697.193	35010.44
697.539	35111
697.885	34793.72
698.231	34847.5
698.577	34808.18
698.923	34662.42
699.269	34577.9
699.614	34506.27
699.96	34316.44
700.306	34397.34
700.651	34137.92
700.997	33984.93
701.342	34141.53
701.688	33873.97
702.033	33985.38
702.379	33890.01
702.724	33775.67
703.069	33773.18
703.415	33438.95
703.76	33377.26
704.105	33348.56
704.45	33489.12
704.795	33218.84
705.14	33215
705.485	33088.68
705.83	33016.14
706.175	33101.78
706.52	32922.58
706.865	32787.89
707.209	32800.32
707.554	32735.01
707.899	32729.14
708.243	32512.87
708.588	32478.3
708.932	32352.43
709.277	32303.16
709.621	32321.24
709.966	32132.09
710.31	32192.2
710.654	31839.22
710.998	32013.9
711.342	32083.73
711.687	31908.37
712.031	31702.5
712.375	31597.42
712.719	31633.58
713.063	31604.88
713.407	31654.82
713.75	31527.82
714.094	31419.34
714.438	31297.99
714.782	31490.53
715.125	31294.37
715.469	31124.89
715.812	31149.29
716.156	30999.24
716.499	30992.24
716.843	31066.58
717.186	30842.64
717.53	30976.87
717.873	30860.71
718.216	30933.48
718.559	30648.74
718.902	30492.14
719.246	30566.26
719.589	30465.47
719.932	30281.97
720.275	30365.13
720.617	30367.39
720.96	30313.16
721.303	30288.3
721.646	30289.43
721.989	29994.3
722.331	30164.24
722.674	30095.08
723.016	29982.32
723.359	29885.6
723.701	30062.77
724.044	29847.41
724.386	29647.86
724.729	29775.09
725.071	29726.96
725.413	29663.91
725.755	29759.95
726.097	29496
726.439	29407.19
726.782	29477.7
727.124	29631.82
727.465	29200.42
727.807	29378.04
728.149	29323.35
728.491	29298.5
728.833	29245.16
729.175	29173.07
729.516	29217.37
729.858	29073.19
730.199	29113.64
730.541	29061.89
730.882	28991.84
731.224	29161.32
731.565	28756.36
731.906	28891.27
732.248	28917.26
732.589	28735.57
732.93	28700.32
733.271	28754.1
733.612	28592.53
733.953	28795.46
734.294	28628.91
734.635	28493.32
734.976	28505.07
735.317	28355.02
735.658	28364.96
735.999	28301.01
736.339	28338.97
736.68	28373.55
737.021	28283.61
737.361	28230.27
737.702	28295.81
738.042	28107.57
738.383	28054.23
738.723	28211.29
739.063	28041.58
739.404	28052.65
739.744	27950.73
740.084	27825.09
740.424	27891.3
740.764	27863.96
741.104	27931.98
741.444	27724.53
741.784	27661.93
742.124	27767.46
742.464	27761.59
742.804	27661.48
743.143	27628.48
743.483	27553.23
743.823	27419.9
744.162	27422.84
744.502	27379.22
744.841	27383.29
745.181	27390.3
745.52	27400.92
745.86	27203.41
746.199	27221.26
746.538	27332.45
746.877	27185.33
747.216	27194.37
747.556	27033.24
747.895	27067.14
748.234	26948.73
748.573	26897.43
748.911	26927.48
749.25	26848.84
749.589	26844.77
749.928	26919.35
750.267	26871.44
750.605	26720.71
750.944	26689.75
751.283	26542.18
751.621	26677.1
751.96	26473.71
752.298	26498.57
752.636	26382.87
752.975	26313.71
753.313	26221.97
753.651	26329.99
753.989	26220.38
754.327	26161.85
754.666	26169.76
755.004	26056.09
755.342	26081.18
755.679	26114.62
756.017	25923.89
756.355	25957.11
756.693	25786.27
757.031	25949.2
757.368	25737.46
757.706	25712.15
758.044	25673.96
