Data from hue_300_FLMS001491_00093.txt Node
Date: Tue Feb 07 15:51:27 GMT 2017
User: dcchb
Spectrometer: FLMS00149
Trigger mode: 0
Integration Time (sec): 2.000000E-2
Scans to average: 10
Electric dark correction enabled: true
Nonlinearity correction enabled: false
Boxcar width: 0
XAxis mode: Wavelengths
Number of Pixels in Spectrum: 2048
>>>>>Begin Spectral Data<<<<<
341.393	-30.61
341.776	-30.61
342.16	-30.61
342.543	-64.5
342.927	-62.02
343.31	-81.23
343.693	-79.64
344.077	-63.37
344.46	-45.3
344.843	-51.85
345.226	-32.87
345.61	-35.35
345.993	-16.6
346.376	-7.33
346.759	17.3
347.142	19.34
347.525	25.89
347.908	64.08
348.291	73.57
348.674	101.37
349.057	111.99
349.44	110.63
349.823	138.88
350.206	143.85
350.588	169.39
350.971	196.73
351.354	200.12
351.737	229.95
352.119	237.63
352.502	241.93
352.884	253
353.267	283.28
353.65	290.06
354.032	278.09
354.414	288.48
354.797	290.51
355.179	289.61
355.562	290.97
355.944	326.67
356.326	320.34
356.709	311.98
357.091	321.47
357.473	330.97
357.855	330.97
358.238	325.99
358.62	309.05
359.002	351.3
359.384	336.84
359.766	320.34
360.148	331.87
360.53	329.38
360.912	336.62
361.294	320.12
361.676	321.47
362.057	320.34
362.439	327.12
362.821	319.44
363.203	327.35
363.584	318.54
363.966	308.14
364.348	309.27
364.729	328.71
365.111	306.79
365.493	295.94
365.874	307.69
366.256	326.9
366.637	315.15
367.019	290.06
367.4	293.9
367.781	311.98
368.163	317.86
368.544	297.07
368.925	295.49
369.306	300.23
369.688	309.72
370.069	290.51
370.45	304.75
370.831	304.07
371.212	323.06
371.593	310.85
371.974	294.36
372.355	306.56
372.736	298.88
373.117	295.49
373.498	292.1
373.879	304.98
374.26	305.88
374.641	305.88
375.021	308.14
375.402	286.22
375.783	284.41
376.163	300.23
376.544	319.89
376.925	299.78
377.305	327.58
377.686	324.64
378.066	302.94
378.447	307.01
378.827	330.06
379.208	312.21
379.588	323.28
379.968	330.74
380.349	314.02
380.729	318.99
381.109	325.32
381.489	329.84
381.87	329.61
382.25	338.88
382.63	320.12
383.01	368.25
383.39	306.56
383.77	334.81
384.15	328.93
384.53	328.03
384.91	344.75
385.29	325.99
385.67	343.85
386.049	319.89
386.429	313.79
386.809	336.16
387.189	343.17
387.568	344.75
387.948	330.51
388.328	339.78
388.707	336.39
389.087	350.17
389.466	339.55
389.846	363.96
390.225	344.75
390.605	362.6
390.984	349.72
391.363	357.41
391.743	344.3
392.122	349.27
392.501	350.85
392.881	383.62
393.26	355.82
393.639	377.29
394.018	341.81
394.397	352.66
394.776	371.64
395.155	367.12
395.534	384.52
395.913	364.19
396.292	378.2
396.671	375.03
397.05	375.94
397.429	375.48
397.808	384.98
398.186	385.65
398.565	384.3
398.944	397.86
399.323	368.7
399.701	405.54
400.08	375.03
400.458	386.56
400.837	384.07
401.215	405.54
401.594	395.82
401.972	419.78
402.351	392.21
402.729	412.32
403.107	408.48
403.486	422.71
403.864	422.49
404.242	426.1
404.62	435.6
404.999	422.26
405.377	420
405.755	452.09
406.133	438.53
406.511	453.22
406.889	445.99
407.267	447.8
407.645	432.88
408.023	466.56
408.401	467.69
408.779	471.3
409.156	490.74
409.534	477.63
409.912	476.72
410.29	494.13
410.667	519.66
411.045	492.54
411.422	523.05
411.8	510.62
412.178	506.55
412.555	547.46
412.933	524.63
413.31	525.99
413.687	552.2
414.065	570.73
414.442	561.47
414.819	581.13
415.197	587
415.574	594.69
415.951	615.7
416.328	595.14
416.705	630.62
417.082	631.97
417.46	640.79
417.837	626.55
418.214	640.56
418.591	648.02
418.967	673.56
419.344	675.36
419.721	664.06
420.098	680.34
420.475	688.02
420.852	707.45
421.228	710.16
421.605	708.36
421.982	726.21
422.358	741.35
422.735	734.35
423.111	728.24
423.488	774.34
423.864	766.89
424.241	771.41
424.617	776.6
424.994	771.41
425.37	792.42
425.746	807.79
426.123	812.76
426.499	825.42
426.875	814.57
427.251	826.77
427.627	871.52
428.003	875.81
428.379	866.09
428.756	878.3
429.132	881.01
429.507	882.36
429.883	914.45
430.259	927.79
430.635	914.91
431.011	936.37
431.387	954.45
431.763	982.25
432.138	965.53
432.514	986.09
432.89	999.87
433.265	993.55
433.641	1043.49
434.016	1047.33
434.392	1034
434.767	1051.4
435.143	1064.51
435.518	1066.31
435.894	1071.74
436.269	1084.62
436.644	1105.63
437.02	1115.13
437.395	1131.62
437.77	1139.98
438.145	1148.12
438.52	1151.51
438.895	1164.39
439.271	1186.76
439.646	1184.73
440.021	1179.31
440.395	1204.39
440.77	1192.86
441.145	1189.25
441.52	1219.98
441.895	1227.67
442.27	1210.49
442.645	1229.25
443.019	1273.54
443.394	1251.17
443.769	1271.28
444.143	1256.59
444.518	1272.64
444.892	1292.75
445.267	1255.69
445.641	1267.44
446.016	1275.57
446.39	1295.01
446.764	1260.66
447.139	1315.8
447.513	1301.56
447.887	1295.23
448.262	1290.94
448.636	1322.58
449.01	1305.4
449.384	1301.34
449.758	1344.95
450.132	1337.49
450.506	1364.16
450.88	1336.82
451.254	1360.32
451.628	1358.28
452.002	1375.46
452.376	1401.45
452.75	1391.5
453.123	1402.8
453.497	1410.71
453.871	1372.52
454.244	1454.55
454.618	1455
454.992	1450.48
455.365	1437.83
455.739	1471.05
456.112	1466.53
456.486	1484.83
456.859	1492.29
457.232	1531.16
457.606	1502.91
457.979	1540.2
458.352	1586.53
458.725	1539.07
459.099	1530.48
459.472	1569.13
459.845	1578.84
460.218	1609.35
460.591	1590.14
460.964	1598.5
461.337	1634.66
461.71	1629.24
462.083	1646.64
462.456	1645.06
462.829	1644.38
463.201	1691.61
463.574	1667.88
463.947	1699.29
464.32	1735.45
464.692	1715.34
465.065	1740.65
465.438	1763.7
465.81	1773.19
466.183	1761.89
466.555	1808.22
466.928	1812.96
467.3	1771.61
467.672	1821.32
468.045	1862.68
468.417	1851.15
468.789	1864.26
469.161	1866.07
469.534	1924.6
469.906	1925.73
470.278	1952.84
470.65	1925.5
471.022	1952.39
471.394	2002.56
471.766	1988.55
472.138	1993.52
472.51	2043.46
472.882	2041.66
473.253	2073.97
473.625	2128.66
473.997	2131.14
474.369	2126.17
474.74	2146.29
475.112	2166.85
475.484	2187.87
475.855	2198.04
476.227	2161.43
476.598	2258.15
476.97	2267.19
477.341	2265.15
477.713	2319.39
478.084	2308.32
478.455	2342.21
478.827	2382.89
479.198	2424.02
479.569	2427.18
479.94	2489.78
480.311	2481.42
480.682	2523.68
481.053	2543.11
481.424	2579.95
481.795	2613.17
482.166	2617.91
482.537	2656.55
482.908	2665.37
483.279	2684.8
483.65	2729.32
484.021	2744.69
484.391	2766.16
484.762	2741.98
485.133	2791.47
485.503	2819.26
485.874	2879.83
486.244	2881.86
486.615	2924.12
486.985	2933.16
487.356	2943.78
487.726	2969.09
488.097	3025.81
488.467	3005.7
488.837	3102.64
489.207	3108.75
489.578	3145.81
489.948	3141.74
490.318	3169.54
490.688	3159.14
491.058	3186.71
491.428	3228.06
491.798	3267.39
492.168	3320.94
492.538	3296.31
492.908	3306.71
493.278	3339.02
493.648	3349.42
494.017	3349.19
494.387	3393.03
494.757	3413.82
495.126	3452.69
495.496	3487.49
495.866	3480.49
496.235	3498.34
496.605	3552.12
496.974	3489.53
497.344	3585.34
497.713	3578.34
498.082	3539.24
498.452	3631.9
498.821	3577.66
499.19	3658.56
499.559	3628.28
499.928	3668.96
500.298	3636.64
500.667	3673.7
501.036	3674.15
501.405	3675.96
501.774	3699.69
502.143	3701.72
502.512	3688.84
502.88	3739.46
503.249	3746.92
503.618	3771.78
503.987	3767.94
504.356	3813.36
504.724	3769.97
505.093	3816.07
505.462	3840.25
505.83	3764.55
506.199	3858.56
506.567	3888.84
506.936	3885
507.304	3920.48
507.672	3930.87
508.041	3906.01
508.409	3944.66
508.777	3965.45
509.145	3982.62
509.514	3949.4
509.882	3954.6
510.25	3998.21
510.618	3917.99
510.986	3958.89
511.354	4004.54
511.722	4041.83
512.09	4055.16
512.458	4052
512.826	4090.42
513.193	4100.13
513.561	4043.18
513.929	4090.42
514.297	4137.42
514.664	4142.62
515.032	4148.49
515.4	4163.63
515.767	4174.03
516.135	4143.97
516.502	4078.44
516.869	4176.06
517.237	4227.13
517.604	4149.85
517.972	4221.03
518.339	4181.03
518.706	4237.08
519.073	4246.57
519.44	4246.8
519.808	4213.35
520.175	4241.82
520.542	4296.51
520.909	4336.96
521.276	4303.97
521.643	4299.9
522.009	4314.59
522.376	4356.85
522.743	4384.19
523.11	4418.77
523.477	4418.54
523.843	4419.67
524.21	4504.42
524.577	4506
524.943	4486.56
525.31	4473.68
525.676	4527.01
526.043	4531.76
526.409	4599.78
526.776	4610.18
527.142	4570.63
527.508	4618.99
527.874	4692.66
528.241	4698.99
528.607	4700.57
528.973	4692.66
529.339	4700.79
529.705	4738.31
530.071	4747.8
530.437	4775.59
530.803	4830.51
531.169	4850.85
531.535	4830.96
531.901	4820.57
532.267	4850.85
532.632	4872.54
532.998	4962.71
533.364	4918.87
533.73	4963.84
534.095	4953.67
534.461	5026.89
534.826	5040.45
535.192	5022.37
535.557	5059.2
535.923	5064.63
536.288	5054.91
536.653	5081.35
537.019	5100.56
537.384	5124.96
537.749	5165.87
538.114	5147.11
538.479	5176.71
538.845	5206.77
539.21	5188.24
539.575	5245.41
539.94	5265.07
540.305	5279.08
540.67	5263.27
541.034	5378.74
541.399	5316.82
541.764	5339.2
542.129	5366.77
542.494	5414.22
542.858	5429.36
543.223	5447.67
543.587	5466.42
543.952	5446.09
544.316	5515.01
544.681	5529.47
545.045	5512.07
545.41	5525.86
545.774	5554.78
546.138	5581.9
546.503	5615.57
546.867	5612.86
547.231	5663.26
547.595	5722.46
547.959	5690.82
548.324	5714.78
548.688	5702.35
549.052	5781.44
549.416	5750.71
549.779	5793.87
550.143	5822.12
550.507	5860.09
550.871	5800.88
551.235	5844.04
551.599	5809.47
551.962	5917.71
552.326	5877.03
552.689	5945.06
553.053	5858.96
553.417	5935.79
553.78	6030.25
554.143	6032.74
554.507	5994.77
554.87	6041.32
555.234	6102.57
555.597	6036.8
555.96	6096.01
556.323	6074.54
556.686	6122.68
557.05	6133.53
557.413	6183.24
557.776	6220.75
558.139	6219.17
558.502	6207.42
558.865	6220.75
559.228	6235.22
559.59	6265.27
559.953	6299.85
560.316	6343.92
560.679	6277.02
561.041	6329.45
561.404	6355.67
561.767	6434.99
562.129	6361.77
562.492	6405.16
562.854	6451.26
563.217	6431.37
563.579	6471.37
563.941	6484.02
564.304	6459.17
564.666	6472.27
565.028	6569.9
565.39	6494.65
565.753	6521.09
566.115	6587.75
566.477	6661.42
566.839	6609.22
567.201	6709.33
567.563	6670.23
567.925	6747.97
568.287	6742.32
568.648	6741.19
569.01	6819.16
569.372	6835.2
569.734	6827.74
570.095	6903.22
570.457	6855.31
570.819	6905.71
571.18	6964.92
571.542	7000.85
571.903	7057.34
572.265	7063.22
572.626	7090.11
572.987	7124.91
573.349	7173.95
573.71	7204.01
574.071	7256.21
574.432	7335.08
574.794	7400.61
575.155	7500.04
575.516	7460.04
575.877	7562.87
576.238	7624.79
576.599	7682.19
576.96	7748.85
577.32	7744.78
577.681	7863.2
578.042	7979.13
578.403	8022.29
578.763	8071.55
579.124	8274.94
579.485	8343.41
579.845	8531.65
580.206	8547.02
580.566	8608.04
580.927	8707.92
581.287	8951.76
581.648	8962.15
582.008	9203.27
582.368	9362.37
582.728	9402.82
583.089	9541.8
583.449	9717.16
583.809	9945.63
584.169	10042.8
584.529	10258.16
584.889	10527.53
585.249	10640.07
585.609	10838.49
585.969	11081.19
586.329	11253.16
586.688	11515.3
587.048	11729.76
587.408	11889.31
587.768	12208.17
588.127	12373.14
588.487	12642.73
588.846	13011.31
589.206	13129.5
589.565	13360.45
589.925	13704.63
590.284	13915.47
590.643	14188.68
591.003	14470.26
591.362	14711.15
591.721	15023.46
592.08	15363.56
592.44	15648.53
592.799	15880.16
593.158	16241.73
593.517	16448.51
593.876	16825
594.235	17091.88
594.593	17401.03
594.952	17679.66
595.311	17914.46
595.67	18229.25
596.029	18648
596.387	18927.99
596.746	19299.05
597.104	19544.7
597.463	19733.85
597.822	20203.89
598.18	20348.52
598.538	20649.75
598.897	21050.42
599.255	21163.19
599.613	21850.85
599.972	21917.52
600.33	22076.83
600.688	22441.8
601.046	22735.8
601.404	23105.96
601.762	23239.06
602.12	23649.22
602.478	23975.32
602.836	24162.66
603.194	24391.8
603.552	24783.88
603.91	24840.38
604.268	25144.55
604.625	25374.38
604.983	25733.69
605.341	25828.15
605.698	26189.72
606.056	26545.64
606.413	26708.35
606.771	27006.87
607.128	27154.89
607.485	27333.42
607.843	27450.93
608.2	27850.02
608.557	28175.43
608.914	28326.39
609.272	28659.71
609.629	28824.68
609.986	29169.98
610.343	29183.31
610.7	29570.2
611.057	29738.55
611.414	29897.65
611.771	29989.17
612.127	30336.73
612.484	30364.3
612.841	30678.87
613.198	30708.7
613.554	30985.98
613.911	31205.86
614.267	31326.08
614.624	31488.56
614.98	31698.73
615.337	31965.84
615.693	32095.78
616.05	32312.05
616.406	32497.35
616.762	32510.01
617.118	32693.73
617.475	32845.59
617.831	32997.9
618.187	33123.55
618.543	33210.33
618.899	33569.41
619.255	33445.8
619.611	33825.23
619.967	33899.57
620.323	33826.81
620.678	34082.85
621.034	34006.92
621.39	34307.7
621.746	34286.68
622.101	34680.35
622.457	34537.07
622.812	34609.61
623.168	34905.2
623.523	34994.69
623.879	35095.25
624.234	34944.29
624.589	35098.64
624.945	35069.26
625.3	35344.51
625.655	35421.79
626.01	35413.43
626.365	35486.65
626.72	35541.57
627.075	35556.71
627.43	35649.59
627.785	35665.4
628.14	35866.75
628.495	35855.46
628.85	35854.33
629.205	35786.3
629.559	36024.94
629.914	35826.08
630.269	36036.02
630.623	35988.56
630.978	35932.97
631.332	36158.95
631.687	36277.37
632.041	36103.81
632.396	36151.04
632.75	36051.38
633.104	36138.16
633.459	35955.34
633.813	36091.61
634.167	36188.78
634.521	36257.7
634.875	36296.57
635.229	36296.35
635.583	36090.03
635.937	36124.83
636.291	36241.66
636.645	36219.74
636.999	36248.67
637.352	36279.85
637.706	36087.09
638.06	36246.18
638.413	36088.44
638.767	36150.81
639.121	36215.22
639.474	36025.85
639.828	36170.02
640.181	36155.79
640.534	36166.41
640.888	36037.6
641.241	35952.63
641.594	36052.06
641.947	36175.9
642.301	36057.48
642.654	36159.85
643.007	36153.3
643.36	36012.74
643.713	36043.02
644.066	36094.55
644.419	36051.16
644.771	35837.83
645.124	35471.51
645.477	35407.78
645.83	35273.55
646.182	35175.93
646.535	35150.84
646.888	35147.45
647.24	34935.48
647.593	35116.27
647.945	35021.35
648.298	34894.58
648.65	35009.83
649.002	34890.74
649.355	35063.61
649.707	34946.1
650.059	35152.2
650.411	35485.52
650.763	35544.96
651.115	35972.97
651.467	35745.85
651.819	35743.37
652.171	35777.27
652.523	35676.48
652.875	35684.84
653.227	35589.93
653.578	35812.29
653.93	35653.88
654.282	35580.43
654.633	35481.68
654.985	35583.37
655.337	35554.22
655.688	35467.22
656.039	35669.47
656.391	35439.42
656.742	35536.37
657.094	35431.06
657.445	35641.68
657.796	35543.83
658.147	35501.79
658.498	35541.34
658.849	35690.94
659.2	35456.37
659.551	35446.43
659.902	35530.49
660.253	35487.78
660.604	35678.06
660.955	35341.34
661.306	35556.93
661.656	35408.24
662.007	35597.84
662.358	35448.46
662.708	35497.05
663.059	35543.6
663.409	35174.34
663.76	35589.47
664.11	35522.81
664.461	35554.9
664.811	35542.02
665.161	35450.27
665.511	35344.06
665.862	35410.95
666.212	35462.7
666.562	35448.46
666.912	35413.66
667.262	35348.35
667.612	35271.52
667.962	35429.48
668.312	35340.89
668.662	35567.33
669.011	35416.6
669.361	35417.05
669.711	35412.3
670.06	35408.46
670.41	35277.62
670.76	35185.64
671.109	35423.6
671.459	35176.38
671.808	35206.89
672.157	35276.49
672.507	35001.69
672.856	35160.11
673.205	35259.09
673.554	35253.89
673.904	35019.09
674.253	35155.81
674.602	35088.47
674.951	34676.28
675.3	34483.97
675.649	35142.25
675.998	35084.63
676.346	34889.38
676.695	35164.63
677.044	34938.64
677.393	34984.97
677.741	34875.14
678.09	34775.48
678.438	34850.96
678.787	34874.01
679.135	34833.56
679.484	34632.44
679.832	34822.49
680.181	34678.76
680.529	34746.56
680.877	34715.37
681.225	34621.59
681.573	34728.71
681.922	34534.59
682.27	34550.18
682.618	34438.32
682.966	34311.77
683.314	34441.26
683.661	34266.12
684.009	34153.35
684.357	34078.1
684.705	34126.24
685.053	34163.97
685.4	34035.62
685.748	33808.96
686.095	33974.15
686.443	33860.25
686.79	33683.08
687.138	33834.49
687.485	33832.01
687.832	33574.16
688.18	33654.16
688.527	33469.08
688.874	33418.68
689.221	33400.15
689.568	33338.91
689.915	33247.16
690.262	33142.53
690.609	33104.79
690.956	33027.96
691.303	32935.31
691.65	32844.69
691.997	32935.98
692.344	32601.53
692.69	32621.87
693.037	32697.12
693.383	32373.97
693.73	32479.73
694.077	32365.38
694.423	32325.38
694.769	32182.33
695.116	32070.47
695.462	32190.92
695.808	32000.64
696.155	32128.1
696.501	31907.54
696.847	31806.3
697.193	31598.84
697.539	31727.88
697.885	31583.03
698.231	31432.52
698.577	31398.17
698.923	31496.47
699.269	31141.23
699.614	31117.28
699.96	31049.03
700.306	31036.6
700.651	30936.94
700.997	30667.57
701.342	30743.05
701.688	30685.42
702.033	30683.84
702.379	30470.29
702.724	30495.82
703.069	30617.4
703.415	30297.18
703.76	30228.71
704.105	30345.54
704.45	30097.41
704.795	29886.8
705.14	29858.55
705.485	29776.52
705.83	29702.4
706.175	29829.17
706.52	29665.11
706.865	29518.22
707.209	29551.67
707.554	29348.96
707.899	29620.82
708.243	29307.38
708.588	29418.11
708.932	29098.8
709.277	29116.88
709.621	29071.91
709.966	28915.3
710.31	28946.48
710.654	28782.65
710.998	28782.65
711.342	28737.9
711.687	28648.64
712.031	28530.45
712.375	28509.89
712.719	28587.62
713.063	28469.89
713.407	28465.37
713.75	28461.3
714.094	28362.55
714.438	28191.25
714.782	28256.11
715.125	28043.91
715.469	28277.8
715.812	28003.68
716.156	27915.33
716.499	27849.79
716.843	27948.54
717.186	27708.33
717.53	27965.49
717.873	27816.8
718.216	27633.3
718.559	27594.66
718.902	27472.17
719.246	27477.6
719.589	27513.98
719.932	27491.16
720.275	27271.27
720.617	27269.01
720.96	27241.22
721.303	27319.41
721.646	27233.99
721.989	27192.86
722.331	27009.13
722.674	27053.88
723.016	27039.64
723.359	27047.78
723.701	26949.25
724.044	26831.06
724.386	26852.75
724.729	26869.03
725.071	26863.6
725.413	26740.44
725.755	26706.32
726.097	26639.65
726.439	26605.3
726.782	26640.1
727.124	26583.16
727.465	26461.35
727.807	26423.61
728.149	26487.11
728.491	26264.75
728.833	26454.35
729.175	26230.17
729.516	26284.18
729.858	26181.36
730.199	26321.02
730.541	26097.97
730.882	26092.32
731.224	26260
731.565	26079.22
731.906	26059.78
732.248	26132.55
732.589	25869.28
732.93	26053.45
733.271	25903.63
733.612	25824.31
733.953	25947.92
734.294	25755.16
734.635	25819.56
734.976	25840.13
735.317	25652.33
735.658	25667.93
735.999	25678.55
736.339	25685.78
736.68	25761.94
737.021	25531.21
737.361	25440.81
737.702	25681.71
738.042	25510.42
738.383	25443.53
738.723	25383.41
739.063	25281.5
739.404	25459.34
739.744	25254.6
740.084	25358.78
740.424	25297.09
740.764	25110.2
741.104	25301.83
741.444	25180.26
741.784	25104.78
742.124	25153.59
742.464	25101.61
742.804	25012.58
743.143	25003.99
743.483	24947.95
743.823	24832.02
744.162	24955.4
744.502	24950.88
744.841	24851.45
745.181	24843.99
745.52	24774.16
745.86	24850.1
746.199	24714.05
746.538	24638.35
746.877	24620.5
747.216	24707.73
747.556	24506.6
747.895	24717.22
748.234	24530.78
748.573	24526.49
748.911	24527.17
749.25	24501.63
749.589	24450.11
749.928	24377.79
750.267	24537.79
750.605	24400.39
750.944	24452.37
751.283	24320.62
751.621	24423.21
751.96	24244.24
752.298	24199.72
752.636	24168.76
752.975	24195.65
753.313	24092.6
753.651	24205.37
753.989	24095.99
754.327	23994.52
754.666	23874.3
755.004	23956.33
755.342	23901.42
755.679	23933.28
756.017	23802.44
756.355	23847.86
756.693	23767.86
757.031	23746.85
757.368	23676.57
757.706	23610.81
758.044	23525.38
758.381	23618.49
758.719	23481.77
759.056	23486.29
759.394	23441.54
759.731	23258.05
