Data from hue_34_FLMS001491_00084.txt Node
Date: Tue Feb 07 17:26:19 GMT 2017
User: dcchb
Spectrometer: FLMS00149
Trigger mode: 0
Integration Time (sec): 2.000000E-2
Scans to average: 10
Electric dark correction enabled: true
Nonlinearity correction enabled: false
Boxcar width: 0
XAxis mode: Wavelengths
Number of Pixels in Spectrum: 2048
>>>>>Begin Spectral Data<<<<<
341.393	-12.84
341.776	-12.84
342.16	-12.84
342.543	-43.8
342.927	-76.11
343.31	-64.59
343.693	-56.68
344.077	-73.85
344.46	-54.65
344.843	-62.1
345.226	-51.03
345.61	-22.56
345.993	-30.47
346.376	-2.9
346.759	12.25
347.142	38.23
347.525	35.75
347.908	51.79
348.291	68.97
348.674	101.06
349.057	110.77
349.44	121.4
349.823	138.34
350.206	188.74
350.588	187.83
350.971	221.96
351.354	238.91
351.737	236.19
352.119	251.34
352.502	261.05
352.884	285.01
353.267	300.83
353.65	297.89
354.032	298.57
354.414	311.22
354.797	331.33
355.179	328.85
355.562	336.53
355.944	336.3
356.326	322.29
356.709	350.54
357.091	351.67
357.473	362.52
357.855	341.05
358.238	344.44
358.62	351.67
359.002	350.99
359.384	335.17
359.766	359.13
360.148	345.57
360.53	367.72
360.912	346.93
361.294	336.08
361.676	324.55
362.057	333.59
362.439	343.31
362.821	349.19
363.203	327.94
363.584	332.46
363.966	331.11
364.348	330.2
364.729	319.58
365.111	324.78
365.493	327.49
365.874	327.94
366.256	321.16
366.637	324.78
367.019	319.81
367.4	325.23
367.781	348.51
368.163	324.1
368.544	316.19
368.925	311.67
369.306	334.27
369.688	332.01
370.069	302.86
370.45	318.23
370.831	334.27
371.212	322.29
371.593	296.53
371.974	342.86
372.355	318.9
372.736	303.99
373.117	315.06
373.498	304.89
373.879	324.78
374.26	334.95
374.641	311.22
375.021	325.23
375.402	332.01
375.783	325.68
376.163	319.58
376.544	340.82
376.925	322.07
377.305	338.11
377.686	335.4
378.066	319.36
378.447	344.89
378.827	342.18
379.208	351.45
379.588	327.94
379.968	331.11
380.349	345.12
380.729	345.34
381.109	334.5
381.489	324.1
381.87	341.5
382.25	334.27
382.63	362.74
383.01	347.38
383.39	342.41
383.77	339.92
384.15	334.27
384.53	351.67
384.91	357.55
385.29	353.71
385.67	327.04
386.049	337.89
386.429	348.73
386.809	364.1
387.189	358.68
387.568	360.48
387.948	371.56
388.328	364.78
388.707	362.74
389.087	375.63
389.466	371.56
389.846	362.52
390.225	348.96
390.605	362.07
390.984	360.26
391.363	349.64
391.743	363.2
392.122	373.37
392.501	358.23
392.881	396.87
393.26	383.08
393.639	396.19
394.018	399.58
394.397	385.57
394.776	390.77
395.155	367.72
395.534	395.29
395.913	372.24
396.292	412.69
396.671	405.46
397.05	383.99
397.429	399.35
397.808	396.64
398.186	400.94
398.565	398
398.944	393.03
399.323	395.74
399.701	389.18
400.08	400.94
400.458	418.34
400.837	392.12
401.215	414.04
401.594	387.83
401.972	384.44
402.351	400.71
402.729	404.55
403.107	402.07
403.486	412.23
403.864	408.62
404.242	420.14
404.62	420.37
404.999	420.37
405.377	421.5
405.755	405.46
406.133	421.27
406.511	426.7
406.889	440.93
407.267	427.38
407.645	452.46
408.023	464.66
408.401	440.26
408.779	448.62
409.156	436.19
409.534	452.23
409.912	470.99
410.29	459.47
410.667	454.72
411.045	453.14
411.422	466.24
411.8	458.34
412.178	462.63
412.555	463.53
412.933	474.83
413.31	492.46
413.687	480.71
414.065	470.31
414.442	488.84
414.819	488.62
415.197	487.71
415.574	499.92
415.951	501.5
416.328	502.63
416.705	501.72
417.082	511.67
417.46	517.32
417.837	491.33
418.214	489.07
418.591	520.25
418.967	495.4
419.344	518.45
419.721	536.75
420.098	509.18
420.475	535.85
420.852	533.59
421.228	507.6
421.605	542.18
421.982	536.3
422.358	541.27
422.735	526.81
423.111	565.9
423.488	562.74
423.864	544.66
424.241	562.29
424.617	559.35
424.994	581.04
425.37	560.93
425.746	560.48
426.123	573.81
426.499	575.17
426.875	589.86
427.251	554.38
427.627	590.54
428.003	606.13
428.379	565.9
428.756	600.7
429.132	607.26
429.507	604.32
429.883	616.75
430.259	600.03
430.635	650.42
431.011	634.83
431.387	624.21
431.763	646.35
432.138	637.77
432.514	641.16
432.89	668.05
433.265	646.35
433.641	653.81
434.016	654.04
434.392	700.81
434.767	664.88
435.143	672.34
435.518	680.48
435.894	661.04
436.269	701.27
436.644	706.01
437.02	696.52
437.395	716.41
437.77	726.12
438.145	716.86
438.52	729.29
438.895	728.38
439.271	721.15
439.646	745.33
440.021	758.67
440.395	750.31
440.77	753.02
441.145	753.69
441.52	761.83
441.895	788.04
442.27	759.57
442.645	755.73
443.019	771.55
443.394	771.1
443.769	783.07
444.143	768.84
444.518	791.21
444.892	768.38
445.267	800.93
445.641	839.79
446.016	785.11
446.39	806.12
446.764	831.21
447.139	812.45
447.513	837.99
447.887	810.87
448.262	828.72
448.636	828.04
449.01	854.03
449.384	841.83
449.758	835.27
450.132	845.67
450.506	856.29
450.88	843.41
451.254	837.08
451.628	884.09
452.002	880.47
452.376	882.96
452.75	890.87
453.123	902.62
453.497	908.27
453.871	901.26
454.244	936.74
454.618	952.79
454.992	941.71
455.365	941.94
455.739	961.82
456.112	986.46
456.486	983.29
456.859	993.69
457.232	991.65
457.606	986.46
457.979	1014.03
458.352	1025.55
458.725	1033.46
459.099	1032.56
459.472	1047.02
459.845	1039.11
460.218	1106.68
460.591	1093.8
460.964	1066.46
461.337	1084.99
461.71	1100.35
462.083	1138.32
462.456	1149.84
462.829	1143.06
463.201	1189.62
463.574	1186
463.947	1169.05
464.32	1206.56
464.692	1227.58
465.065	1219.9
465.438	1254.25
465.81	1245.43
466.183	1282.49
466.555	1305.54
466.928	1311.87
467.3	1327.69
467.672	1350.52
468.045	1368.59
468.417	1373.79
468.789	1373.11
469.161	1418.31
469.534	1425.32
469.906	1440.46
470.278	1444.3
470.65	1476.61
471.022	1497.4
471.394	1538.08
471.766	1574.92
472.138	1574.69
472.51	1636.61
472.882	1626.89
473.253	1656.5
473.625	1727.45
473.997	1748.7
474.369	1760
474.74	1768.13
475.112	1799.54
475.484	1856.49
475.855	1886.55
476.227	1912.31
476.598	1966.77
476.97	2002.02
477.341	2065.75
477.713	2101.91
478.084	2103.72
478.455	2197.95
478.827	2232.75
479.198	2310.26
479.569	2300.09
479.94	2369.25
480.311	2435.01
480.682	2480.66
481.053	2570.6
481.424	2614.44
481.795	2651.5
482.166	2713.19
482.537	2755
482.908	2863.92
483.279	2945.05
483.65	2981.66
484.021	3071.83
484.391	3094.2
484.762	3185.27
485.133	3292.16
485.503	3359.95
485.874	3436.56
486.244	3457.8
486.615	3547.52
486.985	3668.19
487.356	3748.42
487.726	3799.94
488.097	3900.28
488.467	3952.25
488.837	4016.21
489.207	4156.32
489.578	4202.19
489.948	4265.01
490.318	4391.79
490.688	4461.62
491.058	4549.3
491.428	4664.1
491.798	4694.16
492.168	4862.06
492.538	4839.01
492.908	5029.97
493.278	5060.7
493.648	5102.51
494.017	5241.26
494.387	5293.01
494.757	5322.16
495.126	5429.96
495.496	5516.96
495.866	5646.9
496.235	5697.07
496.605	5748.82
496.974	5824.97
497.344	5950.62
497.713	5930.96
498.082	6003.05
498.452	6123.5
498.821	6185.87
499.19	6271.74
499.559	6277.39
499.928	6426.09
500.298	6460.21
500.667	6551.06
501.036	6551.51
501.405	6666.53
501.774	6723.26
502.143	6770.49
502.512	6874.66
502.88	6921.67
503.249	6936.36
503.618	7019.52
503.987	7132.51
504.356	7097.03
504.724	7205.05
505.093	7242.11
505.462	7308.1
505.83	7384.93
506.199	7458.15
506.567	7524.82
506.936	7548.54
507.304	7649.56
507.672	7737.69
508.041	7742.21
508.409	7847.29
508.777	7860.63
509.145	7967.29
509.514	7997.12
509.882	8058.36
510.25	8058.14
510.618	8133.16
510.986	8137.46
511.354	8312.82
511.722	8276.43
512.09	8461.74
512.458	8393.04
512.826	8489.76
513.193	8481.63
513.561	8584
513.929	8625.13
514.297	8705.58
514.664	8769.53
515.032	8783.77
515.4	8873.03
515.767	8920.26
516.135	8911.45
516.502	8855.85
516.869	9042.74
517.237	9004.33
517.604	9072.8
517.972	9110.76
518.339	9164.32
518.706	9247.48
519.073	9223.98
519.44	9295.62
519.808	9419.23
520.175	9390.98
520.542	9510.75
520.909	9597.3
521.276	9535.38
521.643	9671.65
522.009	9680.24
522.376	9768.83
522.743	9802.27
523.11	9913.68
523.477	10035.94
523.843	10044.52
524.21	10129.04
524.577	10209.72
524.943	10206.1
525.31	10256.95
525.676	10350.28
526.043	10416.04
526.409	10459.65
526.776	10550.27
527.142	10609.93
527.508	10684.96
527.874	10705.52
528.241	10747.33
528.607	10856.48
528.973	10931.51
529.339	10855.35
529.705	10987.1
530.071	11170.37
530.437	11119.75
530.803	11185.06
531.169	11247.66
531.535	11238.39
531.901	11364.94
532.267	11361.1
532.632	11409.91
532.998	11509.34
533.364	11526.29
533.73	11621.21
534.095	11724.93
534.461	11671.15
534.826	11785.95
535.192	11778.04
535.557	11884.02
535.923	11875.89
536.288	11937.13
536.653	12004.25
537.019	11873.85
537.384	12044.25
537.749	12074.98
538.114	12173.73
538.479	12213.28
538.845	12226.39
539.21	12219.16
539.575	12395.2
539.94	12375.99
540.305	12456.44
540.67	12472.93
541.034	12535.76
541.399	12542.99
541.764	12574.18
542.129	12693.27
542.494	12700.73
542.858	12717
543.223	12824.11
543.587	12901.17
543.952	12918.8
544.316	12992.47
544.681	12933.26
545.045	13064.11
545.41	13094.16
545.774	13113.37
546.138	13204.67
546.503	13233.82
546.867	13250.54
547.231	13385
547.595	13391.33
547.959	13457.99
548.324	13498.67
548.688	13559.23
549.052	13512
549.416	13651.21
549.779	13601.72
550.143	13679.68
550.507	13765.78
550.871	13782.05
551.235	13742.05
551.599	13958.09
551.962	13895.27
552.326	13956.74
552.689	14027.47
553.053	14056.62
553.417	14194.25
553.78	14218.43
554.143	14140.91
554.507	14187.01
554.87	14316.95
555.234	14441.92
555.597	14425.43
555.96	14352.43
556.323	14549.26
556.686	14465.2
557.05	14505.88
557.413	14637.85
557.776	14674.68
558.139	14715.36
558.502	14763.5
558.865	14872.65
559.228	14914.23
559.59	15050.95
559.953	14976.82
560.316	15203.03
560.679	15211.39
561.041	15214.33
561.404	15172.98
561.767	15317.61
562.129	15294.1
562.492	15408.22
562.854	15447.55
563.217	15506.75
563.579	15517.37
563.941	15563.47
564.304	15722.57
564.666	15736.35
565.028	15757.82
565.39	15776.12
565.753	15920.08
566.115	15907.42
566.477	15980.87
566.839	16026.06
567.201	16186.06
567.563	16233.51
567.925	16323.68
568.287	16299.5
568.648	16277.81
569.01	16372.04
569.372	16502.21
569.734	16431.93
570.095	16665.37
570.457	16628.31
570.819	16766.16
571.18	16751.69
571.542	16880.95
571.903	16951.01
572.265	16998.01
572.626	17077.11
572.987	17141.96
573.349	17248.85
573.71	17330.21
574.071	17340.83
574.432	17463.31
574.794	17667.37
575.155	17652.91
575.516	17673.93
575.877	17867.6
576.238	17856.97
576.599	18004.77
576.96	18088.83
577.32	18249.96
577.681	18423.74
578.042	18536.73
578.403	18593.68
578.763	18790.96
579.124	18882.48
579.485	19030.28
579.845	19180.33
580.206	19333.09
580.566	19422.13
580.927	19645.63
581.287	19809.92
581.648	19827.54
582.008	20157.03
582.368	20175.78
582.728	20322.45
583.089	20467.75
583.449	20703.9
583.809	20909.55
584.169	21087.4
584.529	21343.89
584.889	21489.65
585.249	21726.48
585.609	21782.29
585.969	22175.05
586.329	22226.35
586.688	22573.01
587.048	22763.96
587.408	22910.4
587.768	23226.55
588.127	23417.05
588.487	23521.46
588.846	23896.36
589.206	23935.91
589.565	24240.08
589.925	24478.49
590.284	24816.11
590.643	25042.32
591.003	25238.25
591.362	25520.73
591.721	25882.07
592.08	25927.72
592.44	26390.08
592.799	26508.27
593.158	26798.66
593.517	27082.04
593.876	27285.2
594.235	27517.28
594.593	27701.01
594.952	28017.61
595.311	28188.23
595.67	28503.93
596.029	28820.3
596.387	29113.63
596.746	29423.22
597.104	29442.21
597.463	29784.8
597.822	30064.11
598.18	30105.47
598.538	30464.55
598.897	30821.15
599.255	30736.18
599.613	31372.55
599.972	31365.09
600.33	31732.09
600.688	31657.97
601.046	32017.96
601.404	32370.94
601.762	32586.08
602.12	32885.73
602.478	32948.33
602.836	33206.85
603.194	33277.36
603.552	33607.29
603.91	33473.29
604.268	33854.07
604.625	34007.51
604.983	34291.34
605.341	34189.2
605.698	34616.31
606.056	34819.01
606.413	34929.07
606.771	35108.05
607.128	35386.68
607.485	35382.39
607.843	35492.44
608.2	35903.73
608.557	36060.56
608.914	36047.91
609.272	36432.98
609.629	36714.11
609.986	36874.78
610.343	36848.34
610.7	37024.61
611.057	37043.59
611.414	37302.79
611.771	37386.18
612.127	37616
612.484	37738.26
612.841	37990.68
613.198	37932.15
613.554	38025.94
613.911	38366.49
614.267	38547.5
614.624	38437.22
614.98	38555.19
615.337	38860.26
615.693	38872.24
616.05	38859.81
616.406	39345.45
616.762	39298.22
617.118	39328.95
617.475	39561.71
617.831	39672.67
618.187	39794.93
618.543	39700.02
618.899	40082.15
619.255	40197.86
619.611	40234.24
619.967	40265.2
620.323	40556.72
620.678	40403.05
621.034	40315.82
621.39	40350.17
621.746	40505.64
622.101	41033.54
622.457	40762.59
622.812	40808.91
623.168	41006.65
623.523	41024.95
623.879	41258.39
624.234	40970.72
624.589	41267.66
624.945	41342.46
625.3	41337.26
625.655	41331.84
626.01	41399.86
626.365	41291.84
626.72	41444.15
627.075	41457.94
627.43	41469.46
627.785	41551.72
628.14	41635.33
628.495	41739.51
628.85	41572.51
629.205	41586.97
629.559	41772.73
629.914	41713.97
630.269	41786.06
630.623	41647.99
630.978	41571.83
631.332	41742.67
631.687	41961.42
632.041	41822.67
632.396	41828.77
632.75	41703.13
633.104	41818.38
633.459	41621.77
633.813	41573.86
634.167	41758.94
634.521	41694.31
634.875	41738.61
635.229	41752.39
635.583	41720.75
635.937	41516.24
636.291	41659.96
636.645	41656.57
636.999	41540.87
637.352	41660.42
637.706	41486.18
638.06	41734.99
638.413	41712.17
638.767	41491.83
639.121	41628.55
639.474	41457.94
639.828	41437.82
640.181	41409.12
640.534	41559.63
640.888	41553.3
641.241	41395.34
641.594	41420.2
641.947	41396.02
642.301	41351.27
642.654	41301.56
643.007	41311.05
643.36	41435.79
643.713	41355.11
644.066	41492.74
644.419	41289.58
644.771	41026.31
645.124	40608.92
645.477	40598.97
645.83	40308.59
646.182	40085.32
646.535	40052.32
646.888	40303.62
647.24	39930.74
647.593	40208.7
647.945	40121.02
648.298	39892.55
648.65	39837.64
649.002	39831.76
649.355	40088.93
649.707	39935.94
650.059	40010.29
650.411	40473.55
650.763	40604.4
651.115	41024.27
651.467	40736.6
651.819	40802.81
652.171	40820.66
652.523	40819.76
652.875	40788.12
653.227	40654.57
653.578	40890.04
653.93	40780.89
654.282	40603.72
654.633	40501.35
654.985	40566.43
655.337	40692.53
655.688	40702.93
656.039	40731.17
656.391	40337.74
656.742	40523.04
657.094	40577.51
657.445	40680.55
657.796	40545.19
658.147	40420.9
658.498	40379.77
658.849	40586.09
659.2	40521.69
659.551	40485.53
659.902	40502.03
660.253	40479.66
660.604	40522.37
660.955	40143.17
661.306	40417.06
661.656	40331.86
662.007	40336.61
662.358	40452.99
662.708	40523.72
663.059	40476.72
663.409	40273.11
663.76	40517.85
664.11	40461.58
664.461	40458.87
664.811	40488.24
665.161	40373.22
665.511	40274.46
665.862	40150.4
666.212	40330.28
666.562	40385.87
666.912	40214.8
667.262	40231.53
667.612	40218.87
667.962	40307.01
668.312	40128.7
668.662	40371.18
669.011	40163.51
669.361	40194.24
669.711	40193.11
670.06	40140.46
670.41	40094.81
670.76	40042.15
671.109	40269.04
671.459	40104.52
671.808	40020.68
672.157	40050.74
672.507	39773.01
672.856	39944.3
673.205	39938.65
673.554	40114.69
673.904	39982.04
674.253	40211.87
674.602	39928.48
674.951	39485.56
675.3	39236.07
675.649	39841.48
675.998	39892.33
676.346	39845.55
676.695	39984.53
677.044	39608.27
677.393	39830.63
677.741	39911.08
678.09	39747.47
678.438	39579.79
678.787	39719.68
679.135	39793.8
679.484	39455.28
679.832	39653.01
680.181	39359.46
680.529	39545.44
680.877	39478.1
681.225	39457.31
681.573	39633.8
681.922	39457.99
682.27	39261.16
682.618	39175.51
682.966	39114.72
683.314	39157.43
683.661	39027.04
684.009	38996.98
684.357	38976.19
684.705	38687.39
685.053	38821.39
685.4	38709.08
685.748	38705.69
686.095	38599.93
686.443	38515.64
686.79	38437.9
687.138	38539.14
687.485	38440.61
687.832	38362.2
688.18	38412.59
688.527	38285.82
688.874	38256.21
689.221	38191.13
689.568	37998.14
689.915	37957.69
690.262	37720.86
690.609	37797.01
690.956	37642.44
691.303	37711.14
691.65	37398.83
691.997	37512.95
692.344	37306.63
692.69	37209.01
693.037	37197.03
693.383	36918.85
693.73	37187.54
694.077	36793.88
694.423	36883.59
694.769	36825.74
695.116	36594.11
695.462	36616.93
695.808	36514.11
696.155	36707.33
696.501	36287
696.847	36258.75
697.193	36023.95
697.539	36275.7
697.885	35965.65
698.231	35771.98
698.577	35853.11
698.923	35778.08
699.269	35542.38
699.614	35551.2
699.96	35448.83
700.306	35535.15
700.651	35313.24
700.997	35155.5
701.342	35161.15
701.688	34960.71
702.033	35061.04
702.379	34894.49
702.724	34919.58
703.069	34962.06
703.415	34420.83
703.76	34572.24
704.105	34548.06
704.45	34426.93
704.795	34177
705.14	34200.05
705.485	34091.35
705.83	34053.84
706.175	33953.27
706.52	33937
706.865	33846.61
707.209	33795.99
707.554	33677.35
707.899	33693.39
708.243	33541.76
708.588	33407.3
708.932	33267.87
709.277	33327.75
709.621	33338.6
709.966	33099.96
710.31	33259.96
710.654	32927.31
710.998	32877.14
711.342	33014.77
711.687	32904.26
712.031	32678.05
712.375	32678.51
712.719	32699.07
713.063	32595.34
713.407	32675.34
713.75	32504.72
714.094	32381.11
714.438	32350.38
714.782	32222.25
715.125	32294.79
715.469	32196.03
715.812	31993.33
716.156	31995.13
716.499	32028.58
716.843	31915.14
717.186	31798.3
717.53	31760.11
717.873	31811.86
718.216	31716.04
718.559	31552.89
718.902	31356.51
719.246	31449.38
719.589	31276.96
719.932	31261.37
720.275	31279.45
720.617	31264.98
720.96	31089.62
721.303	31083.29
721.646	31113.12
721.989	30933.24
722.331	30980.7
722.674	31075.61
723.016	30877.87
723.359	30913.13
723.701	30988.83
724.044	30674.94
724.386	30643.08
724.729	30768.05
725.071	30672
725.413	30549.3
725.755	30630.42
726.097	30531.22
726.439	30438.11
726.782	30394.5
727.124	30494.16
727.465	30214.84
727.807	30238.57
728.149	30225.69
728.491	30168.06
728.833	30253.03
729.175	30165.35
729.516	30027.05
729.858	29983.66
730.199	30021.63
730.541	29918.8
730.882	29947.73
731.224	29875.19
731.565	29738.24
731.906	29739.37
732.248	29767.4
732.589	29670.22
732.93	29563.11
733.271	29461.87
733.612	29493.05
733.953	29651.47
734.294	29419.61
734.635	29399.72
734.976	29406.5
735.317	29383.45
735.658	29161.99
735.999	29312.27
736.339	29134.42
736.68	29202.44
737.021	29058.94
737.361	29075.66
737.702	29243.79
738.042	28960.64
738.383	28955.21
738.723	29039.05
739.063	28889.68
739.404	29003.8
739.744	28890.13
740.084	28808.78
740.424	28808.55
740.764	28683.36
741.104	28792.28
741.444	28560.2
741.784	28560.65
742.124	28739.17
742.464	28516.58
742.804	28492.63
743.143	28440.65
743.483	28411.95
743.823	28407.21
744.162	28346.87
744.502	28325.17
744.841	28261.67
745.181	28411.05
745.52	28138.96
745.86	28304.83
746.199	28151.39
746.538	28218.74
746.877	28148.91
747.216	28111.85
747.556	27989.59
747.895	28007.67
748.234	27918.4
748.573	27848.8
748.911	27795.92
749.25	27831.63
749.589	27729.03
749.928	27829.82
750.267	27712.31
750.605	27691.07
750.944	27608.81
751.283	27473.9
751.621	27599.32
751.96	27360.9
752.298	27332.88
752.636	27502.82
752.975	27359.1
753.313	27318.65
753.651	27293.34
753.989	27066.9
754.327	27167.46
754.666	26934.48
755.004	27049.05
755.342	27029.39
755.679	26866.45
756.017	26779.9
756.355	26831.88
756.693	26784.65
757.031	26752.56
757.368	26536.52
757.706	26538.78
