Data from hue_350_FLMS001491_82.txt Node
Date: Mon Feb 06 15:38:38 GMT 2017
User: dcchb
Spectrometer: FLMS00149
Trigger mode: 0
Integration Time (sec): 2.000000E-2
Scans to average: 10
Electric dark correction enabled: true
Nonlinearity correction enabled: false
Boxcar width: 0
XAxis mode: Wavelengths
Number of Pixels in Spectrum: 2048
>>>>>Begin Spectral Data<<<<<
341.393	-0.79
341.776	-0.79
342.16	-0.79
342.543	-64.97
342.927	-67
343.31	-95.7
343.693	-64.74
344.077	-48.7
344.46	-70.17
344.843	-56.16
345.226	-31.98
345.61	-18.64
345.993	-0.11
346.376	11.86
346.759	4.86
347.142	15.48
347.525	32.65
347.908	57.74
348.291	82.37
348.674	71.52
349.057	109.71
349.44	156.27
349.823	126.44
350.206	184.29
350.588	173.89
350.971	203.05
351.354	243.04
351.737	233.78
352.119	234.01
352.502	256.15
352.884	264.74
353.267	273.55
353.65	309.71
354.032	288.02
354.414	316.49
354.797	313.33
355.179	292.08
355.562	318.52
355.944	316.04
356.326	354
356.709	337.28
357.091	334.12
357.473	336.83
357.855	343.38
358.238	361.46
358.62	338.64
359.002	331.86
359.384	321.23
359.766	341.35
360.148	335.7
360.53	349.71
360.912	338.64
361.294	324.4
361.676	315.36
362.057	349.26
362.439	319.88
362.821	339.09
363.203	325.98
363.584	312.87
363.966	323.49
364.348	335.02
364.729	344.96
365.111	324.4
365.493	292.99
365.874	298.86
366.256	327.11
366.637	308.13
367.019	310.61
367.4	309.03
367.781	309.26
368.163	309.26
368.544	317.17
368.925	321.46
369.306	316.49
369.688	336.38
370.069	304.29
370.45	318.52
370.831	299.31
371.212	318.07
371.593	294.12
371.974	288.24
372.355	298.64
372.736	318.75
373.117	325.08
373.498	325.98
373.879	317.39
374.26	309.71
374.641	312.42
375.021	295.02
375.402	316.94
375.783	303.38
376.163	329.82
376.544	325.08
376.925	321.91
377.305	317.39
377.686	304.29
378.066	338.41
378.447	345.41
378.827	307.68
379.208	311.52
379.588	357.84
379.968	363.95
380.349	324.85
380.729	346.77
381.109	333.89
381.489	334.79
381.87	337.96
382.25	332.31
382.63	333.21
383.01	335.92
383.39	339.77
383.77	354
384.15	346.77
384.53	323.72
384.91	356.71
385.29	350.39
385.67	342.02
386.049	359.88
386.429	335.25
386.809	355.36
387.189	351.52
387.568	339.31
387.948	337.05
388.328	319.43
388.707	328.01
389.087	356.94
389.466	348.35
389.846	337.28
390.225	365.53
390.605	373.21
390.984	364.62
391.363	370.5
391.743	346.54
392.122	343.15
392.501	355.81
392.881	358.75
393.26	354.45
393.639	382.93
394.018	356.94
394.397	352.65
394.776	356.04
395.155	382.7
395.534	366.43
395.913	380.22
396.292	366.88
396.671	353.1
397.05	368.01
397.429	363.95
397.808	384.28
398.186	379.99
398.565	358.52
398.944	396.03
399.323	391.74
399.701	383.83
400.08	377.05
400.458	371.4
400.837	392.65
401.215	404.62
401.594	417.73
401.972	393.32
402.351	383.38
402.729	393.32
403.107	414.34
403.486	391.97
403.864	396.71
404.242	404.4
404.62	388.8
404.999	420.21
405.377	396.94
405.755	415.24
406.133	402.36
406.511	409.82
406.889	427.22
407.267	424.06
407.645	426.77
408.023	428.58
408.401	433.55
408.779	435.36
409.156	444.62
409.534	437.62
409.912	434.23
410.29	445.07
410.667	415.47
411.045	438.52
411.422	450.95
411.8	442.59
412.178	439.65
412.555	471.96
412.933	455.24
413.31	459.31
413.687	468.12
414.065	480.33
414.442	464.96
414.819	483.49
415.197	455.92
415.574	482.36
415.951	477.16
416.328	489.14
416.705	496.82
417.082	497.73
417.46	481.68
417.837	492.76
418.214	471.74
418.591	488.69
418.967	511.74
419.344	510.16
419.721	521.23
420.098	519.42
420.475	523.72
420.852	510.61
421.228	519.87
421.605	541.34
421.982	521.91
422.358	536.82
422.735	535.47
423.111	550.16
423.488	565.52
423.864	549.93
424.241	547.9
424.617	556.26
424.994	554.22
425.37	570.27
425.746	556.26
426.123	584.05
426.499	575.69
426.875	557.16
427.251	575.01
427.627	570.49
428.003	585.86
428.379	606.65
428.756	581.79
429.132	610.94
429.507	611.62
429.883	608.01
430.259	626.99
430.635	653.43
431.011	618.4
431.387	643.94
431.763	658.85
432.138	652.75
432.514	652.3
432.89	652.07
433.265	689.13
433.641	648.46
434.016	664.5
434.392	682.13
434.767	683.03
435.143	675.35
435.518	688.91
435.894	706.76
436.269	708.57
436.644	706.99
437.02	699.3
437.395	720.32
437.77	715.57
438.145	721
438.52	740.66
438.895	724.84
439.271	749.02
439.646	767.32
440.021	763.93
440.395	743.6
440.77	742.47
441.145	771.17
441.52	793.54
441.895	746.53
442.27	799.41
442.645	780.88
443.019	775.46
443.394	783.37
443.769	805.06
444.143	786.76
444.518	814.33
444.892	796.02
445.267	823.37
445.641	819.53
446.016	827.21
446.39	844.38
446.764	844.38
447.139	826.08
447.513	844.38
447.887	842.12
448.262	824.27
448.636	849.36
449.01	833.54
449.384	838.06
449.758	857.27
450.132	867.43
450.506	856.36
450.88	878.28
451.254	858.4
451.628	853.65
452.002	886.19
452.376	887.77
452.75	904.72
453.123	890.94
453.497	887.77
453.871	929.58
454.244	928.45
454.618	917.38
454.992	938.39
455.365	940.88
455.739	964.61
456.112	956.02
456.486	956.02
456.859	978.17
457.232	986.3
457.606	977.94
457.979	1004.15
458.352	1014.78
458.725	1005.06
459.099	1038.05
459.472	1026.53
459.845	1049.58
460.218	1066.53
460.591	1075.79
460.964	1058.16
461.337	1082.34
461.71	1108.33
462.083	1107.88
462.456	1096.58
462.829	1113.98
463.201	1148.33
463.574	1124.38
463.947	1130.7
464.32	1204.15
464.692	1178.61
465.065	1181.1
465.438	1202.34
465.81	1209.8
466.183	1209.35
466.555	1250.7
466.928	1239.85
467.3	1223.58
467.672	1286.86
468.045	1311.49
468.417	1296.8
468.789	1302.23
469.161	1309.01
469.534	1337.48
469.906	1342.45
470.278	1372.28
470.65	1388.33
471.022	1388.33
471.394	1432.62
471.766	1442.11
472.138	1458.61
472.51	1469.23
472.882	1506.06
473.253	1510.81
473.625	1542.22
473.997	1569.79
474.369	1577.7
474.74	1588.77
475.112	1610.24
475.484	1660.41
475.855	1674.65
476.227	1704.7
476.598	1732.5
476.97	1738.37
477.341	1747.19
477.713	1802.55
478.084	1833.74
478.455	1864.92
478.827	1894.98
479.198	1913.51
479.569	1917.12
479.94	1985.15
480.311	1981.76
480.682	2027.18
481.053	2094.75
481.424	2118.7
481.795	2155.76
482.166	2163.67
482.537	2210.68
482.908	2260.39
483.279	2280.96
483.65	2306.04
484.021	2344.91
484.391	2376.55
484.762	2402.08
485.133	2433.95
485.503	2483.21
485.874	2505.36
486.244	2557.33
486.615	2570.67
486.985	2665.58
487.356	2666.48
487.726	2683.21
488.097	2735.63
488.467	2764.33
488.837	2821.51
489.207	2886.14
489.578	2920.26
489.948	2892.47
490.318	2971.56
490.688	2982.86
491.058	3018.56
491.428	3079.58
491.798	3103.31
492.168	3155.28
492.538	3160.48
492.908	3204.32
493.278	3255.62
493.648	3214.04
494.017	3263.53
494.387	3305.79
494.757	3343.08
495.126	3388.72
495.496	3350.76
495.866	3417.42
496.235	3418.33
496.605	3476.86
496.974	3534.94
497.344	3556.63
497.713	3557.99
498.082	3560.7
498.452	3609.06
498.821	3653.12
499.19	3636.63
499.559	3693.12
499.928	3720.92
500.298	3717.76
500.667	3767.25
501.036	3753.46
501.405	3821.03
501.774	3827.13
502.143	3843.63
502.512	3879.78
502.88	3846.11
503.249	3877.53
503.618	3941.03
503.987	3917.98
504.356	3979.9
504.724	3974.25
505.093	3976.96
505.462	3978.31
505.83	4039.1
506.199	4040.68
506.567	4068.71
506.936	4083.4
507.304	4140.57
507.672	4159.55
508.041	4149.61
508.409	4150.74
508.777	4172.66
509.145	4216.95
509.514	4223.96
509.882	4245.65
510.25	4258.76
510.618	4296.5
510.986	4305.54
511.354	4284.75
511.722	4323.84
512.09	4388.7
512.458	4338.76
512.826	4419.66
513.193	4401.58
513.561	4416.95
513.929	4429.6
514.297	4438.87
514.664	4445.19
515.032	4514.8
515.4	4535.13
515.767	4553.21
516.135	4554.34
516.502	4525.87
516.869	4567.22
517.237	4588.01
517.604	4614.23
517.972	4651.06
518.339	4648.35
518.706	4640.22
519.073	4664.17
519.44	4708.01
519.808	4718.41
520.175	4723.6
520.542	4728.8
520.909	4766.54
521.276	4754.56
521.643	4799.99
522.009	4875.92
522.376	4861.23
522.743	4881.57
523.11	4927.67
523.477	4929.7
523.843	4917.5
524.21	4963.82
524.577	4991.85
524.943	5029.13
525.31	5039.75
525.676	5095.8
526.043	5079.98
526.409	5120.66
526.776	5166.3
527.142	5173.31
527.508	5218.05
527.874	5252.4
528.241	5281.1
528.607	5249.24
528.973	5259.86
529.339	5302.8
529.705	5387.77
530.071	5420.08
530.437	5427.31
530.803	5484.49
531.169	5532.4
531.535	5493.98
531.901	5487.2
532.267	5557.48
532.632	5501.21
532.998	5547.54
533.364	5575.56
533.73	5568.78
534.095	5662.56
534.461	5630.25
534.826	5704.37
535.192	5703.69
535.557	5778.72
535.923	5766.97
536.288	5837.02
536.653	5822.33
537.019	5804.48
537.384	5779.4
537.749	5873.63
538.114	5864.59
538.479	5927.87
538.845	5930.8
539.21	5917.47
539.575	5964.93
539.94	5973.29
540.305	6044.93
540.67	6033.4
541.034	6033.17
541.399	6044.25
541.764	6139.84
542.129	6146.62
542.494	6165.83
542.858	6169.44
543.223	6178.93
543.587	6265.94
543.952	6229.78
544.316	6238.14
544.681	6301.64
545.045	6316.33
545.41	6368.08
545.774	6359.04
546.138	6393.17
546.503	6440.4
546.867	6400.17
547.231	6450.11
547.595	6485.82
547.959	6474.07
548.324	6521.07
548.688	6605.82
549.052	6564.69
549.416	6595.87
549.779	6585.02
550.143	6631.8
550.507	6673.84
550.871	6742.76
551.235	6693.95
551.599	6708.41
551.962	6765.36
552.326	6770.1
552.689	6807.17
553.053	6835.41
553.417	6792.02
553.78	6878.12
554.143	6843.77
554.507	6901.17
554.87	6912.47
555.234	6978.01
555.597	6895.07
555.96	6986.37
556.323	7047.16
556.686	7033.37
557.05	7038.8
557.413	7082.64
557.776	7111.34
558.139	7165.35
558.502	7150.89
558.865	7226.59
559.228	7168.51
559.59	7229.98
559.953	7262.29
560.316	7314.04
560.679	7277.89
561.041	7383.87
561.404	7361.5
561.767	7475.62
562.129	7377.32
562.492	7456.41
562.854	7428.17
563.217	7459.8
563.579	7445.11
563.941	7576.18
564.304	7535.28
564.666	7587.26
565.028	7650.99
565.39	7635.39
565.753	7690.98
566.115	7709.29
566.477	7734.6
566.839	7767.14
567.201	7808.27
567.563	7796.97
567.925	7850.75
568.287	7904.54
568.648	7836.29
569.01	7951.09
569.372	8015.72
569.734	7978.89
570.095	7991.99
570.457	8053.23
570.819	8086.23
571.18	8164.19
571.542	8088.49
571.903	8152.44
572.265	8257.07
572.626	8268.14
572.987	8311.08
573.349	8329.61
573.71	8332.78
574.071	8404.86
574.432	8508.59
574.794	8568.25
575.155	8594.24
575.516	8606.89
575.877	8576.16
576.238	8751.97
576.599	8799.88
576.96	8821.12
577.32	8920.1
577.681	9025.19
578.042	9097.5
578.403	9143.83
578.763	9212.75
579.124	9308.34
579.485	9387.89
579.845	9473.08
580.206	9580.65
580.566	9662.46
580.927	9817.71
581.287	9986.97
581.648	9969.57
582.008	10164.14
582.368	10332.04
582.728	10410.23
583.089	10530.46
583.449	10649.1
583.809	10908.98
584.169	11014.51
584.529	11110.33
584.889	11425.8
585.249	11544.22
585.609	11577.89
585.969	11903.3
586.329	12028.27
586.688	12204.09
587.048	12419.45
587.408	12623.51
587.768	12817.4
588.127	13025.99
588.487	13235.25
588.846	13550.27
589.206	13612.41
589.565	13875.23
589.925	14207.88
590.284	14410.36
590.643	14623.01
591.003	15034.52
591.362	15206.27
591.721	15461.63
592.08	15735.29
592.44	16033.82
592.799	16373.69
593.158	16498.66
593.517	16782.72
593.876	17087.8
594.235	17384.97
594.593	17739.08
594.952	17945.86
595.311	18197.15
595.67	18546.52
596.029	18888.2
596.387	19196.22
596.746	19524.8
597.104	19717.33
597.463	19873.49
597.822	20357.54
598.18	20501.95
598.538	20780.36
598.897	21206.79
599.255	21227.13
599.613	21940.1
599.972	22012.87
600.33	22319.53
600.688	22538.73
601.046	22888.55
601.404	23208.99
601.762	23424.13
602.12	23767.62
602.478	23987.73
602.836	24354.95
603.194	24497.55
603.552	24759.01
603.91	24991.55
604.268	25393.12
604.625	25598.76
604.983	25939.54
605.341	26048.02
605.698	26443.03
606.056	26756.92
606.413	26861.1
606.771	27139.29
607.128	27305.38
607.485	27466.06
607.843	27759.16
608.2	28292.25
608.557	28473.71
608.914	28503.09
609.272	28740.6
609.629	29186.24
609.986	29426.23
610.343	29480.92
610.7	29787.13
611.057	30013.79
611.414	30111.64
611.771	30352.99
612.127	30645.86
612.484	30804.27
612.841	31096.02
613.198	31114.78
613.554	31434.77
613.911	31740.97
614.267	31738.04
614.624	31941.65
614.98	32058.25
615.337	32568.07
615.693	32475.42
616.05	32568.97
616.406	32990.21
616.762	32907.27
617.118	33023.43
617.475	33282.63
617.831	33420.48
618.187	33541.38
618.543	33687.14
618.899	34170.97
619.255	34075.83
619.611	34203.06
619.967	34426.55
620.323	34564.4
620.678	34598.98
621.034	34740.67
621.39	34820.89
621.746	34798.29
622.101	35218.17
622.457	35070.15
622.812	35190.6
623.168	35411.84
623.523	35549.46
623.879	35708.1
624.234	35622.68
624.589	35610.7
624.945	35791.49
625.3	35923.24
625.655	35972.73
626.01	36033.06
626.365	36196.22
626.72	36155.32
627.075	36174.3
627.43	36321.19
627.785	36344.69
628.14	36531.13
628.495	36482.32
628.85	36534.29
629.205	36454.52
629.559	36597.12
629.914	36673.27
630.269	36640.73
630.623	36673.5
630.978	36807.51
631.332	37025.35
631.687	37078.46
632.041	36915.53
632.396	37077.33
632.75	36873.95
633.104	36984.9
633.459	36935.19
633.813	36821.97
634.167	36919.37
634.521	36951.46
634.875	37120.27
635.229	37107.16
635.583	36956.43
635.937	36985.13
636.291	37085.92
636.645	36991.46
636.999	36913.72
637.352	37113.71
637.706	36962.98
638.06	37035.98
638.413	37080.72
638.767	36956.43
639.121	37068.97
639.474	36776.55
639.828	36895.41
640.181	37048.63
640.534	37056.09
640.888	36834.62
641.241	36746.94
641.594	36940.16
641.947	36900.84
642.301	36791.91
642.654	36964.56
643.007	36955.3
643.36	36989.42
643.713	36944.23
644.066	37042.3
644.419	36763.67
644.771	36624.69
645.124	36327.07
645.477	36236.45
645.83	35996.68
646.182	36018.15
646.535	35816.8
646.888	35863.58
647.24	35754.65
647.593	35933.18
647.945	35826.06
648.298	35733.18
648.65	35598.5
649.002	35639.63
649.355	35848.89
649.707	35670.36
650.059	35850.24
650.411	36153.29
650.763	36407.52
651.115	36708.75
651.467	36463.79
651.819	36630.34
652.171	36407.97
652.523	36483.67
652.875	36397.12
653.227	36291.81
653.578	36472.15
653.93	36418.36
654.282	36416.56
654.633	36248.43
654.985	36244.58
655.337	36328.42
655.688	36499.04
656.039	36491.13
656.391	36174.3
656.742	36287.75
657.094	36408.65
657.445	36424.01
657.796	36238.26
658.147	36299.5
658.498	36188.99
658.849	36231.25
659.2	36153.29
659.551	36140.18
659.902	36301.76
660.253	36281.19
660.604	36271.7
660.955	36172.72
661.306	36320.74
661.656	36090.92
662.007	36146.96
662.358	36294.3
662.708	36069.9
663.059	36253.17
663.409	35944.7
663.76	36254.3
664.11	36079.62
664.461	36103.8
664.811	36204.58
665.161	36225.83
665.511	36138.15
665.862	36217.69
666.212	36303.79
666.562	36273.74
666.912	36200.52
667.262	35982.44
667.612	36109.9
667.962	36011.37
668.312	35985.16
668.662	36275.09
669.011	36166.62
669.361	36029.9
669.711	35953.07
670.06	35950.13
670.41	35927.53
670.76	35871.26
671.109	36154.42
671.459	35901.99
671.808	35857.25
672.157	36161.42
672.507	35779.51
672.856	35820.87
673.205	35796.69
673.554	36013.18
673.904	35827.65
674.253	36144.25
674.602	35851.83
674.951	35319.41
675.3	35152.41
675.649	35748.55
675.998	35694.09
676.346	35794.65
676.695	35946.51
677.044	35624.04
677.393	35666.29
677.741	35671.04
678.09	35573.19
678.438	35497.48
678.787	35674.66
679.135	35701.1
679.484	35342.91
679.832	35515.79
680.181	35289.58
680.529	35411.39
680.877	35309.92
681.225	35399.86
681.573	35530.93
681.922	35229.02
682.27	35145.86
682.618	35151.05
682.966	35092.3
683.314	35098.17
683.661	35065.41
684.009	34754.91
684.357	34875.58
684.705	34799.65
685.053	34915.81
685.4	34806.66
685.748	34695.02
686.095	34635.36
686.443	34444.41
686.79	34524.85
687.138	34447.57
687.485	34363.28
687.832	34452.31
688.18	34412.09
688.527	34149.95
688.874	34198.08
689.221	34160.8
689.568	34059.78
689.915	34035.83
690.262	33931.65
690.609	33880.13
690.956	33801.03
691.303	33687.14
691.65	33547.03
691.997	33605.78
692.344	33351.1
692.69	33513.36
693.037	33374.38
693.383	33082.86
693.73	33303.42
694.077	33062.52
694.423	33074.72
694.769	32962.18
695.116	32894.39
695.462	32906.59
695.808	32696.88
696.155	32834.5
696.501	32623.66
696.847	32638.8
697.193	32370.11
697.539	32503.67
697.885	32082.89
698.231	32195.65
698.577	32146.84
698.923	31969.89
699.269	31863.23
699.614	31663.01
699.96	31604.03
700.306	31674.08
700.651	31681.54
700.997	31565.61
701.342	31453.98
701.688	31465.95
702.033	31272.96
702.379	31253.53
702.724	31086.75
703.069	31183.93
703.415	30833.65
703.76	30875.46
704.105	30860.77
704.45	30919.3
704.795	30599.31
705.14	30703.26
705.485	30520.44
705.83	30566.54
706.175	30320.9
706.52	30436.37
706.865	30373.33
707.209	30215.59
707.554	30110.28
707.899	30187.57
708.243	30069.83
708.588	30054.46
708.932	29828.48
709.277	29818.99
709.621	29881.59
709.966	29663.29
710.31	29708.26
710.654	29484.99
710.998	29616.06
711.342	29509.17
711.687	29435.27
712.031	29241.15
712.375	29102.62
712.719	29247.93
713.063	29168.39
713.407	29176.97
713.75	29005.9
714.094	29074.15
714.438	28955.96
714.782	28976.53
715.125	28690.66
715.469	28892.01
715.812	28655.86
716.156	28619.25
716.499	28505.35
716.843	28678.68
717.186	28334.06
717.53	28538.35
717.873	28416.09
718.216	28462.87
718.559	28309.65
718.902	28118.92
719.246	28120.05
719.589	28160.05
719.932	28020.85
720.275	27960.28
720.617	27966.38
720.96	27914.18
721.303	27917.8
721.646	27836.9
721.989	27519.84
722.331	27719.61
722.674	27730.23
723.016	27729.33
723.359	27693.17
723.701	27651.82
724.044	27434.65
724.386	27405.27
724.729	27491.37
725.071	27374.31
725.413	27365.72
725.755	27292.95
726.097	27198.95
726.439	27093.86
726.782	27102
727.124	27231.49
727.465	27044.83
727.807	26957.82
728.149	26992.17
728.491	26971.61
728.833	26902.46
729.175	26777.04
729.516	26742.69
729.858	26821.33
730.199	26697.26
730.541	26749.01
730.882	26658.17
731.224	26710.6
731.565	26577.04
731.906	26575.23
732.248	26568.91
732.589	26426.76
732.93	26344.05
733.271	26367.33
733.612	26286.88
733.953	26445.75
734.294	26309.25
734.635	26229.48
734.976	26288.46
735.317	26146.32
735.658	26133.89
735.999	26163.04
736.339	26064.74
736.68	26154.45
737.021	25977.51
737.361	26041.69
737.702	26006.89
738.042	25959.66
738.383	25915.36
738.723	25947.68
739.063	25743.84
739.404	25724.86
739.744	25760.11
740.084	25591.53
740.424	25717.18
740.764	25655.48
741.104	25775.03
741.444	25544.75
741.784	25446.45
742.124	25491.42
742.464	25506.33
742.804	25483.51
743.143	25380.01
743.483	25530.06
743.823	25202.39
744.162	25204.2
744.502	25283.29
744.841	25096.4
745.181	25248.49
745.52	25020.25
745.86	25087.59
746.199	25016.86
746.538	25046.91
746.877	25082.17
747.216	25061.15
747.556	25029.96
747.895	25016.4
748.234	24846.24
748.573	24817.54
748.911	24814.15
749.25	24870.19
749.589	24716.53
749.928	24722.63
750.267	24748.84
750.605	24667.26
750.944	24618.9
751.283	24488.51
751.621	24677.88
751.96	24302.3
752.298	24433.59
752.636	24411.67
752.975	24218.69
753.313	24293.49
753.651	24228.4
753.989	24157.22
754.327	24044.68
754.666	24002.65
755.004	24034.06
755.342	24019.14
755.679	23887.62
756.017	23778.02
756.355	23897.11
756.693	23810.56
757.031	23806.72
757.368	23594.75
757.706	23662.54
758.044	23683.56
758.381	23651.24
758.719	23481.98
759.056	23411.7
759.394	23374.19
759.731	23272.04
760.068	23231.59
760.405	23223.46
760.743	23036.8
