Data from hue_24_FLMS001491_00081.txt Node
Date: Tue Feb 07 17:12:51 GMT 2017
User: dcchb
Spectrometer: FLMS00149
Trigger mode: 0
Integration Time (sec): 2.000000E-2
Scans to average: 10
Electric dark correction enabled: true
Nonlinearity correction enabled: false
Boxcar width: 0
XAxis mode: Wavelengths
Number of Pixels in Spectrum: 2048
>>>>>Begin Spectral Data<<<<<
341.393	-8.33
341.776	-8.33
342.16	-8.33
342.543	-61.89
342.927	-83.13
343.31	-69.8
343.693	-65.28
344.077	-53.53
344.46	-61.67
344.843	-63.02
345.226	-60.99
345.61	-27.77
345.993	-4.49
346.376	-3.81
346.759	0.03
347.142	27.37
347.525	44.32
347.908	52.23
348.291	84.55
348.674	87.26
349.057	114.6
349.44	116.86
349.823	132
350.206	138.78
350.588	198.44
350.971	216.07
351.354	239.57
351.737	244.32
352.119	263.07
352.502	257.65
352.884	288.61
353.267	264.2
353.65	291.55
354.032	310.3
354.414	307.82
354.797	306.01
355.179	322.28
355.562	322.73
355.944	337.19
356.326	301.04
356.709	314.14
357.091	331.09
357.473	335.61
357.855	332.22
358.238	322.05
358.62	348.49
359.002	357.53
359.384	347.82
359.766	329.74
360.148	325.44
360.53	328.83
360.912	335.16
361.294	345.56
361.676	335.39
362.057	332.9
362.439	315.73
362.821	327.7
363.203	327.03
363.584	344.43
363.966	322.96
364.348	323.41
364.729	328.38
365.111	328.83
365.493	323.64
365.874	319.57
366.256	311.66
366.637	325.67
367.019	306.46
367.4	320.7
367.781	330.19
368.163	310.08
368.544	307.14
368.925	298.55
369.306	324.31
369.688	321.83
370.069	323.18
370.45	312.56
370.831	320.25
371.212	292.68
371.593	318.89
371.974	326.8
372.355	329.51
372.736	328.83
373.117	304.2
373.498	311.66
373.879	308.27
374.26	315.95
374.641	317.53
375.021	316.86
375.402	336.06
375.783	325.22
376.163	332.9
376.544	331.54
376.925	333.35
377.305	329.29
377.686	315.05
378.066	324.54
378.447	315.95
378.827	317.53
379.208	331.77
379.588	331.32
379.968	352.79
380.349	336.29
380.729	337.19
381.109	333.35
381.489	353.24
381.87	371.54
382.25	334.03
382.63	336.06
383.01	346.01
383.39	349.17
383.77	332.67
384.15	354.14
384.53	347.59
384.91	342.84
385.29	343.3
385.67	341.49
386.049	360.7
386.429	331.32
386.809	364.31
387.189	355.73
387.568	360.47
387.948	380.36
388.328	364.09
388.707	335.61
389.087	364.54
389.466	354.14
389.846	338.55
390.225	368.61
390.605	363.86
390.984	366.8
391.363	374.26
391.743	377.87
392.122	367.02
392.501	347.36
392.881	370.19
393.26	366.12
393.639	383.97
394.018	382.84
394.397	368.38
394.776	381.94
395.155	387.81
395.534	383.07
395.913	387.36
396.292	400.47
396.671	394.59
397.05	371.32
397.429	382.62
397.808	402.05
398.186	383.3
398.565	406.57
398.944	414.48
399.323	390.53
399.701	409.51
400.08	379.45
400.458	404.09
400.837	378.78
401.215	397.53
401.594	418.32
401.972	399.79
402.351	406.57
402.729	416.51
403.107	403.63
403.486	431.43
403.864	413.58
404.242	435.95
404.62	403.41
404.999	414.03
405.377	425.33
405.755	417.64
406.133	412.22
406.511	427.59
406.889	440.02
407.267	405.89
407.645	421.94
408.023	475.5
408.401	434.82
408.779	457.64
409.156	444.99
409.534	444.54
409.912	455.61
410.29	452.9
410.667	455.38
411.045	455.38
411.422	464.65
411.8	471.65
412.178	475.5
412.555	483.63
412.933	473.91
413.31	467.13
413.687	486.8
414.065	480.02
414.442	501.94
414.819	488.38
415.197	518.88
415.574	504.65
415.951	484.54
416.328	493.12
416.705	511.43
417.082	504.2
417.46	520.24
417.837	532.9
418.214	518.43
418.591	527.92
418.967	535.38
419.344	523.4
419.721	507.36
420.098	545.78
420.475	548.26
420.852	520.01
421.228	569.73
421.605	528.38
421.982	539
422.358	554.14
422.735	576.51
423.111	550.07
423.488	577.87
423.864	550.3
424.241	558.66
424.617	564.31
424.994	571.09
425.37	584.42
425.746	581.48
426.123	573.57
426.499	590.3
426.875	597.3
427.251	614.7
427.627	601.82
428.003	589.84
428.379	609.5
428.756	613.12
429.132	614.48
429.507	620.35
429.883	636.17
430.259	627.58
430.635	635.04
431.011	658.99
431.387	645.89
431.763	674.36
432.138	674.13
432.514	679.11
432.89	667.81
433.265	680.01
433.641	695.83
434.016	701.7
434.392	695.15
434.767	714.36
435.143	702.61
435.518	719.78
435.894	716.39
436.269	715.04
436.644	720.91
437.02	743.74
437.395	720.01
437.77	738.31
438.145	753.23
438.52	744.19
438.895	771.99
439.271	756.17
439.646	776.05
440.021	776.28
440.395	776.51
440.77	768.82
441.145	791.87
441.52	782.15
441.895	769.05
442.27	797.52
442.645	803.62
443.019	791.19
443.394	839.1
443.769	837.07
444.143	830.29
444.518	814.02
444.892	828.03
445.267	813.11
445.641	833.23
446.016	822.15
446.39	844.53
446.764	861.47
447.139	842.49
447.513	842.04
447.887	855.15
448.262	891.3
448.636	905.54
449.01	893.34
449.384	869.16
449.758	889.5
450.132	885.88
450.506	901.25
450.88	912.55
451.254	923.17
451.628	926.78
452.002	944.41
452.376	938.31
452.75	956.39
453.123	935.37
453.497	974.69
453.871	959.1
454.244	988.25
454.618	986.22
454.992	1004.3
455.365	1009.49
455.739	1021.92
456.112	1040.68
456.486	1044.29
456.859	1054.46
457.232	1033.67
457.606	1062.37
457.979	1081.58
458.352	1081.58
458.725	1094.01
459.099	1103.05
459.472	1108.7
459.845	1128.59
460.218	1149.83
460.591	1128.59
460.964	1163.84
461.337	1200.22
461.71	1175.14
462.083	1216.95
462.456	1202.48
462.829	1223.05
463.201	1230.05
463.574	1272.09
463.947	1271.18
464.32	1280.45
464.692	1303.27
465.065	1282.48
465.438	1289.03
465.81	1344.4
466.183	1351.63
466.555	1352.08
466.928	1379.65
467.3	1348.24
467.672	1414.91
468.045	1426.88
468.417	1457.62
468.789	1431.18
469.161	1481.35
469.534	1486.54
469.906	1497.16
470.278	1551.17
470.65	1563.15
471.022	1576.71
471.394	1600.66
471.766	1607.9
472.138	1639.76
472.51	1672.75
472.882	1706.42
473.253	1698.29
473.625	1747.55
473.997	1789.59
474.369	1801.34
474.74	1822.81
475.112	1839.3
475.484	1875.69
475.855	1925.63
476.227	1935.8
476.598	1970.82
476.97	2004.72
477.341	2019.41
477.713	2086.53
478.084	2099.63
478.455	2170.37
478.827	2203.36
479.198	2238.84
479.569	2267.09
479.94	2320.19
480.311	2342.11
480.682	2408.1
481.053	2423.24
481.424	2523.8
481.795	2546.4
482.166	2549.34
482.537	2647.42
482.908	2659.85
483.279	2754.08
483.65	2728.09
484.021	2836.56
484.391	2843.34
484.762	2909.33
485.133	2977.8
485.503	3005.37
485.874	3063.68
486.244	3097.12
486.615	3168.08
486.985	3210.34
487.356	3246.72
487.726	3286.5
488.097	3363.1
488.467	3390.67
488.837	3453.72
489.207	3554.06
489.578	3553.61
489.948	3601.97
490.318	3716.77
490.688	3709.76
491.058	3752.47
491.428	3861.4
491.798	3813.26
492.168	3931.45
492.538	3994.95
492.908	3983.88
493.278	4081.73
493.648	4130.54
494.017	4163.53
494.387	4190.88
494.757	4270.42
495.126	4292.34
495.496	4351.78
495.866	4312.01
496.235	4429.52
496.605	4432.91
496.974	4497.76
497.344	4540.02
497.713	4565.78
498.082	4604.43
498.452	4674.48
498.821	4709.51
499.19	4721.03
499.559	4773.01
499.928	4796.06
500.298	4782.05
500.667	4869.5
501.036	4869.96
501.405	4952.67
501.774	4913.12
502.143	4974.36
502.512	5005.09
502.88	5034.47
503.249	5051.42
503.618	5094.81
503.987	5129.61
504.356	5144.3
504.724	5145.66
505.093	5181.13
505.462	5222.94
505.83	5275.14
506.199	5311.3
506.567	5352.2
506.936	5347.46
507.304	5380
507.672	5452.31
508.041	5506.78
508.409	5465.87
508.777	5482.37
509.145	5579.99
509.514	5577.28
509.882	5607.11
510.25	5610.95
510.618	5681.46
510.986	5660.44
511.354	5715.58
511.722	5739.99
512.09	5747.67
512.458	5734.57
512.826	5819.54
513.193	5848.24
513.561	5821.57
513.929	5907.67
514.297	5980.66
514.664	5972.07
515.032	5982.92
515.4	6017.72
515.767	6057.27
516.135	6071.73
516.502	6031.73
516.869	6133.65
517.237	6179.07
517.604	6145.86
517.972	6243.25
518.339	6210.94
518.706	6213.65
519.073	6279.86
519.44	6276.02
519.808	6369.13
520.175	6274.89
520.542	6405.06
520.909	6423.14
521.276	6457.26
521.643	6537.26
522.009	6536.58
522.376	6526.18
522.743	6565.51
523.11	6611.38
523.477	6729.12
523.843	6691.83
524.21	6760.08
524.577	6835.33
524.943	6876.01
525.31	6877.59
525.676	6942.22
526.043	6934.99
526.409	7042.1
526.776	7058.6
527.142	7045.49
527.508	7085.27
527.874	7154.42
528.241	7181.08
528.607	7215.66
528.973	7224.7
529.339	7277.58
529.705	7314.19
530.071	7407.97
530.437	7425.82
530.803	7373.85
531.169	7524.8
531.535	7511.47
531.901	7478.7
532.267	7562.99
532.632	7624.46
532.998	7594.86
533.364	7726.6
533.73	7731.35
534.095	7796.43
534.461	7810.22
534.826	7849.77
535.192	7864.68
535.557	7921.18
535.923	7943.55
536.288	7918.24
536.653	8025.13
537.019	7984
537.384	7975.86
537.749	7981.06
538.114	8132.24
538.479	8115.75
538.845	8190.32
539.21	8148.97
539.575	8179.7
539.94	8249.53
540.305	8265.57
540.67	8316.42
541.034	8278
541.399	8329.98
541.764	8313.48
542.129	8402.29
542.494	8391.45
542.858	8468.28
543.223	8507.15
543.587	8518.22
543.952	8555.28
544.316	8593.7
544.681	8612.01
545.045	8680.48
545.41	8686.81
545.774	8735.17
546.138	8765.22
546.503	8724.77
546.867	8831.21
547.231	8905.78
547.595	8931.32
547.959	8982.16
548.324	8899.46
548.688	8981.49
549.052	8939.68
549.416	8962.5
549.779	9039.34
550.143	9082.95
550.507	9171.09
550.871	9146.45
551.235	9134.48
551.599	9216.06
551.962	9290.18
552.326	9255.83
552.689	9320.01
553.053	9316.17
553.417	9313.91
553.78	9446.56
554.143	9428.93
554.507	9390.74
554.87	9464.19
555.234	9562.04
555.597	9516.84
555.96	9576.5
556.323	9603.17
556.686	9623.05
557.05	9686.78
557.413	9696.5
557.776	9720.68
558.139	9825.08
558.502	9791.86
558.865	9821.46
559.228	9904.17
559.59	9904.85
559.953	9868.47
560.316	10049.93
560.679	10010.84
561.041	10143.04
561.404	10180.1
561.767	10163.6
562.129	10124.96
562.492	10215.13
562.854	10211.06
563.217	10221.68
563.579	10289.25
563.941	10311.17
564.304	10350.72
564.666	10445.63
565.028	10418.96
565.39	10495.57
565.753	10536.02
566.115	10484.05
566.477	10608.79
566.839	10668.45
567.201	10667.09
567.563	10568.11
567.925	10739.41
568.287	10769.91
568.648	10827.31
569.01	10846.3
569.372	10928.78
569.734	10889.46
570.095	11020.98
570.457	11040.19
570.819	11171.49
571.18	11082.9
571.542	11123.58
571.903	11260.3
572.265	11280.18
572.626	11335.55
572.987	11420.29
573.349	11432.95
573.71	11448.09
574.071	11604.47
574.432	11611.02
574.794	11731.47
575.155	11683.56
575.516	11712.94
575.877	11844.46
576.238	11937.34
576.599	12000.62
576.96	12072.93
577.32	12078.81
577.681	12283.1
578.042	12346.37
578.403	12356.31
578.763	12522.86
579.124	12528.74
579.485	12639.24
579.845	12837.2
580.206	12862.06
580.566	12877.66
580.927	13131.66
581.287	13237.42
581.648	13314.71
582.008	13562.16
582.368	13692.1
582.728	13774.81
583.089	13909.94
583.449	14104.06
583.809	14292.76
584.169	14472.42
584.529	14549.25
584.889	14837.6
585.249	14900.65
585.609	15102.68
585.969	15406.4
586.329	15500.86
586.688	15838.26
587.048	16021.3
587.408	16175.2
587.768	16461.52
588.127	16684.34
588.487	16827.61
588.846	17206.36
589.206	17340.59
589.565	17678.89
589.925	17978.76
590.284	18183.28
590.643	18498.3
591.003	18729.48
591.362	19124.95
591.721	19314.55
592.08	19576.01
592.44	19979.84
592.799	20235.43
593.158	20474.97
593.517	20770.56
593.876	21076.54
594.235	21368.73
594.593	21671.77
594.952	21950.19
595.311	22313.79
595.67	22588.13
596.029	23015.69
596.387	23356.7
596.746	23615.45
597.104	23778.61
597.463	24214.53
597.822	24555.09
598.18	24691.81
598.538	25002.99
598.897	25392.13
599.255	25577.66
599.613	26083.64
599.972	26347.58
600.33	26800.68
600.688	27011.75
601.046	27263.27
601.404	27760.65
601.762	27926.75
602.12	28276.35
602.478	28574.42
602.836	28829.78
603.194	29011.02
603.552	29376.88
603.91	29523.77
604.268	30069.75
604.625	30049.18
604.983	30529.17
605.341	30675.61
605.698	31166.89
606.056	31419.32
606.413	31630.83
606.771	31977.27
607.128	32277.82
607.485	32297.26
607.843	32555.33
608.2	33075.09
608.557	33383.11
608.914	33413.61
609.272	33791
609.629	34133.37
609.986	34364.77
610.343	34440.7
610.7	34921.37
611.057	35075.72
611.414	35259.21
611.771	35414.69
612.127	35682.25
612.484	35798.86
612.841	36197.49
613.198	36082.7
613.554	36465.28
613.911	36903.01
614.267	36855.56
614.624	37017.13
614.98	37285.38
615.337	37597.68
615.693	37800.39
616.05	37825.7
616.406	38233.15
616.762	38236.99
617.118	38292.58
617.475	38522.63
617.831	38698.22
618.187	39004.65
618.543	39015.5
618.899	39363.74
619.255	39348.37
619.611	39573.23
619.967	39702.26
620.323	39830.17
620.678	39813.44
621.034	39938.19
621.39	40113.78
621.746	40243.72
622.101	40614.33
622.457	40404.62
622.812	40652.74
623.168	40892.29
623.523	40924.83
623.879	41190.36
624.234	40941.1
624.589	41215.44
624.945	41224.48
625.3	41317.36
625.655	41420.86
626.01	41477.81
626.365	41593.51
626.72	41574.98
627.075	41562.33
627.43	41821.08
627.785	41741.08
628.14	41889.77
628.495	41953.73
628.85	42032.14
629.205	41849.32
629.559	42138.36
629.914	42040.73
630.269	42166.15
630.623	42050.67
630.978	42207.05
631.332	42521.62
631.687	42470.32
632.041	42357.11
632.396	42484.11
632.75	42284.11
633.104	42501.96
633.459	42284.11
633.813	42381.74
634.167	42324.57
634.521	42637.33
634.875	42673.93
635.229	42579.25
635.583	42267.84
635.937	42429.2
636.291	42364.11
636.645	42413.6
636.999	42281.85
637.352	42615.86
637.706	42325.47
638.06	42414.51
638.413	42381.06
638.767	42352.13
639.121	42406.6
639.474	42211.35
639.828	42419.03
640.181	42350.78
640.534	42330.89
640.888	42213.61
641.241	42174.29
641.594	42355.75
641.947	42335.64
642.301	42204.12
642.654	42260.16
643.007	42392.13
643.36	42316.2
643.713	42324.79
644.066	42352.59
644.419	42174.29
644.771	41947.63
645.124	41559.84
645.477	41603.23
645.83	41316.46
646.182	41253.18
646.535	41010.7
646.888	41305.16
647.24	41128.44
647.593	41270.13
647.945	41259.96
648.298	41012.28
648.65	41077.82
649.002	40894.32
649.355	41011.15
649.707	40982.23
650.059	41210.02
650.411	41565.94
650.763	41718.48
651.115	42153.27
651.467	41997.34
651.819	41824.01
652.171	41818.36
652.523	41860.62
652.875	41670.57
653.227	41557.81
653.578	41959.6
653.93	41802.32
654.282	41693.17
654.633	41509.22
654.985	41745.15
655.337	41665.6
655.688	41829.21
656.039	41846.84
656.391	41574.98
656.742	41674.19
657.094	41668.09
657.445	41744.92
657.796	41569.56
658.147	41736.78
658.498	41608.2
658.849	41684.58
659.2	41612.49
659.551	41484.59
659.902	41588.31
660.253	41556
660.604	41560.97
660.955	41396.91
661.306	41542.21
661.656	41465.6
662.007	41569.56
662.358	41517.58
662.708	41569.1
663.059	41515.55
663.409	41271.94
663.76	41587.86
664.11	41637.35
664.461	41437.36
664.811	41533.4
665.161	41437.36
665.511	41438.94
665.862	41448.2
666.212	41556.9
666.562	41600.29
666.912	41503.34
667.262	41286.63
667.612	41467.64
667.962	41420.18
668.312	41411.59
668.662	41530.24
669.011	41383.35
669.361	41273.29
669.711	41300.41
670.06	41189.91
670.41	41238.94
670.76	41111.26
671.109	41287.98
671.459	41136.57
671.808	41169.12
672.157	41261.99
672.507	41024.49
672.856	41094.54
673.205	41222
673.554	41276.68
673.904	41104.03
674.253	41374.53
674.602	41168.44
674.951	40624.72
675.3	40525.52
675.649	41079.85
675.998	41015
676.346	41192.17
676.695	41220.64
677.044	40826.75
677.393	41043.92
677.741	41003.02
678.09	40957.37
678.438	40836.02
678.787	40906.75
679.135	40810.25
679.484	40723.7
679.832	40755.11
680.181	40558.74
680.529	40823.14
680.877	40548.57
681.225	40510.38
681.573	40676.25
681.922	40322.13
682.27	40362.81
682.618	40359.19
682.966	40191.51
683.314	40262.7
683.661	40089.37
684.009	40067
684.357	40082.14
684.705	39943.38
685.053	40099.09
685.4	39927.57
685.748	39738.42
686.095	39822.48
686.443	39603.73
686.79	39492.78
687.138	39617.97
687.485	39696.61
687.832	39479.22
688.18	39696.39
688.527	39338.43
688.874	39244.42
689.221	39231.31
689.568	39031.09
689.915	39069.74
690.262	39091.88
690.609	39056.4
690.956	38846.46
691.303	38903.64
691.65	38669.29
691.997	38733.47
692.344	38367.16
692.69	38390.66
693.037	38544.78
693.383	38119.25
693.73	38307.04
694.077	37980.5
694.423	37944.79
694.769	37814.63
695.116	37679.94
695.462	37820.28
695.808	37671.81
696.155	37665.48
696.501	37319.72
696.847	37372.83
697.193	37119.28
697.539	37213.97
697.885	37069.79
698.231	36937.14
698.577	36885.16
698.923	36952.73
699.269	36747.99
699.614	36638.39
699.96	36470.71
700.306	36414.44
700.651	36373.31
700.997	36159.98
701.342	36236.59
701.688	36121.56
702.033	35909.82
702.379	35986.43
702.724	35854.68
703.069	36058.74
703.415	35517.06
703.76	35621.46
704.105	35591.41
704.45	35528.13
704.795	35288.59
705.14	35146
705.485	35392.54
705.83	35165.43
706.175	35096.96
706.52	35052.89
706.865	35035.04
707.209	35007.7
707.554	34838.89
707.899	34767.7
708.243	34569.06
708.588	34545.11
708.932	34341.27
709.277	34379.46
709.621	34475.51
709.966	34167.72
710.31	34265.34
710.654	33937.22
710.998	34035.29
711.342	33938.34
711.687	33978.12
712.031	33656.09
712.375	33811.12
712.719	33661.97
713.063	33617.9
713.407	33706.26
713.75	33477.57
714.094	33471.24
714.438	33279.15
714.782	33368.19
715.125	33273.28
715.469	33224.01
715.812	33014.3
716.156	32907.41
716.499	32965.49
716.843	32973.17
717.186	32623.13
717.53	32867.19
717.873	32794.65
718.216	32765.49
718.559	32540.42
718.902	32467.88
719.246	32581.77
719.589	32454.54
719.932	32385.62
720.275	32234.66
720.617	32235.56
720.96	32325.73
721.303	32239.86
721.646	32152.4
721.989	31984.05
722.331	32014.33
722.674	31957.83
723.016	31906.76
723.359	31930.71
723.701	31914.67
724.044	31705.64
724.386	31614.79
724.729	31754.9
725.071	31630.83
725.413	31679.87
725.755	31575.02
726.097	31424.06
726.439	31301.58
726.782	31232.2
727.124	31480.56
727.465	31168.7
727.807	31275.36
728.149	31044.18
728.491	31053.22
728.833	31110.62
729.175	30972.55
729.516	31014.58
729.858	30852.32
730.199	30926.22
730.541	30883.96
730.882	30822.95
731.224	30850.29
731.565	30696.4
731.906	30730.75
732.248	30688.03
732.589	30535.27
732.93	30445.1
733.271	30654.82
733.612	30355.39
733.953	30454.59
734.294	30353.13
734.635	30363.75
734.976	30330.3
735.317	30153.81
735.658	30155.17
735.999	30255.5
736.339	30112.68
736.68	30124.89
737.021	30132.12
737.361	29887.15
737.702	30090.99
738.042	29838.11
738.383	29807.38
738.723	30030.2
739.063	29754.5
739.404	29812.8
739.744	29753.14
740.084	29702.3
740.424	29697.1
740.764	29596.09
741.104	29744.56
741.444	29526.71
741.784	29443.77
742.124	29569.42
742.464	29529.87
742.804	29417.33
743.143	29374.17
743.483	29389.54
743.823	29235.64
744.162	29405.13
744.502	29308.41
744.841	29166.49
745.181	29345.92
745.52	29247.62
745.86	29116.1
746.199	29013.05
746.538	29058.02
746.877	29138.92
747.216	29102.77
747.556	28963.79
747.895	28981.19
748.234	28863.9
748.573	28693.51
748.911	28676.11
749.25	28826.16
749.589	28608.54
749.928	28596.11
750.267	28787.07
750.605	28625.04
750.944	28432.73
751.283	28428.43
751.621	28399.73
751.96	28278.15
752.298	28338.49
752.636	28334.42
752.975	28199.06
753.313	28071.15
753.651	28193.64
753.989	28092.4
754.327	27935.56
754.666	27875.45
755.004	27856.47
755.342	27936.69
755.679	27848.34
756.017	27692.18
756.355	27810.6
756.693	27611.96
757.031	27719.3
757.368	27397.5
757.706	27501.23
758.044	27345.75
758.381	27392.3
758.719	27387.78
759.056	27447.89
759.394	27231.63
759.731	27169.71
