Data from hue_90_FLMS001491_100.txt Node
Date: Mon Feb 06 15:25:57 GMT 2017
User: dcchb
Spectrometer: FLMS00149
Trigger mode: 0
Integration Time (sec): 2.000000E-2
Scans to average: 10
Electric dark correction enabled: true
Nonlinearity correction enabled: false
Boxcar width: 0
XAxis mode: Wavelengths
Number of Pixels in Spectrum: 2048
>>>>>Begin Spectral Data<<<<<
341.393	-11.16
341.776	-11.16
342.16	-11.16
342.543	-44.6
342.927	-66.07
343.31	-92.96
343.693	-78.05
344.077	-63.36
344.46	-60.2
344.843	-39.86
345.226	-34.43
345.61	-23.59
345.993	-36.69
346.376	-0.31
346.759	27.49
347.142	38.33
347.525	39.01
347.908	50.76
348.291	69.97
348.674	93.92
349.057	109.97
349.44	123.08
349.823	123.53
350.206	164.88
350.588	180.7
350.971	197.65
351.354	234.49
351.737	234.26
352.119	240.59
352.502	263.19
352.884	281.04
353.267	269.29
353.65	288.95
354.032	300.7
354.414	297.08
354.797	313.13
355.179	313.81
355.562	315.61
355.944	310.19
356.326	318.1
356.709	336.4
357.091	325.78
357.473	319.68
357.855	333.01
358.238	354.71
358.62	344.76
359.002	340.7
359.384	337.76
359.766	339.57
360.148	312.68
360.53	321.04
360.912	329.4
361.294	347.02
361.676	348.38
362.057	333.24
362.439	325.33
362.821	353.35
363.203	323.97
363.584	313.35
363.966	304.31
364.348	323.07
364.729	314.94
365.111	306.12
365.493	334.82
365.874	309.96
366.256	310.42
366.637	316.97
367.019	328.04
367.4	316.52
367.781	318.1
368.163	308.61
368.544	300.25
368.925	309.74
369.306	307.25
369.688	291.21
370.069	315.39
370.45	301.83
370.831	327.36
371.212	321.94
371.593	303.64
371.974	316.29
372.355	313.58
372.736	297.99
373.117	316.29
373.498	311.09
373.879	316.97
374.26	321.04
374.641	321.26
375.021	328.04
375.402	335.05
375.783	334.82
376.163	311.32
376.544	312.45
376.925	311.55
377.305	318.1
377.686	314.26
378.066	329.17
378.447	327.14
378.827	336.86
379.208	316.52
379.588	350.19
379.968	303.86
380.349	325.33
380.729	327.14
381.109	340.7
381.489	323.75
381.87	331.66
382.25	325.56
382.63	342.96
383.01	337.99
383.39	330.75
383.77	337.76
384.15	366.23
384.53	343.64
384.91	336.4
385.29	349.74
385.67	354.03
386.049	339.12
386.429	336.4
386.809	350.41
387.189	354.03
387.568	344.99
387.948	363.97
388.328	352.67
388.707	351.54
389.087	356.74
389.466	351.09
389.846	352.9
390.225	390.64
390.605	348.83
390.984	374.59
391.363	356.74
391.743	363.3
392.122	379.57
392.501	374.14
392.881	375.95
393.26	370.3
393.639	387.25
394.018	382.5
394.397	385.22
394.776	394.48
395.155	386.57
395.534	396.06
395.913	372.56
396.292	366.23
396.671	398.32
397.05	373.69
397.429	372.56
397.808	373.69
398.186	396.97
398.565	387.93
398.944	373.46
399.323	392
399.701	410.53
400.08	397.87
400.458	382.05
400.837	394.93
401.215	396.51
401.594	395.39
401.972	417.76
402.351	427.47
402.729	419.57
403.107	401.49
403.486	409.17
403.864	405.1
404.242	411.66
404.62	431.32
404.999	406.01
405.377	446.01
405.755	419.11
406.133	412.11
406.511	422.05
406.889	432.67
407.267	427.02
407.645	402.39
408.023	427.25
408.401	443.52
408.779	444.88
409.156	427.47
409.534	443.97
409.912	449.62
410.29	455.5
410.667	446.01
411.045	463.18
411.422	445.33
411.8	453.69
412.178	470.64
412.555	483.07
412.933	470.19
413.31	469.73
413.687	483.74
414.065	485.1
414.442	480.35
414.819	498.66
415.197	466.12
415.574	491.43
415.951	496.17
416.328	477.87
416.705	498.43
417.082	486.91
417.46	505.66
417.837	519
418.214	520.13
418.591	505.89
418.967	500.24
419.344	500.02
419.721	507.47
420.098	523.07
420.475	546.34
420.852	535.95
421.228	507.92
421.605	533.46
421.982	516.06
422.358	541.14
422.735	558.54
423.111	549.28
423.488	559.67
423.864	539.56
424.241	526.91
424.617	572.33
424.994	577.53
425.37	547.7
425.746	558.54
426.123	591.54
426.499	575.27
426.875	589.28
427.251	579.34
427.627	580.24
428.003	589.28
428.379	591.99
428.756	616.85
429.132	590.86
429.507	603.29
429.883	607.36
430.259	627.92
430.635	615.49
431.011	635.83
431.387	628.6
431.763	655.94
432.138	646.45
432.514	666.11
432.89	651.42
433.265	683.97
433.641	679.9
434.016	695.04
434.392	686.22
434.767	656.4
435.143	707.47
435.518	704.3
435.894	700.24
436.269	718.31
436.644	735.04
437.02	716.51
437.395	711.31
437.77	713.34
438.145	731.87
438.52	759.9
438.895	761.25
439.271	758.09
439.646	777.3
440.021	764.64
440.395	769.61
440.77	790.18
441.145	786.11
441.52	796.5
441.895	783.62
442.27	784.53
442.645	787.47
443.019	800.57
443.394	812.1
443.769	811.42
444.143	795.6
444.518	811.87
444.892	815.94
445.267	839.44
445.641	832.89
446.016	847.58
446.39	832.21
446.764	826.56
447.139	824.53
447.513	856.62
447.887	876.28
448.262	861.36
448.636	874.92
449.01	866.33
449.384	885.32
449.758	897.97
450.132	906.11
450.506	878.99
450.88	910.4
451.254	897.07
451.628	921.25
452.002	912.66
452.376	910.4
452.75	951.3
453.123	942.94
453.497	955.14
453.871	967.12
454.244	969.61
454.618	987.23
454.992	1008.48
455.365	1014.8
455.739	1018.87
456.112	1039.66
456.486	1040.34
456.859	1040.34
457.232	1069.04
457.606	1086.67
457.979	1079.43
458.352	1112.88
458.725	1120.11
459.099	1127.57
459.472	1131.41
459.845	1141.13
460.218	1153.11
460.591	1142.94
460.964	1177.29
461.337	1184.74
461.71	1223.61
462.083	1206.44
462.456	1226.78
462.829	1248.02
463.201	1283.95
463.574	1256.61
463.947	1313.1
464.32	1327.11
464.692	1351.29
465.065	1328.24
465.438	1328.02
465.81	1369.37
466.183	1395.58
466.555	1455.92
466.928	1436.04
467.3	1439.43
467.672	1474
468.045	1500.89
468.417	1530.72
468.789	1532.98
469.161	1568.01
469.534	1602.81
469.906	1643.71
470.278	1638.29
470.65	1657.05
471.022	1683.26
471.394	1753.54
471.766	1759.64
472.138	1769.59
472.51	1838.96
472.882	1884.16
473.253	1895.46
473.625	1958.51
473.997	1971.16
474.369	2002.8
474.74	2010.94
475.112	2115.11
475.484	2156.02
475.855	2184.04
476.227	2237.6
476.598	2294.77
476.97	2331.61
477.341	2402.11
477.713	2479.4
478.084	2478.27
478.455	2553.97
478.827	2633.74
479.198	2685.95
479.569	2767.53
479.94	2856.11
480.311	2905.38
480.682	3028.31
481.053	3099.04
481.424	3175.42
481.795	3223.79
482.166	3330
482.537	3381.97
482.908	3518.24
483.279	3605.7
483.65	3698.12
484.021	3790.78
484.391	3899.25
484.762	3958
485.133	4069.41
485.503	4141.05
485.874	4232.12
486.244	4391.21
486.615	4481.83
486.985	4594.14
487.356	4733.8
487.726	4788.94
488.097	4968.6
488.467	5007.24
488.837	5118.65
489.207	5263.96
489.578	5440.22
489.948	5510.28
490.318	5642.48
490.688	5709.37
491.058	5947.78
491.428	6009.93
491.798	6100.09
492.168	6305.51
492.538	6387.54
492.908	6494.43
493.278	6674.99
493.648	6729.46
494.017	6836.8
494.387	6978.04
494.757	7064.81
495.126	7217.58
495.496	7294.86
495.866	7411.25
496.235	7499.83
496.605	7679.94
496.974	7787.73
497.344	7889.43
497.713	7978.69
498.082	8168.74
498.452	8245.12
498.821	8322.41
499.19	8345.68
499.559	8453.25
499.928	8616.64
500.298	8712
500.667	8820.93
501.036	8886.46
501.405	9048.26
501.774	9018.44
502.143	9112.44
502.512	9202.84
502.88	9364.41
503.249	9325.32
503.618	9542.49
503.987	9566.22
504.356	9607.8
504.724	9673.56
505.093	9691.64
505.462	9845.31
505.83	9940.67
506.199	10011.18
506.567	10102.02
506.936	10124.39
507.304	10274.45
507.672	10312.86
508.041	10433.31
508.409	10481.45
508.777	10523.03
509.145	10576.59
509.514	10671.95
509.882	10623.14
510.25	10706.75
510.618	10857.26
510.986	10794.66
511.354	10894.32
511.722	11045.05
512.09	11110.58
512.458	11077.36
512.826	11166.4
513.193	11209.11
513.561	11274.2
513.929	11354.42
514.297	11447.07
514.664	11461.08
515.032	11501.08
515.4	11571.14
515.767	11531.36
516.135	11548.54
516.502	11489.56
516.869	11739.49
517.237	11703.34
517.604	11717.12
517.972	11877.12
518.339	11811.81
518.706	11862.88
519.073	11833.28
519.44	11935.19
519.808	12019.49
520.175	12011.58
520.542	12071.69
520.909	12141.52
521.276	12130.44
521.643	12223.32
522.009	12214.96
522.376	12283.43
522.743	12267.62
523.11	12489.08
523.477	12452.92
523.843	12485.46
524.21	12505.58
524.577	12621.96
524.943	12565.01
525.31	12609.75
525.676	12646.36
526.043	12616.53
526.409	12758.68
526.776	12710.54
527.142	12741.5
527.508	12890.65
527.874	12818.56
528.241	12858.33
528.607	12803.87
528.973	12944.89
529.339	12845.45
529.705	12942.4
530.071	12996.64
530.437	12970.87
530.803	12986.47
531.169	13118.67
531.535	12975.17
531.901	12948.05
532.267	12989.86
532.632	12984.66
532.998	12957.54
533.364	13011.1
533.73	12985.56
534.095	13064.2
534.461	13049.06
534.826	13000.93
535.192	12986.24
535.557	13105.33
535.923	13010.42
536.288	12927.48
536.653	13004.55
537.019	12926.58
537.384	12976.3
537.749	12970.87
538.114	12894.94
538.479	12923.87
538.845	12927.03
539.21	12800.26
539.575	12835.28
539.94	12793.93
540.305	12945.79
540.67	12838.67
541.034	12772.23
541.399	12808.39
541.764	12789.86
542.129	12750.99
542.494	12613.59
542.858	12758.22
543.223	12666.25
543.587	12698.79
543.952	12645.23
544.316	12578.34
544.681	12547.16
545.045	12571.79
545.41	12587.83
545.774	12541.96
546.138	12508.29
546.503	12527.27
546.867	12376.76
547.231	12479.14
547.595	12461.73
547.959	12423.54
548.324	12372.25
548.688	12321.85
549.052	12266.03
549.416	12280.04
549.779	12315.75
550.143	12344.22
550.507	12338.8
550.871	12301.29
551.235	12152.36
551.599	12239.59
551.962	12155.3
552.326	12188.07
552.689	12205.24
553.053	12103.55
553.417	12086.6
553.78	12146.04
554.143	12048.86
554.507	12153.04
554.87	12168.18
555.234	12186.71
555.597	12024.23
555.96	12083.67
556.323	12069.65
556.686	12045.25
557.05	12071.46
557.413	12050.45
557.776	12009.99
558.139	12053.61
558.502	12077.11
558.865	12037.34
559.228	12109.43
559.59	12112.59
559.953	12068.98
560.316	12116.43
560.679	12014.74
561.041	12202.98
561.404	12077.79
561.767	12174.28
562.129	12073.5
562.492	12149.88
562.854	12135.42
563.217	12132.7
563.579	12178.8
563.941	12240.72
564.304	12186.94
564.666	12167.28
565.028	12193.27
565.39	12174.96
565.753	12242.08
566.115	12371.12
566.477	12357.33
566.839	12221.06
567.201	12347.61
567.563	12288.41
567.925	12379.02
568.287	12391.91
568.648	12337.67
569.01	12424
569.372	12426.26
569.734	12403.43
570.095	12454.28
570.457	12499.02
570.819	12463.99
571.18	12468.06
571.542	12580.6
571.903	12498.34
572.265	12457.67
572.626	12531.11
572.987	12511.9
573.349	12602.97
573.71	12596.65
574.071	12620.6
574.432	12515.74
574.794	12687.49
575.155	12653.82
575.516	12581.28
575.877	12652.24
576.238	12597.32
576.599	12747.83
576.96	12614.27
577.32	12676.87
577.681	12776.98
578.042	12712.58
578.403	12803.42
578.763	12684.55
579.124	12754.83
579.485	12761.16
579.845	12742.41
580.206	12708.51
580.566	12707.83
580.927	12790.31
581.287	12812.23
581.648	12672.8
582.008	12747.15
582.368	12708.51
582.728	12804.78
583.089	12662.63
583.449	12741.95
583.809	12737.89
584.169	12692.69
584.529	12758
584.889	12766.81
585.249	12636.65
585.609	12659.92
585.969	12698.79
586.329	12666.47
586.688	12725
587.048	12713.25
587.408	12663.99
587.768	12737.89
588.127	12662.18
588.487	12607.27
588.846	12627.61
589.206	12629.64
589.565	12634.16
589.925	12680.71
590.284	12585.35
590.643	12587.83
591.003	12530.89
591.362	12623.99
591.721	12591.45
592.08	12578.12
592.44	12605.23
592.799	12588.74
593.158	12522.3
593.517	12558
593.876	12661.73
594.235	12536.76
594.593	12574.27
594.952	12571.56
595.311	12541.05
595.67	12502.19
596.029	12609.08
596.387	12576.76
596.746	12616.76
597.104	12564.33
597.463	12512.58
597.822	12585.35
598.18	12484.33
598.538	12565.91
598.897	12590.32
599.255	12423.54
599.613	12671.9
599.972	12497.67
600.33	12582.64
600.688	12487.95
601.046	12518
601.404	12627.38
601.762	12491.79
602.12	12668.73
602.478	12598.23
602.836	12609.75
603.194	12519.81
603.552	12503.99
603.91	12431.9
604.268	12524.11
604.625	12524.78
604.983	12540.83
605.341	12465.35
605.698	12530.21
606.056	12600.94
606.413	12443.2
606.771	12572.47
607.128	12560.49
607.485	12528.85
607.843	12515.07
608.2	12603.65
608.557	12567.04
608.914	12623.54
609.272	12626.7
609.629	12640.49
609.986	12789.64
610.343	12635.97
610.7	12737.43
611.057	12695.63
611.414	12701.05
611.771	12672.12
612.127	12698.34
612.484	12748.73
612.841	12793.48
613.198	12669.64
613.554	12718.9
613.911	12816.98
614.267	12755.06
614.624	12719.58
614.98	12734.04
615.337	12739.92
615.693	12767.26
616.05	12806.81
616.406	12857.43
616.762	12864.89
617.118	12812.91
617.475	12794.61
617.831	12821.27
618.187	12906.69
618.543	12828.96
618.899	12904.21
619.255	12978.78
619.611	12973.59
619.967	12906.47
620.323	12940.59
620.678	12873.25
621.034	12777.88
621.39	12943.98
621.746	12840.48
622.101	13004.55
622.457	12890.42
622.812	12939.69
623.168	12958.22
623.523	12986.24
623.879	13006.35
624.234	12884.77
624.589	12873.02
624.945	12991.21
625.3	12943.53
625.655	12946.02
626.01	12950.99
626.365	12942.63
626.72	12914.83
627.075	12917.99
627.43	12883.87
627.785	12821.05
628.14	12886.36
628.495	12866.7
628.85	12843.87
629.205	12848.39
629.559	12865.57
629.914	12839.8
630.269	12768.39
630.623	12856.53
630.978	12773.36
631.332	12868.5
631.687	12832.57
632.041	12715.51
632.396	12793.25
632.75	12816.3
633.104	12674.16
633.459	12714.61
633.813	12669.19
634.167	12686.36
634.521	12669.19
634.875	12671.9
635.229	12669.19
635.583	12614.27
635.937	12627.61
636.291	12674.61
636.645	12669.86
636.999	12548.51
637.352	12650.43
637.706	12530.89
638.06	12571.56
638.413	12550.77
638.767	12464.45
639.121	12446.59
639.474	12430.55
639.828	12459.47
640.181	12481.85
640.534	12458.57
640.888	12438.01
641.241	12340.61
641.594	12423.54
641.947	12496.99
642.301	12390.55
642.654	12445.92
643.007	12400.27
643.36	12428.97
643.713	12445.46
644.066	12463.99
644.419	12320.27
644.771	12284.56
645.124	12184.91
645.477	12173.61
645.83	12091.57
646.182	12030.33
646.535	12023.33
646.888	12014.06
647.24	11991.24
647.593	11991.69
647.945	11933.84
648.298	11913.95
648.65	11867.17
649.002	11809.32
649.355	11928.64
649.707	11936.78
650.059	11997.34
650.411	12108.07
650.763	12167.05
651.115	12285.92
651.467	12156.21
651.819	12308.52
652.171	12267.16
652.523	12168.86
652.875	12218.35
653.227	12232.81
653.578	12209.54
653.93	12192.36
654.282	12191.23
654.633	12170.89
654.985	12175.87
655.337	12141.74
655.688	12115.75
656.039	12146.71
656.391	12020.84
656.742	12198.01
657.094	12091.8
657.445	12216.32
657.796	12116.88
658.147	12148.52
658.498	12141.06
658.849	12106.72
659.2	12156.43
659.551	12089.31
659.902	12166.38
660.253	12194.17
660.604	12132.48
660.955	12107.85
661.306	12148.52
661.656	12123.89
662.007	12140.39
662.358	12109.88
662.708	12157.34
663.059	12155.08
663.409	12090.22
663.76	12213.38
664.11	12124.34
664.461	12206.83
664.811	12151.91
665.161	12221.51
665.511	12173.61
665.862	12163.21
666.212	12249.99
666.562	12240.5
666.912	12205.24
667.262	12161.4
667.612	12256.54
667.962	12231.91
668.312	12235.53
668.662	12282.98
669.011	12168.86
669.361	12195.98
669.711	12193.27
670.06	12238.24
670.41	12174.28
670.76	12170.89
671.109	12305.13
671.459	12156.21
671.808	12211.35
672.157	12254.28
672.507	12111.91
672.856	12074.4
673.205	12143.32
673.554	12078.47
673.904	12034.18
674.253	12125.47
674.602	12015.19
674.951	11904.01
675.3	11829.66
675.649	11974.52
675.998	11979.94
676.346	12030.79
676.695	12014.97
677.044	11991.46
677.393	11988.75
677.741	11998.24
678.09	11905.36
678.438	11892.94
678.787	12001.63
679.135	11924.8
679.484	11882.99
679.832	11875.31
680.181	11890
680.529	11812.71
680.877	11883.44
681.225	11802.32
681.573	11832.15
681.922	11783.11
682.27	11810
682.618	11729.55
682.966	11676.9
683.314	11741.75
683.661	11692.94
684.009	11655.88
684.357	11571.59
684.705	11499.27
685.053	11638.25
685.4	11533.4
685.748	11454.53
686.095	11531.14
686.443	11373.63
686.79	11395.1
687.138	11367.07
687.485	11462.66
687.832	11406.85
688.18	11353.74
688.527	11280.75
688.874	11294.31
689.221	11292.5
689.568	11178.15
689.915	11202.11
690.262	11160.53
690.609	11160.98
690.956	11123.92
691.303	11163.69
691.65	11051.83
691.997	11037.37
692.344	10990.81
692.69	10936.35
693.037	10976.8
693.383	10875.34
693.73	10864.94
694.077	10807.77
694.423	10830.36
694.769	10782.23
695.116	10713.98
695.462	10628.56
695.808	10636.02
696.155	10664.49
696.501	10511.5
696.847	10587.66
697.193	10506.53
697.539	10571.61
697.885	10393.54
698.231	10364.16
698.577	10412.97
698.923	10372.3
699.269	10257.72
699.614	10225.18
699.96	10269.02
700.306	10194
700.651	10172.98
700.997	10111.74
701.342	10125.52
701.688	10174.79
702.033	9980.22
702.379	10053.21
702.724	9962.14
703.069	9989.26
703.415	9891.18
703.76	9861.8
704.105	9862.48
704.45	9805.99
704.795	9798.08
705.14	9690.28
705.485	9746.1
705.83	9718.76
706.175	9710.62
706.52	9660
706.865	9683.73
707.209	9588.36
707.554	9520.12
707.899	9582.26
708.243	9523.73
708.588	9453
708.932	9405.32
709.277	9432.66
709.621	9374.36
709.966	9378.43
710.31	9395.83
710.654	9279.9
710.998	9359.22
711.342	9329.61
711.687	9290.07
712.031	9256.62
712.375	9205.32
712.719	9217.07
713.063	9159
713.407	9150.86
713.75	9142.5
714.094	9130.52
714.438	9087.59
714.782	9105.66
715.125	9065.44
715.469	9068.6
715.812	8984.31
716.156	8973.69
716.499	9020.7
716.843	8995.38
717.186	8888.95
717.53	8938.89
717.873	8923.52
718.216	8992.9
718.559	8904.54
718.902	8882.39
719.246	8823.64
719.589	8879.91
719.932	8819.34
720.275	8820.47
720.617	8796.29
720.96	8799.68
721.303	8813.02
721.646	8780.93
721.989	8784.99
722.331	8760.36
722.674	8778.67
723.016	8800.36
723.359	8749.52
723.701	8763.3
724.044	8681.04
724.386	8636.52
724.729	8726.01
725.071	8679.69
725.413	8692.79
725.755	8653.92
726.097	8620.93
726.439	8646.69
726.782	8623.42
727.124	8611.21
727.465	8605.34
727.807	8617.32
728.149	8613.7
728.491	8531.67
728.833	8600.82
729.175	8514.27
729.516	8589.07
729.858	8517.21
730.199	8561.27
730.541	8551.33
730.882	8540.48
731.224	8557.66
731.565	8528.28
731.906	8440.15
732.248	8519.01
732.589	8485.34
732.93	8500.93
733.271	8449.86
733.612	8478.56
733.953	8528.28
734.294	8443.99
734.635	8487.38
734.976	8458.45
735.317	8520.37
735.658	8446.7
735.999	8453.7
736.339	8508.62
736.68	8484.89
737.021	8558.56
737.361	8485.79
737.702	8596.98
738.042	8557.43
738.383	8510.88
738.723	8603.76
739.063	8535.96
739.404	8543.65
739.744	8524.44
740.084	8557.2
740.424	8520.37
740.764	8591.55
741.104	8600.59
741.444	8510.88
741.784	8518.79
742.124	8564.66
742.464	8650.54
742.804	8613.7
743.143	8621.38
743.483	8639.69
743.823	8690.99
744.162	8613.02
744.502	8735.28
744.841	8646.47
745.181	8706.35
745.52	8750.87
745.86	8772.11
746.199	8803.07
746.538	8817.76
746.877	8937.53
747.216	8904.09
747.556	8971.66
747.895	8990.41
748.234	8987.7
748.573	9072.45
748.911	9136.17
749.25	9183.18
749.589	9131.43
749.928	9265.43
750.267	9329.61
750.605	9327.13
750.944	9448.93
751.283	9390.63
751.621	9605.99
751.96	9555.82
752.298	9664.75
752.636	9745.65
752.975	9776.83
753.313	9867.45
753.651	10045.98
753.989	10012.08
754.327	10163.04
754.666	10189.93
755.004	10351.73
755.342	10487.1
755.679	10567.55
756.017	10553.08
756.355	10752.63
756.693	10850.7
757.031	11026.97
757.368	11057.48
757.706	11223.8
758.044	11340.86
758.381	11484.59
758.719	11534.75
759.056	11775.2
759.394	11886.16
759.731	11892.48
