Data from hue_270_FLMS001491_00034.txt Node
Date: Tue Feb 07 15:57:06 GMT 2017
User: dcchb
Spectrometer: FLMS00149
Trigger mode: 0
Integration Time (sec): 2.000000E-2
Scans to average: 10
Electric dark correction enabled: true
Nonlinearity correction enabled: false
Boxcar width: 0
XAxis mode: Wavelengths
Number of Pixels in Spectrum: 2048
>>>>>Begin Spectral Data<<<<<
341.393	-24.39
341.776	-24.39
342.16	-24.39
342.543	-74.79
342.927	-66.65
343.31	-77.27
343.693	-52.41
344.077	-41.79
344.46	-36.14
344.843	-65.29
345.226	-44.5
345.61	-39.76
345.993	-35.47
346.376	-10.38
346.759	37.53
347.142	18.77
347.525	35.04
347.908	42.27
348.291	75.04
348.674	88.37
349.057	106
349.44	114.36
349.823	153
350.206	182.16
350.588	190.74
350.971	195.72
351.354	219.22
351.737	220.8
352.119	247.24
352.502	257.86
352.884	275.04
353.267	259.89
353.65	275.04
354.032	271.42
354.414	296.28
354.797	287.92
355.179	311.64
355.562	316.62
355.944	293.34
356.326	329.5
356.709	315.49
357.091	309.84
357.473	328.37
357.855	309.84
358.238	331.53
358.62	325.43
359.002	340.12
359.384	324.98
359.766	349.16
360.148	336.73
360.53	345.99
360.912	304.64
361.294	312.55
361.676	309.38
362.057	311.19
362.439	316.62
362.821	319.1
363.203	312.32
363.584	319.33
363.966	318.42
364.348	289.95
364.729	315.49
365.111	318.65
365.493	310.51
365.874	325.43
366.256	312.32
366.637	319.78
367.019	309.61
367.4	308.03
367.781	296.96
368.163	297.86
368.544	322.72
368.925	313.68
369.306	292.44
369.688	312.77
370.069	298.99
370.45	282.04
370.831	301.7
371.212	295.6
371.593	334.92
371.974	308.03
372.355	290.18
372.736	310.97
373.117	306.45
373.498	306.45
373.879	315.03
374.26	322.49
374.641	305.77
375.021	300.57
375.402	318.88
375.783	277.52
376.163	314.58
376.544	310.74
376.925	320.01
377.305	313.45
377.686	323.4
378.066	314.81
378.447	313.68
378.827	303.06
379.208	317.29
379.588	327.24
379.968	322.94
380.349	319.78
380.729	316.62
381.109	330.17
381.489	310.06
381.87	311.64
382.25	330.17
382.63	335.37
383.01	334.02
383.39	327.01
383.77	345.54
384.15	332.21
384.53	334.24
384.91	328.82
385.29	318.88
385.67	329.05
386.049	346.9
386.429	332.21
386.809	343.51
387.189	337.41
387.568	338.08
387.948	321.14
388.328	332.43
388.707	344.41
389.087	357.07
389.466	364.07
389.846	353.45
390.225	360.91
390.605	360
390.984	344.19
391.363	387.35
391.743	337.41
392.122	365.65
392.501	374.02
392.881	354.58
393.26	364.07
393.639	367.46
394.018	359.33
394.397	374.02
394.776	374.24
395.155	379.44
395.534	383.51
395.913	367.69
396.292	396.39
396.671	412.43
397.05	373.11
397.429	376.95
397.808	363.62
398.186	369.95
398.565	390.96
398.944	387.12
399.323	395.03
399.701	401.81
400.08	376.28
400.458	397.29
400.837	401.36
401.215	415.6
401.594	412.66
401.972	406.78
402.351	400
402.729	403.85
403.107	407.91
403.486	413.56
403.864	400.23
404.242	417.63
404.62	403.17
404.999	425.09
405.377	430.96
405.755	418.31
406.133	431.42
406.511	440.91
406.889	440.45
407.267	457.63
407.645	458.31
408.023	462.6
408.401	468.02
408.779	456.73
409.156	488.36
409.534	467.57
409.912	479.78
410.29	493.79
410.667	501.24
411.045	519.77
411.422	512.09
411.8	512.32
412.178	510.96
412.555	534.24
412.933	528.14
413.31	537.18
413.687	552.77
414.065	563.62
414.442	557.06
414.819	552.09
415.197	581.92
415.574	565.2
415.951	588.93
416.328	591.86
416.705	601.81
417.082	590.73
417.46	601.81
417.837	616.27
418.214	601.81
418.591	639.32
418.967	643.16
419.344	653.56
419.721	634.57
420.098	662.6
420.475	644.52
420.852	649.71
421.228	695.36
421.605	677.74
421.982	702.14
422.358	675.7
422.735	720.67
423.111	696.94
423.488	728.58
423.864	734.23
424.241	749.37
424.617	766.32
424.994	762.71
425.37	769.49
425.746	783.04
426.123	787.11
426.499	790.95
426.875	798.41
427.251	819.88
427.627	831.18
428.003	829.82
428.379	852.2
428.756	845.87
429.132	890.84
429.507	867.79
429.883	885.87
430.259	879.77
430.635	891.74
431.011	919.09
431.387	946.43
431.763	948.46
432.138	942.14
432.514	956.6
432.89	985.3
433.265	981.91
433.641	1007.45
434.016	1036.6
434.392	1061.91
434.767	1083.38
435.143	1077.73
435.518	1111.85
435.894	1117.05
436.269	1133.54
436.644	1129.02
437.02	1143.94
437.395	1142.81
437.77	1170.15
438.145	1191.4
438.52	1216.71
438.895	1214.22
439.271	1215.35
439.646	1240.21
440.021	1272.75
440.395	1276.59
440.77	1254.22
441.145	1323.37
441.52	1324.5
441.895	1317.04
442.27	1317.04
442.645	1345.74
443.019	1359.3
443.394	1341.22
443.769	1376.25
444.143	1389.81
444.518	1404.72
444.892	1400.43
445.267	1408.79
445.641	1423.71
446.016	1433.42
446.39	1430.26
446.764	1460.31
447.139	1439.52
447.513	1493.99
447.887	1442.46
448.262	1487.88
448.636	1483.36
449.01	1518.39
449.384	1529.69
449.758	1499.41
450.132	1526.08
450.506	1563.59
450.88	1558.17
451.254	1564.27
451.628	1581.44
452.002	1596.36
452.376	1569.69
452.75	1583.25
453.123	1635.23
453.497	1669.8
453.871	1663.02
454.244	1653.98
454.618	1691.72
454.992	1698.27
455.365	1706.18
455.739	1758.39
456.112	1747.31
456.486	1764.26
456.859	1771.27
457.232	1817.14
457.606	1816.92
457.979	1830.93
458.352	1841.55
458.725	1911.6
459.099	1888.55
459.472	1934.88
459.845	1909.12
460.218	1944.37
460.591	1952.28
460.964	1953.18
461.337	2011.49
461.71	2046.06
462.083	2061.88
462.456	2051.49
462.829	2044.25
463.201	2062.56
463.574	2092.16
463.947	2112.5
464.32	2162.22
464.692	2182.1
465.065	2185.72
465.438	2221.42
465.81	2240.86
466.183	2253.29
466.555	2288.54
466.928	2293.29
467.3	2303.23
467.672	2362.44
468.045	2399.95
468.417	2370.57
468.789	2407.63
469.161	2426.17
469.534	2496.22
469.906	2508.87
470.278	2513.39
470.65	2546.39
471.022	2575.54
471.394	2596.56
471.766	2639.27
472.138	2673.16
472.51	2693.73
472.882	2740.96
473.253	2759.49
473.625	2785.25
473.997	2834.06
474.369	2818.02
474.74	2858.7
475.112	2927.62
475.484	2966.26
475.855	3023.66
476.227	3006.26
476.598	3065.02
476.97	3118.8
477.341	3154.06
477.713	3198.8
478.084	3228.63
478.455	3285.13
478.827	3288.74
479.198	3387.95
479.569	3366.93
479.94	3424.56
480.311	3455.52
480.682	3546.36
481.053	3565.8
481.424	3623.65
481.795	3661.39
482.166	3690.09
482.537	3751.78
482.908	3815.06
483.279	3834.26
483.65	3910.65
484.021	3981.6
484.391	3978.89
484.762	4012.11
485.133	4027.93
485.503	4072.9
485.874	4122.17
486.244	4187.7
486.615	4269.05
486.985	4285.33
487.356	4288.26
487.726	4369.84
488.097	4430.18
488.467	4428.37
488.837	4501.82
489.207	4559.89
489.578	4617.52
489.948	4624.53
490.318	4717.4
490.688	4753.79
491.058	4749.04
491.428	4784.3
491.798	4863.62
492.168	4909.26
492.538	4943.84
492.908	4919.21
493.278	5023.61
493.648	5000.33
494.017	5107.68
494.387	5085.98
494.757	5138.64
495.126	5185.19
495.496	5175.47
495.866	5251.63
496.235	5258.63
496.605	5315.35
496.974	5340.66
497.344	5365.52
497.713	5409.14
498.082	5379.76
498.452	5433.54
498.821	5457.5
499.19	5459.31
499.559	5566.65
499.928	5550.83
500.298	5603.03
500.667	5610.04
501.036	5611.84
501.405	5634.44
501.774	5586.08
502.143	5626.31
502.512	5662.92
502.88	5752.86
503.249	5702.01
503.618	5748.34
503.987	5736.59
504.356	5802.8
504.724	5796.02
505.093	5814.32
505.462	5822.23
505.83	5833.08
506.199	5907.66
506.567	5970.03
506.936	5937.26
507.304	6002.34
507.672	6012.51
508.041	5983.59
508.409	5969.35
508.777	6004.6
509.145	6093.19
509.514	6066.3
509.882	6097.25
510.25	6087.31
510.618	6115.33
510.986	6146.07
511.354	6177.03
511.722	6155.11
512.09	6175.9
512.458	6197.59
512.826	6240.75
513.193	6184.94
513.561	6233.3
513.929	6246.86
514.297	6349.23
514.664	6318.27
515.032	6341.09
515.4	6299.51
515.767	6337.25
516.135	6348.77
516.502	6341.32
516.869	6354.2
517.237	6424.25
517.604	6344.25
517.972	6379.73
518.339	6453.86
518.706	6408.43
519.073	6464.7
519.44	6430.13
519.808	6474.65
520.175	6473.29
520.542	6539.5
520.909	6535.44
521.276	6572.27
521.643	6568.2
522.009	6540.41
522.376	6605.49
522.743	6607.07
523.11	6638.48
523.477	6624.7
523.843	6682.1
524.21	6684.36
524.577	6756.45
524.943	6704.47
525.31	6752.6
525.676	6813.85
526.043	6806.16
526.409	6819.27
526.776	6872.38
527.142	6865.6
527.508	6879.38
527.874	6856.33
528.241	6879.16
528.607	6866.5
528.973	6944.92
529.339	6956.89
529.705	6942.2
530.071	6961.41
530.437	6996.44
530.803	6977.23
531.169	7045.48
531.535	7058.81
531.901	7032.82
532.267	7060.17
532.632	7057.46
532.998	7092.71
533.364	7121.86
533.73	7036.44
534.095	7095.65
534.461	7118.02
534.826	7151.01
535.192	7089.09
535.557	7153.5
535.923	7155.53
536.288	7154.85
536.653	7192.59
537.019	7112.37
537.384	7149.43
537.749	7170.45
538.114	7174.97
538.479	7185.36
538.845	7190.33
539.21	7151.24
539.575	7177.9
539.94	7191.01
540.305	7210.67
540.67	7205.93
541.034	7183.1
541.399	7257.22
541.764	7192.59
542.129	7220.62
542.494	7188.53
542.858	7230.56
543.223	7327.73
543.587	7297.45
543.952	7219.03
544.316	7268.52
544.681	7229.2
545.045	7239.6
545.41	7313.04
545.774	7259.26
546.138	7260.84
546.503	7229.2
546.867	7222.2
547.231	7352.59
547.595	7264.91
547.959	7310.1
548.324	7281.18
548.688	7289.99
549.052	7284.79
549.416	7294.96
549.779	7294.74
550.143	7248.86
550.507	7365.92
550.871	7333.38
551.235	7331.12
551.599	7355.07
551.962	7377.45
552.326	7359.59
552.689	7355.07
553.053	7319.6
553.417	7308.3
553.78	7429.88
554.143	7384.9
554.507	7405.47
554.87	7421.97
555.234	7508.74
555.597	7443.21
555.96	7395.98
556.323	7469.87
556.686	7429.42
557.05	7476.65
557.413	7477.78
557.776	7507.61
558.139	7494.51
558.502	7517.33
558.865	7559.14
559.228	7599.14
559.59	7631.23
559.953	7627.38
560.316	7671
560.679	7645.24
561.041	7643.43
561.404	7696.53
561.767	7686.59
562.129	7664.9
562.492	7723.43
562.854	7699.7
563.217	7766.82
563.579	7830.32
563.941	7795.06
564.304	7847.72
564.666	7906.25
565.028	7904.89
565.39	7950.09
565.753	7962.97
566.115	7962.74
566.477	8001.61
566.839	8026.7
567.201	8049.97
567.563	8002.29
567.925	8104.89
568.287	8127.03
568.648	8139.69
569.01	8100.59
569.372	8243.87
569.734	8182.4
570.095	8228.5
570.457	8226.24
570.819	8201.61
571.18	8253.36
571.542	8286.8
571.903	8336.29
572.265	8273.02
572.626	8372
572.987	8396.4
573.349	8424.65
573.71	8492.9
574.071	8497.19
574.432	8531.54
574.794	8570.86
575.155	8554.14
575.516	8555.72
575.877	8602.95
576.238	8628.49
576.599	8650.86
576.96	8698.54
577.32	8645.21
577.681	8820.57
578.042	8748.94
578.403	8753
578.763	8835.49
579.124	8846.11
579.485	8889.05
579.845	8960
580.206	8914.58
580.566	8995.03
580.927	8891.76
581.287	9048.82
581.648	8974.69
582.008	9081.13
582.368	9058.76
582.728	9127.46
583.089	9132.66
583.449	9170.85
583.809	9261.47
584.169	9220.56
584.529	9249.94
584.889	9293.33
585.249	9246.1
585.609	9263.5
585.969	9253.56
586.329	9323.61
586.688	9364.51
587.048	9424.17
587.408	9416.04
587.768	9457.39
588.127	9456.49
588.487	9478.63
588.846	9488.8
589.206	9482.02
589.565	9520.44
589.925	9556.15
590.284	9585.98
590.643	9577.84
591.003	9606.77
591.362	9685.41
591.721	9709.59
592.08	9634.56
592.44	9797.5
592.799	9736.71
593.158	9733.54
593.517	9755.01
593.876	9872.52
594.235	9818.96
594.593	9799.08
594.952	9898.51
595.311	9839.3
595.67	9878.62
596.029	9958.17
596.387	9917.95
596.746	9894.9
597.104	9985.29
597.463	9928.79
597.822	10048.34
598.18	9992.75
598.538	10030.26
598.897	10108
599.255	9924.95
599.613	10094.21
599.972	10085.62
600.33	10161.78
600.688	10077.26
601.046	10097.15
601.404	10155
601.762	10168.79
602.12	10228.22
602.478	10270.03
602.836	10273.19
603.194	10203.36
603.552	10230.48
603.91	10170.82
604.268	10246.75
604.625	10161.33
604.983	10230.03
605.341	10205.62
605.698	10349.57
606.056	10323.36
606.413	10314.77
606.771	10360.65
607.128	10384.15
607.485	10303.47
607.843	10342.34
608.2	10332.17
608.557	10417.82
608.914	10347.76
609.272	10502.56
609.629	10466.63
609.986	10449.68
610.343	10420.08
610.7	10550.92
611.057	10497.14
611.414	10480.19
611.771	10513.64
612.127	10567.65
612.484	10538.27
612.841	10566.29
613.198	10479.06
613.554	10561.09
613.911	10615.78
614.267	10609
614.624	10571.04
614.98	10641.54
615.337	10649.9
615.693	10627.08
616.05	10599.28
616.406	10665.72
616.762	10646.29
617.118	10660.3
617.475	10685.61
617.831	10681.32
618.187	10664.59
618.543	10680.41
618.899	10729.45
619.255	10674.31
619.611	10720.18
619.967	10752.95
620.323	10824.14
620.678	10752.27
621.034	10736.23
621.39	10741.88
621.746	10755.89
622.101	10895.55
622.457	10740.75
622.812	10775.1
623.168	10812.84
623.523	10726.74
623.879	10890.58
624.234	10726.29
624.589	10780.75
624.945	10808.09
625.3	10756.57
625.655	10787.08
626.01	10830.46
626.365	10758.15
626.72	10757.25
627.075	10728.77
627.43	10732.16
627.785	10753.86
628.14	10862.1
628.495	10785.95
628.85	10765.61
629.205	10813.06
629.559	10812.61
629.914	10712.95
630.269	10685.38
630.623	10762.67
630.978	10655.33
631.332	10690.13
631.687	10735.55
632.041	10682.67
632.396	10687.64
632.75	10704.82
633.104	10653.97
633.459	10677.47
633.813	10588.21
634.167	10594.99
634.521	10637.25
634.875	10658.04
635.229	10568.32
635.583	10538.04
635.937	10564.93
636.291	10568.55
636.645	10580.75
636.999	10468.89
637.352	10517.93
637.706	10493.75
638.06	10462.56
638.413	10434.99
638.767	10429.57
639.121	10413.75
639.474	10342.57
639.828	10380.31
640.181	10413.3
640.534	10422.11
640.888	10335.56
641.241	10300.76
641.594	10361.1
641.947	10347.76
642.301	10398.61
642.654	10371.72
643.007	10267.09
643.36	10365.84
643.713	10294.66
644.066	10364.49
644.419	10293.08
644.771	10209.92
645.124	10171.27
645.477	10137.15
645.83	10114.78
646.182	10035.46
646.535	9974.22
646.888	9993.2
647.24	9992.52
647.593	10028.9
647.945	9973.76
648.298	9926.31
648.65	9929.02
649.002	9951.16
649.355	10019.86
649.707	9950.71
650.059	10015.57
650.411	10078.85
650.763	10100.99
651.115	10243.81
651.467	10226.64
651.819	10167.43
652.171	10189.35
652.523	10143.48
652.875	10256.92
653.227	10124.27
653.578	10152.06
653.93	10209.46
654.282	10132.18
654.633	10124.72
654.985	10146.41
655.337	10154.1
655.688	10156.81
656.039	10216.24
656.391	10043.37
656.742	10153.65
657.094	10187.09
657.445	10225.06
657.796	10135.79
658.147	10236.58
658.498	10135.79
658.849	10205.62
659.2	10106.19
659.551	10204.27
659.902	10185.06
660.253	10196.58
660.604	10164.94
660.955	10174.89
661.306	10202.01
661.656	10220.99
662.007	10140.31
662.358	10171.05
662.708	10217.6
663.059	10126.3
663.409	10098.96
663.76	10157.94
664.11	10130.14
664.461	10173.53
664.811	10186.86
665.161	10154.55
665.511	10144.38
665.862	10193.19
666.212	10217.6
666.562	10252.4
666.912	10214.43
667.262	10187.32
667.612	10179.18
667.962	10197.94
668.312	10091.27
668.662	10174.66
669.011	10124.72
669.361	10164.04
669.711	10065.29
670.06	10126.75
670.41	10139.41
670.76	10059.64
671.109	10136.24
671.459	10116.58
671.808	10065.74
672.157	10196.13
672.507	10083.14
672.856	10070.48
673.205	10087.43
673.554	10152.29
673.904	10031.84
674.253	10137.37
674.602	10034.33
674.951	9931.73
675.3	9865.29
675.649	10013.31
675.998	10014.21
676.346	9975.12
676.695	9988.68
677.044	9993.65
677.393	10008.56
677.741	10036.36
678.09	9947.78
678.438	9909.36
678.787	10011.28
679.135	10000.66
679.484	9862.81
679.832	9984.38
680.181	9915.01
680.529	9887.21
680.877	9833.43
681.225	9832.3
681.573	9926.98
681.922	9798.17
682.27	9803.37
682.618	9776.48
682.966	9757.27
683.314	9774.22
683.661	9754.33
684.009	9750.49
684.357	9677.5
684.705	9632.3
685.053	9695.8
685.4	9589.82
685.748	9691.96
686.095	9621.91
686.443	9559.99
686.79	9586.43
687.138	9584.17
687.485	9520.67
687.832	9529.71
688.18	9458.52
688.527	9480.22
688.874	9427.34
689.221	9345.08
689.568	9374.46
689.915	9377.62
690.262	9268.7
690.609	9326.32
690.956	9289.26
691.303	9193.67
691.65	9201.35
691.997	9187.34
692.344	9135.82
692.69	9098.31
693.037	9190.05
693.383	9105.09
693.73	8995.48
694.077	8971.3
694.423	9005.88
694.769	8946.22
695.116	8918.88
695.462	8919.1
695.808	8859.67
696.155	8879.33
696.501	8797.07
696.847	8877.75
697.193	8822.61
697.539	8757.52
697.885	8721.82
698.231	8628.94
698.577	8600.47
698.923	8632.33
699.269	8529.51
699.614	8513.69
699.96	8575.38
700.306	8518.43
700.651	8475.05
700.997	8381.94
701.342	8406.57
701.688	8394.6
702.033	8400.7
702.379	8350.76
702.724	8276.63
703.069	8331.32
703.415	8274.15
703.76	8202.28
704.105	8287.48
704.45	8248.61
704.795	8158.9
705.14	8125.45
705.485	8183.08
705.83	8091.1
706.175	8066.24
706.52	8114.38
706.865	8080.48
707.209	8060.14
707.554	7978.34
707.899	8016.98
708.243	7939.69
708.588	7941.27
708.932	7926.13
709.277	7845.46
709.621	7859.24
709.966	7789.19
710.31	7812.46
710.654	7808.17
710.998	7745.8
711.342	7721.84
711.687	7787.61
712.031	7690.66
712.375	7729.75
712.719	7700.6
713.063	7675.52
713.407	7644.78
713.75	7699.47
714.094	7606.37
714.438	7615.63
714.782	7602.98
715.125	7588.74
715.469	7565.46
715.812	7577.67
716.156	7511.91
716.499	7532.7
716.843	7458.8
717.186	7490.44
717.53	7512.81
717.873	7494.73
718.216	7501.51
718.559	7490.66
718.902	7381.06
719.246	7377
719.589	7390.33
719.932	7363.44
720.275	7372.02
720.617	7372.93
720.96	7415.19
721.303	7422.64
721.646	7345.13
721.989	7357.56
722.331	7377
722.674	7280.05
723.016	7338.8
723.359	7283.66
723.701	7331.57
724.044	7245.93
724.386	7160.28
724.729	7291.57
725.071	7294.51
725.413	7284.34
725.755	7241.86
726.097	7182.42
726.439	7165.93
726.782	7172.25
727.124	7204.57
727.465	7217.23
727.807	7249.32
728.149	7180.84
728.491	7169.54
728.833	7181.07
729.175	7199.37
729.516	7130.22
729.858	7193.27
730.199	7232.59
730.541	7208.41
730.882	7197.11
731.224	7209.54
731.565	7127.51
731.906	7148.07
732.248	7150.56
732.589	7129.32
732.93	7116.21
733.271	7149.88
733.612	7145.36
733.953	7153.95
734.294	7117.79
734.635	7101.52
734.976	7119.37
735.317	7118.02
735.658	7110.34
735.999	7118.47
736.339	7159.37
736.68	7100.62
737.021	7113.27
737.361	7073.95
737.702	7129.77
738.042	7111.92
738.383	7146.94
738.723	7202.31
739.063	7092.48
739.404	7164.12
739.744	7132.03
740.084	7117.79
740.424	7217
740.764	7185.81
741.104	7147.4
741.444	7186.72
741.784	7168.87
742.124	7222.2
742.464	7236.43
742.804	7202.54
743.143	7249.99
743.483	7209.99
743.823	7285.7
744.162	7282.08
744.502	7336.77
744.841	7317.11
745.181	7425.81
745.52	7381.74
745.86	7448.86
746.199	7404.57
746.538	7462.64
746.877	7525.47
747.216	7543.32
747.556	7568.85
747.895	7639.81
748.234	7649.76
748.573	7765.69
748.911	7777.66
749.25	7795.97
749.589	7764.33
749.928	7885.68
750.267	7921.16
750.605	8006.13
750.944	8022.4
751.283	8128.84
751.621	8223.3
751.96	8280.93
752.298	8304.88
752.636	8409.51
752.975	8442.28
753.313	8529.06
753.651	8628.71
753.989	8687.47
754.327	8826.45
754.666	8912.55
755.004	9055.82
755.342	9103.73
755.679	9252.65
756.017	9305.08
756.355	9481.12
756.693	9585.75
757.031	9714.79
757.368	9802.92
757.706	10015.8
758.044	10070.94
758.381	10168.79
758.719	10312.51
759.056	10539.85
759.394	10627.31
759.731	10746.4
760.068	10834.31
760.405	10999.72
760.743	11079.27
761.08	11333.73
761.417	11385.93
761.754	11619.82
762.091	11643.78
762.428	11817.78
762.765	12001.05
763.102	12250.99
763.438	12348.62
763.775	12498.89
764.112	12636.29
764.449	12837.64
764.785	12887.13
765.122	12998.99
