Data from hue_90_FLMS001491_38.txt Node
Date: Mon Feb 06 15:25:03 GMT 2017
User: dcchb
Spectrometer: FLMS00149
Trigger mode: 0
Integration Time (sec): 2.000000E-2
Scans to average: 10
Electric dark correction enabled: true
Nonlinearity correction enabled: false
Boxcar width: 0
XAxis mode: Wavelengths
Number of Pixels in Spectrum: 2048
>>>>>Begin Spectral Data<<<<<
341.393	-24.62
341.776	-24.62
342.16	-24.62
342.543	-39.76
342.927	-81.34
343.31	-66.88
343.693	-58.29
344.077	-45.41
344.46	-83.83
344.843	-66.2
345.226	-50.61
345.61	-61.68
345.993	-26.43
346.376	4.99
346.759	17.87
347.142	38.43
347.525	37.98
347.908	67.58
348.291	73.91
348.674	103.29
349.057	115.27
349.44	121.82
349.823	139.45
350.206	157.07
350.588	202.49
350.971	196.17
351.354	218.09
351.737	228.93
352.119	249.73
352.502	269.39
352.884	304.19
353.267	271.19
353.65	300.57
354.032	296.28
354.414	327.46
354.797	298.09
355.179	350.06
355.562	325.43
355.944	323.85
356.326	322.94
356.709	340.8
357.091	341.25
357.473	361.59
357.855	359.55
358.238	327.01
358.62	342.6
359.002	355.26
359.384	353.9
359.766	336.95
360.148	329.5
360.53	353
360.912	337.63
361.294	342.6
361.676	322.72
362.057	344.64
362.439	339.89
362.821	334.92
363.203	324.07
363.584	326.11
363.966	348.93
364.348	314.81
364.729	325.66
365.111	326.56
365.493	326.33
365.874	327.69
366.256	328.14
366.637	331.76
367.019	322.04
367.4	329.5
367.781	305.99
368.163	319.1
368.544	316.62
368.925	318.88
369.306	319.1
369.688	314.81
370.069	301.7
370.45	337.18
370.831	330.63
371.212	292.66
371.593	340.8
371.974	327.24
372.355	315.26
372.736	320.46
373.117	315.71
373.498	317.29
373.879	339.89
374.26	317.75
374.641	308.71
375.021	317.52
375.402	328.14
375.783	343.73
376.163	350.97
376.544	345.32
376.925	340.34
377.305	322.72
377.686	334.69
378.066	327.46
378.447	334.24
378.827	345.99
379.208	348.71
379.588	331.53
379.968	340.12
380.349	344.41
380.729	326.56
381.109	340.12
381.489	336.28
381.87	360.68
382.25	350.06
382.63	346.67
383.01	358.2
383.39	338.54
383.77	367.24
384.15	358.42
384.53	355.94
384.91	338.31
385.29	329.95
385.67	351.19
386.049	366.56
386.429	343.06
386.809	357.07
387.189	365.43
387.568	378.99
387.948	365.43
388.328	389.83
388.707	385.09
389.087	373.11
389.466	355.94
389.846	374.92
390.225	393.68
390.605	386.22
390.984	372.66
391.363	384.64
391.743	381.02
392.122	381.02
392.501	411.75
392.881	386.44
393.26	389.83
393.639	396.61
394.018	381.02
394.397	377.41
394.776	393.45
395.155	381.25
395.534	412.21
395.913	385.99
396.292	386.9
396.671	401.13
397.05	396.39
397.429	414.69
397.808	408.82
398.186	405.88
398.565	399.55
398.944	395.71
399.323	406.56
399.701	406.56
400.08	414.01
400.458	410.4
400.837	425.09
401.215	407.91
401.594	429.83
401.972	452.43
402.351	431.87
402.729	410.4
403.107	430.96
403.486	424.41
403.864	437.74
404.242	421.7
404.62	438.87
404.999	422.6
405.377	450.85
405.755	448.36
406.133	451.3
406.511	471.64
406.889	449.27
407.267	470.28
407.645	435.26
408.023	452.88
408.401	485.43
408.779	465.09
409.156	477.06
409.534	506.67
409.912	439.55
410.29	475.48
410.667	492.43
411.045	496.05
411.422	477.29
411.8	496.72
412.178	486.78
412.555	472.77
412.933	490.17
413.31	503.96
413.687	509.38
414.065	510.96
414.442	512.54
414.819	522.26
415.197	521.81
415.574	540.34
415.951	535.59
416.328	533.56
416.705	532.43
417.082	565.65
417.46	532.43
417.837	548.93
418.214	542.37
418.591	545.99
418.967	561.36
419.344	563.84
419.721	554.8
420.098	560.45
420.475	556.38
420.852	575.14
421.228	569.49
421.605	567
421.982	571.07
422.358	600
422.735	603.61
423.111	583.95
423.488	593.67
423.864	589.83
424.241	589.38
424.617	600.45
424.994	618.75
425.37	603.84
425.746	617.4
426.123	635.48
426.499	619.66
426.875	646.1
427.251	622.37
427.627	644.52
428.003	636.38
428.379	656.49
428.756	685.19
429.132	668.7
429.507	665.53
429.883	682.93
430.259	674.12
430.635	696.04
431.011	685.87
431.387	695.59
431.763	690.84
432.138	709.6
432.514	715.7
432.89	701.24
433.265	725.64
433.641	740.56
434.016	751.63
434.392	742.37
434.767	753.67
435.143	763.38
435.518	780.33
435.894	779.88
436.269	758.41
436.644	818.52
437.02	804.29
437.395	819.88
437.77	774.46
438.145	830.05
438.52	818.3
438.895	827.56
439.271	830.27
439.646	824.85
440.021	850.16
440.395	851.52
440.77	856.94
441.145	866.21
441.52	870.05
441.895	864.85
442.27	878.18
442.645	877.05
443.019	891.97
443.394	906.43
443.769	896.49
444.143	903.72
444.518	934
444.892	955.02
445.267	928.13
445.641	943.49
446.016	942.81
446.39	943.49
446.764	936.49
447.139	939.2
447.513	941.46
447.887	949.14
448.262	959.76
448.636	962.02
449.01	984.62
449.384	1004.73
449.758	1010.84
450.132	1000.67
450.506	1014.68
450.88	1022.81
451.254	1030.27
451.628	1037.73
452.002	1057.84
452.376	1040.21
452.75	1065.52
453.123	1066.65
453.497	1085.41
453.871	1109.82
454.244	1103.94
454.618	1103.49
454.992	1115.47
455.365	1117.05
455.739	1145.75
456.112	1169.47
456.486	1165.18
456.859	1200.89
457.232	1204.95
457.606	1206.76
457.979	1218.29
458.352	1255.12
458.725	1278.85
459.099	1259.19
459.472	1282.24
459.845	1315.91
460.218	1322.92
460.591	1322.69
460.964	1358.17
461.337	1358.62
461.71	1393.65
462.083	1419.86
462.456	1411.95
462.829	1414.44
463.201	1439.07
463.574	1433.87
463.947	1465.74
464.32	1493.76
464.692	1525.4
465.065	1549.13
465.438	1546.64
465.81	1605.62
466.183	1616.24
466.555	1662.12
466.928	1648.33
467.3	1664.6
467.672	1682.91
468.045	1738.05
468.417	1730.82
468.789	1766.75
469.161	1802
469.534	1838.38
469.906	1874.09
470.278	1899.63
470.65	1923.35
471.022	1942.79
471.394	2030.24
471.766	2031.6
472.138	2065.5
472.51	2104.14
472.882	2175.32
473.253	2195.21
473.625	2219.39
473.997	2323.12
474.369	2320.86
474.74	2387.3
475.112	2453.28
475.484	2487.41
475.855	2520.4
476.227	2588.87
476.598	2679.72
476.97	2746.16
477.341	2774.63
477.713	2895.98
478.084	2956.77
478.455	3014.85
478.827	3104.34
479.198	3199.7
479.569	3252.13
479.94	3318.34
480.311	3447.16
480.682	3509.53
481.053	3628.62
481.424	3748.84
481.795	3770.08
482.166	3856.41
482.537	4019.57
482.908	4119.68
483.279	4178.21
483.65	4313.57
484.021	4481.25
484.391	4583.17
484.762	4626.79
485.133	4726.67
485.503	4828.14
485.874	5006.89
486.244	5136.38
486.615	5250.95
486.985	5400.78
487.356	5593.99
487.726	5705.85
488.097	5831.27
488.467	5915.79
488.837	6086.18
489.207	6263.8
489.578	6403.91
489.948	6535.44
490.318	6708.76
490.688	6737.24
491.058	6898.36
491.428	7070.34
491.798	7263.55
492.168	7395.3
492.538	7522.3
492.908	7659.7
493.278	7849.07
493.648	7882.07
494.017	8178.56
494.387	8299.91
494.757	8404.76
495.126	8562.05
495.496	8661.03
495.866	8842.27
496.235	8928.14
496.605	9137.18
496.974	9249.94
497.344	9327.45
497.713	9466.66
498.082	9542.14
498.452	9799.53
498.821	9884.95
499.19	9948.91
499.559	10126.53
499.928	10209.46
500.298	10270.48
500.667	10442
501.036	10415.11
501.405	10675.67
501.774	10729.45
502.143	10848.32
502.512	10889.22
502.88	11059.16
503.249	11107.97
503.618	11116.78
503.987	11273.16
504.356	11363.11
504.724	11455.53
505.093	11472.93
505.462	11638.13
505.83	11666.83
506.199	11821.17
506.567	11963.99
506.936	12028.62
507.304	12264.78
507.672	12248.73
508.041	12218.22
508.409	12309.75
508.777	12505.22
509.145	12574.82
509.514	12542.51
509.882	12625.44
510.25	12698.44
510.618	12836.74
510.986	12829.06
511.354	12922.61
511.722	13021.14
512.09	13161.25
512.458	13037.86
512.826	13331.19
513.193	13233.79
513.561	13284.18
513.929	13353.34
514.297	13461.36
514.664	13577.28
515.032	13560.79
515.4	13575.25
515.767	13661.8
516.135	13671.97
516.502	13601.92
516.869	13869.93
517.237	13903.15
517.604	13821.8
517.972	13873.77
518.339	13996.03
518.706	14001.23
519.073	14003.26
519.44	14143.15
519.808	14173.43
520.175	14059.98
520.542	14289.13
520.909	14319.86
521.276	14292.07
521.643	14445.51
522.009	14482.12
522.376	14495.45
522.743	14462.91
523.11	14623.13
523.477	14716.24
523.843	14748.33
524.21	14837.36
524.577	14826.06
524.943	14866.97
525.31	14802.79
525.676	14942.9
526.043	14981.77
526.409	14994.42
526.776	15035.33
527.142	15083.46
527.508	15110.13
527.874	15146.96
528.241	15147.19
528.607	15127.53
528.973	15282.55
529.339	15231.25
529.705	15319.16
530.071	15295.21
530.437	15325.49
530.803	15296.34
531.169	15322.32
531.535	15283.68
531.901	15284.13
532.267	15279.84
532.632	15359.84
532.998	15354.64
533.364	15290.46
533.73	15234.87
534.095	15307.86
534.461	15326.84
534.826	15266.51
535.192	15361.19
535.557	15333.17
535.923	15226.51
536.288	15307.41
536.653	15308.99
537.019	15170.91
537.384	15216.56
537.749	15259.05
538.114	15226.05
538.479	15213.63
538.845	15191.03
539.21	15052.05
539.575	15089.33
539.94	15014.53
540.305	15062.44
540.67	14981.32
541.034	14952.16
541.399	15031.03
541.764	14899.06
542.129	15048.66
542.494	14945.16
542.858	14907.87
543.223	14836.91
543.587	14800.3
543.952	14788.33
544.316	14699.51
544.681	14714.2
545.045	14711.72
545.41	14706.29
545.774	14683.02
546.138	14612.74
546.503	14621.55
546.867	14564.6
547.231	14635.34
547.595	14561.67
547.959	14605.73
548.324	14516.47
548.688	14480.31
549.052	14478.96
549.416	14397.83
549.779	14434.21
550.143	14426.3
550.507	14446.87
550.871	14393.76
551.235	14351.28
551.599	14348.11
551.962	14226.53
552.326	14222.24
552.689	14322.8
553.053	14219.3
553.417	14145.86
553.78	14233.99
554.143	14175.23
554.507	14205.29
554.87	14150.83
555.234	14282.35
555.597	14087.33
555.96	14097.04
556.323	14158.51
556.686	14067.21
557.05	14208
557.413	14095.46
557.776	14116.48
558.139	14185.86
558.502	14108.12
558.865	14170.04
559.228	14231.28
559.59	14175.01
559.953	14180.21
560.316	14251.39
560.679	14110.15
561.041	14219.08
561.404	14240.32
561.767	14304.72
562.129	14179.08
562.492	14270.83
562.854	14191.05
563.217	14186.53
563.579	14234.89
563.941	14259.75
564.304	14234.89
564.666	14346.76
565.028	14372.97
565.39	14317.83
565.753	14329.35
566.115	14310.82
566.477	14417.04
566.839	14354.89
567.201	14426.3
567.563	14386.3
567.925	14488.67
568.287	14416.36
568.648	14478.73
569.01	14489.35
569.372	14528.45
569.734	14495
570.095	14529.35
570.457	14563.7
570.819	14580.87
571.18	14611.16
571.542	14660.42
571.903	14619.06
572.265	14619.06
572.626	14699.29
572.987	14659.97
573.349	14653.64
573.71	14709.23
574.071	14655
574.432	14735.9
574.794	14833.97
575.155	14813.18
575.516	14810.25
575.877	14765.05
576.238	14828.32
576.599	14848.44
576.96	14780.64
577.32	14807.53
577.681	14826.97
578.042	14834.43
578.403	14859.51
578.763	14841.88
579.124	14929.57
579.485	14836.91
579.845	14923.46
580.206	14824.03
580.566	14904.26
580.927	14900.87
581.287	14954.2
581.648	14859.51
582.008	14938.6
582.368	14873.52
582.728	14875.33
583.089	14861.77
583.449	14882.79
583.809	14879.62
584.169	14861.09
584.529	14843.01
584.889	14995.78
585.249	14757.82
585.609	14772.96
585.969	14823.81
586.329	14840.53
586.688	14878.94
587.048	14846.63
587.408	14793.52
587.768	14761.66
588.127	14753.07
588.487	14754.65
588.846	14841.43
589.206	14654.32
589.565	14730.7
589.925	14745.84
590.284	14686.63
590.643	14735.22
591.003	14722.56
591.362	14753.07
591.721	14669.91
592.08	14717.37
592.44	14745.62
592.799	14783.13
593.158	14629.69
593.517	14710.81
593.876	14753.07
594.235	14700.87
594.593	14735.9
594.952	14669.01
595.311	14689.57
595.67	14691.15
596.029	14689.12
596.387	14695.45
596.746	14684.83
597.104	14647.31
597.463	14691.83
597.822	14650.48
598.18	14657.26
598.538	14594.21
598.897	14702.9
599.255	14535.9
599.613	14680.76
599.972	14650.48
600.33	14704.71
600.688	14639.63
601.046	14673.3
601.404	14672.4
601.762	14637.82
602.12	14704.71
602.478	14727.31
602.836	14723.92
603.194	14649.8
603.552	14604.15
603.91	14526.64
604.268	14676.01
604.625	14615.9
604.983	14667.65
605.341	14601.44
605.698	14667.88
606.056	14792.62
606.413	14661.55
606.771	14842.79
607.128	14752.17
607.485	14689.35
607.843	14674.66
608.2	14712.4
608.557	14862.22
608.914	14701.1
609.272	14763.47
609.629	14780.87
609.986	14791.04
610.343	14823.13
610.7	14839.4
611.057	14838.04
611.414	14896.8
611.771	14893.18
612.127	14895.67
612.484	14907.87
612.841	14895.67
613.198	14866.29
613.554	14863.13
613.911	14952.84
614.267	14880.3
614.624	14895.22
614.98	14956.91
615.337	15032.84
615.693	14955.78
616.05	14970.24
616.406	15079.39
616.762	14973.18
617.118	14995.55
617.475	14970.69
617.831	15101.31
618.187	15160.07
618.543	15003.91
618.899	15089.56
619.255	15113.97
619.611	15018.6
619.967	15130.01
620.323	15192.83
620.678	15092.95
621.034	15051.6
621.39	15098.15
621.746	15099.73
622.101	15214.76
622.457	15045.72
622.812	15176.34
623.168	15210.91
623.523	15083.69
623.879	15205.04
624.234	15013.18
624.589	15206.85
624.945	15156.9
625.3	15174.3
625.655	15172.04
626.01	15109.45
626.365	15139.05
626.72	15122.55
627.075	15109
627.43	15127.75
627.785	15057.7
628.14	15065.83
628.495	15219.95
628.85	15092.05
629.205	15105.61
629.559	15169.56
629.914	15079.17
630.269	15046.17
630.623	14988.55
630.978	14987.19
631.332	15085.95
631.687	15025.16
632.041	14936.12
632.396	14996.68
632.75	14909.9
633.104	14901.77
633.459	14962.56
633.813	14877.59
634.167	14864.93
634.521	14871.04
634.875	14882.11
635.229	14773.64
635.583	14782.45
635.937	14788.33
636.291	14756.91
636.645	14782.68
636.999	14725.73
637.352	14826.74
637.706	14767.08
638.06	14793.75
638.413	14791.94
638.767	14586.75
639.121	14713.53
639.474	14564.38
639.828	14599.63
640.181	14623.36
640.534	14593.3
640.888	14581.55
641.241	14519.41
641.594	14555.56
641.947	14597.6
642.301	14427.21
642.654	14506.98
643.007	14513.3
643.36	14410.26
643.713	14516.69
644.066	14566.64
644.419	14433.98
644.771	14305.17
645.124	14295.68
645.477	14224.27
645.83	14120.32
646.182	14031.51
646.535	14004.84
646.888	14057.95
647.24	14064.28
647.593	14064.73
647.945	14040.77
648.298	13941.57
648.65	13971.85
649.002	13849.82
649.355	14056.14
649.707	13867.67
650.059	14026.09
650.411	14197.61
650.763	14168.68
651.115	14349.92
651.467	14305.17
651.819	14253.42
652.171	14313.31
652.523	14182.47
652.875	14249.13
653.227	14207.78
653.578	14289.58
653.93	14275.34
654.282	14228.34
654.633	14157.16
654.985	14306.53
655.337	14317.83
655.688	14245.29
656.039	14326.87
656.391	14135.24
656.742	14156.93
657.094	14205.29
657.445	14263.14
657.796	14219.98
658.147	14198.28
658.498	14211.84
658.849	14249.58
659.2	14288.68
659.551	14284.38
659.902	14287.77
660.253	14179.53
660.604	14338.62
660.955	14170.94
661.306	14257.94
661.656	14205.97
662.007	14265.85
662.358	14260.66
662.708	14239.87
663.059	14168.91
663.409	14159.42
663.76	14280.99
664.11	14336.59
664.461	14375.23
664.811	14328.9
665.161	14245.29
665.511	14205.29
665.862	14250.94
666.212	14265.4
666.562	14319.19
666.912	14259.75
667.262	14273.99
667.612	14301.56
667.962	14278.51
668.312	14343.82
668.662	14371.16
669.011	14237.38
669.361	14226.98
669.711	14281.9
670.06	14323.03
670.41	14231.28
670.76	14175.01
671.109	14280.09
671.459	14259.75
671.808	14218.62
672.157	14288
672.507	14142.69
672.856	14142.24
673.205	14153.54
673.554	14229.7
673.904	14144.73
674.253	14264.27
674.602	14118.51
674.951	13890.95
675.3	13871.51
675.649	14091.4
675.998	14010.04
676.346	14044.16
676.695	14120.09
677.044	14010.49
677.393	14024.05
677.741	14014.11
678.09	14038.97
678.438	14007.33
678.787	13974.56
679.135	13988.12
679.484	13944.96
679.832	13959.87
680.181	13857.95
680.529	13830.38
680.877	13880.78
681.225	13805.3
681.573	13889.82
681.922	13791.52
682.27	13753.55
682.618	13757.84
682.966	13670.84
683.314	13691.18
683.661	13682.82
684.009	13594.91
684.357	13581.58
684.705	13559.21
685.053	13555.82
685.4	13466.78
685.748	13490.05
686.095	13500.45
686.443	13461.81
686.79	13393.11
687.138	13395.14
687.485	13331.19
687.832	13294.35
688.18	13373.67
688.527	13253.68
688.874	13238.54
689.221	13191.98
689.568	13183.85
689.915	13154.92
690.262	13192.21
690.609	13101.82
690.956	13081.03
691.303	12982.95
691.65	12952.22
691.997	12849.39
692.344	12826.8
692.69	12816.85
693.037	12778.66
693.383	12714.48
693.73	12733.69
694.077	12658.89
694.423	12653.24
694.769	12594.26
695.116	12516.07
695.462	12518.1
695.808	12499.57
696.155	12500.93
696.501	12306.58
696.847	12303.19
697.193	12216.64
697.539	12413.47
697.885	12228.39
698.231	12104.55
698.577	12194.95
698.923	12133.71
699.269	12043.77
699.614	12012.35
699.96	12031.34
700.306	11895.29
700.651	11913.37
700.997	11873.6
701.342	11825.92
701.688	11803.32
702.033	11764.68
702.379	11777.78
702.724	11685.36
703.069	11675.41
703.415	11633.61
703.76	11557.68
704.105	11530.78
704.45	11526.94
704.795	11359.04
705.14	11388.64
705.485	11324.91
705.83	11258.25
706.175	11293.73
706.52	11303.67
706.865	11233.62
707.209	11242.43
707.554	11142.77
707.899	11109.78
708.243	11079.72
708.588	11100.97
708.932	11010.8
709.277	11014.87
709.621	10998.37
709.966	10943
710.31	10964.02
710.654	10845.38
710.998	10905.26
711.342	10911.37
711.687	10840.18
712.031	10843.8
712.375	10793.4
712.719	10719.28
713.063	10745.27
713.407	10741.65
713.75	10726.29
714.094	10725.83
714.438	10632.5
714.782	10604.48
715.125	10629.11
715.469	10580.75
715.812	10564.03
716.156	10529.91
716.499	10516.12
716.843	10532.17
717.186	10458.27
717.53	10487.65
717.873	10488.78
718.216	10470.7
718.559	10496.01
718.902	10421.89
719.246	10387.09
719.589	10362.91
719.932	10343.02
720.275	10248.33
720.617	10321.78
720.96	10282.68
721.303	10269.12
721.646	10297.82
721.989	10246.07
722.331	10253.76
722.674	10234.55
723.016	10238.84
723.359	10248.33
723.701	10160.65
724.044	10126.53
724.386	10120.88
724.729	10103.25
725.071	10127.88
725.413	10135.11
725.755	10191.38
726.097	10092.86
726.439	10099.86
726.782	9993.65
727.124	10125.4
727.465	10025.51
727.807	10086.75
728.149	10011.73
728.491	10006.08
728.833	10018.51
729.175	10069.58
729.516	9995.91
729.858	10037.94
730.199	10007.21
730.541	10025.74
730.882	10033.87
731.224	10011.95
731.565	10010.15
731.906	9965.18
732.248	9995.91
732.589	9951.16
732.93	9925.63
733.271	9990.49
733.612	10006.53
733.953	9947.1
734.294	9944.16
734.635	9947.55
734.976	10007.89
735.317	9932.63
735.658	9966.31
735.999	9917.27
736.339	9977.83
736.68	9939.87
737.021	9963.59
737.361	9915.01
737.702	9945.29
738.042	9979.19
738.383	10032.52
738.723	10034.55
739.063	10011.95
739.404	9990.94
739.744	9976.7
740.084	9968.57
740.424	10006.98
740.764	10006.76
741.104	10058.05
741.444	9957.27
741.784	10047.66
742.124	10020.09
742.464	10043.14
742.804	10072.07
743.143	10062.12
743.483	10078.39
743.823	10069.13
744.162	10135.79
744.502	10163.81
744.841	10117.49
745.181	10258.05
745.52	10295.79
745.86	10275.68
746.199	10265.96
746.538	10405.62
746.877	10409.91
747.216	10483.13
747.556	10512.51
747.895	10562
748.234	10503.69
748.573	10616.91
748.911	10683.8
749.25	10735.55
749.589	10758.38
749.928	10843.34
750.267	10916.56
750.605	11020.97
750.944	11059.84
751.283	11101.19
751.621	11234.3
751.96	11222.09
752.298	11412.82
752.636	11517.45
752.975	11542.08
753.313	11643.78
753.651	11782.3
753.989	11907.27
754.327	11970.55
754.666	12105.46
755.004	12205.79
755.342	12387.03
755.679	12456.64
756.017	12465
756.355	12816.85
756.693	12822.05
