Data from hue_180_FLMS001491_00084.txt Node
Date: Tue Feb 07 16:47:36 GMT 2017
User: dcchb
Spectrometer: FLMS00149
Trigger mode: 0
Integration Time (sec): 2.000000E-2
Scans to average: 10
Electric dark correction enabled: true
Nonlinearity correction enabled: false
Boxcar width: 0
XAxis mode: Wavelengths
Number of Pixels in Spectrum: 2048
>>>>>Begin Spectral Data<<<<<
341.393	-18.64
341.776	-18.64
342.16	-18.64
342.543	-65.65
342.927	-72.88
343.31	-77.63
343.693	-48.02
344.077	-100.22
344.46	-77.4
344.843	-58.64
345.226	-36.95
345.61	-22.26
345.993	-21.36
346.376	-3.28
346.759	5.31
347.142	34.69
347.525	51.41
347.908	56.38
348.291	79.21
348.674	104.97
349.057	113.78
349.44	138.64
349.823	161.46
350.206	158.75
350.588	193.1
350.971	215.02
351.354	243.95
351.737	241.24
352.119	264.74
352.502	267.22
352.884	269.48
353.267	257.28
353.65	286.43
354.032	273.78
354.414	300.22
354.797	296.6
355.179	332.99
355.562	323.49
355.944	323.49
356.326	330.27
356.709	325.08
357.091	327.79
357.473	323.04
357.855	344.06
358.238	338.41
358.62	333.66
359.002	341.8
359.384	348.58
359.766	347.67
360.148	334.57
360.53	326.66
360.912	322.82
361.294	338.64
361.676	329.6
362.057	321.01
362.439	321.91
362.821	330.73
363.203	316.94
363.584	326.21
363.966	326.43
364.348	340.89
364.729	321.23
365.111	322.82
365.493	324.17
365.874	316.26
366.256	313.1
366.637	301.12
367.019	329.6
367.4	294.57
367.781	320.56
368.163	334.79
368.544	339.77
368.925	308.81
369.306	311.74
369.688	290.05
370.069	323.27
370.45	299.09
370.831	309.48
371.212	316.49
371.593	304.96
371.974	318.3
372.355	336.83
372.736	327.56
373.117	322.59
373.498	320.78
373.879	318.52
374.26	328.92
374.641	298.86
375.021	316.71
375.402	325.98
375.783	318.07
376.163	306.77
376.544	322.36
376.925	323.95
377.305	332.08
377.686	324.4
378.066	314
378.447	328.47
378.827	323.49
379.208	333.89
379.588	323.95
379.968	331.18
380.349	318.75
380.729	325.75
381.109	349.26
381.489	337.28
381.87	328.24
382.25	331.18
382.63	331.63
383.01	349.93
383.39	345.19
383.77	357.62
384.15	327.79
384.53	352.42
384.91	343.83
385.29	333.89
385.67	352.87
386.049	328.24
386.429	342.48
386.809	339.31
387.189	359.65
387.568	344.74
387.948	333.44
388.328	353.78
388.707	361.23
389.087	359.65
389.466	362.82
389.846	378.18
390.225	350.84
390.605	364.17
390.984	349.03
391.363	341.57
391.743	361.46
392.122	357.62
392.501	405.3
392.881	382.7
393.26	372.08
393.639	377.96
394.018	355.58
394.397	380.67
394.776	378.18
395.155	354.68
395.534	366.66
395.913	380.89
396.292	397.62
396.671	391.29
397.05	385.19
397.429	408.46
397.808	421.12
398.186	391.52
398.565	385.64
398.944	407.56
399.323	405.98
399.701	400.1
400.08	408.92
400.458	409.37
400.837	426.54
401.215	400.78
401.594	417.5
401.972	401.46
402.351	431.06
402.729	399.88
403.107	400.1
403.486	408.46
403.864	425.64
404.242	421.57
404.62	444.62
404.999	433.1
405.377	434
405.755	445.98
406.133	432.87
406.511	436.49
406.889	444.85
407.267	469.93
407.645	448.69
408.023	461.8
408.401	475.35
408.779	479.65
409.156	472.87
409.534	486.2
409.912	498.86
410.29	497.73
410.667	495.24
411.045	508.35
411.422	525.97
411.8	539.99
412.178	533.66
412.555	556.03
412.933	537.27
413.31	546.09
413.687	565.07
414.065	560.78
414.442	555.13
414.819	565.97
415.197	599.87
415.574	606.88
415.951	591.06
416.328	607.1
416.705	591.51
417.082	625.63
417.46	607.1
417.837	619.53
418.214	657.72
418.591	626.76
418.967	654.33
419.344	677.84
419.721	675.35
420.098	686.42
420.475	693.65
420.852	707.44
421.228	702.24
421.605	724.16
421.982	723.03
422.358	731.17
422.735	754.67
423.111	737.95
423.488	754.44
423.864	765.29
424.241	784.73
424.617	804.84
424.994	809.81
425.37	833.54
425.746	798.96
426.123	827.44
426.499	817.04
426.875	851.16
427.251	856.36
427.627	885.97
428.003	885.51
428.379	906.98
428.756	926.87
429.132	902.46
429.507	944.49
429.883	929.35
430.259	939.75
430.635	962.12
431.011	986.75
431.387	981.56
431.763	1021.56
432.138	1017.49
432.514	1035.57
432.89	1040.54
433.265	1060.88
433.641	1059.75
434.016	1075.56
434.392	1102.68
434.767	1122.8
435.143	1137.71
435.518	1163.25
435.894	1175.68
436.269	1173.64
436.644	1204.38
437.02	1202.34
437.395	1241.21
437.77	1262.23
438.145	1290.47
438.52	1299.06
438.895	1322.79
439.271	1302.45
439.646	1327.54
440.021	1362.79
440.395	1376.12
440.77	1380.87
441.145	1364.82
441.52	1424.03
441.895	1420.19
442.27	1422
442.645	1457.7
443.019	1469
443.394	1477.14
443.769	1500.41
444.143	1515.33
444.518	1545.84
444.892	1541.09
445.267	1514.88
445.641	1558.94
446.016	1573.18
446.39	1613.4
446.764	1602.1
447.139	1583.12
447.513	1649.34
447.887	1630.13
448.262	1651.14
448.636	1658.15
449.01	1662.22
449.384	1695.44
449.758	1723.23
450.132	1735.43
450.506	1722.1
450.88	1762.33
451.254	1767.07
451.628	1782.89
452.002	1812.04
452.376	1819.27
452.75	1836.67
453.123	1861.08
453.497	1876
453.871	1905.83
454.244	1946.05
454.618	1953.28
454.992	1967.07
455.365	1966.39
455.739	2042.55
456.112	2064.92
456.486	2032.15
456.859	2054.3
457.232	2145.82
457.606	2088.42
457.979	2128.64
458.352	2194.18
458.725	2176.1
459.099	2247.29
459.472	2267.85
459.845	2297.45
460.218	2298.58
460.591	2325.02
460.964	2346.49
461.337	2428.98
461.71	2437.11
462.083	2453.16
462.456	2474.85
462.829	2494.28
463.201	2563.21
463.574	2555.75
463.947	2630.55
464.32	2678.01
464.692	2673.49
465.065	2689.08
465.438	2720.27
465.81	2776.09
466.183	2860.15
466.555	2898.79
466.928	2908.74
467.3	2931.11
467.672	2980.6
468.045	3068.51
468.417	3098.79
468.789	3063.08
469.161	3139.47
469.534	3223.08
469.906	3278.44
470.278	3296.07
470.65	3366.35
471.022	3452.68
471.394	3460.81
471.766	3498.1
472.138	3513.24
472.51	3650.86
472.882	3685.44
473.253	3764.99
473.625	3778.54
473.997	3844.31
474.369	3931.76
474.74	3967.69
475.112	4039.78
475.484	4148.03
475.855	4223.5
476.227	4272.99
476.598	4357.29
476.97	4421.69
477.341	4542.59
477.713	4601.8
478.084	4616.49
478.455	4792.76
478.827	4828.69
479.198	4945.97
479.569	4982.13
479.94	5151.16
480.311	5195.23
480.682	5275
481.053	5446.75
481.424	5545.96
481.795	5614.88
482.166	5710.25
482.537	5776.01
482.908	5964.7
483.279	6004.02
483.65	6165.83
484.021	6281.76
484.391	6347.74
484.762	6406.95
485.133	6499.38
485.503	6563.56
485.874	6775.3
486.244	6876.09
486.615	7022.3
486.985	7091.68
487.356	7188.85
487.726	7272.92
488.097	7462.06
488.467	7452.57
488.837	7611.89
489.207	7726.24
489.578	7873.13
489.948	7946.34
490.318	8026.34
490.688	8129.39
491.058	8289.39
491.428	8314.7
491.798	8471.3
492.168	8613.22
492.538	8657.51
492.908	8720.34
493.278	8957.17
493.648	8921.91
494.017	9034.23
494.387	9109.03
494.757	9124.17
495.126	9269.25
495.496	9346.08
495.866	9406.42
496.235	9518.05
496.605	9650.03
496.974	9612.29
497.344	9780.65
497.713	9758.05
498.082	9897.03
498.452	9972.51
498.821	9918.27
499.19	9988.78
499.559	10114.42
499.928	10172.95
500.298	10184.25
500.667	10276.9
501.036	10334.08
501.405	10341.31
501.774	10388.77
502.143	10460.85
502.512	10570
502.88	10580.63
503.249	10578.14
503.618	10636.22
503.987	10660.17
504.356	10678.7
504.724	10768.19
505.093	10774.07
505.462	10811.81
505.83	10953.72
506.199	10982.65
506.567	10983.78
506.936	11001.41
507.304	11102.87
507.672	11102.87
508.041	11182.19
508.409	11240.95
508.777	11218.35
509.145	11308.29
509.514	11303.32
509.882	11344.45
510.25	11404.11
510.618	11379.47
510.986	11405.91
511.354	11536.98
511.722	11511.22
512.09	11614.04
512.458	11527.95
512.826	11566.59
513.193	11628.51
513.561	11588.96
513.929	11814.04
514.297	11758
514.664	11792.35
515.032	11779.24
515.4	11861.27
515.767	11827.6
516.135	11932.68
516.502	11734.49
516.869	11891.33
517.237	11952.12
517.604	11789.41
517.972	11883.87
518.339	11990.08
518.706	11968.61
519.073	12034.82
519.44	12027.59
519.808	12065.33
520.175	12040.02
520.542	12113.01
520.909	12104.65
521.276	12129.74
521.643	12178.1
522.009	12142.62
522.376	12137.65
522.743	12212.45
523.11	12332.22
523.477	12373.57
523.843	12238.21
524.21	12299
524.577	12339.22
524.943	12344.42
525.31	12331.31
525.676	12430.97
526.043	12400.24
526.409	12465.55
526.776	12477.98
527.142	12393.23
527.508	12433.01
527.874	12481.82
528.241	12430.52
528.607	12493.57
528.973	12506.68
529.339	12414.25
529.705	12438.43
530.071	12439.33
530.437	12452.21
530.803	12443.85
531.169	12440.92
531.535	12409.05
531.901	12388.71
532.267	12401.59
532.632	12399.11
532.998	12357.08
533.364	12310.3
533.73	12391.43
534.095	12346.46
534.461	12220.58
534.826	12417.19
535.192	12341.94
535.557	12297.87
535.923	12251.99
536.288	12181.94
536.653	12138.78
537.019	12016.29
537.384	12047.03
537.749	12037.54
538.114	11991.44
538.479	11898.33
538.845	11941.72
539.21	11803.19
539.575	11871.44
539.94	11785.79
540.305	11767.26
540.67	11562.07
541.034	11681.84
541.399	11587.83
541.764	11594.16
542.129	11509.41
542.494	11514.39
542.858	11455.86
543.223	11414.73
543.587	11372.24
543.952	11316.88
544.316	11332.02
544.681	11246.14
545.045	11262.64
545.41	11252.7
545.774	11195.07
546.138	11129.54
546.503	11049.99
546.867	10969.54
547.231	11011.35
547.595	11009.09
547.959	10935.64
548.324	10917.34
548.688	10896.1
549.052	10871.01
549.416	10723.22
549.779	10665.37
550.143	10628.53
550.507	10610.91
550.871	10617.46
551.235	10517.35
551.599	10551.25
551.962	10497.01
552.326	10382.89
552.689	10402.78
553.053	10300.18
553.417	10342.44
553.78	10375.66
554.143	10285.04
554.507	10204.14
554.87	10183.57
555.234	10270.13
555.597	10087.53
555.96	10155.55
556.323	10154.2
556.686	10050.24
557.05	10092.28
557.413	10032.39
557.776	10039.62
558.139	10034.65
558.502	10000.75
558.865	9972.05
559.228	9970.25
559.59	9944.94
559.953	9877.82
560.316	9926.18
560.679	9936.57
561.041	9946.07
561.404	9798.27
561.767	9891.15
562.129	9821.78
562.492	9901.1
562.854	9820.19
563.217	9887.99
563.579	9762.34
563.941	9777.71
564.304	9889.12
564.666	9843.02
565.028	9863.58
565.39	9781.1
565.753	9832.17
566.115	9839.85
566.477	9901.1
566.839	9790.59
567.201	9866.52
567.563	9716.92
567.925	9821.32
568.287	9828.56
568.648	9880.53
569.01	9807.99
569.372	9816.58
569.734	9711.04
570.095	9827.43
570.457	9911.72
570.819	9838.72
571.18	9811.83
571.542	9902.45
571.903	9812.06
572.265	9816.35
572.626	9836.69
572.987	9767.77
573.349	9767.77
573.71	9856.8
574.071	9870.14
574.432	9797.82
574.794	9853.64
575.155	9830.14
575.516	9813.19
575.877	9868.55
576.238	9883.02
576.599	9848.22
576.96	9890.93
577.32	9832.62
577.681	9855
578.042	9839.63
578.403	9842.57
578.763	9799.18
579.124	9801.89
579.485	9803.7
579.845	9859.06
580.206	9840.08
580.566	9752.62
580.927	9787.2
581.287	9805.96
581.648	9761.66
582.008	9811.38
582.368	9762.57
582.728	9824.71
583.089	9777.93
583.449	9760.08
583.809	9750.59
584.169	9724.38
584.529	9725.06
584.889	9767.54
585.249	9716.47
585.609	9664.27
585.969	9730.48
586.329	9666.98
586.688	9664.94
587.048	9675.34
587.408	9645.28
587.768	9589.01
588.127	9611.16
588.487	9598.73
588.846	9653.87
589.206	9618.39
589.565	9614.1
589.925	9617.94
590.284	9517.38
590.643	9610.71
591.003	9625.4
591.362	9566.42
591.721	9572.06
592.08	9559.64
592.44	9568.67
592.799	9554.21
593.158	9556.47
593.517	9523.03
593.876	9506.53
594.235	9552.4
594.593	9523.48
594.952	9473.54
595.311	9447.77
595.67	9495.23
596.029	9468.56
596.387	9475.8
596.746	9488.23
597.104	9473.54
597.463	9469.47
597.822	9419.53
598.18	9478.28
598.538	9430.37
598.897	9486.87
599.255	9368.45
599.613	9536.13
599.972	9424.05
600.33	9397.61
600.688	9390.15
601.046	9442.35
601.404	9382.69
601.762	9421.79
602.12	9416.14
602.478	9375.91
602.836	9469.92
603.194	9353.09
603.552	9381.11
603.91	9345.63
604.268	9373.65
604.625	9371.62
604.983	9355.57
605.341	9406.19
605.698	9367.78
606.056	9395.12
606.413	9324.16
606.771	9407.55
607.128	9395.8
607.485	9312.18
607.843	9397.15
608.2	9408.23
608.557	9370.94
608.914	9409.58
609.272	9417.49
609.629	9443.71
609.986	9483.93
610.343	9439.19
610.7	9481.9
611.057	9406.87
611.414	9422.69
611.771	9394.89
612.127	9462.01
612.484	9403.93
612.841	9470.37
613.198	9451.84
613.554	9514.44
613.911	9477.38
614.267	9457.04
614.624	9482.12
614.98	9488.23
615.337	9498.62
615.693	9453.65
616.05	9489.13
616.406	9554.44
616.762	9457.04
617.118	9474.67
617.475	9520.09
617.831	9516.25
618.187	9582.01
618.543	9562.35
618.899	9563.25
619.255	9558.73
619.611	9586.3
619.967	9569.35
620.323	9542.46
620.678	9543.14
621.034	9565.51
621.39	9578.17
621.746	9562.8
622.101	9622.46
622.457	9564.16
622.812	9563.93
623.168	9569.8
623.523	9539.52
623.879	9565.29
624.234	9551.95
624.589	9592.63
624.945	9594.21
625.3	9579.75
625.655	9550.82
626.01	9569.13
626.365	9527.55
626.72	9544.04
627.075	9524.83
627.43	9555.34
627.785	9505.85
628.14	9525.06
628.495	9496.81
628.85	9535.23
629.205	9461.79
629.559	9529.81
629.914	9524.16
630.269	9442.8
630.623	9471.05
630.978	9470.6
631.332	9462.92
631.687	9490.71
632.041	9407.78
632.396	9383.37
632.75	9477.6
633.104	9397.38
633.459	9369.36
633.813	9409.58
634.167	9352.18
634.521	9410.71
634.875	9348.79
635.229	9349.92
635.583	9335.46
635.937	9241
636.291	9243.71
636.645	9253.88
636.999	9248.91
637.352	9244.39
637.706	9218.85
638.06	9229.93
638.413	9230.83
638.767	9207.55
639.121	9206.65
639.474	9179.08
639.828	9127.78
640.181	9206.88
640.534	9160.32
640.888	9116.48
641.241	9117.84
641.594	9135.69
641.947	9185.18
642.301	9142.47
642.654	9205.29
643.007	9141.79
643.36	9116.26
643.713	9085.52
644.066	9177.05
644.419	9095.47
644.771	9032.19
645.124	8920.1
645.477	8933.66
645.83	8881.01
646.182	8856.6
646.535	8819.99
646.888	8821.58
647.24	8753.33
647.593	8837.39
647.945	8843.27
648.298	8759.2
648.65	8778.41
649.002	8714.23
649.355	8814.34
649.707	8797.85
650.059	8899.77
650.411	8911.29
650.763	9025.64
651.115	9004.85
651.467	9008.92
651.819	9013.44
652.171	9054.56
652.523	9051.4
652.875	8959.43
653.227	8951.97
653.578	9007.33
653.93	8987.45
654.282	9005.98
654.633	9017.28
654.985	9066.99
655.337	9001.46
655.688	8968.24
656.039	9104.28
656.391	8976.6
656.742	8997.84
657.094	8993.1
657.445	9016.6
657.796	9037.62
658.147	9029.93
658.498	9007.56
658.849	9024.51
659.2	9038.29
659.551	9034.23
659.902	9030.16
660.253	8992.19
660.604	9038.07
660.955	9055.02
661.306	9105.86
661.656	9065.41
662.007	9063.38
662.358	9042.81
662.708	9097.5
663.059	9113.32
663.409	9019.08
663.76	9118.52
664.11	9147.67
664.461	9106.31
664.811	9154.45
665.161	9166.43
665.511	9072.64
665.862	9101.34
666.212	9040.55
666.562	9129.14
666.912	9038.52
667.262	9119.65
667.612	9114.45
667.962	9077.61
668.312	9078.74
668.662	9120.55
669.011	9088.69
669.361	9074.68
669.711	9100.44
670.06	9081
670.41	9046.88
670.76	9046.65
671.109	9060.21
671.459	9070.61
671.808	9064.51
672.157	9037.84
672.507	9031.74
672.856	8973.44
673.205	9054.34
673.554	9035.81
673.904	9016.37
674.253	9001.23
674.602	9048.24
674.951	8875.13
675.3	8865.42
675.649	8923.27
675.998	8948.58
676.346	8981.12
676.695	8996.94
677.044	8904.06
677.393	8931.4
677.741	8885.53
678.09	8955.36
678.438	8909.03
678.787	8853.89
679.135	8878.98
679.484	8885.76
679.832	8830.16
680.181	8834.46
680.529	8830.16
680.877	8794.01
681.225	8813.21
681.573	8832.2
681.922	8758.75
682.27	8730.28
682.618	8770.5
682.966	8699.09
683.314	8750.17
683.661	8711.3
684.009	8663.16
684.357	8618.87
684.705	8614.58
685.053	8612.54
685.4	8617.74
685.748	8583.84
686.095	8543.62
686.443	8500.91
686.79	8506.78
687.138	8541.81
687.485	8525.99
687.832	8481.7
688.18	8462.04
688.527	8391.08
688.874	8388.82
689.221	8368.71
689.568	8332.78
689.915	8330.74
690.262	8345.2
690.609	8320.12
690.956	8248.71
691.303	8305.66
691.65	8201.48
691.997	8171.2
692.344	8136.17
692.69	8089.62
693.037	8080.8
693.383	8051.2
693.73	8041.48
694.077	8013.46
694.423	7951.54
694.769	7910.19
695.116	7966.46
695.462	7914.93
695.808	7919.9
696.155	7842.17
696.501	7780.7
696.847	7803.3
697.193	7737.08
697.539	7705.67
697.885	7725.33
698.231	7634.94
698.577	7686.24
698.923	7691.21
699.269	7553.36
699.614	7577.77
699.96	7501.61
700.306	7556.52
700.651	7459.58
700.997	7354.27
701.342	7367.6
701.688	7420.71
702.033	7343.2
702.379	7345
702.724	7305.46
703.069	7335.74
703.415	7206.7
703.76	7242.18
704.105	7207.83
704.45	7177.55
704.795	7147.04
705.14	7103.88
705.485	7138.46
705.83	7112.92
706.175	7123.77
706.52	7100.04
706.865	7067.95
707.209	6999.93
707.554	6984.34
707.899	6990.44
708.243	6971.23
708.588	6950.66
708.932	6858.46
709.277	6921.74
709.621	6842.87
709.966	6882.42
710.31	6875.64
710.654	6752.48
710.998	6772.14
711.342	6771.69
711.687	6746.83
712.031	6712.25
712.375	6731.24
712.719	6694.85
713.063	6720.39
713.407	6703.21
713.75	6641.52
714.094	6586.83
714.438	6609.66
714.782	6664.12
715.125	6589.09
715.469	6587.96
715.812	6594.29
716.156	6572.14
716.499	6582.31
716.843	6562.2
717.186	6498.47
717.53	6516.33
717.873	6561.07
718.216	6565.59
718.559	6502.77
718.902	6454.41
719.246	6436.55
719.589	6482.65
719.932	6439.27
720.275	6397.46
720.617	6444.46
720.96	6441.3
721.303	6387.52
721.646	6458.7
721.989	6370.34
722.331	6401.98
722.674	6440.4
723.016	6456.67
723.359	6431.13
723.701	6401.75
724.044	6372.37
724.386	6386.61
724.729	6375.31
725.071	6425.03
725.413	6361.98
725.755	6386.84
726.097	6321.08
726.439	6307.52
726.782	6364.69
727.124	6364.24
727.465	6309.1
727.807	6331.25
728.149	6312.26
728.491	6317.69
728.833	6353.17
729.175	6289.67
729.516	6345.03
729.858	6293.96
730.199	6331.25
730.541	6335.09
730.882	6295.54
731.224	6350.23
731.565	6314.52
731.906	6350.23
732.248	6317.24
732.589	6287.41
732.93	6334.86
733.271	6271.59
733.612	6297.57
733.953	6333.96
734.294	6328.76
734.635	6292.38
734.976	6355.2
735.317	6245.6
735.658	6324.69
735.999	6334.18
736.339	6324.01
736.68	6380.74
737.021	6308.65
737.361	6324.69
737.702	6383.9
738.042	6361.75
738.383	6345.26
738.723	6356.33
739.063	6375.09
739.404	6391.13
739.744	6416.89
740.084	6419.61
740.424	6420.51
740.764	6405.14
741.104	6457.34
741.444	6427.29
741.784	6473.16
742.124	6469.55
742.464	6513.61
742.804	6528.53
743.143	6534.18
743.483	6539.15
743.823	6522.43
744.162	6541.18
744.502	6645.36
744.841	6628.19
745.181	6660.95
745.52	6679.26
745.86	6714.51
746.199	6795.64
746.538	6755.19
746.877	6892.14
747.216	6903.66
747.556	6903.43
747.895	7001.28
748.234	6984.11
748.573	7051.23
748.911	7141.39
749.25	7215.29
749.589	7276.08
749.928	7293.25
750.267	7372.57
750.605	7469.97
750.944	7477.88
751.283	7631.1
751.621	7663.64
751.96	7742.96
752.298	7804.88
752.636	7961.26
752.975	8016.4
753.313	8051.2
753.651	8169.62
753.989	8253.68
754.327	8379.78
754.666	8514.92
755.004	8641.47
755.342	8864.06
755.679	8860.67
756.017	8958.3
756.355	9184.73
756.693	9322.35
757.031	9375.69
757.368	9471.28
757.706	9667.43
758.044	9826.97
758.381	9984.03
758.719	10135.21
759.056	10272.39
759.394	10440.06
759.731	10497.01
760.068	10732.49
760.405	10805.03
760.743	10994.4
761.08	11199.59
761.417	11342.41
761.754	11523.65
762.091	11693.59
762.428	11833.25
762.765	12019.68
763.102	12170.87
763.438	12344.87
763.775	12544.87
764.112	12652.89
764.449	12845.88
764.785	12992.09
765.122	13152.31
765.458	13255.36
765.795	13437.05
