Data from hue_320_FLMS001491_72.txt Node
Date: Mon Feb 06 15:47:40 GMT 2017
User: dcchb
Spectrometer: FLMS00149
Trigger mode: 0
Integration Time (sec): 2.000000E-2
Scans to average: 10
Electric dark correction enabled: true
Nonlinearity correction enabled: false
Boxcar width: 0
XAxis mode: Wavelengths
Number of Pixels in Spectrum: 2048
>>>>>Begin Spectral Data<<<<<
341.393	-25.03
341.776	-25.03
342.16	-25.03
342.543	-58.25
342.927	-55.76
343.31	-45.14
343.693	-64.12
344.077	-69.32
344.46	-58.47
344.843	-53.28
345.226	-41.07
345.61	-22.32
345.993	-18.02
346.376	-6.95
346.759	5.48
347.142	0.28
347.525	29.43
347.908	61.3
348.291	68.76
348.674	120.73
349.057	92.71
349.44	122.54
349.823	150.11
350.206	149.66
350.588	176.78
350.971	204.8
351.354	213.84
351.737	244.12
352.119	250.22
352.502	267.85
352.884	263.55
353.267	253.84
353.65	292.48
354.032	285.47
354.414	301.74
354.797	295.19
355.179	310.56
355.562	311.91
355.944	305.13
356.326	328.64
356.709	321.86
357.091	341.97
357.473	339.93
357.855	330.67
358.238	331.57
358.62	339.26
359.002	335.64
359.384	323.44
359.766	339.71
360.148	337
360.53	347.17
360.912	337.22
361.294	313.04
361.676	310.78
362.057	320.95
362.439	321.86
362.821	321.63
363.203	313.49
363.584	318.24
363.966	318.24
364.348	302.2
364.729	306.26
365.111	318.92
365.493	313.27
365.874	305.36
366.256	314.62
366.637	303.1
367.019	284.79
367.4	303.1
367.781	318.47
368.163	297.68
368.544	304.91
368.925	298.35
369.306	311.46
369.688	309.88
370.069	299.71
370.45	292.25
370.831	300.16
371.212	294.06
371.593	304.23
371.974	302.65
372.355	313.27
372.736	315.3
373.117	295.64
373.498	301.97
373.879	317.79
374.26	306.72
374.641	289.31
375.021	311.01
375.402	329.99
375.783	307.85
376.163	292.25
376.544	320.5
376.925	326.15
377.305	303.33
377.686	311.91
378.066	309.43
378.447	322.99
378.827	330.9
379.208	312.82
379.588	341.29
379.968	314.62
380.349	315.53
380.729	341.29
381.109	342.19
381.489	341.74
381.87	342.87
382.25	324.12
382.63	320.05
383.01	339.26
383.39	318.01
383.77	331.35
384.15	343.32
384.53	328.64
384.91	339.71
385.29	339.03
385.67	338.13
386.049	332.03
386.429	324.79
386.809	344.91
387.189	350.56
387.568	336.32
387.948	360.72
388.328	345.58
388.707	331.57
389.087	333.38
389.466	355.98
389.846	360.95
390.225	342.65
390.605	351.91
390.984	348.3
391.363	352.82
391.743	361.18
392.122	351.46
392.501	355.08
392.881	345.81
393.26	354.4
393.639	353.04
394.018	364.11
394.397	363.21
394.776	389.2
395.155	376.32
395.534	400.27
395.913	356.66
396.292	383.1
396.671	365.02
397.05	374.74
397.429	374.74
397.808	382.65
398.186	366.83
398.565	376.09
398.944	369.54
399.323	382.65
399.701	394.62
400.08	389.2
400.458	391.68
400.837	396.66
401.215	393.04
401.594	399.14
401.972	395.98
402.351	411.8
402.729	391.46
403.107	411.57
403.486	421.97
403.864	408.86
404.242	416.54
404.62	403.89
404.999	396.66
405.377	419.25
405.755	418.58
406.133	415.64
406.511	421.29
406.889	425.13
407.267	442.3
407.645	441.4
408.023	430.1
408.401	455.19
408.779	459.48
409.156	432.14
409.534	457.9
409.912	455.19
410.29	457.9
410.667	454.73
411.045	460.84
411.422	490.89
411.8	475.98
412.178	478.69
412.555	472.13
412.933	500.16
413.31	493.38
413.687	492.47
414.065	521.62
414.442	500.61
414.819	532.92
415.197	536.54
415.574	540.38
415.951	520.72
416.328	529.53
416.705	541.06
417.082	545.35
417.46	562.75
417.837	567.95
418.214	562.75
418.591	567.95
418.967	581.51
419.344	594.39
419.721	600.94
420.098	612.7
420.475	593.04
420.852	632.36
421.228	605.24
421.605	621.06
421.982	623.54
422.358	640.94
422.735	651.56
423.111	646.82
423.488	663.32
423.864	639.36
424.241	656.54
424.617	656.31
424.994	690.66
425.37	668.06
425.746	687.5
426.123	686.59
426.499	703.77
426.875	699.25
427.251	720.26
427.627	720.72
428.003	734.73
428.379	750.09
428.756	752.35
429.132	750.32
429.507	749.87
429.883	779.92
430.259	792.35
430.635	775.4
431.011	776.99
431.387	806.81
431.763	810.88
432.138	824.22
432.514	832.13
432.89	855.18
433.265	847.94
433.641	838.9
434.016	872.12
434.392	846.36
434.767	870.32
435.143	901.95
435.518	869.64
435.894	916.64
436.269	925.23
436.644	936.3
437.02	938.56
437.395	913.48
437.77	922.07
438.145	955.74
438.52	953.93
438.895	979.47
439.271	982.18
439.646	957.09
440.021	970.88
440.395	1000.26
440.77	969.3
441.145	992.35
441.52	1030.54
441.895	980.6
442.27	1022.4
442.645	1050.42
443.019	1050.42
443.394	1001.39
443.769	1033.7
444.143	1011.56
444.518	1042.29
444.892	1052.23
445.267	1052.23
445.641	1049.75
446.016	1075.28
446.39	1064.66
446.764	1075.73
447.139	1057.43
447.513	1073.02
447.887	1080.48
448.262	1074.15
448.636	1049.29
449.01	1088.62
449.384	1091.55
449.758	1097.65
450.132	1096.75
450.506	1131.78
450.88	1123.87
451.254	1117.77
451.628	1130.87
452.002	1139.24
452.376	1134.72
452.75	1174.26
453.123	1187.6
453.497	1143.3
453.871	1142.17
454.244	1197.54
454.618	1195.51
454.992	1193.25
455.365	1190.53
455.739	1222.62
456.112	1231.66
456.486	1230.08
456.859	1227.59
457.232	1238.22
457.606	1262.4
457.979	1301.04
458.352	1263.53
458.725	1281.6
459.099	1296.52
459.472	1300.81
459.845	1298.78
460.218	1324.09
460.591	1308.95
460.964	1339.91
461.337	1330.42
461.71	1353.92
462.083	1381.94
462.456	1371.09
462.829	1377.2
463.201	1382.39
463.574	1424.65
463.947	1442.5
464.32	1463.75
464.692	1438.66
465.065	1443.86
465.438	1484.76
465.81	1495.16
466.183	1484.76
466.555	1508.04
466.928	1521.37
467.3	1500.36
467.672	1531.32
468.045	1550.52
468.417	1567.25
468.789	1579.9
469.161	1570.86
469.534	1586.68
469.906	1622.61
470.278	1618.32
470.65	1618.77
471.022	1676.85
471.394	1659.45
471.766	1686.79
472.138	1697.19
472.51	1706.45
472.882	1754.36
473.253	1781.48
473.625	1772.67
473.997	1812.21
474.369	1816.51
474.74	1810.63
475.112	1856.05
475.484	1896.96
475.855	1906.9
476.227	1903.28
476.598	1955.49
476.97	1941.7
477.341	1997.52
477.713	2001.59
478.084	1993.68
478.455	2042.26
478.827	2074.8
479.198	2104.18
479.569	2114.13
479.94	2150.51
480.311	2176.95
480.682	2201.35
481.053	2231.41
481.424	2270.73
481.795	2275.25
482.166	2315.25
482.537	2318.19
482.908	2335.14
483.279	2344.63
483.65	2389.82
484.021	2430.05
484.391	2434.79
484.762	2483.16
485.133	2492.42
485.503	2507.56
485.874	2552.08
486.244	2541.68
486.615	2568.35
486.985	2598.18
487.356	2658.07
487.726	2676.37
488.097	2719.98
488.467	2670.95
488.837	2734.67
489.207	2764.96
489.578	2810.38
489.948	2823.94
490.318	2865.07
490.688	2859.42
491.058	2884.95
491.428	2919.98
491.798	2905.29
492.168	2964.72
492.538	2992.07
492.908	3057.15
493.278	3035.23
493.648	3056.93
494.017	3077.04
494.387	3094.44
494.757	3136.25
495.126	3140.54
495.496	3146.64
495.866	3161.33
496.235	3177.83
496.605	3179.63
496.974	3257.15
497.344	3237.49
497.713	3266.41
498.082	3246.98
498.452	3284.49
498.821	3321.1
499.19	3306.86
499.559	3322.46
499.928	3336.01
500.298	3425.5
500.667	3411.94
501.036	3444.26
501.405	3418.95
501.774	3395.67
502.143	3455.56
502.512	3448.78
502.88	3491.04
503.249	3448.55
503.618	3482.45
503.987	3498.27
504.356	3521.77
504.724	3519.74
505.093	3561.77
505.462	3546.4
505.83	3523.81
506.199	3581.43
506.567	3639.51
506.936	3640.86
507.304	3639.28
507.672	3639.96
508.041	3648.1
508.409	3676.8
508.777	3722.22
509.145	3675.44
509.514	3666.4
509.882	3744.36
510.25	3740.3
510.618	3715.89
510.986	3761.99
511.354	3733.74
511.722	3818.71
512.09	3795.44
512.458	3798.15
512.826	3783.91
513.193	3850.35
513.561	3819.17
513.929	3842.44
514.297	3830.46
514.664	3856.45
515.032	3914.3
515.4	3902.1
515.767	3895.77
516.135	3901.65
516.502	3907.98
516.869	3978.93
517.237	3967.41
517.604	3933.74
517.972	3942.33
518.339	3996.34
518.706	3974.19
519.073	3980.29
519.44	3971.93
519.808	4018.93
520.175	4008.31
520.542	4060.97
520.909	4048.54
521.276	4062.32
521.643	4149.55
522.009	4060.51
522.376	4094.19
522.743	4142.32
523.11	4174.18
523.477	4176.67
523.843	4157.46
524.21	4183.68
524.577	4256.89
524.943	4236.1
525.31	4244.92
525.676	4277.68
526.043	4304.8
526.409	4337.8
526.776	4328.08
527.142	4317.91
527.508	4388.87
527.874	4413.27
528.241	4420.96
528.607	4436.32
528.973	4485.36
529.339	4483.1
529.705	4516.32
530.071	4528.75
530.437	4517
530.803	4564.68
531.169	4571.24
531.535	4555.87
531.901	4580.28
532.267	4640.61
532.632	4640.84
532.998	4631.12
533.364	4678.8
533.73	4731.91
534.095	4757.67
534.461	4753.83
534.826	4788.18
535.192	4725.13
535.557	4847.16
535.923	4800.83
536.288	4870.66
536.653	4866.14
537.019	4909.31
537.384	4881.74
537.749	4901.85
538.114	4926.25
538.479	4915.41
538.845	4915.86
539.21	4961.51
539.575	4975.52
539.94	5028.62
540.305	5020.04
540.67	5030.21
541.034	5039.47
541.399	5128.06
541.764	5137.1
542.129	5104.33
542.494	5129.19
542.858	5197.66
543.223	5142.29
543.587	5186.36
543.952	5221.39
544.316	5257.55
544.681	5269.75
545.045	5287.83
545.41	5282.63
545.774	5295.06
546.138	5378.45
546.503	5397.43
546.867	5395.39
547.231	5403.08
547.595	5449.18
547.959	5448.05
548.324	5476.07
548.688	5500.25
549.052	5506.13
549.416	5537.76
549.779	5552
550.143	5568.72
550.507	5611.21
550.871	5585.22
551.235	5613.24
551.599	5625.22
551.962	5629.74
552.326	5672
552.689	5666.35
553.053	5664.77
553.417	5695.27
553.78	5810.3
554.143	5757.65
554.507	5800.81
554.87	5751.54
555.234	5810.98
555.597	5852.11
555.96	5846.23
556.323	5853.01
556.686	5834.71
557.05	5912.67
557.413	5909.05
557.776	5866.12
558.139	5902.73
558.502	5950.63
558.865	6025.21
559.228	6062.27
559.59	6028.6
559.953	6041.48
560.316	6078.77
560.679	6159.22
561.041	6109.73
561.404	6127.8
561.767	6197.86
562.129	6197.41
562.492	6173
562.854	6198.99
563.217	6202.61
563.579	6256.62
563.941	6300.91
564.304	6309.27
564.666	6324.41
565.028	6272.21
565.39	6361.7
565.753	6352.43
566.115	6310.63
566.477	6389.72
566.839	6421.81
567.201	6469.26
567.563	6467.23
567.925	6543.39
568.287	6556.27
568.648	6509.49
569.01	6630.62
569.372	6645.31
569.734	6606.44
570.095	6642.82
570.457	6673.55
570.819	6690.5
571.18	6729.37
571.542	6774.79
571.903	6812.53
572.265	6833.1
572.626	6888.69
572.987	6877.16
573.349	6993.09
573.71	7000.78
574.071	6947.44
574.432	7003.94
574.794	7158.74
575.155	7144.5
575.516	7145.63
575.877	7216.36
576.238	7299.3
576.599	7359.41
576.96	7465.85
577.32	7517.37
577.681	7600.76
578.042	7637.14
578.403	7698.39
578.763	7796.69
579.124	7874.2
579.485	7945.38
579.845	8099.96
580.206	8184.25
580.566	8231.03
580.927	8377.92
581.287	8523.45
581.648	8646.38
582.008	8770.9
582.368	8831.24
582.728	8976.09
583.089	9141.29
583.449	9261.73
583.809	9419.92
584.169	9593.93
584.529	9769.07
584.889	9944.88
585.249	10016.06
585.609	10250.41
585.969	10491.31
586.329	10626.22
586.688	10861.69
587.048	11101.23
587.408	11221.91
587.768	11443.6
588.127	11613.54
588.487	11866.64
588.846	12206.52
589.206	12297.13
589.565	12559.95
589.925	12915.42
590.284	13049.88
590.643	13433.38
591.003	13622.3
591.362	13994.72
591.721	14213.69
592.08	14445.33
592.44	14787.46
592.799	14972.77
593.158	15285.76
593.517	15458.86
593.876	15776.59
594.235	16037.37
594.593	16344.49
594.952	16730.92
595.311	16918.71
595.67	17262.88
596.029	17603.21
596.387	17856.31
596.746	18245.23
597.104	18441.61
597.463	18700.36
597.822	19109.16
598.18	19167.46
598.538	19505.98
598.897	20007.44
599.255	19981.45
599.613	20583.02
599.972	20739.17
600.33	21109.33
600.688	21253.28
601.046	21534.41
601.404	21886.49
601.762	22182.07
602.12	22462.06
602.478	22701.38
602.836	23032.67
603.194	23102.05
603.552	23472.21
603.91	23669.26
604.268	23959.2
604.625	24199.65
604.983	24504.04
605.341	24628.11
605.698	24983.35
606.056	25278.26
606.413	25412.72
606.771	25551.93
607.128	25947.17
607.485	26092.25
607.843	26359.82
608.2	26729.3
608.557	26962.74
608.914	27067.82
609.272	27413.57
609.629	27632.55
609.986	27903.05
610.343	27987.8
610.7	28380.55
611.057	28512.98
611.414	28600.43
611.771	28809.69
612.127	29222.79
612.484	29324.48
612.841	29551.6
613.198	29595.89
613.554	29787.97
613.911	30141.41
614.267	30124.69
614.624	30268.41
614.98	30508.41
615.337	30752.24
615.693	30966.47
616.05	30961.95
616.406	31221.61
616.762	31270.19
617.118	31362.17
617.475	31509.51
617.831	31834.02
618.187	31917.86
618.543	32218.64
618.899	32425.87
619.255	32406.89
619.611	32534.79
619.967	32722.36
620.323	32933.2
620.678	32865.63
621.034	32892.75
621.39	33059.53
621.746	33123.48
622.101	33535.22
622.457	33412.74
622.812	33648.66
623.168	33757.81
623.523	33719.4
623.879	33820.18
624.234	33783.12
624.589	34009.78
624.945	34082.32
625.3	34288.19
625.655	34344.01
626.01	34408.19
626.365	34512.37
626.72	34499.04
627.075	34693.16
627.43	34640.95
627.785	34623.1
628.14	34706.04
628.495	34861.74
628.85	34955.75
629.205	34754.4
629.559	34968.18
629.914	34939.25
630.269	35057.67
630.623	35079.13
630.978	35071.22
631.332	35025.58
631.687	35255.63
632.041	35245.01
632.396	35460.37
632.75	35106.25
633.104	35303.54
633.459	35083.43
633.813	35247.27
634.167	35241.39
634.521	35239.13
634.875	35384.89
635.229	35387.6
635.583	35207.72
635.937	35288.17
636.291	35409.29
636.645	35322.29
636.999	35305.12
637.352	35530.42
637.706	35126.36
638.06	35400.48
638.413	35359.58
638.767	35339.47
639.121	35377.88
639.474	35209.98
639.828	35219.92
640.181	35312.35
640.534	35292.24
640.888	35176.98
641.241	35159.58
641.594	35223.76
641.947	35202.75
642.301	35211.79
642.654	35216.76
643.007	35176.98
643.36	35236.64
643.713	35150.09
644.066	35250.88
644.419	35148.96
644.771	34806.37
645.124	34639.82
645.477	34629.65
645.83	34420.62
646.182	34338.36
646.535	34183.56
646.888	34247.52
647.24	34118.71
647.593	34278.93
647.945	34180.17
648.298	34114.64
648.65	33976.79
649.002	34123.23
649.355	34178.14
649.707	34007.52
650.059	34336.78
650.411	34588.53
650.763	34784
651.115	35010.44
651.467	34857.9
651.819	34976.76
652.171	34872.13
652.523	34859.25
652.875	34835.07
653.227	34720.27
653.578	34837.56
653.93	34859.03
654.282	34660.16
654.633	34714.4
654.985	34782.64
655.337	34835.98
655.688	34790.78
656.039	34863.09
656.391	34588.53
656.742	34674.62
657.094	34562.76
657.445	34798.92
657.796	34778.35
658.147	34573.38
658.498	34690.44
658.849	34628.3
659.2	34642.99
659.551	34729.54
659.902	34707.17
660.253	34616.77
660.604	34698.81
660.955	34450.45
661.306	34626.72
661.656	34443.67
662.007	34623.1
662.358	34401.86
662.708	34474.4
663.059	34405.25
663.409	34440.96
663.76	34553.95
664.11	34579.03
664.461	34636.66
664.811	34560.05
665.161	34557.79
665.511	34308.76
665.862	34511.69
666.212	34629.88
666.562	34684.12
666.912	34508.75
667.262	34530.22
667.612	34454.29
667.962	34546.72
668.312	34407.97
668.662	34585.14
669.011	34603.21
669.361	34472.82
669.711	34489.32
670.06	34430.79
670.41	34322.54
670.76	34345.14
671.109	34433.95
671.459	34373.62
671.808	34221.53
672.157	34432.82
672.507	34243.22
672.856	34224.02
673.205	34336.33
673.554	34340.62
673.904	34226.5
674.253	34407.74
674.602	34292.04
674.951	33881.65
675.3	33718.04
675.649	34142.21
675.998	34137.46
676.346	34184.02
676.695	34266.5
677.044	34027.18
677.393	34103.79
677.741	34082.32
678.09	34030.8
678.438	33862.89
678.787	34131.81
679.135	33993.06
679.484	33870.8
679.832	33993.74
680.181	33803.46
680.529	33941.31
680.877	33719.85
681.225	33751.94
681.573	33890.69
681.922	33736.34
682.27	33533.19
682.618	33687.53
682.966	33621.55
683.314	33585.61
683.661	33518.95
684.009	33349.01
684.357	33283.02
684.705	33297.94
685.053	33288.67
685.4	33338.39
685.748	33204.83
686.095	33148.34
686.443	32985.4
686.79	33043.71
687.138	33069.92
687.485	33040.54
687.832	32912.19
688.18	32923.26
688.527	32760.1
688.874	32831.96
689.221	32613.21
689.568	32654.11
689.915	32521.46
690.262	32444.4
690.609	32474
690.956	32328.02
691.303	32199.66
691.65	32203.73
691.997	32091.42
692.344	31913.57
692.69	31933.23
693.037	31719
693.383	31616.63
693.73	31750.18
694.077	31615.27
694.423	31596.51
694.769	31443.75
695.116	31399.68
695.462	31440.36
695.808	31360.59
696.155	31423.41
696.501	31076.3
696.847	31161.5
697.193	30940.26
697.539	31016.42
697.885	30754.95
698.231	30702.53
698.577	30660.72
698.923	30558.35
699.269	30504.34
699.614	30355.87
699.96	30251.24
700.306	30349.99
700.651	30166.27
700.997	30132.37
701.342	30033.84
701.688	29954.07
702.033	29910.68
702.379	29839.95
702.724	29881.98
703.069	29823.45
703.415	29496.46
703.76	29476.8
704.105	29581.65
704.45	29480.86
704.795	29385.27
705.14	29188.89
705.485	29224.15
705.83	29081.1
706.175	29176.92
706.52	29009.69
706.865	28948
707.209	28930.82
707.554	28794.33
707.899	28905.96
708.243	28800.66
708.588	28713.65
708.932	28595.46
709.277	28507.33
709.621	28456.71
709.966	28340.33
710.31	28458.07
710.654	28211.52
710.998	28324.96
711.342	28227.11
711.687	28102.14
712.031	27999.77
712.375	27960
712.719	28035.25
713.063	27839.1
713.407	27984.63
713.75	27861.92
714.094	27797.29
714.438	27796.39
714.782	27754.35
715.125	27522.5
715.469	27563.85
715.812	27442.27
716.156	27286.12
716.499	27261.94
716.843	27304.88
717.186	27189.4
717.53	27278.89
717.873	27286.8
718.216	27249.51
718.559	27150.3
718.902	26962.29
719.246	27036.41
719.589	26874.83
719.932	26884.1
720.275	26791.44
720.617	26755.96
720.96	26755.06
721.303	26681.84
721.646	26627.15
721.989	26532.69
722.331	26603.42
722.674	26523.88
723.016	26509.64
723.359	26374.5
723.701	26408.63
724.044	26280.72
724.386	26230.55
724.729	26300.16
725.071	26332.92
725.413	26150.56
725.755	26167.28
726.097	26072.59
726.439	26059.71
726.782	25860.17
727.124	26015.19
727.465	25995.98
727.807	25817
728.149	25915.08
728.491	25787.85
728.833	25804.58
729.175	25673.28
729.516	25692.71
729.858	25775.2
730.199	25693.84
730.541	25539.5
730.882	25584.02
731.224	25647.07
731.565	25288.88
731.906	25535.2
732.248	25483
732.589	25311.03
732.93	25236.68
733.271	25262.44
733.612	25336.11
733.953	25256.57
734.294	25199.85
734.635	25159.85
734.976	25162.56
735.317	24967.99
735.658	25051.6
735.999	25071.49
736.339	24939.97
736.68	24923.02
737.021	24871.27
737.361	24820.42
737.702	24928.67
738.042	24824.49
738.383	24742.23
738.723	24815.22
739.063	24676.47
739.404	24661.78
739.744	24613.87
740.084	24571.39
740.424	24611.84
740.764	24565.96
741.104	24690.03
741.444	24409.13
741.784	24434.67
742.124	24436.25
742.464	24411.84
742.804	24324.61
743.143	24347.44
743.483	24187.9
743.823	24096.37
744.162	24135.47
744.502	24241
744.841	24064.96
745.181	24144.05
745.52	23947
745.86	24118.97
746.199	23962.14
746.538	23979.54
746.877	23944.96
747.216	23911.29
747.556	23889.6
747.895	23871.52
748.234	23685.54
748.573	23747.23
748.911	23645.99
749.25	23622.94
749.589	23618.42
749.928	23552.66
750.267	23582.26
750.605	23530.29
750.944	23448.48
751.283	23279.67
751.621	23517.86
751.96	23275.83
752.298	23242.38
752.636	23295.04
752.975	23180.92
753.313	23137.08
753.651	23249.16
753.989	23036.96
754.327	23015.72
754.666	22899.34
755.004	22874.26
755.342	22930.98
755.679	22956.29
756.017	22817.31
756.355	22880.13
756.693	22600.59
757.031	22748.16
757.368	22588.39
757.706	22514.94
758.044	22512.68
758.381	22538.67
758.719	22369.64
759.056	22392.24
759.394	22280.83
759.731	22140.94
760.068	22134.84
760.405	22011.91
