Data from hue_320_FLMS001491_1.txt Node
Date: Mon Feb 06 15:46:36 GMT 2017
User: dcchb
Spectrometer: FLMS00149
Trigger mode: 0
Integration Time (sec): 2.000000E-2
Scans to average: 10
Electric dark correction enabled: true
Nonlinearity correction enabled: false
Boxcar width: 0
XAxis mode: Wavelengths
Number of Pixels in Spectrum: 2048
>>>>>Begin Spectral Data<<<<<
341.393	-9.6
341.776	-9.6
342.16	-9.6
342.543	-57.51
342.927	-58.87
343.31	-71.52
343.693	-79.88
344.077	-63.16
344.46	-46.44
344.843	-43.95
345.226	-36.72
345.61	-39.43
345.993	-28.13
346.376	1.69
346.759	-10.73
347.142	21.81
347.525	42.82
347.908	54.57
348.291	81.47
348.674	107.23
349.057	110.39
349.44	118.53
349.823	132.76
350.206	169.15
350.588	189.03
350.971	205.53
351.354	236.94
351.737	229.71
352.119	263.16
352.502	267.68
352.884	275.36
353.267	283.5
353.65	290.27
354.032	295.7
354.414	284.63
354.797	306.32
355.179	316.04
355.562	336.38
355.944	342.93
356.326	338.18
356.709	344.74
357.091	321.46
357.473	335.92
357.855	346.54
358.238	351.29
358.62	336.6
359.002	336.15
359.384	349.71
359.766	336.6
360.148	337.96
360.53	371.63
360.912	334.34
361.294	352.87
361.676	333.44
362.057	317.62
362.439	323.95
362.821	347.67
363.203	322.36
363.584	361.46
363.966	346.32
364.348	329.82
364.729	307.68
365.111	330.05
365.493	311.52
365.874	314
366.256	319.43
366.637	300.9
367.019	326.88
367.4	314
367.781	327.79
368.163	334.34
368.544	324.85
368.925	310.61
369.306	322.59
369.688	323.95
370.069	324.62
370.45	320.33
370.831	319.88
371.212	316.04
371.593	334.12
371.974	318.52
372.355	332.08
372.736	329.14
373.117	323.04
373.498	307.68
373.879	320.56
374.26	308.13
374.641	301.57
375.021	303.83
375.402	322.36
375.783	316.71
376.163	325.08
376.544	324.17
376.925	309.03
377.305	335.7
377.686	330.73
378.066	332.99
378.447	315.81
378.827	342.93
379.208	328.92
379.588	337.96
379.968	325.08
380.349	341.57
380.729	341.8
381.109	342.48
381.489	358.75
381.87	343.83
382.25	343.83
382.63	329.82
383.01	349.03
383.39	348.8
383.77	353.1
384.15	349.48
384.53	345.19
384.91	356.49
385.29	358.3
385.67	357.62
386.049	352.65
386.429	345.64
386.809	371.85
387.189	332.53
387.568	362.36
387.948	358.3
388.328	353.1
388.707	353.78
389.087	356.71
389.466	358.52
389.846	356.94
390.225	382.02
390.605	382.25
390.984	370.5
391.363	365.75
391.743	370.5
392.122	379.76
392.501	356.94
392.881	380.89
393.26	373.89
393.639	360.78
394.018	394.68
394.397	387
394.776	383.61
395.155	390.61
395.534	397.84
395.913	379.99
396.292	382.25
396.671	397.39
397.05	410.72
397.429	403.27
397.808	408.01
398.186	408.92
398.565	415.24
398.944	398.75
399.323	403.94
399.701	408.46
400.08	394.9
400.458	404.17
400.837	419.09
401.215	417.96
401.594	426.54
401.972	415.47
402.351	404.17
402.729	423.83
403.107	427.22
403.486	415.24
403.864	410.72
404.242	442.36
404.62	418.63
404.999	455.02
405.377	412.53
405.755	443.04
406.133	439.42
406.511	449.59
406.889	439.88
407.267	447.56
407.645	446.88
408.023	486.65
408.401	478.74
408.779	472.87
409.156	488.69
409.534	471.74
409.912	483.72
410.29	484.85
410.667	476.48
411.045	518.29
411.422	505.64
411.8	501.34
412.178	524.62
412.555	539.76
412.933	518.07
413.31	545.86
413.687	534.11
414.065	573.43
414.442	559.19
414.819	584.28
415.197	568.46
415.574	574.34
415.951	584.73
416.328	583.15
416.705	602.36
417.082	603.03
417.46	611.17
417.837	622.47
418.214	619.98
418.591	642.81
418.967	658.17
419.344	632.86
419.721	666.54
420.098	638.97
420.475	658.4
420.852	659.08
421.228	688.23
421.605	668.8
421.982	689.81
422.358	685.29
422.735	711.51
423.111	745.63
423.488	720.32
423.864	725.97
424.241	724.84
424.617	746.76
424.994	750.6
425.37	751.28
425.746	749.7
426.123	768.45
426.499	761.22
426.875	774.1
427.251	782.24
427.627	785.63
428.003	825.85
428.379	829.92
428.756	816.81
429.132	822.24
429.507	839.19
429.883	835.12
430.259	842.8
430.635	866.53
431.011	866.08
431.387	885.51
431.763	908.56
432.138	893.87
432.514	904.27
432.89	939.3
433.265	944.27
433.641	939.75
434.016	936.13
434.392	1003.93
434.767	1013.19
435.143	971.61
435.518	994.89
435.894	1034.44
436.269	1020.65
436.644	1044.61
437.02	1058.84
437.395	1038.5
437.77	1045.51
438.145	1060.88
438.52	1084.38
438.895	1069.92
439.271	1053.64
439.646	1092.51
440.021	1122.12
440.395	1091.16
440.77	1111.5
441.145	1107.65
441.52	1151.72
441.895	1130.93
442.27	1148.33
442.645	1126.64
443.019	1136.35
443.394	1145.85
443.769	1142.46
444.143	1176.81
444.518	1186.07
444.892	1179.07
445.267	1209.8
445.641	1193.75
446.016	1203.47
446.39	1172.06
446.764	1234.88
447.139	1202.57
447.513	1221.1
447.887	1227.43
448.262	1226.75
448.636	1236.46
449.01	1213.87
449.384	1245.96
449.758	1235.56
450.132	1257.71
450.506	1272.17
450.88	1270.59
451.254	1272.62
451.628	1308.55
452.002	1273.07
452.376	1309.01
452.75	1281.66
453.123	1297.48
453.497	1332.73
453.871	1313.3
454.244	1348.1
454.618	1351.94
454.992	1353.98
455.365	1351.72
455.739	1388.1
456.112	1402.56
456.486	1387.65
456.859	1386.52
457.232	1411.83
457.606	1395.78
457.979	1402.79
458.352	1445.72
458.725	1461.09
459.099	1448.66
459.472	1464.26
459.845	1500.19
460.218	1508.32
460.591	1516.46
460.964	1489.79
461.337	1542.45
461.71	1548.09
462.083	1585.83
462.456	1560.98
462.829	1600.97
463.201	1573.18
463.574	1597.59
463.947	1643.69
464.32	1642.1
464.692	1652.95
465.065	1672.84
465.438	1684.59
465.81	1679.84
466.183	1703.8
466.555	1734.08
466.928	1764.59
467.3	1704.93
467.672	1731.82
468.045	1785.38
468.417	1802.33
468.789	1788.99
469.161	1789.22
469.534	1867.18
469.906	1886.84
470.278	1888.42
470.65	1873.28
471.022	1894.07
471.394	1899.05
471.766	1943.34
472.138	1944.47
472.51	1991.47
472.882	2012.72
473.253	2041.19
473.625	2047.74
473.997	2090.45
474.369	2087.74
474.74	2092.71
475.112	2106.27
475.484	2159.15
475.855	2204.12
476.227	2184.69
476.598	2267.17
476.97	2282.99
477.341	2319.15
477.713	2300.62
478.084	2334.51
478.455	2332.26
478.827	2394.17
479.198	2459.94
479.569	2441.18
479.94	2491.57
480.311	2477.79
480.682	2502.65
481.053	2562.76
481.424	2588.29
481.795	2640.95
482.166	2636.2
482.537	2689.08
482.908	2720.49
483.279	2727.05
483.65	2781.28
484.021	2814.95
484.391	2858.34
484.762	2890.21
485.133	2874.61
485.503	2908.06
485.874	3007.27
486.244	2973.37
486.615	2992.8
486.985	3060.15
487.356	3074.38
487.726	3112.12
488.097	3136.3
488.467	3157.54
488.837	3238.22
489.207	3237.99
489.578	3270.08
489.948	3299.24
490.318	3320.25
490.688	3344.43
491.058	3351.21
491.428	3419.01
491.798	3429.85
492.168	3473.24
492.538	3522.73
492.908	3532.45
493.278	3583.07
493.648	3576.29
494.017	3605.67
494.387	3664.2
494.757	3665.55
495.126	3696.06
495.496	3718.43
495.866	3731.31
496.235	3769.96
496.605	3765.21
496.974	3808.6
497.344	3785.1
497.713	3830.29
498.082	3866.9
498.452	3927.92
498.821	3911.42
499.19	3900.35
499.559	3975.15
499.928	3919.33
500.298	3978.99
500.667	3996.84
501.036	3991.65
501.405	4034.58
501.774	4028.93
502.143	4080.23
502.512	4053.79
502.88	4078.65
503.249	4102.38
503.618	4178.31
503.987	4157.74
504.356	4231.87
504.724	4182.15
505.093	4186.44
505.462	4167.69
505.83	4180.12
506.199	4272.32
506.567	4279.1
506.936	4294.69
507.304	4307.12
507.672	4318.19
508.041	4355.7
508.409	4328.36
508.777	4331.07
509.145	4390.28
509.514	4355.93
509.882	4425.08
510.25	4416.49
510.618	4423.95
510.986	4427.79
511.354	4495.59
511.722	4456.94
512.09	4533.1
512.458	4479.54
512.826	4554.12
513.193	4573.55
513.561	4531.29
513.929	4590.73
514.297	4623.95
514.664	4630.95
515.032	4630.05
515.4	4624.85
515.767	4590.27
516.135	4646.09
516.502	4603.16
516.869	4694.68
517.237	4668.46
517.604	4689.03
517.972	4746.43
518.339	4756.37
518.706	4718.63
519.073	4761.34
519.44	4750.95
519.808	4743.27
520.175	4766.77
520.542	4830.72
520.909	4824.62
521.276	4856.93
521.643	4871.85
522.009	4935.35
522.376	4935.58
522.743	4958.63
523.11	5032.98
523.477	4996.37
523.843	5025.74
524.21	5039.08
524.577	5066.42
524.943	5061.45
525.31	5110.04
525.676	5146.87
526.043	5148.45
526.409	5180.99
526.776	5226.64
527.142	5252.63
527.508	5267.55
527.874	5332.85
528.241	5298.28
528.607	5312.97
528.973	5368.33
529.339	5360.88
529.705	5438.84
530.071	5493.08
530.437	5453.3
530.803	5514.32
531.169	5537.37
531.535	5540.76
531.901	5546.18
532.267	5582.79
532.632	5592.96
532.998	5652.62
533.364	5632.28
533.73	5635.9
534.095	5684.48
534.461	5747.08
534.826	5735.56
535.192	5752.73
535.557	5858.94
535.923	5801.77
536.288	5836.12
536.653	5852.16
537.019	5829.56
537.384	5891.03
537.749	5884.7
538.114	5932.84
538.479	5924.03
538.845	5987.98
539.21	5965.38
539.575	6035.21
539.94	6018.03
540.305	6077.69
540.67	6123.79
541.034	6102.55
541.399	6125.15
541.764	6189.55
542.129	6173.06
542.494	6189.1
542.858	6230.46
543.223	6172.83
543.587	6281.98
543.952	6275.2
544.316	6367.86
544.681	6324.69
545.045	6383.22
545.41	6421.64
545.774	6425.03
546.138	6460.06
546.503	6423.67
546.867	6480.85
547.231	6525.37
547.595	6507.74
547.959	6568.08
548.324	6550
548.688	6613.5
549.052	6563.33
549.416	6648.3
549.779	6662.08
550.143	6676.32
550.507	6685.13
550.871	6753.38
551.235	6758.35
551.599	6823.89
551.962	6793.83
552.326	6847.39
552.689	6851.01
553.053	6886.49
553.417	6928.52
553.78	6912.25
554.143	6922.19
554.507	6940.04
554.87	6994.28
555.234	7001.51
555.597	6988.63
555.96	7050.55
556.323	7057.55
556.686	7067.27
557.05	7084.67
557.413	7143.88
557.776	7137.1
558.139	7160.83
558.502	7222.07
558.865	7170.32
559.228	7267.27
559.59	7263.88
559.953	7271.79
560.316	7329.41
560.679	7300.03
561.041	7401.27
561.404	7397.43
561.767	7428.17
562.129	7358.34
562.492	7410.54
562.854	7543.87
563.217	7482.85
563.579	7534.38
563.941	7560.14
564.304	7619.57
564.666	7643.08
565.028	7611.21
565.39	7663.41
565.753	7688.95
566.115	7726.01
566.477	7701.83
566.839	7712.45
567.201	7757.65
567.563	7816.4
567.925	7854.37
568.287	7889.17
568.648	7871.32
569.01	7947.02
569.372	7954.25
569.734	7960.58
570.095	7986.57
570.457	8065.21
570.819	8071.54
571.18	8149.96
571.542	8173.23
571.903	8215.72
572.265	8230.86
572.626	8292.78
572.987	8344.53
573.349	8416.39
573.71	8392.66
574.071	8459.33
574.432	8575.48
574.794	8641.92
575.155	8686.21
575.516	8692.31
575.877	8734.12
576.238	8776.61
576.599	8929.6
576.96	8924.4
577.32	8979.09
577.681	9075.58
578.042	9252.3
578.403	9283.94
578.763	9373.88
579.124	9410.49
579.485	9596.92
579.845	9648.45
580.206	9744.72
580.566	9872.4
580.927	9918.27
581.287	10113.29
581.648	10210.24
582.008	10396.9
582.368	10507.18
582.728	10706.27
583.089	10902.65
583.449	11024.91
583.809	11178.35
584.169	11389.87
584.529	11542.18
584.889	11877.09
585.249	11947.6
585.609	12146.91
585.969	12385.78
586.329	12599.1
586.688	12893.56
587.048	13019.66
587.408	13316.37
587.768	13483.6
588.127	13832.07
588.487	13996.58
588.846	14392.28
589.206	14496
589.565	14855.77
589.925	15200.84
590.284	15337.11
590.643	15710.43
591.003	16012.12
591.362	16340.02
591.721	16634.25
592.08	16909.27
592.44	17238.98
592.799	17509.94
593.158	17872.41
593.517	18123.25
593.876	18551.49
594.235	18745.38
594.593	19160.06
594.952	19536.32
595.311	19736.77
595.67	20131.56
596.029	20493.59
596.387	20835.95
596.746	21200.01
597.104	21469.6
597.463	21752.08
597.822	22146.65
598.18	22422.35
598.538	22691.72
598.897	23091.71
599.255	23266.62
599.613	23885.81
599.972	24050.78
600.33	24359.02
600.688	24682.85
601.046	24998.55
601.404	25405.09
601.762	25649.16
602.12	26044.17
602.478	26330.49
602.836	26584.05
603.194	26854.1
603.552	27095.45
603.91	27362.33
604.268	27685.03
604.625	27984.24
604.983	28512.36
605.341	28631.45
605.698	28885.68
606.056	29266.01
606.413	29435.95
606.771	29771.76
607.128	29997.74
607.485	30174.46
607.843	30467.79
608.2	30761.56
608.557	31251.72
608.914	31286.3
609.272	31635.44
609.629	31853.06
609.986	32198.59
610.343	32260.06
610.7	32638.8
611.057	32826.59
611.414	33110.65
611.771	33227.94
612.127	33543.64
612.484	33678.78
612.841	34089.16
613.198	34044.64
613.554	34220.23
613.911	34647.79
614.267	34679.2
614.624	34928.46
614.98	35071.06
615.337	35557.82
615.693	35579.06
616.05	35799.62
616.406	35950.81
616.762	35951.48
617.118	36209.78
617.475	36334.98
617.831	36502.2
618.187	36751.46
618.543	36877.34
618.899	37157.55
619.255	37185.8
619.611	37358.23
619.967	37586.92
620.323	37887.7
620.678	37673.25
621.034	37757.31
621.39	37892.22
621.746	38103.29
622.101	38451.31
622.457	38224.87
622.812	38399.56
623.168	38529.5
623.523	38670.28
623.879	39005.87
624.234	38767
624.589	39036.15
624.945	39132.64
625.3	39346.2
625.655	39313.43
626.01	39339.64
626.365	39503.93
626.72	39582.12
627.075	39511.62
627.43	39629.13
627.785	39690.14
628.14	39822.57
628.495	39867.77
628.85	39911.61
629.205	39856.01
629.559	39971.94
629.914	40035.67
630.269	40058.95
630.623	40113.86
630.978	39934.2
631.332	40249
631.687	40374.64
632.041	40218.72
632.396	40361.09
632.75	40232.73
633.104	40394.08
633.459	40292.39
633.813	40245.16
634.167	40273.18
634.521	40263.91
634.875	40285.16
635.229	40305.27
635.583	40166.06
635.937	40304.36
636.291	40288.09
636.645	40198.6
636.999	40169.68
637.352	40402.67
637.706	40097.59
638.06	40325.61
638.413	40226.63
638.767	40177.14
639.121	40400.41
639.474	40206.29
639.828	40200.64
640.181	40292.61
640.534	40379.84
640.888	40253.74
641.241	40105.5
641.594	40175.78
641.947	40165.84
642.301	40315.21
642.654	40205.61
643.007	40253.74
643.36	40172.62
643.713	40083.58
644.066	40274.08
644.419	40082.45
644.771	39706.41
645.124	39579.64
645.477	39477.49
645.83	39124.28
646.182	39125.41
646.535	38940.78
646.888	39063.04
647.24	38980.56
647.593	39134.23
647.945	38963.61
648.298	38889.26
648.65	38873.67
649.002	38854.46
649.355	38976.72
649.707	38890.84
650.059	39125.64
650.411	39475.91
650.763	39532.63
651.115	39851.27
651.467	39820.31
651.819	39764.72
652.171	39694.89
652.523	39618.51
652.875	39654.66
653.227	39561.11
653.578	39822.12
653.93	39659.86
654.282	39540.32
654.633	39461.22
654.985	39553.88
655.337	39634.55
655.688	39575.34
656.039	39657.6
656.391	39406.99
656.742	39422.81
657.094	39500.09
657.445	39521.56
657.796	39413.09
658.147	39478.4
658.498	39464.61
658.849	39557.49
659.2	39456.02
659.551	39403.37
659.902	39537.83
660.253	39385.74
660.604	39548
660.955	39302.36
661.306	39413.31
661.656	39331.06
662.007	39357.95
662.358	39192.75
662.708	39258.29
663.059	39298.51
663.409	38928.81
663.76	39401.11
664.11	39233.43
664.461	39354.11
664.811	39424.16
665.161	39192.3
665.511	39202.7
665.862	39306.88
666.212	39293.32
666.562	39354.56
666.912	39229.82
667.262	39176.48
667.612	39331.06
667.962	39280.44
668.312	39227.33
668.662	39406.31
669.011	39417.16
669.361	39189.82
669.711	39161.8
670.06	39106.66
670.41	39114.34
670.76	39146.65
671.109	39150.95
671.459	39161.8
671.808	39011.74
672.157	39151.4
672.507	38840.45
672.856	38963.83
673.205	39004.96
673.554	38980.78
673.904	39015.13
674.253	39063.27
674.602	38965.87
674.951	38513.9
675.3	38284.98
675.649	38866.21
675.998	38819.43
676.346	38828.47
676.695	39011.97
677.044	38522.26
677.393	38809.71
677.741	38789.83
678.09	38723.39
678.438	38568.14
678.787	38557.97
679.135	38666.44
679.484	38450.63
679.832	38703.05
680.181	38261.48
680.529	38468.93
680.877	38367.69
681.225	38363.4
681.573	38575.37
681.922	38271.42
682.27	38180.13
682.618	38180.58
682.966	38048.15
683.314	38170.86
683.661	38040.47
684.009	37840.02
684.357	37766.35
684.705	37915.5
685.053	37815.62
685.4	37755.5
685.748	37645.45
686.095	37597.32
686.443	37441.61
686.79	37467.83
687.138	37477.77
687.485	37467.38
687.832	37359.36
688.18	37383.99
688.527	37232.35
688.874	37065.81
689.221	37105.58
689.568	36957.11
689.915	37039.59
690.262	36966.82
690.609	36893.83
690.956	36715.08
691.303	36508.76
691.65	36487.29
691.997	36430.57
692.344	36234.64
692.69	36211.36
693.037	36387.18
693.383	36047.53
693.73	36128.65
694.077	35770.47
694.423	36006.62
694.769	35774.09
695.116	35749
695.462	35708.33
695.808	35611.83
696.155	35674.43
696.501	35298.62
696.847	35295.68
697.193	35197.15
697.539	35255.91
697.885	35001.45
698.231	34918.74
698.577	34915.58
698.923	34869.7
699.269	34622.93
699.614	34481.47
699.96	34590.84
700.306	34622.93
700.651	34428.81
700.997	34392.2
701.342	34106.56
701.688	34155.15
702.033	33930.07
702.379	33989.28
702.724	33875.38
703.069	33902.72
703.415	33422.74
703.76	33565.56
704.105	33604.65
704.45	33580.7
704.795	33294.83
705.14	33320.82
705.485	33218
705.83	33170.54
706.175	33151.56
706.52	33099.81
706.865	32918.57
707.209	32996.31
707.554	32722.64
707.899	32932.81
708.243	32674.06
708.588	32680.38
708.932	32457.56
709.277	32350.9
709.621	32543.89
709.966	32266.38
710.31	32167.18
710.654	32053.06
710.998	32056.67
711.342	32066.61
711.687	31988.88
712.031	31863.68
712.375	31691.26
712.719	31917.24
713.063	31753.85
713.407	31819.16
713.75	31606.97
714.094	31546.85
714.438	31383.24
714.782	31496.69
715.125	31305.05
715.469	31417.59
715.812	31177.37
716.156	31094.44
716.499	31086.75
716.843	30964.5
717.186	30959.52
717.53	31125.4
717.873	30911.84
718.216	30919.3
718.559	30822.13
718.902	30690.38
719.246	30625.07
719.589	30652.19
719.932	30378.52
720.275	30526.32
720.617	30409.93
720.96	30418.97
721.303	30296.72
721.646	30298.75
721.989	30146.66
722.331	30194.8
722.674	30145.54
723.016	30120.22
723.359	30154.35
723.701	30051.98
724.044	29826.9
724.386	29754.58
724.729	29880.01
725.071	29756.17
725.413	29795.94
725.755	29686.34
726.097	29604.53
726.439	29430.53
726.782	29567.92
727.124	29524.99
727.465	29344.2
727.807	29354.37
728.149	29363.63
728.491	29349.4
728.833	29344.65
729.175	29206.8
729.516	29141.95
729.858	29033.47
730.199	29126.35
730.541	28977.43
730.882	28974.27
731.224	29084.32
731.565	28897.66
731.906	28862.63
732.248	28751.9
732.589	28717.1
732.93	28594.16
733.271	28616.31
733.612	28685.91
733.953	28665.12
734.294	28624.67
734.635	28502.64
734.976	28598.91
735.317	28488.86
735.658	28415.86
735.999	28405.69
736.339	28281.86
736.68	28457.9
737.021	28285.24
737.361	28161.63
737.702	28291.57
738.042	28208.86
738.383	28152.37
738.723	28270.78
739.063	28024.69
739.404	28061.97
739.744	28045.93
740.084	28007.51
740.424	27958.93
740.764	27851.36
741.104	28003.22
741.444	27770.91
741.784	27562.78
742.124	27629.67
742.464	27765.71
742.804	27607.97
743.143	27694.53
743.483	27652.72
743.823	27472.61
744.162	27478.94
744.502	27548.32
744.841	27274.2
745.181	27313.52
745.52	27240.3
745.86	27205.73
746.199	27281.88
746.538	27154.65
746.877	27237.14
747.216	27165.95
747.556	27081.66
747.895	27136.35
748.234	26961.21
748.573	26857.71
748.911	26864.72
749.25	26895.23
749.589	26749.24
749.928	26699.98
750.267	26796.47
750.605	26760.54
750.944	26547.89
751.283	26465.86
751.621	26578.62
751.96	26368.46
752.298	26424.95
752.636	26452.98
752.975	26176.6
753.313	26177.5
753.651	26330.95
753.989	26273.32
754.327	26125.98
754.666	25921.69
755.004	26078.98
755.342	26077.39
755.679	25955.81
756.017	25744.97
756.355	25812.54
756.693	25846.89
757.031	25830.62
757.368	25592.21
757.706	25534.81
758.044	25534.58
758.381	25546.11
758.719	25385.21
759.056	25381.14
759.394	25185.67
759.731	25169.17
