Data from hue_110_FLMS001491_00027.txt Node
Date: Tue Feb 07 17:01:06 GMT 2017
User: dcchb
Spectrometer: FLMS00149
Trigger mode: 0
Integration Time (sec): 2.000000E-2
Scans to average: 10
Electric dark correction enabled: true
Nonlinearity correction enabled: false
Boxcar width: 0
XAxis mode: Wavelengths
Number of Pixels in Spectrum: 2048
>>>>>Begin Spectral Data<<<<<
341.393	-6.02
341.776	-6.02
342.16	-6.02
342.543	-57.31
342.927	-71.1
343.31	-74.94
343.693	-62.29
344.077	-61.16
344.46	-63.64
344.843	-60.48
345.226	-35.85
345.61	-48.05
345.993	-14.38
346.376	-11.21
346.759	8.67
347.142	35.79
347.525	34.43
347.908	64.72
348.291	69.69
348.674	99.74
349.057	118.95
349.44	150.82
349.823	146.75
350.206	175.9
350.588	191.72
350.971	199.4
351.354	207.08
351.737	227.2
352.119	256.58
352.502	266.52
352.884	288.21
353.267	277.82
353.65	272.85
354.032	290.7
354.414	307.65
354.797	320.08
355.179	297.03
355.562	321.66
355.944	350.58
356.326	330.7
356.709	356.91
357.091	324.14
357.473	342.9
357.855	338.15
358.238	352.84
358.62	350.13
359.002	347.19
359.384	330.02
359.766	343.8
360.148	325.05
360.53	344.48
360.912	341.77
361.294	346.06
361.676	350.13
362.057	339.74
362.439	333.64
362.821	335.22
363.203	328.66
363.584	334.31
363.966	341.09
364.348	326.4
364.729	326.4
365.111	299.96
365.493	311.04
365.874	304.48
366.256	324.14
366.637	287.99
367.019	309.46
367.4	316.69
367.781	312.39
368.163	318.04
368.544	312.17
368.925	323.47
369.306	291.6
369.688	293.41
370.069	298.83
370.45	292.51
370.831	316.46
371.212	313.52
371.593	311.04
371.974	316.01
372.355	307.2
372.736	299.96
373.117	287.53
373.498	322.56
373.879	316.69
374.26	316.01
374.641	331.38
375.021	320.75
375.402	307.2
375.783	301.55
376.163	342.9
376.544	309.46
376.925	334.77
377.305	335.44
377.686	335.44
378.066	322.34
378.447	332.73
378.827	334.77
379.208	321.66
379.588	330.92
379.968	331.15
380.349	314.43
380.729	334.31
381.109	339.96
381.489	362.34
381.87	315.33
382.25	329.79
382.63	351.04
383.01	313.3
383.39	328.44
383.77	344.48
384.15	331.15
384.53	346.52
384.91	353.75
385.29	357.59
385.67	327.31
386.049	356.23
386.429	337.7
386.809	348.32
387.189	343.58
387.568	351.71
387.948	347.87
388.328	339.28
388.707	337.03
389.087	345.84
389.466	344.93
389.846	358.72
390.225	363.69
390.605	375.22
390.984	347.87
391.363	358.95
391.743	372.28
392.122	377.48
392.501	367.08
392.881	385.84
393.26	342.22
393.639	355.33
394.018	358.95
394.397	379.28
394.776	367.76
395.155	368.44
395.534	372.73
395.913	371.37
396.292	366.4
396.671	372.5
397.05	369.79
397.429	383.35
397.808	392.39
398.186	376.8
398.565	382.9
398.944	388.55
399.323	374.54
399.701	403.69
400.08	403.69
400.458	385.16
400.837	376.35
401.215	392.62
401.594	396.23
401.972	387.65
402.351	394.65
402.729	405.72
403.107	400.53
403.486	400.3
403.864	391.03
404.242	417.93
404.62	404.14
404.999	402.33
405.377	391.49
405.755	397.81
406.133	404.37
406.511	408.66
406.889	426.06
407.267	409.57
407.645	388.1
408.023	411.15
408.401	438.49
408.779	418.15
409.156	413.63
409.534	432.16
409.912	455.67
410.29	461.77
410.667	444.82
411.045	435.55
411.422	475.1
411.8	466.97
412.178	464.71
412.555	451.6
412.933	466.97
413.31	442.33
413.687	429.9
414.065	458.15
414.442	477.81
414.819	464.48
415.197	487.76
415.574	467.87
415.951	483.24
416.328	473.97
416.705	469.45
417.082	476
417.46	502.67
417.837	503.35
418.214	481.65
418.591	487.76
418.967	478.04
419.344	494.99
419.721	510.81
420.098	498.83
420.475	499.51
420.852	511.48
421.228	527.3
421.605	524.82
421.982	509.22
422.358	518.49
422.735	541.99
423.111	520.3
423.488	528.88
423.864	549.45
424.241	562.33
424.617	538.38
424.994	572.27
425.37	520.07
425.746	547.87
426.123	554.87
426.499	543.8
426.875	593.29
427.251	562.1
427.627	576.34
428.003	568.88
428.379	587.87
428.756	602.33
429.132	603.01
429.507	596
429.883	609.56
430.259	607.3
430.635	595.78
431.011	627.64
431.387	605.27
431.763	610.92
432.138	625.61
432.514	651.59
432.89	657.47
433.265	642.33
433.641	673.06
434.016	661.54
434.392	675.77
434.767	662.67
435.143	670.35
435.518	679.61
435.894	667.86
436.269	687.75
436.644	695.43
437.02	709.67
437.395	694.3
437.77	711.7
438.145	723
438.52	722.33
438.895	732.72
439.271	727.98
439.646	754.87
440.021	743.57
440.395	741.76
440.77	763
441.145	743.79
441.52	752.83
441.895	750.8
442.27	765.49
442.645	758.26
443.019	771.36
443.394	764.81
443.769	795.54
444.143	788.31
444.518	801.87
444.892	784.47
445.267	799.16
445.641	793.28
446.016	796.22
446.39	825.83
446.764	816.56
447.139	832.61
447.513	814.75
447.887	831.93
448.262	838.71
448.636	847.07
449.01	840.06
449.384	840.29
449.758	871.02
450.132	862.66
450.506	866.73
450.88	878.93
451.254	871.02
451.628	918.03
452.002	887.29
452.376	905.82
452.75	913.73
453.123	932.04
453.497	909.21
453.871	951.7
454.244	950.34
454.618	968.87
454.992	957.35
455.365	971.36
455.739	989.89
456.112	1015.43
456.486	1019.27
456.859	997.57
457.232	1021.3
457.606	1043.67
457.979	1032.15
458.352	1043.9
458.725	1066.72
459.099	1093.39
459.472	1099.72
459.845	1145.82
460.218	1111.02
460.591	1146.5
460.964	1151.24
461.337	1166.38
461.71	1207.74
462.083	1237.34
462.456	1214.06
462.829	1220.17
463.201	1224.46
463.574	1256.1
463.947	1227.62
464.32	1261.52
464.692	1297.9
465.065	1319.6
465.438	1345.81
465.81	1352.14
466.183	1379.03
466.555	1417.22
466.928	1424.45
467.3	1424.68
467.672	1460.39
468.045	1484.11
468.417	1494.06
468.789	1504.68
469.161	1520.27
469.534	1578.35
469.906	1610.89
470.278	1628.52
470.65	1648.85
471.022	1678.23
471.394	1718.01
471.766	1736.31
472.138	1794.39
472.51	1799.13
472.882	1865.8
473.253	1863.09
473.625	1948.96
473.997	1950.09
474.369	2011.33
474.74	2070.76
475.112	2124.55
475.484	2129.52
475.855	2204.32
476.227	2229.4
476.598	2317.76
476.97	2347.37
477.341	2426.91
477.713	2490.87
478.084	2534.03
478.455	2606.12
478.827	2688.6
479.198	2791.65
479.569	2815.15
479.94	2919.33
480.311	2989.16
480.682	3107.8
481.053	3178.76
481.424	3271.19
481.795	3319.77
482.166	3449.03
482.537	3479.09
482.908	3609.48
483.279	3687.9
483.65	3829.59
484.021	3935.8
484.391	4060.32
484.762	4122.46
485.133	4188.45
485.503	4317.03
485.874	4484.26
486.244	4587.76
486.615	4713.18
486.985	4864.59
487.356	4965.6
487.726	5086.96
488.097	5246.5
488.467	5321.75
488.837	5507.74
489.207	5603.33
489.578	5752.48
489.948	5884.45
490.318	5990.66
490.688	6110.88
491.058	6285.34
491.428	6426.58
491.798	6589.29
492.168	6761.26
492.538	6805.56
492.908	6993.57
493.278	7140.46
493.648	7234.47
494.017	7388.82
494.387	7583.16
494.757	7650.96
495.126	7843.04
495.496	7905.64
495.866	8025.41
496.235	8185.41
496.605	8325.97
496.974	8462.91
497.344	8592.4
497.713	8670.37
498.082	8764.15
498.452	8956.91
498.821	9016.12
499.19	9096.12
499.559	9313.74
499.928	9376.56
500.298	9441.87
500.667	9603.9
501.036	9617.91
501.405	9801.63
501.774	9854.06
502.143	9980.84
502.512	10017.9
502.88	10184.22
503.249	10179.93
503.618	10351
503.987	10407.04
504.356	10544.44
504.724	10677.09
505.093	10652.69
505.462	10721.16
505.83	10831.66
506.199	11000.93
506.567	11148.27
506.936	11076.18
507.304	11262.61
507.672	11342.61
508.041	11326.79
508.409	11459.44
508.777	11553
509.145	11662.83
509.514	11606.79
509.882	11723.17
510.25	11753.22
510.618	11845.65
510.986	11844.75
511.354	12015.14
511.722	12070.05
512.09	12117.51
512.458	12092.42
512.826	12295.81
513.193	12282.7
513.561	12315.92
513.929	12290.61
514.297	12592.3
514.664	12493.09
515.032	12562.24
515.4	12657.15
515.767	12740.31
516.135	12698.96
516.502	12618.06
516.869	12828.22
517.237	12853.08
517.604	12841.56
517.972	12892.85
518.339	13014.21
518.706	12930.37
519.073	13128.1
519.44	13091.27
519.808	13097.59
520.175	13169.91
520.542	13207.65
520.909	13234.09
521.276	13158.16
521.643	13335.33
522.009	13375.1
522.376	13425.04
522.743	13449.45
523.11	13439.05
523.477	13583.91
523.843	13570.58
524.21	13685.6
524.577	13741.64
524.943	13682.44
525.31	13733.73
525.676	13776.9
526.043	13856.67
526.409	13803.56
526.776	13883.56
527.142	13901.19
527.508	13890.79
527.874	14038.81
528.241	14008.76
528.607	13896.67
528.973	14028.87
529.339	13972.37
529.705	14007.4
530.071	14043.78
530.437	14068.87
530.803	14101.41
531.169	14166.49
531.535	14071.13
531.901	14048.3
532.267	14041.3
532.632	14131.01
532.998	13992.49
533.364	14113.61
533.73	14057.79
534.095	14074.74
534.461	14114.52
534.826	14074.97
535.192	14050.79
535.557	14046.04
535.923	14067.51
536.288	13938.48
536.653	14022.09
537.019	13875.65
537.384	13940.51
537.749	13945.71
538.114	13912.71
538.479	13891.24
538.845	13849.89
539.21	13832.94
539.575	13798.82
539.94	13750.23
540.305	13836.33
540.67	13664.81
541.034	13695.54
541.399	13633.4
541.764	13652.83
542.129	13725.6
542.494	13562.89
542.858	13611.7
543.223	13500.97
543.587	13546.4
543.952	13474.08
544.316	13484.93
544.681	13411.48
545.045	13458.26
545.41	13423.01
545.774	13411.94
546.138	13340.98
546.503	13331.49
546.867	13257.82
547.231	13300.98
547.595	13237.25
547.959	13246.29
548.324	13131.94
548.688	13064.6
549.052	13157.93
549.416	13119.06
549.779	12974.66
550.143	13022.57
550.507	13122.68
550.871	13020.99
551.235	12888.11
551.599	13092.17
551.962	12942.57
552.326	12948.9
552.689	12908.22
553.053	12853.76
553.417	12800.43
553.78	12931.04
554.143	12776.25
554.507	12813.31
554.87	12672.07
555.234	12924.94
555.597	12726.98
555.96	12749.13
556.323	12771.5
556.686	12709.13
557.05	12698.96
557.413	12762.24
557.776	12736.7
558.139	12737.38
558.502	12717.26
558.865	12633.42
559.228	12706.64
559.59	12709.81
559.953	12734.21
560.316	12807.88
560.679	12786.42
561.041	12772.63
561.404	12745.96
561.767	12736.92
562.129	12683.59
562.492	12762.69
562.854	12672.07
563.217	12731.28
563.579	12739.86
563.941	12820.54
564.304	12798.84
564.666	12745.06
565.028	12879.52
565.39	12805.17
565.753	12824.83
566.115	12928.78
566.477	12891.95
566.839	12858.96
567.201	12842.01
567.563	12890.59
567.925	12929.24
568.287	12904.83
568.648	12857.15
569.01	12857.37
569.372	13031.83
569.734	12945.73
570.095	12982.12
570.457	13088.33
570.819	13023.92
571.18	12976.01
571.542	13038.84
571.903	13035.67
572.265	13081.77
572.626	13075
572.987	13058.27
573.349	13110.47
573.71	13126.07
574.071	13080.64
574.432	13123.58
574.794	13174.43
575.155	13220.75
575.516	13092.85
575.877	13134.65
576.238	13216.69
576.599	13269.57
576.96	13109.12
577.32	13176.01
577.681	13174.65
578.042	13231.6
578.403	13242.45
578.763	13202.68
579.124	13219.17
579.485	13231.83
579.845	13262.33
580.206	13251.49
580.566	13207.2
580.927	13149.34
581.287	13245.84
581.648	13245.16
582.008	13250.36
582.368	13170.13
582.728	13162.45
583.089	13143.47
583.449	13145.73
583.809	13206.74
584.169	13170.13
584.529	13194.99
584.889	13196.57
585.249	13103.7
585.609	13070.7
585.969	13140.76
586.329	13055.33
586.688	13141.21
587.048	13034.32
587.408	13095.79
587.768	13022.79
588.127	13006.75
588.487	13029.8
588.846	13095.56
589.206	13074.09
589.565	13085.62
589.925	13056.01
590.284	12987.31
590.643	13111.38
591.003	13109.34
591.362	13052.17
591.721	13066.63
592.08	13019.18
592.44	13112.28
592.799	13002.23
593.158	13039.06
593.517	13053.53
593.876	13014.43
594.235	12967.65
594.593	13010.14
594.952	13023.02
595.311	12982.79
595.67	12901.67
596.029	13034.09
596.387	13035
596.746	13001.1
597.104	12858.28
597.463	12938.5
597.822	12967.43
598.18	12898.95
598.538	12867.32
598.897	12941.89
599.255	12805.17
599.613	13009.69
599.972	12911.84
600.33	13033.19
600.688	12877.49
601.046	12996.13
601.404	12949.57
601.762	12908.9
602.12	12943.7
602.478	12960.42
602.836	12976.69
603.194	12857.15
603.552	12970.82
603.91	12785.29
604.268	12916.36
604.625	12955.45
604.983	13014.21
605.341	12880.65
605.698	12921.78
606.056	13027.31
606.413	12995.45
606.771	12974.66
607.128	12952.06
607.485	12935.56
607.843	12923.59
608.2	13014.43
608.557	13014.88
608.914	13017.6
609.272	13050.36
609.629	13086.75
609.986	13120.87
610.343	13033.19
610.7	13015.11
611.057	13085.39
611.414	13074.77
611.771	13012.17
612.127	13131.72
612.484	13076.13
612.841	13103.47
613.198	13088.78
613.554	13102.57
613.911	13155.67
614.267	13133.07
614.624	13137.14
614.98	13155.9
615.337	13206.97
615.693	13237.93
616.05	13203.13
616.406	13267.53
616.762	13204.94
617.118	13130.13
617.475	13242.9
617.831	13269.34
618.187	13230.25
618.543	13258.04
618.899	13320.41
619.255	13347.3
619.611	13231.38
619.967	13369.68
620.323	13316.12
620.678	13282.67
621.034	13253.75
621.39	13268.89
621.746	13300.07
622.101	13411.94
622.457	13291.94
622.812	13347.53
623.168	13404.93
623.523	13345.04
623.879	13350.24
624.234	13260.08
624.589	13376.23
624.945	13321.77
625.3	13330.81
625.655	13306.85
626.01	13463.69
626.365	13270.24
626.72	13345.04
627.075	13313.86
627.43	13297.59
627.785	13346.4
628.14	13271.83
628.495	13326.74
628.85	13290.13
629.205	13265.27
629.559	13301.88
629.914	13361.77
630.269	13331.49
630.623	13245.16
630.978	13156.8
631.332	13275.67
631.687	13320.19
632.041	13173.52
632.396	13248.78
632.75	13181.43
633.104	13190.25
633.459	13157.25
633.813	13107.31
634.167	13130.36
634.521	13184.37
634.875	13098.5
635.229	13095.33
635.583	12975.79
635.937	13007.43
636.291	13068.22
636.645	12960.2
636.999	13023.92
637.352	13049.01
637.706	12952.06
638.06	13032.51
638.413	12952.51
638.767	12860.31
639.121	12874.77
639.474	12807.66
639.828	12962.23
640.181	12868.45
640.534	12894.89
640.888	12844.27
641.241	12858.96
641.594	12804.49
641.947	12822.8
642.301	12807.21
642.654	12845.4
643.007	12862.57
643.36	12749.13
643.713	12778.96
644.066	12870.93
644.419	12698.96
644.771	12719.3
645.124	12599.08
645.477	12546.42
645.83	12433.88
646.182	12356.37
646.535	12371.51
646.888	12409.93
647.24	12356.37
647.593	12440.89
647.945	12343.04
648.298	12366.54
648.65	12352.08
649.002	12264.85
649.355	12349.82
649.707	12295.35
650.059	12466.65
650.411	12565.63
650.763	12560.88
651.115	12702.58
651.467	12618.74
651.819	12706.19
652.171	12692.41
652.523	12666.64
652.875	12557.95
653.227	12569.7
653.578	12585.06
653.93	12553.65
654.282	12582.13
654.633	12555.91
654.985	12591.17
655.337	12574.67
655.688	12612.41
656.039	12665.51
656.391	12545.29
656.742	12596.59
657.094	12620.54
657.445	12679.53
657.796	12700.32
658.147	12660.99
658.498	12560.21
658.849	12692.41
659.2	12567.44
659.551	12613.09
659.902	12634.33
660.253	12627.32
660.604	12685.17
660.955	12673.65
661.306	12614.44
661.656	12710.26
662.007	12626.65
662.358	12683.59
662.708	12647.21
663.059	12713.87
663.409	12677.49
663.76	12768.11
664.11	12737.6
664.461	12739.86
664.811	12810.6
665.161	12773.31
665.511	12657.83
665.862	12638.4
666.212	12764.72
666.562	12712.07
666.912	12665.74
667.262	12709.58
667.612	12687.21
667.962	12684.95
668.312	12674.1
668.662	12712.74
669.011	12688.56
669.361	12746.87
669.711	12717.26
670.06	12639.98
670.41	12645.18
670.76	12569.92
671.109	12618.51
671.459	12635.68
671.808	12663.71
672.157	12691.5
672.507	12540.09
672.856	12531.96
673.205	12590.49
673.554	12563.14
673.904	12547.78
674.253	12624.61
674.602	12620.77
674.951	12369.7
675.3	12305.98
675.649	12535.35
675.998	12539.42
676.346	12467.1
676.695	12513.88
677.044	12429.36
677.393	12461.45
677.741	12412.41
678.09	12419.42
678.438	12373.32
678.787	12406.99
679.135	12410.38
679.484	12350.04
679.832	12434.11
680.181	12244.28
680.529	12345.07
680.877	12284.96
681.225	12313.66
681.573	12305.52
681.922	12246.09
682.27	12177.39
682.618	12164.06
682.966	12176.26
683.314	12277.5
683.661	12124.51
684.009	12097.85
684.357	12021.92
684.705	12096.49
685.053	12056.26
685.4	12057.62
685.748	11949.83
686.095	11973.78
686.443	11946.66
686.79	11925.87
687.138	11946.89
687.485	11876.61
687.832	11864.18
688.18	11876.61
688.527	11780.79
688.874	11720
689.221	11787.8
689.568	11754.13
689.915	11630.97
690.262	11598.65
690.609	11570.4
690.956	11588.03
691.303	11551.87
691.65	11467.35
691.997	11532.44
692.344	11413.8
692.69	11347.36
693.037	11403.4
693.383	11197.98
693.73	11359.33
694.077	11240.92
694.423	11237.53
694.769	11176.74
695.116	11139
695.462	11143.29
695.808	11031.66
696.155	10996.63
696.501	11011.55
696.847	10992.34
697.193	10871.44
697.539	10966.35
697.885	10886.58
698.231	10850.42
698.577	10730.42
698.923	10788.5
699.269	10639.58
699.614	10655.85
699.96	10700.37
700.306	10516.42
700.651	10506.48
700.997	10517.32
701.342	10438.23
701.688	10461.28
702.033	10351.9
702.379	10391.9
702.724	10354.16
703.069	10382.18
703.415	10214.73
703.76	10216.09
704.105	10261.51
704.45	10226.93
704.795	10104.9
705.14	10085.92
705.485	10020.84
705.83	10013.83
706.175	10018.58
706.52	9987.39
706.865	9952.37
707.209	9921.41
707.554	9878.92
707.899	9929.32
708.243	9865.59
708.588	9876.66
708.932	9722.09
709.277	9785.82
709.621	9724.35
709.966	9671.69
710.31	9714.41
710.654	9600.51
710.998	9673.28
711.342	9610.68
711.687	9600.06
712.031	9579.27
712.375	9507.86
712.719	9528.87
713.063	9504.69
713.407	9537.01
713.75	9462.66
714.094	9486.61
714.438	9433.28
714.782	9439.61
715.125	9318.03
715.469	9449.1
715.812	9353.51
716.156	9280.97
716.499	9269.45
716.843	9286.62
717.186	9256.56
717.53	9287.98
717.873	9262.89
718.216	9277.35
718.559	9158.26
718.902	9172.72
719.246	9181.09
719.589	9168.43
719.932	9149.22
720.275	9094.99
720.617	9137.7
720.96	9096.34
721.303	9130.24
721.646	9088.89
721.989	9067.42
722.331	9092.05
722.674	9105.16
723.016	9087.08
723.359	9014.99
723.701	9027.42
724.044	8931.38
724.386	8984.03
724.729	8997.14
725.071	9036.91
725.413	9084.59
725.755	9001.2
726.097	8989.9
726.439	8908.78
726.782	8941.54
727.124	8955.78
727.465	8929.34
727.807	8948.55
728.149	8888.66
728.491	8922.56
728.833	8984.48
729.175	8917.14
729.516	8867.87
729.858	8918.27
730.199	8886.4
730.541	8895.22
730.882	8879.85
731.224	8929.34
731.565	8902
731.906	8917.36
732.248	8877.37
732.589	8838.72
732.93	8838.27
733.271	8862
733.612	8857.48
733.953	8881.43
734.294	8856.12
734.635	8799.4
734.976	8903.81
735.317	8830.14
735.658	8841.89
735.999	8857.03
736.339	8828.33
736.68	8868.33
737.021	8907.65
737.361	8845.5
737.702	8829.46
738.042	8891.6
738.383	8869.23
738.723	8929.79
739.063	8928.89
739.404	8935.67
739.744	8954.2
740.084	8946.97
740.424	8918.95
740.764	8953.75
741.104	8920.08
741.444	8988.32
741.784	8945.16
742.124	9001.88
742.464	9034.42
742.804	9023.12
743.143	9004.82
743.483	9118.04
743.823	9036.91
744.162	9161.88
744.502	9165.72
744.841	9156.23
745.181	9220.41
745.52	9257.69
745.86	9319.61
746.199	9308.99
746.538	9305.15
746.877	9424.7
747.216	9413.85
747.556	9425.15
747.895	9597.35
748.234	9602.77
748.573	9630.57
748.911	9631.47
749.25	9733.39
749.589	9802.09
749.928	9887.51
750.267	9988.07
750.605	10086.15
750.944	10132.93
751.283	10114.17
751.621	10314.39
751.96	10283.2
752.298	10378.34
752.636	10511.9
752.975	10653.82
753.313	10667.83
753.651	10776.07
753.989	10922.51
754.327	11112.11
754.666	11061.71
755.004	11229.17
755.342	11369.5
755.679	11502.38
756.017	11623.73
756.355	11759.78
756.693	11882.48
757.031	12003.38
757.368	12102.82
757.706	12303.94
758.044	12447.22
758.381	12649.47
758.719	12748.9
759.056	12804.04
759.394	12945.73
