Data from hue_80_FLMS001491_87.txt Node
Date: Mon Feb 06 15:23:54 GMT 2017
User: dcchb
Spectrometer: FLMS00149
Trigger mode: 0
Integration Time (sec): 2.000000E-2
Scans to average: 10
Electric dark correction enabled: true
Nonlinearity correction enabled: false
Boxcar width: 0
XAxis mode: Wavelengths
Number of Pixels in Spectrum: 2048
>>>>>Begin Spectral Data<<<<<
341.393	-4.89
341.776	-4.89
342.16	-4.89
342.543	-69.74
342.927	-74.72
343.31	-56.18
343.693	-74.04
344.077	-64.55
344.46	-63.64
344.843	-37.88
345.226	-33.59
345.61	-48.95
345.993	-22.97
346.376	-10.54
346.759	2.12
347.142	24.26
347.525	31.72
347.908	65.39
348.291	81.44
348.674	95.68
349.057	111.72
349.44	136.58
349.823	145.17
350.206	156.92
350.588	161.89
350.971	210.7
351.354	237.82
351.737	240.08
352.119	257.25
352.502	260.42
352.884	278.95
353.267	276.01
353.65	287.99
354.032	292.51
354.414	281.89
354.797	303.13
355.179	311.71
355.562	305.61
355.944	333.64
356.326	311.71
356.709	334.09
357.091	342.22
357.473	343.13
357.855	327.53
358.238	335.9
358.62	327.99
359.002	336.12
359.384	358.27
359.766	332.51
360.148	340.64
360.53	336.12
360.912	333.41
361.294	318.49
361.676	336.8
362.057	329.34
362.439	318.49
362.821	333.41
363.203	325.5
363.584	330.02
363.966	316.91
364.348	313.3
364.729	307.65
365.111	310.36
365.493	322.56
365.874	300.64
366.256	321.88
366.637	305.84
367.019	296.12
367.4	313.07
367.781	311.04
368.163	339.28
368.544	293.18
368.925	310.81
369.306	320.75
369.688	305.39
370.069	312.39
370.45	311.71
370.831	316.23
371.212	298.38
371.593	303.35
371.974	306.07
372.355	312.39
372.736	285.5
373.117	306.97
373.498	313.3
373.879	316.46
374.26	294.77
374.641	298.83
375.021	299.51
375.402	310.36
375.783	310.59
376.163	313.3
376.544	307.42
376.925	318.95
377.305	306.52
377.686	313.52
378.066	315.33
378.447	323.69
378.827	302.22
379.208	316.69
379.588	306.29
379.968	307.87
380.349	320.53
380.729	345.16
381.109	324.6
381.489	335.67
381.87	308.55
382.25	307.42
382.63	323.92
383.01	321.66
383.39	330.02
383.77	330.92
384.15	326.63
384.53	325.95
384.91	326.86
385.29	331.38
385.67	346.52
386.049	342.22
386.429	344.71
386.809	332.96
387.189	356.46
387.568	344.26
387.948	339.51
388.328	350.81
388.707	354.88
389.087	333.86
389.466	343.35
389.846	355.78
390.225	360.53
390.605	341.54
390.984	343.8
391.363	352.39
391.743	318.95
392.122	344.48
392.501	369.11
392.881	347.42
393.26	357.82
393.639	351.71
394.018	340.41
394.397	358.72
394.776	364.37
395.155	361.88
395.534	353.07
395.913	370.92
396.292	367.53
396.671	368.89
397.05	377.02
397.429	347.65
397.808	353.07
398.186	357.82
398.565	366.85
398.944	392.16
399.323	363.47
399.701	373.18
400.08	378.15
400.458	393.29
400.837	370.02
401.215	370.02
401.594	385.61
401.972	380.19
402.351	382.45
402.729	384.03
403.107	377.25
403.486	407.76
403.864	387.87
404.242	385.16
404.62	388.32
404.999	384.93
405.377	377.93
405.755	384.48
406.133	389
406.511	419.51
406.889	392.39
407.267	391.03
407.645	424.48
408.023	396.68
408.401	432.84
408.779	405.72
409.156	415.22
409.534	429.23
409.912	420.19
410.29	424.48
410.667	449.34
411.045	422.22
411.422	456.57
411.8	432.84
412.178	444.82
412.555	448.43
412.933	440.98
413.31	451.6
413.687	444.14
414.065	431.26
414.442	451.82
414.819	458.15
415.197	454.76
415.574	454.76
415.951	458.15
416.328	456.57
416.705	460.19
417.082	464.25
417.46	483.01
417.837	469.45
418.214	481.65
418.591	478.26
418.967	486.85
419.344	504.93
419.721	478.94
420.098	478.72
420.475	486.63
420.852	497.02
421.228	490.69
421.605	503.35
421.982	513.52
422.358	517.13
422.735	522.56
423.111	516.46
423.488	506.06
423.864	509.9
424.241	513.74
424.617	506.06
424.994	515.1
425.37	517.13
425.746	526.62
426.123	534.76
426.499	548.32
426.875	551.48
427.251	553.74
427.627	553.74
428.003	552.39
428.379	558.49
428.756	589
429.132	558.49
429.507	575.44
429.883	569.34
430.259	572.27
430.635	599.84
431.011	592.61
431.387	598.49
431.763	591.26
432.138	588.77
432.514	643.46
432.89	597.36
433.265	626.51
433.641	620.18
434.016	628.32
434.392	615.21
434.767	645.27
435.143	643.01
435.518	641.2
435.894	648.43
436.269	635.77
436.644	670.35
437.02	662.89
437.395	663.57
437.77	668.09
438.145	673.06
438.52	669.45
438.895	696.34
439.271	687.98
439.646	704.47
440.021	702.67
440.395	706.51
440.77	716.45
441.145	711.48
441.52	697.02
441.895	712.83
442.27	748.54
442.645	726.17
443.019	738.6
443.394	744.02
443.769	739.05
444.143	719.39
444.518	753.29
444.892	758.93
445.267	766.39
445.641	764.81
446.016	768.2
446.39	770.69
446.764	780.86
447.139	802.78
447.513	761.87
447.887	788.31
448.262	807.07
448.636	792.61
449.01	787.86
449.384	809.55
449.758	802.1
450.132	817.01
450.506	818.37
450.88	823.57
451.254	831.48
451.628	813.4
452.002	848.88
452.376	833.06
452.75	859.72
453.123	877.58
453.497	872.6
453.871	875.54
454.244	878.25
454.618	887.75
454.992	909.89
455.365	900.4
455.739	929.33
456.112	946.5
456.486	930.23
456.859	960.74
457.232	971.13
457.606	966.39
457.979	978.82
458.352	1007.52
458.725	1015.2
459.099	999.83
459.472	1015.88
459.845	1049.77
460.218	1061.07
460.591	1052.26
460.964	1074.41
461.337	1108.3
461.71	1084.8
462.083	1112.6
462.456	1117.34
462.829	1114.18
463.201	1132.48
463.574	1167.74
463.947	1169.55
464.32	1201.64
464.692	1221.52
465.065	1206.83
465.438	1235.76
465.81	1236.44
466.183	1264.01
466.555	1295.42
466.928	1312.82
467.3	1298.13
467.672	1328.86
468.045	1385.81
468.417	1358.24
468.789	1367.73
469.161	1393.95
469.534	1431.46
469.906	1468.29
470.278	1531.34
470.65	1545.13
471.022	1558.69
471.394	1567.73
471.766	1577.44
472.138	1625.35
472.51	1646.37
472.882	1691.57
473.253	1739.7
473.625	1736.54
473.997	1814.05
474.369	1845.91
474.74	1863.31
475.112	1921.62
475.484	1957.55
475.855	2013.37
476.227	2035.29
476.598	2108.73
476.97	2141.27
477.341	2199.57
477.713	2258.78
478.084	2313.24
478.455	2383.98
478.827	2433.47
479.198	2506.91
479.569	2599.34
479.94	2643.18
480.311	2698.77
480.682	2816.51
481.053	2879.11
481.424	2982.38
481.795	3039.1
482.166	3129.72
482.537	3198.87
482.908	3293.11
483.279	3400.45
483.65	3489.94
484.021	3580.33
484.391	3707.56
484.762	3734.68
485.133	3868.68
485.503	3975.57
485.874	4064.38
486.244	4143.25
486.615	4317.03
486.985	4378.73
487.356	4569
487.726	4649.91
488.097	4816.46
488.467	4851.93
488.837	5033.17
489.207	5174.41
489.578	5270.45
489.948	5400.62
490.318	5540.28
490.688	5628.19
491.058	5767.39
491.428	5890.33
491.798	6053.94
492.168	6218.23
492.538	6317.21
492.908	6447.37
493.278	6592.68
493.648	6698.89
494.017	6855.95
494.387	7005.55
494.757	7131.2
495.126	7293.45
495.496	7367.8
495.866	7493.22
496.235	7617.96
496.605	7801.24
496.974	7870.39
497.344	8009.59
497.713	8090.49
498.082	8295.23
498.452	8361.9
498.821	8544.94
499.19	8628.11
499.559	8716.69
499.928	8946.06
500.298	8996.91
500.667	9107.64
501.036	9137.02
501.405	9339.5
501.774	9390.57
502.143	9501.98
502.512	9616.1
502.88	9717.8
503.249	9873.05
503.618	9932.03
503.987	10050.22
504.356	10239.59
504.724	10202.98
505.093	10342.41
505.462	10389.87
505.83	10537.43
506.199	10722.29
506.567	10784.89
506.936	10822.85
507.304	10979.23
507.672	11056.74
508.041	11098.1
508.409	11264.65
508.777	11413.8
509.145	11464.64
509.514	11480.23
509.882	11573.34
510.25	11621.47
510.618	11725.2
510.986	11836.84
511.354	11916.83
511.722	12031.63
512.09	12101.46
512.458	12111.63
512.826	12204.51
513.193	12257.39
513.561	12382.58
513.929	12426.65
514.297	12581.9
514.664	12720.88
515.032	12635.68
515.4	12797.04
515.767	12902.8
516.135	12910.71
516.502	12840.43
516.869	13061.66
517.237	13076.13
517.604	13149.8
517.972	13272.28
518.339	13328.32
518.706	13359.96
519.073	13448.09
519.44	13508.43
519.808	13545.72
520.175	13473.63
520.542	13686.28
520.909	13831.13
521.276	13767.18
521.643	13902.09
522.009	13889.89
522.376	14061.41
522.743	14147.06
523.11	14150.22
523.477	14297.34
523.843	14402.42
524.21	14554.28
524.577	14499.36
524.943	14514.05
525.31	14667.5
525.676	14724.67
526.043	14717.21
526.409	14765.57
526.776	14906.59
527.142	14940.93
527.508	14978.67
527.874	15052.12
528.241	15083.08
528.607	15166.24
528.973	15207.37
529.339	15215.5
529.705	15277.88
530.071	15438.1
530.437	15414.59
530.803	15437.19
531.169	15392
531.535	15438.55
531.901	15423.63
532.267	15479.68
532.632	15616.17
532.998	15555.61
533.364	15655.72
533.73	15610.97
534.095	15693.68
534.461	15678.09
534.826	15737.98
535.192	15695.27
535.557	15721.71
535.923	15702.95
536.288	15679.22
536.653	15765.32
537.019	15742.95
537.384	15827.69
537.749	15755.83
538.114	15837.41
538.479	15733.91
538.845	15764.64
539.21	15716.06
539.575	15801.48
539.94	15771.2
540.305	15895.49
540.67	15773.46
541.034	15779.78
541.399	15874.02
541.764	15806.22
542.129	15819.33
542.494	15773.23
542.858	15820.01
543.223	15750.63
543.587	15787.24
543.952	15753.34
544.316	15731.65
544.681	15763.29
545.045	15751.08
545.41	15784.53
545.774	15791.99
546.138	15710.18
546.503	15791.31
546.867	15698.2
547.231	15827.47
547.595	15798.99
547.959	15730.74
548.324	15749.95
548.688	15749.5
549.052	15728.71
549.416	15716.28
549.779	15703.63
550.143	15728.94
550.507	15769.39
550.871	15724.42
551.235	15688.49
551.599	15735.04
551.962	15677.86
552.326	15762.16
552.689	15816.39
553.053	15709.73
553.417	15718.77
553.78	15877.18
554.143	15826.11
554.507	15777.97
554.87	15788.6
555.234	15852.78
555.597	15747.69
555.96	15793.34
556.323	15854.13
556.686	15888.03
557.05	15870.4
557.413	15803.51
557.776	15860.46
558.139	15937.74
558.502	15832.89
558.865	15989.95
559.228	15956.28
559.59	16021.58
559.953	16012.09
560.316	16033.34
560.679	15968.25
561.041	16134.8
561.404	16070.85
561.767	16179.09
562.129	16125.76
562.492	16256.61
562.854	16181.58
563.217	16196.5
563.579	16300.9
563.941	16326.89
564.304	16341.12
564.666	16404.63
565.028	16485.98
565.39	16428.81
565.753	16444.17
566.115	16490.72
566.477	16595.58
566.839	16503.61
567.201	16520.55
567.563	16608.46
567.925	16609.14
568.287	16682.58
568.648	16654.34
569.01	16735.92
569.372	16754.22
569.734	16652.75
570.095	16880.32
570.457	16841
570.819	16858.4
571.18	16937.49
571.542	16991.05
571.903	17005.29
572.265	16911.5
572.626	17034.67
572.987	16992.86
573.349	17068.34
573.71	17092.97
574.071	17068.11
574.432	17058.85
574.794	17269.24
575.155	17206.19
575.516	17164.83
575.877	17318.5
576.238	17137.26
576.599	17223.13
576.96	17211.84
577.32	17293.64
577.681	17284.6
578.042	17311.72
578.403	17306.97
578.763	17291.16
579.124	17398.95
579.485	17498.61
579.845	17355.79
580.206	17372.74
580.566	17395.79
580.927	17362.34
581.287	17480.08
581.648	17382
582.008	17488.44
582.368	17360.31
582.728	17385.16
583.089	17356.92
583.449	17446.41
583.809	17260.42
584.169	17501.55
584.529	17353.98
584.889	17465.16
585.249	17360.31
585.609	17318.27
585.969	17446.63
586.329	17334.32
586.688	17403.47
587.048	17343.13
587.408	17331.83
587.768	17306.07
588.127	17264.49
588.487	17231.27
588.846	17376.8
589.206	17280.08
589.565	17357.37
589.925	17273.53
590.284	17308.78
590.643	17290.25
591.003	17419.51
591.362	17268.78
591.721	17325.96
592.08	17447.99
592.44	17392.62
592.799	17373.87
593.158	17323.02
593.517	17347.65
593.876	17331.83
594.235	17224.94
594.593	17300.87
594.952	17357.59
595.311	17285.96
595.67	17313.98
596.029	17379.74
596.387	17347.88
596.746	17335.67
597.104	17330.7
597.463	17244.6
597.822	17379.06
598.18	17309.01
598.538	17240.31
598.897	17338.61
599.255	17238.5
599.613	17463.35
599.972	17278.95
600.33	17311.04
600.688	17191.27
601.046	17291.38
601.404	17336.13
601.762	17352.62
602.12	17416.8
602.478	17431.49
602.836	17440.76
603.194	17337.71
603.552	17353.53
603.91	17398.72
604.268	17388.78
604.625	17372.51
604.983	17446.41
605.341	17294.55
605.698	17359.85
606.056	17442.11
606.413	17403.47
606.771	17432.39
607.128	17479.63
607.485	17356.01
607.843	17392.4
608.2	17474.88
608.557	17587.64
608.914	17451.83
609.272	17492.51
609.629	17585.39
609.986	17584.26
610.343	17512.17
610.7	17639.62
611.057	17627.87
611.414	17643.91
611.771	17654.54
612.127	17659.06
612.484	17718.71
612.841	17722.1
613.198	17686.85
613.554	17629.68
613.911	17813.85
614.267	17710.58
614.624	17824.25
614.98	17824.02
615.337	17789.22
615.693	17831.48
616.05	17845.49
616.406	17909.67
616.762	17775.89
617.118	17900.41
617.475	17873.29
617.831	17892.27
618.187	17949.9
618.543	18019.27
618.899	18036.67
619.255	17968.43
619.611	17977.69
619.967	17994.87
620.323	18080.97
620.678	18026.73
621.034	17883.91
621.39	18002.55
621.746	17991.7
622.101	18134.75
622.457	17945.38
622.812	18091.36
623.168	18128.65
623.523	18049.55
623.879	18112.6
624.234	18001.87
624.589	18111.02
624.945	18155.09
625.3	18090
625.655	18113.51
626.01	18120.29
626.365	18028.76
626.72	18160.06
627.075	18083.45
627.43	18082.1
627.785	17992.38
628.14	18060.4
628.495	18159.61
628.85	18043
629.205	18089.55
629.559	17989.22
629.914	18079.38
630.269	18026.73
630.623	18001.87
630.978	17967.97
631.332	18020.85
631.687	17970.91
632.041	17913.74
632.396	17985.37
632.75	17854.3
633.104	17931.59
633.459	17823.8
633.813	17935.66
634.167	17822.89
634.521	17897.69
634.875	17920.97
635.229	17774.31
635.583	17748.09
635.937	17768.43
636.291	17723.91
636.645	17669.45
636.999	17744.25
637.352	17791.93
637.706	17632.62
638.06	17737.25
638.413	17693.86
638.767	17543.13
639.121	17696.57
639.474	17619.51
639.828	17624.71
640.181	17472.17
640.534	17549.23
640.888	17468.1
641.241	17373.19
641.594	17473.75
641.947	17468.55
642.301	17438.72
642.654	17477.59
643.007	17568.89
643.36	17415.9
643.713	17356.01
644.066	17470.36
644.419	17370.7
644.771	17316.24
645.124	17120.54
645.477	17041.44
645.83	17039.64
646.182	16927.32
646.535	16908.79
646.888	16864.95
647.24	16840.77
647.593	16887.32
647.945	16917.61
648.298	16804.61
648.65	16824.5
649.002	16720.78
649.355	16844.61
649.707	16828.79
650.059	16863.6
650.411	17076.7
650.763	17054.78
651.115	17239.41
651.467	17293.87
651.819	17248.22
652.171	17194.43
652.523	17088.22
652.875	17184.04
653.227	17121.89
653.578	17154.21
653.93	17195.11
654.282	16995.34
654.633	17083.93
654.985	17116.92
655.337	17117.83
655.688	17159.86
656.039	17152.85
656.391	17046.64
656.742	17063.59
657.094	17134.1
657.445	17176.58
657.796	17134.78
658.147	17128.67
658.498	17098.62
658.849	17159.41
659.2	17114.66
659.551	17038.51
659.902	17104.27
660.253	17077.83
660.604	17173.64
660.955	17165.28
661.306	17216.58
661.656	17154.44
662.007	17119.41
662.358	17092.06
662.708	17151.95
663.059	17218.84
663.409	17082.35
663.76	17226.75
664.11	17241.21
664.461	17251.38
664.811	17216.36
665.161	17210.48
665.511	17227.65
665.862	17228.33
666.212	17272.4
666.562	17240.31
666.912	17272.17
667.262	17254.55
667.612	17260.42
667.962	17252.06
668.312	17235.56
668.662	17262.23
669.011	17244.6
669.361	17149.46
669.711	17153.53
670.06	17081.67
670.41	17116.47
670.76	17096.81
671.109	17243.93
671.459	17059.07
671.808	17138.17
672.157	17117.15
672.507	16961.67
672.856	17073.76
673.205	16986.76
673.554	17078.05
673.904	17028.56
674.253	17081.44
674.602	16949.47
674.951	16794.22
675.3	16702.47
675.649	16932.97
675.998	16927.78
676.346	16886.65
676.695	17009.36
677.044	16860.21
677.393	16882.8
677.741	16886.42
678.09	16820.66
678.438	16857.49
678.787	16790.83
679.135	16767.33
679.484	16669.48
679.832	16775.24
680.181	16628.8
680.529	16743.6
680.877	16671.74
681.225	16666.31
681.573	16758.29
681.922	16597.16
682.27	16584.06
682.618	16588.58
682.966	16494.57
683.314	16594.45
683.661	16371.63
684.009	16314.23
684.357	16412.08
684.705	16347.68
685.053	16353.1
685.4	16293.22
685.748	16183.61
686.095	16221.35
686.443	16123.5
686.79	16128.25
687.138	16147.68
687.485	16166.89
687.832	16034.01
688.18	16087.12
688.527	16008.48
688.874	15977.74
689.221	15888.48
689.568	15843.51
689.915	15724.64
690.262	15895.26
690.609	15693.01
690.956	15732.33
691.303	15628.37
691.65	15586.34
691.997	15587.47
692.344	15545.66
692.69	15498.66
693.037	15474.25
693.383	15346.8
693.73	15343.41
694.077	15274.26
694.423	15252.11
694.769	15243.3
695.116	15194.04
695.462	15165.79
695.808	15027.71
696.155	15072.68
696.501	14936.64
696.847	14928.96
697.193	14869.07
697.539	14831.56
697.885	14754.27
698.231	14666.14
698.577	14704.1
698.923	14573.26
699.269	14479.93
699.614	14474.73
699.96	14440.16
700.306	14371.01
700.651	14302.53
700.997	14314.96
701.342	14299.37
701.688	14271.35
702.033	14197.68
702.379	14254.63
702.724	14075.19
703.069	14120.17
703.415	13948.87
703.76	13977.57
704.105	13892.37
704.45	13829.33
704.795	13841.98
705.14	13822.09
705.485	13755.2
705.83	13711.14
706.175	13730.57
706.52	13679.73
706.865	13641.08
707.209	13621.42
707.554	13507.98
707.899	13549.78
708.243	13442.22
708.588	13502.78
708.932	13296.91
709.277	13368.09
709.621	13318.15
709.966	13328.32
710.31	13218.95
710.654	13097.59
710.998	13252.17
711.342	13084.71
711.687	13128.55
712.031	13093.07
712.375	12956.35
712.719	12971.04
713.063	12956.35
713.407	12996.81
713.75	12865.74
714.094	12846.53
714.438	12822.12
714.782	12870.71
715.125	12730.37
715.469	12782.35
715.812	12743.7
716.156	12610.37
716.499	12649.7
716.843	12700.54
717.186	12643.37
717.53	12695.8
717.873	12762.91
718.216	12654.89
718.559	12603.14
718.902	12460.1
719.246	12544.84
719.589	12511.17
719.932	12523.37
720.275	12508.23
720.617	12485.18
720.96	12472.53
721.303	12463.26
721.646	12430.72
721.989	12376.71
722.331	12435.69
722.674	12353.88
723.016	12405.41
723.359	12409.02
723.701	12400.21
724.044	12264.17
724.386	12209.93
724.729	12279.76
725.071	12239.08
725.413	12278.86
725.755	12134
726.097	12223.27
726.439	12176.71
726.782	12109.14
727.124	12148.92
727.465	12134.23
727.807	12112.53
728.149	12180.56
728.491	12105.98
728.833	12099.65
729.175	12039.09
729.516	12054.68
729.858	12075.02
730.199	12155.92
730.541	12079.32
730.882	12091.29
731.224	12144.4
731.565	12097.39
731.906	12004.74
732.248	12061.69
732.589	12007
732.93	11936.49
733.271	12029.15
733.612	11994.57
733.953	11979.2
734.294	11952.99
734.635	12020.56
734.976	12032.99
735.317	11925.19
735.658	11901.01
735.999	11997.06
736.339	11939.21
736.68	11971.07
737.021	11942.82
737.361	11982.59
737.702	12037.28
738.042	11932.43
738.383	11927.23
738.723	12019.66
739.063	11925.87
739.404	12047.68
739.744	11948.02
740.084	11890.62
740.424	11992.76
740.764	12013.1
741.104	12040.45
741.444	12035.93
741.784	12010.16
742.124	12042.25
742.464	12086.32
742.804	12016.49
743.143	11951.41
743.483	12168.35
743.823	12073.21
744.162	12112.99
744.502	12143.72
744.841	12140.56
745.181	12216.71
745.52	12197.5
745.86	12244.28
746.199	12345.3
746.538	12286.77
746.877	12350.95
747.216	12464.84
747.556	12451.51
747.895	12457.61
748.234	12502.58
748.573	12583.71
748.911	12704.84
749.25	12684.5
749.589	12677.04
749.928	12798.84
750.267	12819.86
750.605	12867.77
750.944	12971.5
751.283	12972.4
751.621	13124.26
751.96	13068.22
752.298	13301.66
752.636	13291.49
752.975	13302.11
753.313	13371.48
753.651	13608.31
753.989	13618.71
754.327	13666.39
754.666	13729.44
755.004	13917.01
755.342	13982.32
755.679	13995.2
756.017	14099.15
756.355	14332.14
756.693	14364
