Data from hue_210_FLMS001491_00065.txt Node
Date: Tue Feb 07 16:41:32 GMT 2017
User: dcchb
Spectrometer: FLMS00149
Trigger mode: 0
Integration Time (sec): 2.000000E-2
Scans to average: 10
Electric dark correction enabled: true
Nonlinearity correction enabled: false
Boxcar width: 0
XAxis mode: Wavelengths
Number of Pixels in Spectrum: 2048
>>>>>Begin Spectral Data<<<<<
341.393	-12.66
341.776	-12.66
342.16	-12.66
342.543	-72.54
342.927	-67.34
343.31	-63.73
343.693	-70.28
344.077	-68.7
344.46	-58.76
344.843	-63.28
345.226	-46.78
345.61	-12.88
345.993	-15.59
346.376	-6.1
346.759	20.79
347.142	16.04
347.525	44.29
347.908	53.33
348.291	83.16
348.674	74.35
349.057	114.12
349.44	135.59
349.823	138.75
350.206	178.53
350.588	184.63
350.971	204.06
351.354	214.68
351.737	230.5
352.119	250.39
352.502	249.48
352.884	287.45
353.267	292.2
353.65	294.46
354.032	311.63
354.414	311.63
354.797	316.83
355.179	326.09
355.562	317.73
355.944	301.24
356.326	341.23
356.709	331.97
357.091	343.72
357.473	344.17
357.855	348.92
358.238	332.87
358.62	354.57
359.002	355.92
359.384	348.69
359.766	323.61
360.148	339.65
360.53	318.41
360.912	330.84
361.294	328.58
361.676	334.23
362.057	319.77
362.439	324.74
362.821	333.55
363.203	322.03
363.584	325.42
363.966	331.06
364.348	334.23
364.729	323.83
365.111	310.73
365.493	310.5
365.874	314.34
366.256	335.58
366.637	331.74
367.019	297.39
367.4	307.56
367.781	323.61
368.163	330.61
368.544	308.69
368.925	311.4
369.306	317.28
369.688	331.06
370.069	306.88
370.45	300.33
370.831	306.66
371.212	303.49
371.593	323.61
371.974	307.56
372.355	281.35
372.736	324.06
373.117	300.78
373.498	336.71
373.879	337.84
374.26	324.96
374.641	307.34
375.021	305.08
375.402	333.32
375.783	329.93
376.163	340.78
376.544	348.24
376.925	336.49
377.305	346.66
377.686	335.58
378.066	308.47
378.447	350.27
378.827	333.78
379.208	352.08
379.588	331.06
379.968	311.63
380.349	347.11
380.729	345.3
381.109	333.1
381.489	356.6
381.87	334.23
382.25	341.46
382.63	339.2
383.01	321.8
383.39	327.9
383.77	320.22
384.15	353.89
384.53	341.69
384.91	352.53
385.29	344.17
385.67	354.34
386.049	352.99
386.429	343.04
386.809	362.93
387.189	364.28
387.568	380.33
387.948	345.53
388.328	362.48
388.707	373.32
389.087	350.95
389.466	374
389.846	361.57
390.225	370.84
390.605	362.25
390.984	366.32
391.363	360.44
391.743	358.86
392.122	352.99
392.501	380.55
392.881	397.05
393.26	378.07
393.639	365.87
394.018	379.2
394.397	381.46
394.776	396.6
395.155	371.06
395.534	388.69
395.913	391.63
396.292	409.25
396.671	401.8
397.05	402.02
397.429	415.81
397.808	408.8
398.186	418.97
398.565	422.14
398.944	420.33
399.323	414.23
399.701	438.41
400.08	407.9
400.458	403.38
400.837	441.34
401.215	410.61
401.594	417.84
401.972	449.03
402.351	419.2
402.729	422.81
403.107	430.27
403.486	452.87
403.864	442.47
404.242	457.84
404.62	449.93
404.999	461
405.377	473.21
405.755	473.89
406.133	475.24
406.511	466.65
406.889	471.85
407.267	496.94
407.645	503.72
408.023	486.77
408.401	493.32
408.779	514.79
409.156	505.98
409.534	494
409.912	503.49
410.29	541
410.667	545.07
411.045	545.07
411.422	543.49
411.8	564.28
412.178	588.69
412.555	571.28
412.933	604.96
413.31	575.35
413.687	603.83
414.065	609.7
414.442	606.31
414.819	637.95
415.197	643.37
415.574	635.01
415.951	653.09
416.328	636.37
416.705	665.29
417.082	665.07
417.46	679.53
417.837	691.73
418.214	705.07
418.591	751.39
418.967	748.45
419.344	749.81
419.721	747.32
420.098	731.05
420.475	769.02
420.852	752.3
421.228	785.52
421.605	789.81
421.982	806.76
422.358	825.52
422.735	818.28
423.111	830.94
423.488	873.88
423.864	856.25
424.241	891.95
424.617	922.24
424.994	911.16
425.37	909.58
425.746	940.77
426.123	955.23
426.499	956.59
426.875	971.27
427.251	1005.4
427.627	1008.79
428.003	1030.48
428.379	1026.19
428.756	1050.14
429.132	1048.56
429.507	1070.93
429.883	1063.02
430.259	1093.98
430.635	1086.3
431.011	1125.39
431.387	1122.46
431.763	1167.88
432.138	1160.2
432.514	1174.66
432.89	1194.09
433.265	1258.05
433.641	1256.92
434.016	1274.09
434.392	1293.3
434.767	1324.71
435.143	1326.29
435.518	1360.87
435.894	1385.95
436.269	1388.89
436.644	1425.5
437.02	1451.94
437.395	1457.14
437.77	1500.98
438.145	1498.49
438.52	1540.98
438.895	1587.75
439.271	1584.59
439.646	1623.01
440.021	1622.33
440.395	1648.77
440.77	1669.79
441.145	1673.63
441.52	1691.48
441.895	1743.23
442.27	1754.98
442.645	1761.31
443.019	1797.01
443.394	1831.14
443.769	1842.44
444.143	1835.21
444.518	1854.64
444.892	1860.29
445.267	1898.71
445.641	1886.05
446.016	1895.54
446.39	1945.26
446.764	1933.73
447.139	1967.41
447.513	2009.21
447.887	1977.58
448.262	1973.06
448.636	2037.01
449.01	2041.75
449.384	2058.02
449.758	2069.32
450.132	2093.73
450.506	2092.15
450.88	2128.53
451.254	2141.41
451.628	2145.71
452.002	2190
452.376	2190.45
452.75	2238.13
453.123	2250.11
453.497	2270.9
453.871	2257.34
454.244	2321.75
454.618	2333.05
454.992	2354.06
455.365	2385.93
455.739	2474.29
456.112	2461.86
456.486	2450.33
456.859	2495.98
457.232	2521.97
457.606	2564.9
457.979	2583.66
458.352	2624.11
458.725	2635.64
459.099	2656.2
459.472	2725.13
459.845	2707.5
460.218	2785.01
460.591	2760.83
460.964	2787.5
461.337	2836.99
461.71	2875.86
462.083	2930.77
462.456	2933.93
462.829	2939.36
463.201	2985.23
463.574	2985.68
463.947	3075.85
464.32	3079.92
464.692	3147.26
465.065	3169.63
465.438	3201.27
465.81	3225.45
466.183	3287.6
466.555	3326.47
466.928	3331.66
467.3	3371.44
467.672	3404.43
468.045	3510.87
468.417	3501.38
468.789	3490.08
469.161	3580.92
469.534	3631.99
469.906	3702.73
470.278	3641.03
470.65	3711.31
471.022	3763.74
471.394	3889.39
471.766	3910.63
472.138	3913.57
472.51	4034.02
472.882	4046.67
473.253	4087.8
473.625	4165.99
473.997	4224.07
474.369	4246.67
474.74	4318.53
475.112	4382.71
475.484	4436.72
475.855	4517.62
476.227	4525.76
476.598	4622.03
476.97	4643.27
477.341	4751.06
477.713	4812.08
478.084	4837.16
478.455	5019.98
478.827	4981.79
479.198	5103.59
479.569	5187.89
479.94	5257.71
480.311	5284.61
480.682	5386.53
481.053	5461.55
481.424	5582.45
481.795	5601.21
482.166	5722.11
482.537	5772.73
482.908	5844.14
483.279	5895.44
483.65	5985.15
484.021	6139.73
484.391	6151.93
484.762	6246.62
485.133	6280.96
485.503	6354.86
485.874	6415.88
486.244	6517.34
486.615	6634.4
486.985	6700.16
487.356	6788.75
487.726	6807.73
488.097	6962.3
488.467	6933.83
488.837	7034.17
489.207	7157.78
489.578	7269.41
489.948	7331.78
490.318	7390.31
490.688	7449.75
491.058	7501.95
491.428	7567.94
491.798	7610.2
492.168	7766.12
492.538	7806.12
492.908	7879.79
493.278	7956.17
493.648	7964.99
494.017	8061.03
494.387	8097.87
494.757	8103.97
495.126	8273.23
495.496	8193.46
495.866	8244.08
496.235	8365.88
496.605	8454.47
496.974	8384.86
497.344	8520.23
497.713	8545.54
498.082	8562.71
498.452	8666.21
498.821	8666.89
499.19	8674.35
499.559	8740.56
499.928	8774.46
500.298	8768.81
500.667	8893.78
501.036	8871.86
501.405	8863.27
501.774	8914.34
502.143	8970.61
502.512	9015.58
502.88	9048.12
503.249	9082.93
503.618	9068.01
503.987	9105.3
504.356	9174.45
504.724	9200.44
505.093	9207.22
505.462	9199.53
505.83	9248.8
506.199	9293.09
506.567	9437.94
506.936	9349.13
507.304	9460.09
507.672	9418.74
508.041	9501.67
508.409	9514.78
508.777	9546.87
509.145	9566.08
509.514	9503.48
509.882	9567.88
510.25	9595
510.618	9658.05
510.986	9667.54
511.354	9678.62
511.722	9695.11
512.09	9820.53
512.458	9708.45
512.826	9789.12
513.193	9748.22
513.561	9872.06
513.929	9875.45
514.297	9931.94
514.664	9956.12
515.032	9960.42
515.4	9934.88
515.767	9958.38
516.135	9970.13
516.502	9897.59
516.869	9991.38
517.237	10022.56
517.604	9968.55
517.972	10035.67
518.339	10081.54
518.706	10019.17
519.073	10015.33
519.44	10079.28
519.808	10103.24
520.175	10110.69
520.542	10158.83
520.909	10183.24
521.276	10088.32
521.643	10191.82
522.009	10207.64
522.376	10216
522.743	10226.17
523.11	10302.55
523.477	10371.03
523.843	10358.6
524.21	10336.23
524.577	10410.35
524.943	10417.35
525.31	10372.61
525.676	10443.12
526.043	10408.31
526.409	10415.77
526.776	10434.53
527.142	10467.07
527.508	10460.29
527.874	10480.18
528.241	10500.51
528.607	10485.15
528.973	10465.71
529.339	10464.58
529.705	10478.37
530.071	10575.09
530.437	10532.38
530.803	10556.11
531.169	10591.81
531.535	10471.59
531.901	10466.17
532.267	10472.27
532.632	10470.69
532.998	10529.89
533.364	10498.03
533.73	10411.25
534.095	10503.68
534.461	10421.65
534.826	10382.55
535.192	10447.18
535.557	10437.92
535.923	10398.82
536.288	10344.59
536.653	10394.3
537.019	10313.85
537.384	10253.97
537.749	10286.74
538.114	10252.39
538.479	10221.2
538.845	10211.26
539.21	10168.32
539.575	10184.82
539.94	10205.83
540.305	10177.59
540.67	10162.44
541.034	10066.18
541.399	10123.12
541.764	10040.19
542.129	10070.24
542.494	10027.31
542.858	10024.82
543.223	9991.6
543.587	9969.91
543.952	9914.32
544.316	9856.92
544.681	9918.61
545.045	9834.77
545.41	9851.27
545.774	9680.65
546.138	9781.44
546.503	9722.91
546.867	9770.59
547.231	9688.33
547.595	9676.36
547.959	9708.22
548.324	9598.62
548.688	9543.93
549.052	9613.31
549.416	9528.56
549.779	9595.45
550.143	9471.84
550.507	9545.06
550.871	9463.71
551.235	9440.2
551.599	9437.49
551.962	9398.85
552.326	9406.31
552.689	9396.14
553.053	9298.74
553.417	9256.48
553.78	9350.94
554.143	9275.69
554.507	9245.41
554.87	9221
555.234	9314.56
555.597	9131.51
555.96	9158.63
556.323	9203.6
556.686	9155.92
557.05	9200.21
557.413	9231.85
557.776	9197.95
558.139	9218.74
558.502	9165.63
558.865	9104.62
559.228	9179.42
559.59	9087.67
559.953	9120.44
560.316	9162.7
560.679	9176.48
561.041	9166.09
561.404	9207.67
561.767	9117.5
562.129	9121.57
562.492	9169.7
562.854	9105.07
563.217	9060.55
563.579	9158.18
563.941	9112.53
564.304	9176.03
564.666	9219.19
565.028	9194.79
565.39	9104.17
565.753	9170.38
566.115	9210.61
566.477	9247.44
566.839	9217.61
567.201	9297.38
567.563	9212.64
567.925	9283.82
568.287	9278.4
568.648	9305.74
569.01	9320.43
569.372	9328.34
569.734	9304.84
570.095	9397.04
570.457	9367.89
570.819	9296.7
571.18	9341.22
571.542	9324.27
571.903	9352.75
572.265	9416.93
572.626	9408.11
572.987	9390.49
573.349	9417.15
573.71	9471.84
574.071	9425.29
574.432	9468.68
574.794	9551.16
575.155	9554.1
575.516	9470.94
575.877	9521.78
576.238	9471.84
576.599	9539.18
576.96	9565.4
577.32	9608.56
577.681	9573.53
578.042	9620.76
578.403	9565.17
578.763	9589.35
579.124	9603.59
579.485	9646.53
579.845	9657.6
580.206	9669.58
580.566	9660.54
580.927	9644.72
581.287	9692.63
581.648	9688.33
582.008	9700.99
582.368	9640.88
582.728	9732.4
583.089	9703.25
583.449	9725.85
583.809	9738.5
584.169	9690.59
584.529	9756.58
584.889	9792.96
585.249	9718.39
585.609	9632.29
585.969	9771.27
586.329	9732.63
586.688	9777.82
587.048	9709.12
587.408	9773.75
587.768	9719.97
588.127	9781.89
588.487	9773.75
588.846	9770.82
589.206	9833.87
589.565	9789.8
589.925	9839.06
590.284	9792.51
590.643	9816.01
591.003	9783.25
591.362	9891.27
591.721	9774.43
592.08	9849.23
592.44	9864.15
592.799	9827.76
593.158	9820.53
593.517	9823.92
593.876	9880.42
594.235	9827.31
594.593	9889.01
594.952	9816.47
595.311	9808.1
595.67	9858.72
596.029	9894.43
596.387	9858.72
596.746	9902.79
597.104	9858.27
597.463	9753.19
597.822	9838.39
598.18	9814.66
598.538	9802.23
598.897	9821.89
599.255	9801.1
599.613	9923.81
599.972	9864.15
600.33	9804.49
600.688	9890.36
601.046	9946.18
601.404	9935.11
601.762	9867.54
602.12	9920.19
602.478	9932.85
602.836	9888.78
603.194	9872.06
603.552	9964.94
603.91	9955.22
604.268	9898.04
604.625	9897.37
604.983	9929.68
605.341	9867.09
605.698	9962
606.056	9910.47
606.413	9983.69
606.771	10007.65
607.128	9921.55
607.485	9974.43
607.843	9917.71
608.2	9926.29
608.557	9966.29
608.914	9988.66
609.272	9996.57
609.629	10060.98
609.986	10075.89
610.343	9972.17
610.7	10037.7
611.057	9997.25
611.414	10058.04
611.771	10092.39
612.127	10077.7
612.484	10115.67
612.841	10157.7
613.198	10113.41
613.554	10024.6
613.911	10116.57
614.267	10102.33
614.624	10090.13
614.98	10185.27
615.337	10166.74
615.693	10185.04
616.05	10122.9
616.406	10165.61
616.762	10085.16
617.118	10155.44
617.475	10104.82
617.831	10244.25
618.187	10211.71
618.543	10152.73
618.899	10313.85
619.255	10252.39
619.611	10133.52
619.967	10279.96
620.323	10281.99
620.678	10190.24
621.034	10197.25
621.39	10189.34
621.746	10126.29
622.101	10282.44
622.457	10260.07
622.812	10280.86
623.168	10267.07
623.523	10269.56
623.879	10277.7
624.234	10167.19
624.589	10228.43
624.945	10312.5
625.3	10230.47
625.655	10164.25
626.01	10258.94
626.365	10203.57
626.72	10242.44
627.075	10201.31
627.43	10136.91
627.785	10190.47
628.14	10206.96
628.495	10276.11
628.85	10218.94
629.205	10170.13
629.559	10247.19
629.914	10178.94
630.269	10178.04
630.623	10123.12
630.978	10157.93
631.332	10169.22
631.687	10145.72
632.041	10123.58
632.396	10176.91
632.75	10092.39
633.104	10035.44
633.459	10066.63
633.813	9995.9
634.167	10049.23
634.521	10070.24
634.875	10093.52
635.229	9976.46
635.583	9939.63
635.937	10050.13
636.291	9958.16
636.645	9956.8
636.999	9898.72
637.352	9909.8
637.706	9867.99
638.06	9845.84
638.413	9895.11
638.767	9873.41
639.121	9943.92
639.474	9872.28
639.828	9860.53
640.181	9862.34
640.534	9852.85
640.888	9805.84
641.241	9776.01
641.594	9807.43
641.947	9779.4
642.301	9806.3
642.654	9755.22
643.007	9771.04
643.36	9748.44
643.713	9717.71
644.066	9787.54
644.419	9701.44
644.771	9698.73
645.124	9632.74
645.477	9573.76
645.83	9528.34
646.182	9464.38
646.535	9469.13
646.888	9419.41
647.24	9395.69
647.593	9472.07
647.945	9474.33
648.298	9399.07
648.65	9390.04
649.002	9441.56
649.355	9431.84
649.707	9439.53
650.059	9480.43
650.411	9580.99
650.763	9588.22
651.115	9736.69
651.467	9629.13
651.819	9702.57
652.171	9704.15
652.523	9695.56
652.875	9637.03
653.227	9581.89
653.578	9674.32
653.93	9684.49
654.282	9632.06
654.633	9526.53
654.985	9638.16
655.337	9606.3
655.688	9626.64
656.039	9622.12
656.391	9588.22
656.742	9611.72
657.094	9567.43
657.445	9568.34
657.796	9659.41
658.147	9587.54
658.498	9586.64
658.849	9634.55
659.2	9601.78
659.551	9563.14
659.902	9706.41
660.253	9538.28
660.604	9694.66
660.955	9622.57
661.306	9658.05
661.656	9625.96
662.007	9661.67
662.358	9644.04
662.708	9656.92
663.059	9640.42
663.409	9660.54
663.76	9664.15
664.11	9665.73
664.461	9675.23
664.811	9691.04
665.161	9682.01
665.511	9629.8
665.862	9600.43
666.212	9686.3
666.562	9676.58
666.912	9653.31
667.262	9616.92
667.612	9647.2
667.962	9727.43
668.312	9671.61
668.662	9737.37
669.011	9637.26
669.361	9562.69
669.711	9627.09
670.06	9671.61
670.41	9607.66
670.76	9591.16
671.109	9599.97
671.459	9591.16
671.808	9638.16
672.157	9669.12
672.507	9576.02
672.856	9605.62
673.205	9599.07
673.554	9618.5
673.904	9591.39
674.253	9584.15
674.602	9553.2
674.951	9491.05
675.3	9340.77
675.649	9537.83
675.998	9594.32
676.346	9521.78
676.695	9488.34
677.044	9419.41
677.393	9423.93
677.741	9451.5
678.09	9416.93
678.438	9435.46
678.787	9435.91
679.135	9406.98
679.484	9352.97
679.832	9414.89
680.181	9350.94
680.529	9310.94
680.877	9335.8
681.225	9274.33
681.573	9310.26
681.922	9284.28
682.27	9299.42
682.618	9278.85
682.966	9190.04
683.314	9243.6
683.661	9222.58
684.009	9180.55
684.357	9183.71
684.705	9158.63
685.053	9178.29
685.4	9138.52
685.748	9099.2
686.095	9105.52
686.443	9046.77
686.79	9050.61
687.138	9079.31
687.485	9025.98
687.832	9024.4
688.18	8991.85
688.527	8950.27
688.874	8885.42
689.221	8875.92
689.568	8875.25
689.915	8833.44
690.262	8874.57
690.609	8804.51
690.956	8742.59
691.303	8695.14
691.65	8683.61
691.997	8666.21
692.344	8626.44
692.69	8655.59
693.037	8656.5
693.383	8550.51
693.73	8627.12
694.077	8554.8
694.423	8447.01
694.769	8491.08
695.116	8424.19
695.462	8440.46
695.808	8418.99
696.155	8409.5
696.501	8376.5
696.847	8343.96
697.193	8244.3
697.539	8325.2
697.885	8177.41
698.231	8212.89
698.577	8203.17
698.923	8152.1
699.269	8114.36
699.614	8035.95
699.96	8020.58
700.306	8022.84
700.651	7983.74
700.997	7978.55
701.342	7997.53
701.688	7926.57
702.033	7873.69
702.379	7815.84
702.724	7898.55
703.069	7851.77
703.415	7733.81
703.76	7774.03
704.105	7758.67
704.45	7714.15
704.795	7631.66
705.14	7622.62
705.485	7655.62
705.83	7614.94
706.175	7585.34
706.52	7528.39
706.865	7514.83
707.209	7483.65
707.554	7496.75
707.899	7540.37
708.243	7386.7
708.588	7380.6
708.932	7406.81
709.277	7390.31
709.621	7330.43
709.966	7314.61
710.31	7347.15
710.654	7249.75
710.998	7283.2
711.342	7275.97
711.687	7244.56
712.031	7234.39
712.375	7208.4
712.719	7165.46
713.063	7191
713.407	7148.74
713.75	7129.08
714.094	7103.32
714.438	7148.51
714.782	7121.62
715.125	7103.09
715.469	7099.25
715.812	7039.14
716.156	7049.76
716.499	7092.92
716.843	7050.21
717.186	6995.97
717.53	7061.51
717.873	7007.5
718.216	6988.52
718.559	6979.93
718.902	6971.79
719.246	6899.93
719.589	6963.88
719.932	6943.32
720.275	6944.9
720.617	6907.84
720.96	6894.73
721.303	6913.94
721.646	6902.87
721.989	6951
722.331	6880.05
722.674	6850.22
723.016	6802.98
723.359	6863.32
723.701	6802.08
724.044	6825.13
724.386	6800.95
724.729	6869.88
725.071	6838.92
725.413	6828.52
725.755	6786.94
726.097	6760.73
726.439	6765.92
726.782	6767.28
727.124	6813.15
727.465	6751.91
727.807	6815.87
728.149	6749.2
728.491	6715.98
728.833	6739.03
729.175	6744.68
729.516	6736.77
729.858	6664.68
730.199	6811.8
730.541	6716.89
730.882	6719.37
731.224	6720.95
731.565	6750.56
731.906	6764.57
732.248	6721.18
732.589	6725.47
732.93	6695.42
733.271	6685.7
733.612	6694.51
733.953	6727.73
734.294	6739.94
734.635	6724.34
734.976	6777.22
735.317	6758.47
735.658	6731.35
735.999	6715.08
736.339	6709.43
736.68	6807.96
737.021	6757.79
737.361	6699.26
737.702	6709.2
738.042	6736.55
738.383	6705.36
738.723	6797.11
739.063	6755.75
739.404	6791.69
739.744	6849.76
740.084	6780.61
740.424	6812.48
740.764	6830.33
741.104	6854.74
741.444	6803.66
741.784	6806.6
742.124	6921.85
742.464	6910.33
742.804	6834.62
743.143	6920.27
743.483	6840.27
743.823	6927.05
744.162	6911.23
744.502	6979.93
744.841	6964.11
745.181	7065.8
745.52	7014.05
745.86	7072.58
746.199	7132.69
746.538	7156.2
746.877	7205.69
747.216	7215.86
747.556	7234.61
747.895	7257.66
748.234	7309.19
748.573	7339.02
748.911	7386.25
749.25	7492.91
749.589	7423.76
749.928	7623.75
750.267	7657.65
750.605	7735.16
750.944	7764.77
751.283	7778.55
751.621	7937.42
751.96	7998.89
752.298	8068.49
752.636	8204.98
752.975	8269.84
753.313	8310.74
753.651	8469.83
753.989	8494.92
754.327	8616.04
754.666	8700.79
755.004	8817.62
755.342	8946.21
755.679	9066.65
756.017	9164.5
756.355	9404.72
756.693	9406.08
757.031	9593.19
757.368	9659.18
757.706	9839.52
758.044	10094.2
758.381	10146.63
758.719	10251.26
759.056	10442.44
759.394	10551.59
759.731	10796.33
760.068	10819.6
760.405	11019.6
760.743	11144.11
761.08	11357.89
761.417	11519.7
761.754	11729.18
762.091	11921.95
762.428	11962.62
762.765	12129.17
763.102	12437.87
763.438	12515.15
763.775	12653.45
764.112	12881.92
764.449	13086.44
764.785	13203.72
765.122	13309.48
765.458	13430.38
765.795	13568.23
766.131	13842.8
