Data from hue_190_FLMS001491_00067.txt Node
Date: Tue Feb 07 16:45:37 GMT 2017
User: dcchb
Spectrometer: FLMS00149
Trigger mode: 0
Integration Time (sec): 2.000000E-2
Scans to average: 10
Electric dark correction enabled: true
Nonlinearity correction enabled: false
Boxcar width: 0
XAxis mode: Wavelengths
Number of Pixels in Spectrum: 2048
>>>>>Begin Spectral Data<<<<<
341.393	7.27
341.776	7.27
342.16	7.27
342.543	-72.05
342.927	-50.35
343.31	-52.39
343.693	-76.79
344.077	-57.36
344.46	-65.72
344.843	-63.91
345.226	-44.02
345.61	-12.39
345.993	-32.05
346.376	-1.99
346.759	0.49
347.142	20.15
347.525	38.23
347.908	42.98
348.291	89.31
348.674	100.38
349.057	115.07
349.44	135.41
349.823	141.51
350.206	158.46
350.588	187.16
350.971	213.14
351.354	244.78
351.737	219.25
352.119	259.24
352.502	271.9
352.884	278.68
353.267	293.59
353.65	297.21
354.032	292.46
354.414	297.21
354.797	306.93
355.179	328.85
355.562	345.57
355.944	307.83
356.326	330.43
356.709	315.51
357.091	346.93
357.473	322.52
357.855	338.11
358.238	343.99
358.62	329.07
359.002	342.41
359.384	349.64
359.766	328.17
360.148	331.33
360.53	343.99
360.912	348.06
361.294	359.13
361.676	329.07
362.057	341.28
362.439	323.88
362.821	324.1
363.203	318
363.584	335.17
363.966	313.71
364.348	325.91
364.729	308.96
365.111	322.52
365.493	309.86
365.874	322.52
366.256	316.87
366.637	307.6
367.019	305.35
367.4	326.14
367.781	317.1
368.163	306.93
368.544	304.89
368.925	308.06
369.306	320.94
369.688	308.96
370.069	298.79
370.45	304.22
370.831	301.5
371.212	318.68
371.593	296.31
371.974	320.94
372.355	333.59
372.736	349.64
373.117	307.83
373.498	316.19
373.879	306.7
374.26	320.49
374.641	319.36
375.021	313.25
375.402	318.68
375.783	322.52
376.163	309.64
376.544	348.28
376.925	333.59
377.305	310.54
377.686	329.07
378.066	342.63
378.447	332.01
378.827	325.46
379.208	321.16
379.588	325.91
379.968	343.76
380.349	325.01
380.729	333.59
381.109	329.98
381.489	361.61
381.87	315.29
382.25	326.36
382.63	316.42
383.01	329.98
383.39	353.25
383.77	334.04
384.15	339.92
384.53	350.32
384.91	337.89
385.29	357.32
385.67	347.6
386.049	364.1
386.429	348.51
386.809	355.06
387.189	374.72
387.568	357.77
387.948	342.86
388.328	346.02
388.707	336.08
389.087	343.99
389.466	341.05
389.846	346.7
390.225	368.17
390.605	342.63
390.984	339.02
391.363	359.13
391.743	354.16
392.122	372.91
392.501	373.82
392.881	370.88
393.26	356.42
393.639	358.23
394.018	376.08
394.397	381.95
394.776	369.98
395.155	393.03
395.534	406.13
395.913	391.67
396.292	378.79
396.671	374.5
397.05	402.29
397.429	382.18
397.808	382.86
398.186	376.76
398.565	370.88
398.944	393.48
399.323	408.62
399.701	390.99
400.08	382.18
400.458	388.28
400.837	415.17
401.215	370.65
401.594	427.83
401.972	415.17
402.351	417.43
402.729	429.18
403.107	420.82
403.486	429.18
403.864	430.09
404.242	428.51
404.62	441.39
404.999	442.52
405.377	435.51
405.755	426.92
406.133	440.93
406.511	439.58
406.889	449.3
407.267	468.96
407.645	463.08
408.023	468.05
408.401	483.19
408.779	477.32
409.156	485.23
409.534	499.69
409.912	491.1
410.29	521.16
410.667	519.12
411.045	493.59
411.422	521.38
411.8	529.75
412.178	526.13
412.555	557.77
412.933	550.99
413.31	589.18
413.687	585.11
414.065	567.71
414.442	593.25
414.819	597.09
415.197	610.87
415.574	626.01
415.951	621.49
416.328	622.62
416.705	637.09
417.082	641.16
417.46	645.45
417.837	647.93
418.214	660.59
418.591	668.27
418.967	671.21
419.344	681.38
419.721	696.75
420.098	708.5
420.475	723.64
420.852	737.88
421.228	748.05
421.605	747.37
421.982	764.09
422.358	790.08
422.735	796.86
423.111	791.21
423.488	820.59
423.864	830.08
424.241	829.85
424.617	842.51
424.994	849.51
425.37	875.73
425.746	876.18
426.123	906.23
426.499	909.4
426.875	929.06
427.251	958.44
427.627	965.89
428.003	946.46
428.379	986.01
428.756	1000.92
429.132	1000.24
429.507	1045.66
429.883	993.69
430.259	1031.43
430.635	1064.87
431.011	1071.43
431.387	1062.61
431.763	1082.27
432.138	1096.28
432.514	1105.78
432.89	1108.94
433.265	1163.4
433.641	1190.75
434.016	1188.49
434.392	1210.18
434.767	1256.73
435.143	1264.19
435.518	1286.11
435.894	1308.03
436.269	1324.08
436.644	1336.5
437.02	1358.88
437.395	1386.67
437.77	1431.42
438.145	1418.31
438.52	1475.26
438.895	1484.07
439.271	1485.2
439.646	1546.22
440.021	1563.62
440.395	1582.83
440.77	1540.11
441.145	1599.55
441.52	1655.37
441.895	1661.92
442.27	1671.41
442.645	1654.01
443.019	1706.66
443.394	1705.99
443.769	1735.14
444.143	1730.84
444.518	1767
444.892	1750.73
445.267	1773.78
445.641	1827.56
446.016	1832.76
446.39	1862.82
446.764	1830.05
447.139	1853.78
447.513	1872.08
447.887	1906.43
448.262	1907.34
448.636	1923.61
449.01	1930.61
449.384	1995.7
449.758	1990.27
450.132	2033.21
450.506	2038.41
450.88	2048.35
451.254	2039.76
451.628	2058.97
452.002	2117.73
452.376	2124.51
452.75	2149.14
453.123	2141.23
453.497	2200.21
453.871	2188.46
454.244	2238.85
454.618	2272.98
454.992	2284.5
455.365	2331.05
455.739	2353.2
456.112	2423.03
456.486	2393.43
456.859	2399.53
457.232	2465.29
457.606	2463.03
457.979	2493.31
458.352	2547.77
458.725	2613.98
459.099	2577.83
459.472	2638.39
459.845	2642.91
460.218	2703.93
460.591	2711.61
460.964	2719.74
461.337	2808.1
461.71	2803.36
462.083	2842
462.456	2916.58
462.829	2924.26
463.201	2934.43
463.574	2954.99
463.947	3017.14
464.32	3080.41
464.692	3110.47
465.065	3138.26
465.438	3164.48
465.81	3221.65
466.183	3239.96
466.555	3347.98
466.928	3346.4
467.3	3341.42
467.672	3441.53
468.045	3505.94
468.417	3519.95
468.789	3552.94
469.161	3619.38
469.534	3658.48
469.906	3724.24
470.278	3772.37
470.65	3818.25
471.022	3875.87
471.394	3945.02
471.766	3944.8
472.138	4058.47
472.51	4105.25
472.882	4154.06
473.253	4202.42
473.625	4236.77
473.997	4414.84
474.369	4372.36
474.74	4454.61
475.112	4509.3
475.484	4582.75
475.855	4689.18
476.227	4734.83
476.598	4850.54
476.97	4895.96
477.341	4984.77
477.713	5064.09
478.084	5112.68
478.455	5251.2
478.827	5294.59
479.198	5438.77
479.569	5454.81
479.94	5579.1
480.311	5672.66
480.682	5794.47
481.053	5867.46
481.424	5991.98
481.795	6023.39
482.166	6168.47
482.537	6236.71
482.908	6413.43
483.279	6386.32
483.65	6560.1
484.021	6661.11
484.391	6748.34
484.762	6832.18
485.133	6888.67
485.503	6947.66
485.874	7054.09
486.244	7108.33
486.615	7385.84
486.985	7397.81
487.356	7578.83
487.726	7611.82
488.097	7786.73
488.467	7798.03
488.837	7992.83
489.207	7961.87
489.578	8154.63
489.948	8176.32
490.318	8223.1
490.688	8331.35
491.058	8441.85
491.428	8486.15
491.798	8617.89
492.168	8818.34
492.538	8851.34
492.908	8866.25
493.278	8997.09
493.648	8993.7
494.017	9117.99
494.387	9232.79
494.757	9194.15
495.126	9357.76
495.496	9311.89
495.866	9401.38
496.235	9503.75
496.605	9565.44
496.974	9562.28
497.344	9699.9
497.713	9730.86
498.082	9783.29
498.452	9832.1
498.821	9881.82
499.19	9851.76
499.559	9982.6
499.928	9998.42
500.298	10066.22
500.667	10179.66
501.036	10140.11
501.405	10228.25
501.774	10197.29
502.143	10258.76
502.512	10231.86
502.88	10334.46
503.249	10386.44
503.618	10346.89
503.987	10407.23
504.356	10437.28
504.724	10547.11
505.093	10446.32
505.462	10611.29
505.83	10558.41
506.199	10672.76
506.567	10729.93
506.936	10695.35
507.304	10734.9
507.672	10773.54
508.041	10825.52
508.409	10797.27
508.777	10850.38
509.145	10931.51
509.514	10883.6
509.882	10938.96
510.25	10931.51
510.618	10982.35
510.986	10931.96
511.354	10987.1
511.722	11045.4
512.09	11118.85
512.458	11146.19
512.826	11070.03
513.193	11207.66
513.561	11170.37
513.929	11200.2
514.297	11190.26
514.664	11276.81
515.032	11264.38
515.4	11258.28
515.767	11267.32
516.135	11350.7
516.502	11137.38
516.869	11379.63
517.237	11336.47
517.604	11207.43
517.972	11378.27
518.339	11348.44
518.706	11289.92
519.073	11294.89
519.44	11386.41
519.808	11455.79
520.175	11290.37
520.542	11474.99
520.909	11390.25
521.276	11400.19
521.643	11430.93
522.009	11456.92
522.376	11439.52
522.743	11484.26
523.11	11419.4
523.477	11465.73
523.843	11546.86
524.21	11525.16
524.577	11564.26
524.943	11526.74
525.31	11533.98
525.676	11538.27
526.043	11576.69
526.409	11561.09
526.776	11634.31
527.142	11591.38
527.508	11548.67
527.874	11597.48
528.241	11625.95
528.607	11573.07
528.973	11545.95
529.339	11493.53
529.705	11516.35
530.071	11504.15
530.437	11442.91
530.803	11474.99
531.169	11444.71
531.535	11432.06
531.901	11381.66
532.267	11329.01
532.632	11376.01
532.998	11276.36
533.364	11356.35
533.73	11223.93
534.095	11313.42
534.461	11178.96
534.826	11236.13
535.192	11118.62
535.557	11218.5
535.923	10973.99
536.288	11032.29
536.653	10987.78
537.019	10944.39
537.384	10893.77
537.749	10886.31
538.114	10810.83
538.479	10725.64
538.845	10758.86
539.21	10663.49
539.575	10625.75
539.94	10614.23
540.305	10662.36
540.67	10544.4
541.034	10464.85
541.399	10474.57
541.764	10337.17
542.129	10352.31
542.494	10302.82
542.858	10277.29
543.223	10157.52
543.587	10166.33
543.952	10098.76
544.316	10033.68
544.681	9965.2
545.045	9965.2
545.41	9937.18
545.774	9929.05
546.138	9858.09
546.503	9812.67
546.867	9737.64
547.231	9794.59
547.595	9713.69
547.959	9592.56
548.324	9600.02
548.688	9522.96
549.052	9499.68
549.416	9427.37
549.779	9435.05
550.143	9422.62
550.507	9353.47
550.871	9342.85
551.235	9231.89
551.599	9261.72
551.962	9115.28
552.326	9159.58
552.689	9095.85
553.053	9007.49
553.417	8983.53
553.78	8995.51
554.143	8871.22
554.507	8830.77
554.87	8888.62
555.234	8894.95
555.597	8778.12
555.96	8788.06
556.323	8717.78
556.686	8706.25
557.05	8720.49
557.413	8657.44
557.776	8648.63
558.139	8659.02
558.502	8551
558.865	8523.66
559.228	8560.27
559.59	8556.65
559.953	8495.41
560.316	8520.95
560.679	8463.1
561.041	8487.73
561.404	8458.8
561.767	8483.89
562.129	8373.83
562.492	8368.18
562.854	8402.76
563.217	8338.13
563.579	8362.99
563.941	8352.14
564.304	8366.83
564.666	8362.31
565.028	8351.69
565.39	8324.57
565.753	8364.34
566.115	8338.35
566.477	8294.74
566.839	8295.64
567.201	8383.32
567.563	8320.05
567.925	8303.33
568.287	8368.64
568.648	8274.18
569.01	8362.76
569.372	8385.58
569.734	8369.54
570.095	8258.81
570.457	8323.21
570.819	8287.06
571.18	8319.37
571.542	8333.16
571.903	8308.52
572.265	8292.48
572.626	8301.52
572.987	8270.56
573.349	8319.15
573.71	8238.24
574.071	8326.38
574.432	8316.66
574.794	8280.05
575.155	8314.63
575.516	8247.06
575.877	8276.89
576.238	8286.6
576.599	8295.64
576.96	8259.94
577.32	8296.55
577.681	8241.18
578.042	8258.81
578.403	8270.11
578.763	8199.83
579.124	8235.31
579.485	8317.11
579.845	8278.47
580.206	8264.01
580.566	8210.9
580.927	8200.96
581.287	8259.26
581.648	8197.79
582.008	8207.51
582.368	8143.78
582.728	8216.1
583.089	8125.93
583.449	8178.81
583.809	8213.61
584.169	8162.09
584.529	8212.03
584.889	8173.16
585.249	8080.73
585.609	8146.04
585.969	8137.46
586.329	8146.95
586.688	8124.35
587.048	8078.02
587.408	8097.46
587.768	8111.47
588.127	8049.77
588.487	8048.19
588.846	8133.39
589.206	7977.91
589.565	8003.45
589.925	8036.67
590.284	7994.63
590.643	8012.71
591.003	7959.38
591.362	8031.7
591.721	8010
592.08	7979.04
592.44	7989.21
592.799	7958.48
593.158	7913.05
593.517	7972.71
593.876	8000.74
594.235	7917.8
594.593	8008.87
594.952	7923.68
595.311	7833.73
595.67	7892.04
596.029	7907.86
596.387	7906.73
596.746	7926.84
597.104	7871.02
597.463	7866.95
597.822	7908.99
598.18	7838.03
598.538	7751.03
598.897	7880.06
599.255	7793.74
599.613	7935.65
599.972	7824.24
600.33	7867.86
600.688	7802.32
601.046	7830.8
601.404	7890.23
601.762	7860.85
602.12	7862.66
602.478	7837.58
602.836	7820.63
603.194	7773.4
603.552	7796.22
603.91	7717.35
604.268	7794.41
604.625	7765.71
604.983	7844.13
605.341	7822.21
605.698	7763.23
606.056	7789.67
606.413	7765.94
606.771	7781.98
607.128	7888.2
607.485	7771.82
607.843	7785.83
608.2	7795.09
608.557	7853.85
608.914	7723.46
609.272	7780.85
609.629	7884.81
609.986	7778.14
610.343	7850.46
610.7	7880.97
611.057	7828.76
611.414	7846.84
611.771	7844.13
612.127	7807.52
612.484	7804.81
612.841	7855.43
613.198	7881.19
613.554	7840.97
613.911	7909.21
614.267	7861.3
614.624	7801.19
614.98	7885.48
615.337	7909.89
615.693	7848.2
616.05	7897.24
616.406	7900.17
616.762	7837.58
617.118	7920.96
617.475	7892.94
617.831	7890.91
618.187	7895.88
618.543	7874.41
618.899	7907.63
619.255	7936.56
619.611	7887.07
619.967	7949.21
620.323	7928.42
620.678	7940.17
621.034	7912.6
621.39	7909.44
621.746	7857.01
622.101	7933.85
622.457	7934.3
622.812	7945.37
623.168	7889.78
623.523	7981.3
623.879	7932.49
624.234	7878.93
624.589	7893.39
624.945	7902.89
625.3	7955.99
625.655	7918.93
626.01	7891.13
626.365	7936.56
626.72	7920.29
627.075	7832.6
627.43	7907.63
627.785	7937.91
628.14	7893.17
628.495	7930.91
628.85	7845.71
629.205	7885.94
629.559	7918.48
629.914	7822.66
630.269	7856.11
630.623	7811.14
630.978	7842.32
631.332	7875.99
631.687	7817.92
632.041	7819.5
632.396	7809.78
632.75	7751.48
633.104	7810.68
633.459	7750.57
633.813	7763.45
634.167	7719.16
634.521	7826.28
634.875	7758.71
635.229	7737.24
635.583	7709.22
635.937	7649.56
636.291	7688.2
636.645	7610.69
636.999	7646.85
637.352	7695.43
637.706	7596.23
638.06	7617.02
638.413	7623.12
638.767	7582.44
639.121	7632.84
639.474	7537.92
639.828	7563.46
640.181	7586.96
640.534	7582.22
640.888	7558.94
641.241	7511.26
641.594	7541.76
641.947	7548.54
642.301	7472.16
642.654	7578.83
643.007	7527.98
643.36	7481.88
643.713	7502.44
644.066	7564.36
644.419	7490.01
644.771	7483.69
645.124	7419.51
645.477	7416.8
645.83	7321.43
646.182	7266.74
646.535	7272.85
646.888	7309.23
647.24	7314.88
647.593	7319.62
647.945	7326.18
648.298	7302.45
648.65	7204.37
649.002	7241.21
649.355	7278.72
649.707	7265.39
650.059	7323.47
650.411	7367.53
650.763	7351.94
651.115	7458.6
651.467	7394.65
651.819	7468.55
652.171	7440.75
652.523	7373.63
652.875	7390.81
653.227	7388.32
653.578	7417.25
653.93	7456.57
654.282	7350.13
654.633	7453.41
654.985	7438.26
655.337	7425.61
655.688	7433.75
656.039	7454.08
656.391	7445.72
656.742	7420.41
657.094	7462.67
657.445	7442.11
657.796	7494.08
658.147	7454.08
658.498	7471.71
658.849	7510.35
659.2	7496.79
659.551	7457.93
659.902	7485.27
660.253	7461.77
660.604	7469.22
660.955	7439.39
661.306	7473.97
661.656	7529.11
662.007	7568.88
662.358	7489.56
662.708	7534.99
663.059	7461.09
663.409	7450.47
663.76	7499.51
664.11	7440.98
664.461	7565.72
664.811	7505.38
665.161	7525.72
665.511	7512.61
665.862	7556.91
666.212	7530.92
666.562	7558.71
666.912	7562.1
667.262	7546.74
667.612	7542.22
667.962	7526.85
668.312	7533.86
668.662	7545.83
669.011	7489.56
669.361	7525.04
669.711	7539.51
670.06	7529.11
670.41	7524.82
670.76	7468.09
671.109	7575.66
671.459	7494.76
671.808	7530.47
672.157	7516.68
672.507	7449.79
672.856	7409.34
673.205	7481.65
673.554	7471.94
673.904	7449.11
674.253	7572.27
674.602	7489.79
674.951	7403.69
675.3	7298.16
675.649	7457.47
675.998	7432.84
676.346	7444.82
676.695	7381.77
677.044	7339.74
677.393	7396.46
677.741	7410.69
678.09	7413.86
678.438	7366.63
678.787	7363.92
679.135	7341.09
679.484	7308.32
679.832	7356.46
680.181	7288.66
680.529	7330.47
680.877	7320.75
681.225	7301.55
681.573	7306.06
681.922	7218.61
682.27	7243.02
682.618	7168.44
682.966	7183.81
683.314	7214.54
683.661	7182.9
684.009	7142.68
684.357	7120.08
684.705	7147.43
685.053	7163.7
685.4	7165.05
685.748	7101.78
686.095	7029.91
686.443	7092.06
686.79	7008.67
687.138	7065.62
687.485	7060.42
687.832	7028.56
688.18	7089.57
688.527	6968.9
688.874	6926.64
689.221	6946.3
689.568	6883.03
689.915	6879.18
690.262	6873.31
690.609	6856.81
690.956	6830.15
691.303	6803.48
691.65	6775.91
691.997	6771.84
692.344	6729.13
692.69	6709.7
693.037	6707.44
693.383	6623.15
693.73	6652.97
694.077	6631.96
694.423	6576.59
694.769	6545.86
695.116	6558.51
695.462	6566.65
695.808	6500.21
696.155	6522.13
696.501	6443.49
696.847	6469.93
697.193	6423.83
697.539	6387.22
697.885	6357.62
698.231	6360.1
698.577	6327.79
698.923	6347.22
699.269	6275.13
699.614	6264.74
699.96	6226.09
700.306	6289.37
700.651	6181.8
700.997	6125.76
701.342	6133.44
701.688	6170.73
702.033	6148.13
702.379	6122.37
702.724	6081.46
703.069	6102.48
703.415	5950.17
703.76	6075.59
704.105	5989.26
704.45	5978.64
704.795	5962.6
705.14	5965.31
705.485	5910.17
705.83	5896.38
706.175	5905.2
706.52	5836.27
706.865	5831.3
707.209	5804.86
707.554	5777.52
707.899	5785.43
708.243	5755.6
708.588	5790.17
708.932	5707.01
709.277	5715.82
709.621	5688.25
709.966	5634.92
710.31	5716.28
710.654	5620.23
710.998	5644.64
711.342	5669.05
711.687	5536.39
712.031	5585.88
712.375	5571.87
712.719	5582.27
713.063	5535.04
713.407	5595.15
713.75	5540.69
714.094	5560.8
714.438	5495.49
714.782	5511.76
715.125	5483.29
715.469	5509.73
715.812	5469.28
716.156	5469.73
716.499	5423.4
716.843	5485.1
717.186	5413.46
717.53	5431.54
717.873	5449.84
718.216	5402.16
718.559	5433.8
718.902	5343.86
719.246	5405.32
719.589	5395.15
719.932	5373.01
720.275	5373.69
720.617	5353.8
720.96	5339.79
721.303	5359.9
721.646	5330.52
721.989	5368.26
722.331	5315.16
722.674	5332.56
723.016	5342.5
723.359	5313.8
723.701	5335.04
724.044	5290.75
724.386	5323.74
724.729	5332.11
725.071	5308.83
725.413	5300.69
725.755	5265.44
726.097	5264.08
726.439	5256.18
726.782	5249.17
727.124	5286.46
727.465	5328.94
727.807	5256.85
728.149	5258.89
728.491	5258.44
728.833	5249.85
729.175	5271.54
729.516	5225.67
729.858	5271.32
730.199	5267.02
730.541	5289.39
730.882	5241.03
731.224	5259.79
731.565	5260.7
731.906	5264.99
732.248	5260.24
732.589	5263.63
732.93	5248.72
733.271	5273.8
733.612	5277.19
733.953	5260.24
734.294	5289.39
734.635	5275.16
734.976	5312.45
735.317	5260.02
735.658	5267.7
735.999	5293.01
736.339	5290.52
736.68	5325.55
737.021	5323.07
737.361	5317.64
737.702	5365.33
738.042	5281.71
738.383	5292.11
738.723	5341.82
739.063	5387.25
739.404	5388.83
739.744	5367.13
740.084	5406.23
740.424	5392.44
740.764	5428.15
741.104	5436.74
741.444	5425.21
741.784	5402.61
742.124	5441.48
742.464	5393.12
742.804	5500.46
743.143	5441.03
743.483	5508.15
743.823	5524.19
744.162	5574.13
744.502	5638.54
744.841	5583.62
745.181	5674.02
745.52	5649.84
745.86	5723.51
746.199	5725.09
746.538	5744.3
746.877	5837.18
747.216	5848.93
747.556	5886.89
747.895	5957.85
748.234	5970.51
748.573	6011.41
748.911	6051.63
749.25	6170.05
749.589	6167.34
749.928	6281.46
750.267	6314.23
750.605	6374.56
750.944	6444.39
751.283	6518.06
751.621	6584.05
751.96	6682.58
752.298	6805.06
752.636	6886.19
752.975	6899.75
753.313	7002.12
753.651	7138.84
753.989	7210.25
754.327	7328.89
754.666	7422.67
755.004	7516.45
755.342	7718.71
755.679	7879.61
756.017	7886.61
756.355	8080.06
756.693	8228.75
757.031	8365.92
757.368	8389.2
757.706	8629.87
758.044	8728.63
758.381	8918.45
758.719	9092.68
759.056	9315.28
759.394	9402.73
759.731	9492.67
760.068	9652.44
760.405	9829.61
760.743	10018.31
761.08	10205.42
761.417	10301.69
761.754	10516.83
762.091	10687.22
762.428	10801.79
762.765	11070.26
763.102	11248.11
763.438	11347.54
763.775	11579.17
764.112	11811.94
764.449	11983.23
764.785	12061.19
765.122	12186.61
765.458	12384.12
765.795	12535.76
766.131	12693.49
