Data from hue_120_FLMS001491_00057.txt Node
Date: Tue Feb 07 16:59:40 GMT 2017
User: dcchb
Spectrometer: FLMS00149
Trigger mode: 0
Integration Time (sec): 2.000000E-2
Scans to average: 10
Electric dark correction enabled: true
Nonlinearity correction enabled: false
Boxcar width: 0
XAxis mode: Wavelengths
Number of Pixels in Spectrum: 2048
>>>>>Begin Spectral Data<<<<<
341.393	2.54
341.776	2.54
342.16	2.54
342.543	-53.28
342.927	-74.07
343.31	-48.53
343.693	-64.57
344.077	-64.12
344.46	-60.05
344.843	-69.55
345.226	-36.1
345.61	-28.87
345.993	-20.96
346.376	-18.47
346.759	23.33
347.142	13.39
347.525	42.32
347.908	63.56
348.291	77.34
348.674	89.09
349.057	102.2
349.44	126.38
349.823	143.78
350.206	169.77
350.588	193.72
350.971	192.59
351.354	209.77
351.737	231.46
352.119	240.73
352.502	242.08
352.884	283.89
353.267	274.63
353.65	299.94
354.032	310.33
354.414	320.05
354.797	307.17
355.179	317.34
355.562	320.27
355.944	308.3
356.326	333.38
356.709	336.77
357.091	331.8
357.473	332.7
357.855	345.36
358.238	318.92
358.62	322.76
359.002	341.52
359.384	318.47
359.766	326.38
360.148	328.18
360.53	333.61
360.912	344.91
361.294	330.22
361.676	315.3
362.057	328.41
362.439	324.12
362.821	324.12
363.203	309.43
363.584	310.1
363.966	341.74
364.348	311.01
364.729	315.98
365.111	316.43
365.493	320.73
365.874	313.72
366.256	320.27
366.637	281.63
367.019	341.06
367.4	300.61
367.781	312.59
368.163	318.47
368.544	293.83
368.925	327.28
369.306	296.77
369.688	327.28
370.069	297.9
370.45	308.3
370.831	305.59
371.212	299.26
371.593	320.73
371.974	295.87
372.355	309.88
372.736	337.22
373.117	325.25
373.498	323.44
373.879	318.69
374.26	330.67
374.641	306.04
375.021	308.3
375.402	309.65
375.783	320.05
376.163	342.65
376.544	330.67
376.925	318.92
377.305	329.99
377.686	312.14
378.066	337.45
378.447	314.4
378.827	330.44
379.208	345.58
379.588	330.67
379.968	318.69
380.349	366.15
380.729	329.99
381.109	337.22
381.489	343.78
381.87	336.09
382.25	341.06
382.63	348.3
383.01	334.96
383.39	336.09
383.77	327.73
384.15	324.79
384.53	350.56
384.91	342.19
385.29	357.11
385.67	352.36
386.049	350.1
386.429	345.58
386.809	359.82
387.189	334.06
387.568	360.5
387.948	361.85
388.328	345.58
388.707	367.05
389.087	362.53
389.466	379.48
389.846	365.7
390.225	362.08
390.605	347.62
390.984	361.4
391.363	361.63
391.743	371.8
392.122	393.27
392.501	396.43
392.881	382.19
393.26	380.39
393.639	365.24
394.018	383.55
394.397	343.55
394.776	373.83
395.155	369.31
395.534	391.91
395.913	393.94
396.292	391.01
396.671	377.45
397.05	402.76
397.429	390.1
397.808	382.19
398.186	386.26
398.565	398.01
398.944	404.57
399.323	421.29
399.701	402.53
400.08	371.12
400.458	391.91
400.837	401.18
401.215	405.7
401.594	391.01
401.972	420.16
402.351	398.01
402.729	391.01
403.107	410.22
403.486	427.62
403.864	430.1
404.242	440.72
404.62	447.28
404.999	433.72
405.377	412.25
405.755	426.94
406.133	452.47
406.511	417.67
406.889	430.33
407.267	421.74
407.645	427.62
408.023	421.51
408.401	455.41
408.779	438.24
409.156	431.91
409.534	477.33
409.912	450.89
410.29	435.53
410.667	457.22
411.045	451.8
411.422	477.11
411.8	467.39
412.178	463.32
412.555	452.93
412.933	472.36
413.31	470.78
413.687	459.48
414.065	484.34
414.442	489.08
414.819	479.37
415.197	490.44
415.574	481.17
415.951	534.51
416.328	511.23
416.705	497.22
417.082	491.79
417.46	524.11
417.837	522.53
418.214	512.81
418.591	501.96
418.967	503.55
419.344	525.01
419.721	510.55
420.098	517.56
420.475	543.32
420.852	515.75
421.228	551.68
421.605	529.76
421.982	539.7
422.358	544.22
422.735	551.91
423.111	575.63
423.488	545.13
423.864	551.45
424.241	584.22
424.617	587.84
424.994	563.66
425.37	588.52
425.746	571.79
426.123	575.18
426.499	579.02
426.875	575.63
427.251	606.82
427.627	591.45
428.003	596.88
428.379	612.7
428.756	616.54
429.132	604.33
429.507	624.67
429.883	588.29
430.259	622.19
430.635	623.32
431.011	639.36
431.387	651.34
431.763	656.54
432.138	633.03
432.514	651.56
432.89	664.45
433.265	663.77
433.641	677.55
434.016	682.98
434.392	699.7
434.767	671.45
435.143	711.45
435.518	724.33
435.894	721.39
436.269	728.85
436.644	708.96
437.02	718.23
437.395	742.18
437.77	738.57
438.145	734.05
438.52	762.52
438.895	752.35
439.271	761.84
439.646	771.56
440.021	762.52
440.395	776.76
440.77	777.44
441.145	800.94
441.52	799.81
441.895	769.75
442.27	791.22
442.645	795.06
443.019	828.96
443.394	828.74
443.769	806.36
444.143	833.93
444.518	817.66
444.892	806.59
445.267	826.93
445.641	814.05
446.016	822.63
446.39	836.42
446.764	855.4
447.139	853.37
447.513	854.72
447.887	846.81
448.262	867.83
448.636	848.17
449.01	879.81
449.384	891.11
449.758	902.86
450.132	886.13
450.506	890.88
450.88	909.86
451.254	919.58
451.628	896.08
452.002	927.72
452.376	892.91
452.75	964.1
453.123	941.05
453.497	974.04
453.871	967.49
454.244	967.26
454.618	976.08
454.992	1018.79
455.365	991.44
455.739	1022.85
456.112	1034.38
456.486	1032.57
456.859	1045.9
457.232	1064.66
457.606	1040.48
457.979	1070.54
458.352	1083.64
458.725	1081.61
459.099	1116.86
459.472	1148.27
459.845	1157.99
460.218	1139.46
460.591	1178.1
460.964	1181.95
461.337	1164.32
461.71	1203.64
462.083	1216.3
462.456	1231.44
462.829	1260.14
463.201	1268.27
463.574	1246.13
463.947	1266.01
464.32	1314.37
464.692	1314.6
465.065	1352.11
465.438	1332.68
465.81	1360.92
466.183	1393.47
466.555	1427.59
466.928	1415.84
467.3	1430.98
467.672	1466.46
468.045	1516.63
468.417	1500.81
468.789	1533.8
469.161	1567.25
469.534	1596.17
469.906	1609.51
470.278	1641.82
470.65	1650.18
471.022	1711.88
471.394	1731.31
471.766	1760.01
472.138	1799.11
472.51	1829.84
472.882	1866.67
473.253	1861.25
473.625	1912.32
473.997	1959.33
474.369	2005.43
474.74	2015.6
475.112	2071.41
475.484	2164.75
475.855	2216.72
476.227	2202.71
476.598	2274.8
476.97	2336.04
477.341	2380.78
477.713	2428.69
478.084	2490.39
478.455	2596.37
478.827	2628.69
479.198	2713.66
479.569	2751.85
479.94	2865.74
480.311	2892.41
480.682	3013.99
481.053	3070.48
481.424	3152.06
481.795	3231.61
482.166	3361.55
482.537	3390.48
482.908	3507.31
483.279	3627.76
483.65	3702.11
484.021	3797.24
484.391	3902.33
484.762	4004.92
485.133	4081.53
485.503	4188.19
485.874	4305.48
486.244	4424.35
486.615	4561.52
486.985	4597.9
487.356	4776.2
487.726	4897.78
488.097	5057.1
488.467	5090.54
488.837	5218.22
489.207	5386.36
489.578	5502.74
489.948	5619.34
490.318	5734.82
490.688	5861.6
491.058	5986.11
491.428	6095.04
491.798	6291.87
492.168	6408.48
492.538	6543.61
492.908	6660.9
493.278	6852.98
493.648	6889.82
494.017	7005.3
494.387	7099.08
494.757	7219.98
495.126	7422.01
495.496	7518.5
495.866	7634.43
496.235	7705.84
496.605	7857.93
496.974	8000.98
497.344	8131.82
497.713	8222.89
498.082	8312.61
498.452	8425.37
498.821	8508.08
499.19	8602.32
499.559	8686.16
499.928	8852.93
500.298	8917.79
500.667	9110.33
501.036	9137.44
501.405	9282.52
501.774	9305.8
502.143	9458.56
502.512	9468.73
502.88	9613.82
503.249	9703.53
503.618	9764.55
503.987	9865.33
504.356	10005.9
504.724	10017.65
505.093	10104.42
505.462	10194.14
505.83	10203.18
506.199	10337.86
506.567	10430.52
506.936	10488.14
507.304	10593.9
507.672	10605.65
508.041	10721.36
508.409	10811.75
508.777	10943.5
509.145	10999.99
509.514	10962.25
509.882	11112.98
510.25	11041.12
510.618	11138.97
510.986	11175.81
511.354	11328.35
511.722	11366.99
512.09	11462.35
512.458	11431.85
512.826	11479.3
513.193	11546.19
513.561	11565.4
513.929	11744.83
514.297	11712.74
514.664	11758.17
515.032	11774.21
515.4	11872.74
515.767	11962.68
516.135	11869.35
516.502	11842.68
516.869	12058.04
517.237	12075.22
517.604	11993.19
517.972	12014.88
518.339	12092.62
518.706	12130.58
519.073	12238.15
519.44	12253.75
519.808	12383.46
520.175	12277.47
520.542	12405.83
520.909	12496
521.276	12406.51
521.643	12523.57
522.009	12550.69
522.376	12599.95
522.743	12527.18
523.11	12690.57
523.477	12698.71
523.843	12766.73
524.21	12839.04
524.577	12885.14
524.943	12880.4
525.31	12897.34
525.676	12944.57
526.043	12965.14
526.409	12950.68
526.776	13053.5
527.142	13079.26
527.508	12997.68
527.874	13111.58
528.241	13086.04
528.607	13014.86
528.973	13154.74
529.339	13128.3
529.705	13170.33
530.071	13170.56
530.437	13221.63
530.803	13185.47
531.169	13192.93
531.535	13134.17
531.901	13090.11
532.267	13117.9
532.632	13123.33
532.998	13158.58
533.364	13200.39
533.73	13132.37
534.095	13192.03
534.461	13159.71
534.826	13227.96
535.192	13196.09
535.557	13159.71
535.923	13061.41
536.288	13062.99
536.653	13110.9
537.019	13019.83
537.384	12981.86
537.749	12922.43
538.114	13016.44
538.479	12977.79
538.845	13025.25
539.21	12848.98
539.575	12794.75
539.94	12857.35
540.305	12827.97
540.67	12836.1
541.034	12714.3
541.399	12792.49
541.764	12690.57
542.129	12734.41
542.494	12703.68
542.858	12750.91
543.223	12605.6
543.587	12619.61
543.952	12559.73
544.316	12554.3
544.681	12530.12
545.045	12432.95
545.41	12508.65
545.774	12479.05
546.138	12455.77
546.503	12415.78
546.867	12378.04
547.231	12397.47
547.595	12346.17
547.959	12345.04
548.324	12299.39
548.688	12274.08
549.052	12208.55
549.416	12144.37
549.779	12126.52
550.143	12155.22
550.507	12206.74
550.871	12161.54
551.235	12053.3
551.599	12082.22
551.962	12076.8
552.326	12129.91
552.689	12017.14
553.053	11901.66
553.417	11939.86
553.78	12003.13
554.143	11884.94
554.507	11880.87
554.87	11924.26
555.234	11975.56
555.597	11862.57
555.96	11821.89
556.323	11847.2
556.686	11754.78
557.05	11875.68
557.413	11866.64
557.776	11823.47
558.139	11781.67
558.502	11788
558.865	11852.85
559.228	11811.72
559.59	11829.35
559.953	11782.35
560.316	11939.18
560.679	11823.7
561.041	11800.88
561.404	11908.9
561.767	11900.08
562.129	11739.63
562.492	11880.42
562.854	11846.98
563.217	11813.53
563.579	11749.35
563.941	11869.57
564.304	11914.09
564.666	11936.47
565.028	11863.02
565.39	11904.6
565.753	11986.86
566.115	11933.53
566.477	11932.62
566.839	11955.22
567.201	11994.32
567.563	11973.53
567.925	11955.67
568.287	11952.06
568.648	12043.13
569.01	12027.08
569.372	12094.43
569.734	12113.41
570.095	12129.46
570.457	12110.25
570.819	12144.82
571.18	12082
571.542	12173.07
571.903	12106.18
572.265	12161.09
572.626	12195.67
572.987	12134.43
573.349	12208.32
573.71	12208.1
574.071	12192.05
574.432	12215.55
574.794	12284.71
575.155	12246.06
575.516	12194.09
575.877	12293.29
576.238	12275.89
576.599	12237.25
576.96	12246.29
577.32	12257.14
577.681	12261.43
578.042	12322.44
578.403	12287.42
578.763	12234.31
579.124	12362.9
579.485	12296.46
579.845	12331.94
580.206	12314.53
580.566	12306.4
580.927	12342.33
581.287	12354.99
581.648	12306.63
582.008	12326.06
582.368	12293.74
582.728	12300.75
583.089	12334.65
583.449	12348.66
583.809	12315.89
584.169	12218.72
584.529	12209.9
584.889	12277.93
585.249	12238.83
585.609	12209
585.969	12300.3
586.329	12202.9
586.688	12236.8
587.048	12291.71
587.408	12220.53
587.768	12191.6
588.127	12161.77
588.487	12143.69
588.846	12208.32
589.206	12090.13
589.565	12115.44
589.925	12206.97
590.284	12113.64
590.643	12150.47
591.003	12188.44
591.362	12164.71
591.721	12069.34
592.08	12095.11
592.44	12225.05
592.799	12065.5
593.158	12086.52
593.517	12006.29
593.876	12057.14
594.235	12106.4
594.593	12045.39
594.952	12094.43
595.311	12007.2
595.67	12110.25
596.029	12093.3
596.387	12096.24
596.746	12172.17
597.104	12015.56
597.463	11978.5
597.822	12031.6
598.18	12003.13
598.538	12014.2
598.897	12065.95
599.255	11933.53
599.613	12132.17
599.972	12051.27
600.33	12064.82
600.688	11977.14
601.046	12018.05
601.404	12047.42
601.762	12062.56
602.12	12116.12
602.478	12017.37
602.836	12075.22
603.194	12017.37
603.552	12013.3
603.91	12101.43
604.268	11966.97
604.625	11994.09
604.983	12026.18
605.341	12030.47
605.698	12133.75
606.056	12070.25
606.413	12112.51
606.771	12116.57
607.128	12083.13
607.485	12036.58
607.843	12034.09
608.2	12126.29
608.557	12035.67
608.914	12040.87
609.272	12199.51
609.629	12099.85
609.986	12169.91
610.343	12092.85
610.7	12172.62
611.057	12182.79
611.414	12122.45
611.771	12159.51
612.127	12252.39
612.484	12145.73
612.841	12226.63
613.198	12213.97
613.554	12210.58
613.911	12241.99
614.267	12255.1
614.624	12256.23
614.98	12292.61
615.337	12313.63
615.693	12309.79
616.05	12263.69
616.406	12435.21
616.762	12338.94
617.118	12285.16
617.475	12295.55
617.831	12313.41
618.187	12409.45
618.543	12365.61
618.899	12410.13
619.255	12465.72
619.611	12275.21
619.967	12450.12
620.323	12430.01
620.678	12332.39
621.034	12395.89
621.39	12363.57
621.746	12389.11
622.101	12470.01
622.457	12382.78
622.812	12394.53
623.168	12420.52
623.523	12462.1
623.879	12443.35
624.234	12423.91
624.589	12458.49
624.945	12390.69
625.3	12455.1
625.655	12409.67
626.01	12441.54
626.365	12423.46
626.72	12410.35
627.075	12373.97
627.43	12367.87
627.785	12409.67
628.14	12344.36
628.495	12368.09
628.85	12329.45
629.205	12329.9
629.559	12442.22
629.914	12337.13
630.269	12395.21
630.623	12314.99
630.978	12309.34
631.332	12317.02
631.687	12354.76
632.041	12274.99
632.396	12245.38
632.75	12265.95
633.104	12229.57
633.459	12237.25
633.813	12230.24
634.167	12163.13
634.521	12145.73
634.875	12171.04
635.229	12157.7
635.583	12066.63
635.937	12115.44
636.291	12216.68
636.645	12098.72
636.999	12047.42
637.352	12094.88
637.706	11997.26
638.06	12058.95
638.413	12092.39
638.767	11996.58
639.121	11959.74
639.474	12018.5
639.828	12036.12
640.181	12001.1
640.534	12027.76
640.888	11895.79
641.241	11835.45
641.594	11890.59
641.947	11907.77
642.301	11864.15
642.654	11904.15
643.007	11917.71
643.36	11926.75
643.713	11884.26
644.066	11883.59
644.419	11777.15
644.771	11668.45
645.124	11545.52
645.477	11613.76
645.83	11530.15
646.182	11477.72
646.535	11526.53
646.888	11517.04
647.24	11500.32
647.593	11519.75
647.945	11514.33
648.298	11502.58
648.65	11377.84
649.002	11418.97
649.355	11475.91
649.707	11479.53
650.059	11497.61
650.411	11642.46
650.763	11665.06
651.115	11841.1
651.467	11685.4
651.819	11756.58
652.171	11659.18
652.523	11675.68
652.875	11651.95
653.227	11670.71
653.578	11738.73
653.93	11636.59
654.282	11647.43
654.633	11645.63
654.985	11686.75
655.337	11666.42
655.688	11726.53
656.039	11794.32
656.391	11639.75
656.742	11621.22
657.094	11764.04
657.445	11717.04
657.796	11688.56
658.147	11687.43
658.498	11728.11
658.849	11638.85
659.2	11647.43
659.551	11707.77
659.902	11682.01
660.253	11671.16
660.604	11772.4
660.955	11674.33
661.306	11724.95
661.656	11714.32
662.007	11771.95
662.358	11772.63
662.708	11803.81
663.059	11765.85
663.409	11670.03
663.76	11807.88
664.11	11799.29
664.461	11772.18
664.811	11804.27
665.161	11791.16
665.511	11800.65
665.862	11757.04
666.212	11741.22
666.562	11837.26
666.912	11733.53
667.262	11774.44
667.612	11747.09
667.962	11737.6
668.312	11721.1
668.662	11802.91
669.011	11730.6
669.361	11726.3
669.711	11707.55
670.06	11715.45
670.41	11678.17
670.76	11763.81
671.109	11710.26
671.459	11709.35
671.808	11686.3
672.157	11770.82
672.507	11656.02
672.856	11579.64
673.205	11674.55
673.554	11695.12
673.904	11571.73
674.253	11667.77
674.602	11654.21
674.951	11481.79
675.3	11367.44
675.649	11599.07
675.998	11549.81
676.346	11561.33
676.695	11602.46
677.044	11525.18
677.393	11559.75
677.741	11531.5
678.09	11538.74
678.438	11407.67
678.787	11500.32
679.135	11509.58
679.484	11429.36
679.832	11413.32
680.181	11416.03
680.529	11428.68
680.877	11373.99
681.225	11365.63
681.573	11412.19
681.922	11300.32
682.27	11301.45
682.618	11289.93
682.966	11287.9
683.314	11264.62
683.661	11142.81
684.009	11147.11
684.357	11109.37
684.705	11132.87
685.053	11117.5
685.4	11091.52
685.748	11048.58
686.095	10971.07
686.443	11018.75
686.79	10960.67
687.138	11037.73
687.485	11000.45
687.832	10956.38
688.18	10936.72
688.527	10902.14
688.874	10840.9
689.221	10876.15
689.568	10828.02
689.915	10786.89
690.262	10769.49
690.609	10668.25
690.956	10747.34
691.303	10705.76
691.65	10596.84
691.997	10660.12
692.344	10546.9
692.69	10560.68
693.037	10450.86
693.383	10435.04
693.73	10447.47
694.077	10387.35
694.423	10261.93
694.769	10360.91
695.116	10264.19
695.462	10280.46
695.808	10229.39
696.155	10319.79
696.501	10196.85
696.847	10143.29
697.193	10080.47
697.539	10112.33
697.885	10023.52
698.231	9988.95
698.577	9964.54
698.923	9959.79
699.269	9904.2
699.614	9845.9
699.96	9861.94
700.306	9833.24
700.651	9815.17
700.997	9792.79
701.342	9699.24
701.688	9710.99
702.033	9611.78
702.379	9596.64
702.724	9632.8
703.069	9564.32
703.415	9438.68
703.76	9459.92
704.105	9463.54
704.45	9433.48
704.795	9373.82
705.14	9388.96
705.485	9278.68
705.83	9307.38
706.175	9224.9
706.52	9272.36
706.865	9198.01
707.209	9151
707.554	9175.41
707.899	9213.6
708.243	9159.82
708.588	9146.26
708.932	9028.52
709.277	9074.62
709.621	9064.22
709.966	9006.15
710.31	8980.39
710.654	8915.3
710.998	9013.15
711.342	8901.52
711.687	8918.47
712.031	8816.55
712.375	8900.61
712.719	8895.42
713.063	8796.66
713.407	8917.11
713.75	8760.73
714.094	8750.33
714.438	8726.38
714.782	8836.43
715.125	8606.38
715.469	8688.64
715.812	8680.05
716.156	8631.24
716.499	8610.45
716.843	8627.63
717.186	8544.46
717.53	8600.96
717.873	8636.21
718.216	8546.27
718.559	8566.61
718.902	8540.4
719.246	8516.22
719.589	8490
719.932	8470.57
720.275	8461.98
720.617	8508.53
720.96	8477.12
721.303	8478.7
721.646	8508.76
721.989	8477.35
722.331	8429.21
722.674	8441.87
723.016	8422.43
723.359	8414.98
723.701	8406.39
724.044	8366.62
724.386	8350.8
724.729	8351.25
725.071	8388.76
725.413	8382.43
725.755	8315.54
726.097	8308.76
726.439	8276.68
726.782	8261.99
727.124	8321.19
727.465	8259.73
727.807	8303.34
728.149	8286.62
728.491	8242.55
728.833	8281.19
729.175	8254.3
729.516	8260.63
729.858	8296.79
730.199	8281.19
730.541	8260.63
730.882	8270.12
731.224	8288.2
731.565	8190.12
731.906	8230.12
732.248	8221.99
732.589	8151.93
732.93	8129.79
733.271	8152.84
733.612	8199.39
733.953	8166.85
734.294	8230.35
734.635	8215.43
734.976	8212.72
735.317	8156.68
735.658	8179.28
735.999	8199.39
736.339	8208.43
736.68	8329.33
737.021	8211.14
737.361	8171.14
737.702	8254.3
738.042	8193.06
738.383	8157.36
738.723	8295.88
739.063	8290.69
739.404	8235.77
739.744	8287.3
740.084	8271.48
740.424	8337.69
740.764	8348.54
741.104	8376.56
741.444	8312.83
741.784	8292.72
742.124	8360.97
742.464	8462.21
742.804	8360.29
743.143	8401.87
743.483	8431.02
743.823	8351.02
744.162	8383.34
744.502	8450.23
744.841	8524.13
745.181	8522.54
745.52	8538.82
745.86	8577.46
746.199	8574.97
746.538	8647.29
746.877	8639.38
747.216	8669.89
747.556	8775.87
747.895	8776.77
748.234	8866.26
748.573	8869.88
748.911	8879.15
749.25	9016.77
749.589	9036.66
749.928	9057.45
750.267	9217.44
750.605	9259.93
750.944	9234.39
751.283	9350.32
751.621	9453.14
751.96	9481.39
752.298	9622.63
752.636	9768.16
752.975	9769.97
753.313	9843.64
753.651	9964.77
753.989	10086.34
754.327	10186.23
754.666	10255.38
755.004	10413.79
755.342	10555.03
755.679	10585.99
756.017	10757.06
756.355	10898.75
756.693	11013.78
757.031	11148.46
757.368	11260.78
757.706	11378.97
758.044	11498.29
758.381	11653.54
758.719	11760.88
759.056	12022.34
759.394	11991.15
759.731	12216.68
