Data from hue_40_FLMS001491_43.txt Node
Date: Mon Feb 06 15:07:57 GMT 2017
User: dcchb
Spectrometer: FLMS00149
Trigger mode: 0
Integration Time (sec): 2.000000E-2
Scans to average: 10
Electric dark correction enabled: true
Nonlinearity correction enabled: false
Boxcar width: 0
XAxis mode: Wavelengths
Number of Pixels in Spectrum: 2048
>>>>>Begin Spectral Data<<<<<
341.393	-4.25
341.776	-4.25
342.16	-4.25
342.543	-52.84
342.927	-74.98
343.31	-55.32
343.693	-74.08
344.077	-74.98
344.46	-63.68
344.843	-57.58
345.226	-22.1
345.61	-19.62
345.993	-39.28
346.376	-12.16
346.759	-0.64
347.142	37.56
347.525	33.26
347.908	43.43
348.291	79.36
348.674	112.36
349.057	113.49
349.44	112.36
349.823	138.12
350.206	158
350.588	192.81
350.971	220.38
351.354	227.38
351.737	220.38
352.119	248.62
352.502	266.25
352.884	278.23
353.267	299.47
353.65	319.58
354.032	319.81
354.414	312.12
354.797	343.08
355.179	307.83
355.562	310.09
355.944	323.42
356.326	324.33
356.709	348.73
357.091	342.18
357.473	355.74
357.855	337.21
358.238	371.11
358.62	346.02
359.002	312.8
359.384	353.93
359.766	348.28
360.148	342.18
360.53	360.94
360.912	344.89
361.294	366.59
361.676	328.4
362.057	343.99
362.439	336.3
362.821	335.4
363.203	343.54
363.584	346.02
363.966	336.53
364.348	341.05
364.729	315.74
365.111	337.43
365.493	335.63
365.874	326.59
366.256	329.75
366.637	314.16
367.019	331.11
367.4	318.68
367.781	315.51
368.163	297.89
368.544	324.55
368.925	319.36
369.306	315.29
369.688	295.63
370.069	335.4
370.45	333.14
370.831	335.4
371.212	336.53
371.593	305.57
371.974	309.41
372.355	326.59
372.736	328.85
373.117	331.33
373.498	317.77
373.879	320.03
374.26	331.33
374.641	314.16
375.021	318.9
375.402	340.37
375.783	327.49
376.163	347.15
376.544	357.32
376.925	345.8
377.305	334.72
377.686	343.31
378.066	334.5
378.447	338.79
378.827	323.42
379.208	332.69
379.588	333.37
379.968	331.33
380.349	332.91
380.729	334.04
381.109	337.89
381.489	347.83
381.87	334.27
382.25	347.38
382.63	348.51
383.01	341.73
383.39	342.86
383.77	353.48
384.15	340.15
384.53	359.58
384.91	342.41
385.29	355.97
385.67	358.23
386.049	360.26
386.429	366.13
386.809	388.73
387.189	362.07
387.568	339.92
387.948	342.63
388.328	359.13
388.707	349.19
389.087	341.05
389.466	354.61
389.846	378.34
390.225	378.11
390.605	362.52
390.984	373.14
391.363	370.43
391.743	391.9
392.122	368.85
392.501	374.95
392.881	400.48
393.26	376.76
393.639	388.28
394.018	376.08
394.397	375.4
394.776	386.7
395.155	375.85
395.534	373.82
395.913	385.57
396.292	357.55
396.671	380.37
397.05	405.68
397.429	395.29
397.808	376.98
398.186	397.09
398.565	389.18
398.944	375.85
399.323	390.77
399.701	403.65
400.08	426.25
400.458	403.87
400.837	405
401.215	411.33
401.594	397.09
401.972	393.48
402.351	414.95
402.729	413.59
403.107	411.56
403.486	411.56
403.864	410.2
404.242	409.75
404.62	425.57
404.999	421.95
405.377	414.72
405.755	434.16
406.133	406.13
406.511	420.82
406.889	434.16
407.267	423.76
407.645	430.31
408.023	458.79
408.401	444.1
408.779	460.14
409.156	445.68
409.534	425.34
409.912	436.19
410.29	454.04
410.667	464.21
411.045	441.39
411.422	447.04
411.8	464.89
412.178	468.96
412.555	465.57
412.933	448.39
413.31	454.27
413.687	454.72
414.065	469.63
414.442	464.21
414.819	477.09
415.197	495.4
415.574	510.31
415.951	499.92
416.328	480.26
416.705	472.35
417.082	500.82
417.46	522.97
417.837	512.35
418.214	510.76
418.591	497.43
418.967	522.06
419.344	491.55
419.721	502.4
420.098	505.57
420.475	532.01
420.852	495.85
421.228	518.22
421.605	535.85
421.982	541.5
422.358	553.25
422.735	538.33
423.111	514.15
423.488	549.18
423.864	543.3
424.241	559.35
424.617	573.36
424.994	548.73
425.37	539.24
425.746	568.84
426.123	576.98
426.499	582.63
426.875	564.77
427.251	582.85
427.627	616.75
428.003	580.82
428.379	577.88
428.756	590.99
429.132	623.08
429.507	598.9
429.883	607.26
430.259	612.91
430.635	603.19
431.011	619.01
431.387	628.5
431.763	617.43
432.138	658.56
432.514	639.57
432.89	632.57
433.265	652.23
433.641	643.87
434.016	651.32
434.392	683.64
434.767	673.02
435.143	696.97
435.518	698.78
435.894	678.67
436.269	688.16
436.644	672.57
437.02	710.08
437.395	686.35
437.77	703.07
438.145	699.68
438.52	717.54
438.895	721.15
439.271	742.62
439.646	773.13
440.021	728.38
440.395	772.68
440.77	741.49
441.145	746.01
441.52	762.96
441.895	758.67
442.27	761.38
442.645	767.25
443.019	754.15
443.394	767.03
443.769	739.68
444.143	781.26
444.518	790.76
444.892	792.34
445.267	788.04
445.641	801.38
446.016	812
446.39	833.01
446.764	812.22
447.139	794.6
447.513	820.36
447.887	789.17
448.262	813.13
448.636	832.34
449.01	841.15
449.384	831.21
449.758	832.34
450.132	869.62
450.506	835.73
450.88	865.33
451.254	852
451.628	858.1
452.002	855.16
452.376	882.28
452.75	881.15
453.123	884.31
453.497	905.78
453.871	935.39
454.244	943.97
454.618	953.01
454.992	953.24
455.365	914.59
455.739	980.81
456.112	960.02
456.486	963.63
456.859	999.56
457.232	1017.42
457.606	1000.69
457.979	1010.64
458.352	1031.43
458.725	1019.22
459.099	1029.62
459.472	1050.86
459.845	1044.31
460.218	1066.46
460.591	1070.3
460.964	1079.79
461.337	1086.79
461.71	1118.21
462.083	1124.98
462.456	1157.07
462.829	1159.11
463.201	1194.81
463.574	1164.31
463.947	1168.15
464.32	1209.95
464.692	1201.59
465.065	1246.34
465.438	1275.94
465.81	1267.35
466.183	1277.97
466.555	1309.39
466.928	1326.56
467.3	1325.66
467.672	1335.15
468.045	1360.68
468.417	1383.73
468.789	1395.71
469.161	1429.84
469.534	1458.54
469.906	1472.55
470.278	1483.85
470.65	1493.11
471.022	1555.48
471.394	1590.74
471.766	1609.04
472.138	1605.88
472.51	1633.22
472.882	1688.36
473.253	1693.11
473.625	1732.88
473.997	1773.33
474.369	1798.41
474.74	1801.12
475.112	1860.33
475.484	1916.6
475.855	1938.52
476.227	1983.95
476.598	2021.91
476.97	2052.42
477.341	2134.68
477.713	2180.55
478.084	2234.11
478.455	2289.47
478.827	2358.62
479.198	2398.4
479.569	2457.15
479.94	2539.41
480.311	2577.38
480.682	2675.23
481.053	2730.59
481.424	2794.09
481.795	2833.64
482.166	2918.38
482.537	2991.15
482.908	3075.22
483.279	3148.66
483.65	3263.46
484.021	3350.01
484.391	3422.55
484.762	3480.63
485.133	3555.2
485.503	3676.56
485.874	3777.12
486.244	3808.3
486.615	3927.4
486.985	4006.72
487.356	4157
487.726	4230.44
488.097	4348.85
488.467	4433.82
488.837	4545.23
489.207	4626.36
489.578	4782.52
489.948	4874.26
490.318	4990.42
490.688	5056.63
491.058	5141.38
491.428	5234.03
491.798	5397.19
492.168	5514.93
492.538	5613.45
492.908	5736.16
493.278	5848.02
493.648	5883.73
494.017	6056.83
494.387	6182.93
494.757	6228.58
495.126	6378.63
495.496	6423.15
495.866	6558.29
496.235	6674.22
496.605	6731.39
496.974	6879.64
497.344	6942.68
497.713	7022
498.082	7157.37
498.452	7264.71
498.821	7355.56
499.19	7369.79
499.559	7567.3
499.928	7703.57
500.298	7730.23
500.667	7872.15
501.036	7926.16
501.405	8097
501.774	8075.76
502.143	8200.28
502.512	8225.81
502.88	8328.86
503.249	8407.5
503.618	8540.61
503.987	8577.67
504.356	8702.64
504.724	8719.81
505.093	8760.04
505.462	8823.77
505.83	9043.42
506.199	9077.09
506.567	9230.76
506.936	9170.87
507.304	9368.38
507.672	9412.45
508.041	9486.8
508.409	9597.3
508.777	9660.58
509.145	9792.55
509.514	9847.69
509.882	9851.76
510.25	9968.82
510.618	10054.02
510.986	10124.52
511.354	10197.97
511.722	10314.12
512.09	10411.29
512.458	10415.14
512.826	10508.92
513.193	10507.56
513.561	10596.37
513.929	10685.41
514.297	10819.42
514.664	10909.36
515.032	10869.36
515.4	11013.76
515.767	11032.97
516.135	11059.64
516.502	11120.88
516.869	11305.96
517.237	11256.02
517.604	11377.82
517.972	11482.68
518.339	11597.03
518.706	11620.3
519.073	11672.28
519.44	11776
519.808	11839.96
520.175	11849.9
520.542	12028.88
520.909	12053.06
521.276	12063
521.643	12219.38
522.009	12272.94
522.376	12415.54
522.743	12483.1
523.11	12514.52
523.477	12646.94
523.843	12654.85
524.21	12844
524.577	13013.94
524.943	12937.1
525.31	12995.18
525.676	13138.45
526.043	13237.21
526.409	13302.97
526.776	13519.91
527.142	13512.68
527.508	13599.68
527.874	13710.42
528.241	13784.99
528.607	13792.45
528.973	13959.68
529.339	13874.71
529.705	14051.88
530.071	14180.69
530.437	14196.28
530.803	14313.56
531.169	14397.63
531.535	14371.64
531.901	14493.67
532.267	14604.4
532.632	14641.47
532.998	14714.46
533.364	14827.45
533.73	14786.77
534.095	14928.92
534.461	15026.99
534.826	15073.54
535.192	15183.15
535.557	15273.09
535.923	15331.39
536.288	15292.07
536.653	15381.56
537.019	15386.08
537.384	15450.26
537.749	15547.2
538.114	15580.65
538.479	15642.79
538.845	15739.29
539.21	15738.84
539.575	15781.77
539.94	15800.08
540.305	15960.53
540.67	15883.01
541.034	16114.65
541.399	16155.32
541.764	16158.04
542.129	16203.68
542.494	16374.98
542.858	16316.22
543.223	16385.83
543.587	16506.05
543.952	16463.56
544.316	16517.12
544.681	16565.93
545.045	16636.89
545.41	16753.5
545.774	16845.48
546.138	16837.79
546.503	16968.18
546.867	16896.32
547.231	17090.21
547.595	17124.79
547.959	17178.12
548.324	17254.5
548.688	17225.8
549.052	17293.6
549.416	17427.83
549.779	17387.83
550.143	17495.18
550.507	17526.36
550.871	17611.78
551.235	17605.46
551.599	17778.56
551.962	17755.51
552.326	17809.07
552.689	17937.88
553.053	17820.36
553.417	18023.52
553.78	18173.8
554.143	18193.24
554.507	18256.29
554.87	18320.69
555.234	18460.35
555.597	18416.06
555.96	18468.48
556.323	18476.17
556.686	18558.42
557.05	18782.6
557.413	18770.85
557.776	18764.07
558.139	18923.39
558.502	19006.1
558.865	19032.99
559.228	19192.76
559.59	19172.42
559.953	19158.86
560.316	19397.27
560.679	19379.19
561.041	19518.4
561.404	19606.53
561.767	19675.46
562.129	19573.31
562.492	19773.99
562.854	19750.94
563.217	19883.81
563.579	20001.55
563.941	20056.01
564.304	20113.41
564.666	20231.83
565.028	20233.63
565.39	20394.08
565.753	20465.49
566.115	20501.42
566.477	20575.55
566.839	20526.06
567.201	20742.55
567.563	20837.46
567.925	20929.89
568.287	20893.28
568.648	20992.26
569.01	21126.04
569.372	21283.55
569.734	21202.87
570.095	21435.18
570.457	21536.43
570.819	21472.47
571.18	21606.71
571.542	21791.33
571.903	21740.04
572.265	21905.46
572.626	21944.1
572.987	21970.09
573.349	21923.08
573.71	22209.63
574.071	22348.16
574.432	22357.19
574.794	22644.42
575.155	22637.41
575.516	22493.69
575.877	22747.69
576.238	22881.93
576.599	22994.47
576.96	22980.23
577.32	23163.5
577.681	23312.42
578.042	23480.1
578.403	23535.47
578.763	23648.46
579.124	23836.03
579.485	23960.09
579.845	24118.73
580.206	24083.02
580.566	24249.8
580.927	24433.75
581.287	24690.47
581.648	24791.03
582.008	24865.6
582.368	25025.6
582.728	25129.33
583.089	25202.54
583.449	25451.12
583.809	25602.76
584.169	25849.76
584.529	25928.4
584.889	26316.86
585.249	26332.01
585.609	26393.7
585.969	26660.13
586.329	26728.38
586.688	26999.78
587.048	27256.05
587.408	27235.26
587.768	27518.64
588.127	27741.91
588.487	27828.01
588.846	28116.37
589.206	28157.04
589.565	28421.67
589.925	28725.84
590.284	28742.11
590.643	29020.97
591.003	29284.47
591.362	29506.39
591.721	29769.43
592.08	29867.28
592.44	30115.41
592.799	30344.1
593.158	30467.04
593.517	30641.72
593.876	30774.6
594.235	30952.9
594.593	31142.73
594.952	31350.86
595.311	31396.05
595.67	31736.61
596.029	32007.34
596.387	32112.87
596.746	32380.89
597.104	32553.99
597.463	32545.85
597.822	32957.14
598.18	32954.43
598.538	33048.66
598.897	33419.28
599.255	33290.92
599.613	33886.16
599.972	33759.83
600.33	34055.42
600.688	34057.23
601.046	34397.33
601.404	34468.06
601.762	34651.56
602.12	34852.91
602.478	35023.08
602.836	35177.42
603.194	35250.87
603.552	35368.15
603.91	35491.76
604.268	35828.7
604.625	35662.16
604.983	35949.15
605.341	35952.54
605.698	36334.91
606.056	36396.37
606.413	36499.2
606.771	36643.37
607.128	36845.4
607.485	36747.55
607.843	37004.95
608.2	37217.82
608.557	37389.57
608.914	37460.53
609.272	37620.75
609.629	37780.74
609.986	37963.34
610.343	37852.61
610.7	38185.48
611.057	38228.87
611.414	38331.46
611.771	38486.49
612.127	38657.33
612.484	38731.45
612.841	38801.73
613.198	38795.86
613.554	38953.37
613.911	39246.69
614.267	39222.29
614.624	39116.53
614.98	39432.45
615.337	39637.64
615.693	39624.31
616.05	39654.14
616.406	39869.95
616.762	39803.74
617.118	39847.36
617.475	39921.48
617.831	40179.55
618.187	40041.93
618.543	40282.6
618.899	40521.24
619.255	40503.16
619.611	40575.7
619.967	40661.57
620.323	40658.86
620.678	40582.25
621.034	40675.36
621.39	40681.01
621.746	40759.87
622.101	41259.3
622.457	41019.98
622.812	41051.62
623.168	41227.88
623.523	41129.13
623.879	41381.78
624.234	41137.04
624.589	41328.22
624.945	41313.98
625.3	41452.96
625.655	41459.07
626.01	41657.48
626.365	41550.14
626.72	41496.8
627.075	41606.41
627.43	41529.57
627.785	41573.86
628.14	41603.69
628.495	41602.79
628.85	41704.03
629.205	41545.16
629.559	41758.94
629.914	41685.73
630.269	41772.5
630.623	41667.87
630.978	41613.64
631.332	41864.93
631.687	41878.94
632.041	41560.08
632.396	41825.16
632.75	41580.87
633.104	41817.7
633.459	41651.15
633.813	41600.76
634.167	41623.35
634.521	41541.77
634.875	41683.47
635.229	41556.24
635.583	41315.79
635.937	41516.69
636.291	41469.23
636.645	41441.21
636.999	41313.08
637.352	41407.99
637.706	41318.96
638.06	41510.36
638.413	41368.67
638.767	41255.68
639.121	41309.46
639.474	41177.26
639.828	41151.73
640.181	41270.37
640.534	41389.91
640.888	41230.14
641.241	40954.45
641.594	41092.3
641.947	41268.11
642.301	41165.51
642.654	41251.39
643.007	41128.68
643.36	41098.62
643.713	41020.88
644.066	41173.88
644.419	40983.15
644.771	40682.14
645.124	40312.43
645.477	40235.14
645.83	40146.56
646.182	39990.86
646.535	39754.93
646.888	39845.1
647.24	39701.37
647.593	39822.72
647.945	39816.62
648.298	39592.9
648.65	39525.1
649.002	39491.43
649.355	39617.76
649.707	39634.25
650.059	39639.23
650.411	40231.75
650.763	40327.34
651.115	40606.88
651.467	40441.92
651.819	40403.5
652.171	40294.35
652.523	40422.71
652.875	40257.51
653.227	40234.92
653.578	40308.59
653.93	40325.54
654.282	40113.11
654.633	40081.7
654.985	40173.22
655.337	40229.49
655.688	40351.98
656.039	40331.19
656.391	39873.57
656.742	40045.77
657.094	40160.34
657.445	40052.55
657.796	40037.86
658.147	40078.31
658.498	39917.41
658.849	40051.87
659.2	40085.32
659.551	39905.66
659.902	40210.74
660.253	39942.27
660.604	39930.29
660.955	39817.98
661.306	40028.59
661.656	39910.18
662.007	39919.22
662.358	39881.03
662.708	39935.72
663.059	39989.73
663.409	39554.71
663.76	39907.02
664.11	39818.43
664.461	39971.65
664.811	39876.96
665.161	39852.1
665.511	39699.11
665.862	39840.12
666.212	39883.74
666.562	40014.81
666.912	39768.71
667.262	39799.22
667.612	39696.4
667.962	39727.59
668.312	39545.44
668.662	39916.28
669.011	39868.82
669.361	39646.68
669.711	39634.25
670.06	39630.86
670.41	39518.33
670.76	39483.3
671.109	39618.44
671.459	39520.13
671.808	39393.36
672.157	39582.5
672.507	39444.65
672.856	39313.13
673.205	39449.85
673.554	39497.08
673.904	39241.95
674.253	39682.84
674.602	39458.44
674.951	38815.29
675.3	38640.16
675.649	39254.6
675.998	39281.04
676.346	39304.09
676.695	39522.84
677.044	39117.21
677.393	39277.2
677.741	39237.2
678.09	39133.02
678.438	38988.4
678.787	39295.51
679.135	39185
679.484	38879.47
679.832	39079.01
680.181	38865.46
680.529	38970.09
680.877	38767.61
681.225	38785.46
681.573	39048.28
681.922	38679.03
682.27	38644.68
682.618	38688.29
682.966	38463.21
683.314	38597.9
683.661	38551.57
684.009	38400.84
684.357	38278.58
684.705	38215.31
685.053	38323.78
685.4	38232.71
685.748	37965.6
686.095	38004.92
686.443	37859.39
686.79	37861.65
687.138	37971.47
687.485	37857.13
687.832	37799.27
688.18	37824.36
688.527	37616.23
688.874	37463.46
689.221	37598.6
689.568	37372.17
689.915	37310.47
690.262	37272.51
690.609	37129.69
690.956	37100.76
691.303	37030.26
691.65	36835.68
691.997	36948.45
692.344	36753.88
692.69	36665.52
693.037	36648.8
693.383	36347.79
693.73	36549.82
694.077	36263.5
694.423	36127.91
694.769	36226.43
695.116	36054.24
695.462	36026.21
695.808	35917.06
696.155	36027.57
696.501	35754.13
696.847	35655.38
697.193	35518.2
697.539	35565.43
697.885	35303.75
698.231	35248.16
698.577	35278.66
698.923	35163.41
699.269	35146.46
699.614	34856.08
699.96	34937.2
700.306	34856.3
700.651	34630.09
700.997	34710.32
701.342	34469.19
701.688	34431.91
702.033	34440.94
702.379	34318.01
702.724	34242.76
703.069	34327.28
703.415	33834.41
703.76	33951.24
704.105	33961.64
704.45	33740.62
704.795	33628.99
705.14	33530.69
705.485	33392.16
705.83	33254.54
706.175	33530.23
706.52	33364.81
706.865	33289.11
707.209	33062.68
707.554	33101.32
707.899	33142.67
708.243	32925.28
708.588	32941.1
708.932	32791.27
709.277	32699.97
709.621	32697.04
709.966	32465.86
710.31	32477.15
710.654	32379.08
710.998	32308.8
711.342	32332.3
711.687	32210.27
712.031	32096.6
712.375	32048.01
712.719	32143.15
713.063	32024.06
713.407	32031.97
713.75	31835.59
714.094	31773.44
714.438	31679.44
714.782	31867.45
715.125	31667.91
715.469	31633.11
715.812	31485.77
716.156	31331.42
716.499	31370.74
716.843	31337.3
717.186	31202.84
717.53	31258.88
717.873	31255.27
718.216	31258.2
718.559	31016.85
718.902	30836.97
719.246	30991.54
719.589	30776.41
719.932	30734.15
720.275	30766.01
720.617	30736.18
720.96	30700.03
721.303	30562.63
721.646	30580.26
721.989	30539.8
722.331	30472.69
722.674	30405.8
723.016	30400.37
723.359	30353.37
723.701	30330.32
724.044	30134.62
724.386	30065.47
724.729	30085.8
725.071	30104.79
725.413	29992.25
725.755	30066.82
726.097	29895.08
726.439	29732.82
726.782	29775.98
727.124	29924.23
727.465	29641.07
727.807	29622.77
728.149	29591.58
728.491	29616.66
728.833	29694.63
729.175	29464.58
729.516	29440.4
729.858	29347.97
730.199	29426.61
730.541	29340.06
730.882	29300.06
731.224	29312.27
731.565	29104.81
731.906	29090.35
732.248	29198.37
732.589	29033.4
732.93	28838.61
733.271	28889.23
733.612	28852.17
733.953	28939.39
734.294	28838.38
734.635	28684.71
734.976	28915.89
735.317	28642
735.658	28567.88
735.999	28610.82
736.339	28443.59
736.68	28697.59
737.021	28513.19
737.361	28264.16
737.702	28537.6
738.042	28335.57
738.383	28308.9
738.723	28373.53
739.063	28205.18
739.404	28218.06
739.744	28146.65
740.084	28182.8
740.424	28140.32
740.764	27967.22
741.104	28180.09
741.444	27955.01
741.784	27863.49
742.124	27938.06
742.464	27818.52
742.804	27718.41
743.143	27814.68
743.483	27826.2
743.823	27688.81
744.162	27578.98
744.502	27679.31
744.841	27489.94
745.181	27758.86
745.52	27390.51
745.86	27597.06
746.199	27385.54
746.538	27479.77
746.877	27385.99
747.216	27420.34
747.556	27256.05
747.895	27282.94
748.234	27189.84
748.573	27113
748.911	27125.66
749.25	27040.91
749.589	26953.23
749.928	26887.92
750.267	26974.25
750.605	26837.75
750.944	26772.22
751.283	26754.82
751.621	26713.24
751.96	26549.4
752.298	26549.85
752.636	26593.69
752.975	26421.95
753.313	26328.84
753.651	26405.68
753.989	26305.57
754.327	26240.71
754.666	26093.82
755.004	26189.64
755.342	26237.09
755.679	26100.15
756.017	25958.46
756.355	26105.12
756.693	25871.68
757.031	25911
757.368	25768.4
