Data from hue_40_FLMS001491_70.txt Node
Date: Mon Feb 06 15:08:17 GMT 2017
User: dcchb
Spectrometer: FLMS00149
Trigger mode: 0
Integration Time (sec): 2.000000E-2
Scans to average: 10
Electric dark correction enabled: true
Nonlinearity correction enabled: false
Boxcar width: 0
XAxis mode: Wavelengths
Number of Pixels in Spectrum: 2048
>>>>>Begin Spectral Data<<<<<
341.393	-15.66
341.776	-15.66
342.16	-15.66
342.543	-60.41
342.927	-79.84
343.31	-55.89
343.693	-81.2
344.077	-63.12
344.46	-50.24
344.843	-54.53
345.226	-45.72
345.61	-30.13
345.993	-12.27
346.376	-19.73
346.759	1.06
347.142	46.26
347.525	41.51
347.908	67.27
348.291	75.41
348.674	82.19
349.057	99.14
349.44	128.51
349.823	146.59
350.206	161.28
350.588	196.76
350.971	198.12
351.354	227.04
351.737	239.92
352.119	258.23
352.502	251.9
352.884	276.08
353.267	293.48
353.65	308.17
354.032	287.83
354.414	316.76
354.797	318.57
355.179	328.28
355.562	327.6
355.944	328.06
356.326	310.43
356.709	320.82
357.091	328.28
357.473	337.1
357.855	314.95
358.238	345.23
358.62	324.89
359.002	335.51
359.384	346.36
359.766	349.75
360.148	347.49
360.53	351.33
360.912	335.51
361.294	332.35
361.676	327.38
362.057	342.07
362.439	323.76
362.821	330.32
363.203	338.68
363.584	337.1
363.966	331.45
364.348	315.18
364.729	322.18
365.111	318.34
365.493	335.74
365.874	319.24
366.256	315.18
366.637	323.08
367.019	293.93
367.4	309.53
367.781	317.66
368.163	306.59
368.544	317.66
368.925	314.27
369.306	316.76
369.688	319.02
370.069	309.3
370.45	328.06
370.831	331.45
371.212	325.8
371.593	322.63
371.974	308.17
372.355	319.92
372.736	329.19
373.117	311.11
373.498	327.83
373.879	333.48
374.26	326.25
374.641	318.79
375.021	314.27
375.402	324.67
375.783	327.15
376.163	334.16
376.544	327.38
376.925	337.77
377.305	326.25
377.686	301.39
378.066	319.24
378.447	328.28
378.827	320.15
379.208	319.02
379.588	337.1
379.968	320.15
380.349	348.85
380.729	349.98
381.109	341.16
381.489	359.24
381.87	338.9
382.25	358.34
382.63	355.63
383.01	341.84
383.39	348.85
383.77	362.41
384.15	330.77
384.53	344.55
384.91	347.72
385.29	352.01
385.67	357.43
386.049	355.63
386.429	364.44
386.809	352.01
387.189	337.55
387.568	348.39
387.948	368.73
388.328	370.77
388.707	369.86
389.087	348.85
389.466	367.38
389.846	355.85
390.225	361.95
390.605	368.51
390.984	366.7
391.363	384.1
391.743	377.55
392.122	389.3
392.501	382.29
392.881	380.94
393.26	393.14
393.639	378.9
394.018	386.81
394.397	380.48
394.776	405.34
395.155	398.34
395.534	380.26
395.913	380.03
396.292	394.27
396.671	394.95
397.05	386.81
397.429	410.54
397.808	394.5
398.186	407.38
398.565	423.2
398.944	386.36
399.323	397.43
399.701	380.26
400.08	410.54
400.458	416.42
400.837	408.73
401.215	398.56
401.594	391.33
401.972	429.75
402.351	422.74
402.729	409.18
403.107	435.17
403.486	420.26
403.864	428.39
404.242	428.62
404.62	434.04
404.999	419.81
405.377	427.71
405.755	435.4
406.133	451.22
406.511	440.6
406.889	449.86
407.267	446.25
407.645	434.04
408.023	452.12
408.401	435.62
408.779	463.87
409.156	445.79
409.534	484.44
409.912	452.35
410.29	451.44
410.667	475.4
411.045	473.59
411.422	478.79
411.8	458.22
412.178	500.71
412.555	507.03
412.933	513.36
413.31	484.66
413.687	505.9
414.065	492.8
414.442	504.32
414.819	491.22
415.197	514.04
415.574	518.56
415.951	542.29
416.328	515.85
416.705	520.14
417.082	504.55
417.46	526.7
417.837	533.93
418.214	549.97
418.591	529.63
418.967	554.72
419.344	518.11
419.721	559.46
420.098	560.59
420.475	572.34
420.852	545.45
421.228	566.92
421.605	559.46
421.982	551.78
422.358	563.98
422.735	563.98
423.111	593.81
423.488	581.38
423.864	568.5
424.241	601.27
424.617	594.04
424.994	587.48
425.37	592.91
425.746	613.92
426.123	606.47
426.499	610.53
426.875	605.56
427.251	604.89
427.627	624.55
428.003	654.6
428.379	647.82
428.756	650.53
429.132	623.42
429.507	636.52
429.883	669.29
430.259	682.62
430.635	661.15
431.011	676.75
431.387	679.01
431.763	692.79
432.138	696.63
432.514	690.53
432.89	695.73
433.265	719.68
433.641	697.31
434.016	726.46
434.392	727.37
434.767	737.76
435.143	716.29
435.518	754.26
435.894	759.46
436.269	748.84
436.644	755.84
437.02	785.9
437.395	767.59
437.77	783.41
438.145	795.84
438.52	787.48
438.895	789.51
439.271	809.85
439.646	787.48
440.021	809.63
440.395	792.9
440.77	828.38
441.145	844.65
441.52	810.53
441.895	825.44
442.27	827.7
442.645	829.06
443.019	873.58
443.394	836.97
443.769	838.33
444.143	856.63
444.518	866.57
444.892	851.88
445.267	895.73
445.641	881.26
446.016	910.41
446.39	919.91
446.764	909.96
447.139	903.41
447.513	888.27
447.887	890.53
448.262	907.48
448.636	940.47
449.01	965.78
449.384	937.31
449.758	937.98
450.132	979.79
450.506	950.86
450.88	958.77
451.254	957.64
451.628	986.12
452.002	973.92
452.376	1014.59
452.75	1001.94
453.123	1006.68
453.497	1014.59
453.871	1023.63
454.244	1029.51
454.618	1055.72
454.992	1100.01
455.365	1055.27
455.739	1074.93
456.112	1097.53
456.486	1105.66
456.859	1133.01
457.232	1126.23
457.606	1156.74
457.979	1161.48
458.352	1175.72
458.725	1158.99
459.099	1203.29
459.472	1174.36
459.845	1243.96
460.218	1234.25
460.591	1252.1
460.964	1240.8
461.337	1282.61
461.71	1304.98
462.083	1290.97
462.456	1339.56
462.829	1322.15
463.201	1352.44
463.574	1350.63
463.947	1353.11
464.32	1400.57
464.692	1387.01
465.065	1432.21
465.438	1444.86
465.81	1464.52
466.183	1483.05
466.555	1503.62
466.928	1521.92
467.3	1532.54
467.672	1553.11
468.045	1605.08
468.417	1588.14
468.789	1595.59
469.161	1650.73
469.534	1697.29
469.906	1713.56
470.278	1723.95
470.65	1757.4
471.022	1781.35
471.394	1799.88
471.766	1828.58
472.138	1858.41
472.51	1922.59
472.882	1974.11
473.253	1966.66
473.625	1976.6
473.997	2050.5
474.369	2060.44
474.74	2100.44
475.112	2193.09
475.484	2229.48
475.855	2282.36
476.227	2306.99
476.598	2394.22
476.97	2368.45
477.341	2466.98
477.713	2550.82
478.084	2563.25
478.455	2641.89
478.827	2683.02
479.198	2734.55
479.569	2774.77
479.94	2881.66
480.311	2981.55
480.682	3013.18
481.053	3111.03
481.424	3234.19
481.795	3262.22
482.166	3351.48
482.537	3397.35
482.908	3481.19
483.279	3566.84
483.65	3683.22
484.021	3767.97
484.391	3863.1
484.762	3890.45
485.133	3984.46
485.503	4133.38
485.874	4183.77
486.244	4270.33
486.615	4409.53
486.985	4527.72
487.356	4604.78
487.726	4712.8
488.097	4865.34
488.467	5000.48
488.837	5101.72
489.207	5179.91
489.578	5326.57
489.948	5376.29
490.318	5480.69
490.688	5630.74
491.058	5684.3
491.428	5851.07
491.798	5935.59
492.168	6109.15
492.538	6141.24
492.908	6284.06
493.278	6393.66
493.648	6522.02
494.017	6649.02
494.387	6726.08
494.757	6847.88
495.126	6916.13
495.496	7081.1
495.866	7166.97
496.235	7272.73
496.605	7366.06
496.974	7441.09
497.344	7613.97
497.713	7680.18
498.082	7853.28
498.452	7926.95
498.821	7998.59
499.19	8140.28
499.559	8205.36
499.928	8276.77
500.298	8399.48
500.667	8478.58
501.036	8571.23
501.405	8688.97
501.774	8706.14
502.143	8866.59
502.512	8965.12
502.88	9016.87
503.249	9083.31
503.618	9184.32
503.987	9283.98
504.356	9394.26
504.724	9431.09
505.093	9489.85
505.462	9516.74
505.83	9634.7
506.199	9812.33
506.567	9918.31
506.936	9897.97
507.304	10073.11
507.672	10177.51
508.041	10245.99
508.409	10307.91
508.777	10364.4
509.145	10516.72
509.514	10531.63
509.882	10688.01
510.25	10738.18
510.618	10782.24
510.986	10824.05
511.354	10998.51
511.722	11148.79
512.09	11189.01
512.458	11202.12
512.826	11238.28
513.193	11407.54
513.561	11416.8
513.929	11528.67
514.297	11637.14
514.664	11713.52
515.032	11830.58
515.4	11860.63
515.767	11880.75
516.135	12036.9
516.502	12044.81
516.869	12247.74
517.237	12309.44
517.604	12207.74
517.972	12435.99
518.339	12534.97
518.706	12476.44
519.073	12644.79
519.44	12628.52
519.808	12836.88
520.175	12791.91
520.542	12958.23
520.909	13020.38
521.276	13108.29
521.643	13160.04
522.009	13318.45
522.376	13354.38
522.743	13506.47
523.11	13601.15
523.477	13697.2
523.843	13744.43
524.21	13921.82
524.577	13953.91
524.943	14125.43
525.31	14116.39
525.676	14329.04
526.043	14348.03
526.409	14402.49
526.776	14580.34
527.142	14631.64
527.508	14701.24
527.874	14861.46
528.241	14892.19
528.607	14898.07
528.973	15073.66
529.339	15071.4
529.705	15237.95
530.071	15231.62
530.437	15378.96
530.803	15501.44
531.169	15598.16
531.535	15580.08
531.901	15648.33
532.267	15707.09
532.632	15869.12
532.998	15867.31
533.364	15934.43
533.73	15992.05
534.095	16192.5
534.461	16131.71
534.826	16319.73
535.192	16351.14
535.557	16465.71
535.923	16500.06
536.288	16579.38
536.653	16663.45
537.019	16662.54
537.384	16727.17
537.749	16830
538.114	16874.97
538.479	16950.9
538.845	17043.78
539.21	17011.69
539.575	17145.92
539.94	17185.69
540.305	17314.05
540.67	17374.39
541.034	17365.35
541.399	17542.74
541.764	17458.23
542.129	17599.92
542.494	17546.13
542.858	17615.06
543.223	17761.95
543.587	17787.26
543.952	17935.05
544.316	18024.54
544.681	17916.75
545.045	17994.94
545.41	18076.06
545.774	18244.87
546.138	18200.35
546.503	18310.18
546.867	18367.58
547.231	18497.97
547.595	18590.18
547.959	18585.43
548.324	18653.22
548.688	18723.5
549.052	18766.89
549.416	18808.25
549.779	18928.7
550.143	18997.62
550.507	19101.35
550.871	19020.67
551.235	19241.46
551.599	19201.23
551.962	19299.08
552.326	19330.72
552.689	19470.15
553.053	19387.44
553.417	19507.44
553.78	19780.88
554.143	19606.65
554.507	19700.88
554.87	19858.84
555.234	19954.66
555.597	19890.03
555.96	20015.45
556.323	20042.34
556.686	20077.82
557.05	20263.8
557.413	20235.1
557.776	20398.26
558.139	20507.41
558.502	20484.81
558.865	20592.83
559.228	20803.45
559.59	20750.8
559.953	20812.72
560.316	21099.49
560.679	21037.34
561.041	21142.42
561.404	21168.41
561.767	21283.44
562.129	21272.82
562.492	21628.97
562.854	21462.42
563.217	21491.57
563.579	21602.53
563.941	21693.37
564.304	21870.31
564.666	21998.45
565.028	22020.59
565.39	22042.74
565.753	22192.11
566.115	22211.1
566.477	22394.37
566.839	22374.48
567.201	22535.61
567.563	22511.88
567.925	22829.61
568.287	22719.56
568.648	22726.34
569.01	22892.89
569.372	23035.26
569.734	23093.56
570.095	23091.75
570.457	23277.28
570.819	23265.08
571.18	23339.2
571.542	23467.79
571.903	23622.13
572.265	23612.64
572.626	23775.8
572.987	23802.47
573.349	23931.5
573.71	24066.19
574.071	24129.46
574.432	24302.34
574.794	24458.5
575.155	24501.66
575.516	24459.63
575.877	24561.32
576.238	24725.83
576.599	25019.38
576.96	25006.5
577.32	24999.95
577.681	25206.95
578.042	25364.46
578.403	25380.05
578.763	25636.32
579.124	25719.93
579.485	25866.37
579.845	26116.08
580.206	26181.61
580.566	26260.48
580.927	26398.11
581.287	26639.23
581.648	26626.12
582.008	26955.6
582.368	26904.08
582.728	27180.46
583.089	27317.18
583.449	27364.86
583.809	27644.85
584.169	27848.91
584.529	27817.5
584.889	28162.13
585.249	28200.32
585.609	28351.05
585.969	28656.13
586.329	28756.91
586.688	29002.33
587.048	29050.01
587.408	29235.54
587.768	29341.98
588.127	29539.94
588.487	29723.22
588.846	30092.92
589.206	29861.29
589.565	30247.95
589.925	30612.46
590.284	30696.75
590.643	30759.8
591.003	31087.25
591.362	31364.53
591.721	31418.31
592.08	31625.31
592.44	31768.13
592.799	31979.65
593.158	31999.99
593.517	32331.28
593.876	32460.77
594.235	32543.25
594.593	32879.29
594.952	33005.16
595.311	33165.84
595.67	33377.13
596.029	33695.54
596.387	33872.71
596.746	33949.77
597.104	34051.24
597.463	34258.24
597.822	34489.87
598.18	34540.04
598.538	34574.84
598.897	35036.75
599.255	34873.59
599.613	35402.16
599.972	35442.61
600.33	35512.44
600.688	35702.27
601.046	35899.32
601.404	36148.81
601.762	36338.41
602.12	36578.63
602.478	36605.07
602.836	36655.69
603.194	36663.37
603.552	36865.85
603.91	36925.51
604.268	37189.23
604.625	37174.32
604.983	37529.11
605.341	37449.11
605.698	37646.17
606.056	37732.72
606.413	37863.34
606.771	38158.25
607.128	38317.34
607.485	38080.74
607.843	38260.84
608.2	38620.83
608.557	38766.14
608.914	38650.66
609.272	39060.82
609.629	39071.9
609.986	39301.72
610.343	39156.87
610.7	39573.8
611.057	39499
611.414	39642.95
611.771	39729.73
612.127	39860.12
612.484	39958.65
612.841	40213.11
613.198	40064.19
613.554	40238.65
613.911	40529.03
614.267	40482.48
614.624	40508.02
614.98	40657.84
615.337	40888.12
615.693	40700.1
616.05	40786.2
616.406	41198.85
616.762	41138.28
617.118	41066.42
617.475	41116.14
617.831	41321.78
618.187	41390.03
618.543	41510.25
618.899	41878.6
619.255	41722.67
619.611	41723.8
619.967	42033.85
620.323	42080.18
620.678	42051.71
621.034	41910.69
621.39	41957.7
621.746	41990.46
622.101	42508.19
622.457	42043.34
622.812	42203.79
623.168	42403.79
623.523	42431.13
623.879	42557.68
624.234	42288.99
624.589	42455.31
624.945	42524.23
625.3	42601.97
625.655	42611.46
626.01	42615.08
626.365	42687.39
626.72	42674.29
627.075	42731.69
627.43	42780.73
627.785	42671.8
628.14	42851.91
628.495	42897.33
628.85	42762.19
629.205	42732.59
629.559	42970.55
629.914	42748.86
630.269	43046.93
630.623	42880.84
630.978	42681.52
631.332	42991.12
631.687	42944.11
632.041	42888.52
632.396	43029.76
632.75	42836.09
633.104	42929.42
633.459	42669.09
633.813	42724.46
634.167	42725.36
634.521	42628.64
634.875	42881.74
635.229	42768.97
635.583	42720.61
635.937	42719.94
636.291	42558.58
636.645	42762.87
636.999	42601.07
637.352	42797.67
637.706	42515.42
638.06	42646.04
638.413	42654.18
638.767	42529.21
639.121	42525.82
639.474	42255.32
639.828	42323.56
640.181	42469.77
640.534	42432.49
640.888	42337.35
641.241	42356.56
641.594	42239.5
641.947	42264.58
642.301	42213.96
642.654	42351.13
643.007	42360.85
643.36	42288.99
643.713	42165.37
644.066	42448.53
644.419	42137.13
644.771	41909.56
645.124	41477.48
645.477	41479.06
645.83	41168.56
646.182	41166.76
646.535	40945.75
646.888	40949.14
647.24	40831.85
647.593	41068
647.945	40936.03
648.298	40767.45
648.65	40742.81
649.002	40552.99
649.355	40843.83
649.707	40670.72
650.059	40872.08
650.411	41444.94
650.763	41396.58
651.115	41817.36
651.467	41695.33
651.819	41703.92
652.171	41578.72
652.523	41525.39
652.875	41629.12
653.227	41406.98
653.578	41783.24
653.93	41577.14
654.282	41411.04
654.633	41261.67
654.985	41308.9
655.337	41389.58
655.688	41384.38
656.039	41622.34
656.391	41255.34
656.742	41266.19
657.094	41341.89
657.445	41490.36
657.796	41314.32
658.147	41093.76
658.498	41228.45
658.849	41330.82
659.2	41127.21
659.551	41133.09
659.902	41338.73
660.253	41142.58
660.604	41315
660.955	40984.84
661.306	41257.15
661.656	41005.63
662.007	40995.69
662.358	41096.02
662.708	40967.44
663.059	40973.32
663.409	40896.03
663.76	41104.84
664.11	41151.16
664.461	41066.42
664.811	41004.95
665.161	41007.89
665.511	41017.16
665.862	40845.18
666.212	41084.95
666.562	40939.87
666.912	41059.41
667.262	41025.52
667.612	40862.58
667.962	40917.5
668.312	40922.24
668.662	41154.33
669.011	40901.9
669.361	40816.03
669.711	40879.08
670.06	40854.9
670.41	40680.44
670.76	40740.1
671.109	40739.65
671.459	40800.44
671.808	40675.92
672.157	40789.59
672.507	40486.32
672.856	40689.25
673.205	40724.06
673.554	40674.57
673.904	40567.9
674.253	40948.23
674.602	40653.55
674.951	40153
675.3	39907.35
675.649	40489.03
675.998	40430.5
676.346	40490.62
676.695	40612.19
677.044	40274.35
677.393	40450.17
677.741	40482.25
678.09	40335.37
678.438	40344.18
678.787	40289.72
679.135	40262.37
679.484	40067.35
679.832	40321.58
680.181	39991.42
680.529	40137.18
680.877	40031.65
681.225	39941.48
681.573	40154.81
681.922	39912.78
682.27	39808.15
682.618	39860.35
682.966	39683.63
683.314	39709.85
683.661	39684.08
684.009	39571.32
684.357	39387.37
684.705	39278.44
685.053	39434.37
685.4	39344.88
685.748	39117.32
686.095	39160.03
686.443	39049.98
686.79	38976.98
687.138	39068.28
687.485	39087.72
687.832	38813.37
688.18	38941.28
688.527	38815.18
688.874	38624.45
689.221	38716.88
689.568	38658.57
689.915	38486.38
690.262	38518.69
690.609	38320.05
690.956	38352.82
691.303	38240.51
691.65	38072.6
691.997	37988.54
692.344	37847.52
692.69	37786.73
693.037	37809.33
693.383	37520.3
693.73	37641.65
694.077	37424.48
694.423	37302.9
694.769	37318.95
695.116	37124.83
695.462	37065.85
695.808	37032.85
696.155	37081.21
696.501	36816.36
696.847	36871.73
697.193	36415.24
697.539	36641.23
697.885	36424.73
698.231	36401.46
698.577	36265.64
698.923	36400.33
699.269	36052.77
699.614	35919.66
699.96	35827.69
700.306	35972.32
700.651	35747.69
700.997	35652.55
701.342	35604.19
701.688	35610.29
702.033	35451.88
702.379	35447.81
702.724	35173.47
703.069	35373.01
703.415	34923.98
703.76	34891.67
704.105	35001.27
704.45	34829.3
704.795	34749.75
705.14	34590.66
705.485	34725.57
705.83	34521.51
706.175	34470.21
706.52	34402.87
706.865	34364.68
707.209	34290.1
707.554	34145.7
707.899	34218.46
708.243	34064.12
708.588	34055.98
708.932	33666.39
709.277	33761.08
709.621	33744.8
709.966	33607.41
710.31	33637.91
710.654	33390.24
710.998	33543.23
711.342	33437.69
711.687	33293.07
712.031	33147.08
712.375	33004.03
712.719	33217.59
713.063	33033.64
713.407	33105.27
713.75	33009.23
714.094	32846.3
714.438	32637.94
714.782	32798.16
715.125	32609.92
715.469	32535.57
715.812	32458.96
716.156	32277.05
716.499	32453.77
716.843	32364.28
717.186	32229.59
717.53	32320.44
717.873	32361.11
718.216	32152.76
718.559	32064.4
718.902	31809.94
719.246	31930.16
719.589	31800.68
719.932	31734.69
720.275	31701.92
720.617	31708.25
720.96	31577.63
721.303	31549.16
721.646	31623.05
721.989	31365.21
722.331	31551.87
722.674	31352.1
723.016	31358.65
723.359	31454.92
723.701	31329.28
724.044	31345.32
724.386	30984.43
724.729	31203.4
725.071	31073.69
725.413	30985.1
725.755	30954.82
726.097	30948.27
726.439	30790.53
726.782	30729.52
727.124	30783.3
727.465	30711.44
727.807	30652.91
728.149	30497.66
728.491	30473.25
728.833	30460.37
729.175	30388.28
729.516	30492.91
729.858	30255.18
730.199	30229.64
730.541	30245.46
730.882	30111.68
731.224	30354.84
731.565	30112.58
731.906	30038.24
732.248	30047.5
732.589	30005.24
732.93	29797.56
733.271	29891.35
733.612	29879.82
733.953	29955.75
734.294	29769.54
734.635	29555.54
734.976	29797.34
735.317	29650.22
735.658	29672.6
735.999	29689.77
736.339	29516.22
736.68	29548.3
737.021	29417.46
737.361	29366.61
737.702	29491.81
738.042	29371.81
738.383	29261.53
738.723	29377.46
739.063	29228.77
739.404	29240.29
739.744	29155.55
740.084	28991.71
740.424	29101.54
740.764	28943.35
741.104	29047.3
741.444	28930.02
741.784	28884.14
742.124	28862.45
742.464	28880.07
742.804	28834.2
743.143	28736.12
743.483	28821.54
743.823	28525.73
744.162	28496.13
744.502	28556.92
744.841	28453.64
745.181	28602.34
745.52	28364.16
745.86	28462.01
746.199	28217.27
746.538	28363.48
746.877	28358.73
747.216	28377.71
747.556	28161
747.895	28055.46
748.234	27990.61
748.573	27949.7
748.911	28052.98
749.25	28016.14
749.589	27855.24
749.928	27931.4
750.267	27910.61
750.605	27724.85
750.944	27820.21
751.283	27710.84
751.621	27716.49
751.96	27534.12
752.298	27429.26
752.636	27434.91
752.975	27416.61
753.313	27281.47
753.651	27381.58
753.989	27208.25
754.327	27248.93
754.666	26912.89
755.004	27070.18
755.342	27061.59
755.679	26992.21
756.017	26861.6
756.355	26851.2
