Data from hue_26_FLMS001491_00050.txt Node
Date: Tue Feb 07 17:14:04 GMT 2017
User: dcchb
Spectrometer: FLMS00149
Trigger mode: 0
Integration Time (sec): 2.000000E-2
Scans to average: 10
Electric dark correction enabled: true
Nonlinearity correction enabled: false
Boxcar width: 0
XAxis mode: Wavelengths
Number of Pixels in Spectrum: 2048
>>>>>Begin Spectral Data<<<<<
341.393	-12.73
341.776	-12.73
342.16	-12.73
342.543	-59.73
342.927	-64.25
343.31	-72.16
343.693	-64.7
344.077	-45.95
344.46	-90.46
344.843	-40.52
345.226	-61.76
345.61	-29.22
345.993	-5.72
346.376	-2.1
346.759	25.47
347.142	27.05
347.525	41.96
347.908	37.22
348.291	79.93
348.674	80.61
349.057	120.38
349.44	130.32
349.823	130.77
350.206	170.32
350.588	182.3
350.971	212.13
351.354	220.04
351.737	233.14
352.119	238.34
352.502	265.23
352.884	279.24
353.267	268.85
353.65	281.28
354.032	293.26
354.414	282.18
354.797	311.11
355.179	328.73
355.562	319.92
355.944	321.28
356.326	332.8
356.709	329.64
357.091	349.75
357.473	331.9
357.855	364.21
358.238	345.91
358.62	340.71
359.002	338.23
359.384	332.8
359.766	350.43
360.148	342.97
360.53	323.76
360.912	319.24
361.294	330.54
361.676	341.16
362.057	322.63
362.439	340.49
362.821	331.22
363.203	319.69
363.584	325.34
363.966	319.47
364.348	330.32
364.729	310.2
365.111	340.26
365.493	319.24
365.874	345.91
366.256	316.76
366.637	319.47
367.019	313.14
367.4	309.07
367.781	312.46
368.163	315.4
368.544	304.1
368.925	321.95
369.306	308.85
369.688	309.53
370.069	299.13
370.45	319.02
370.831	317.44
371.212	327.38
371.593	307.72
371.974	325.34
372.355	300.71
372.736	318.57
373.117	305.46
373.498	335.97
373.879	327.6
374.26	302.97
374.641	319.24
375.021	322.63
375.402	342.52
375.783	316.08
376.163	311.33
376.544	319.69
376.925	316.98
377.305	324.67
377.686	330.77
378.066	334.61
378.447	323.08
378.827	307.27
379.208	327.6
379.588	333.93
379.968	340.49
380.349	333.93
380.729	330.99
381.109	346.81
381.489	362.63
381.87	332.35
382.25	338.23
382.63	325.8
383.01	356.3
383.39	329.19
383.77	330.77
384.15	358.11
384.53	329.19
384.91	340.71
385.29	334.61
385.67	347.94
386.049	370.54
386.429	346.81
386.809	369.64
387.189	363.99
387.568	357.43
387.948	342.75
388.328	374.61
388.707	344.1
389.087	358.34
389.466	377.09
389.846	360.15
390.225	376.19
390.605	370.77
390.984	368.73
391.363	355.85
391.743	363.54
392.122	361.73
392.501	396.98
392.881	368.06
393.26	383.42
393.639	373.48
394.018	363.31
394.397	369.41
394.776	363.99
395.155	391.11
395.534	369.64
395.913	399.47
396.292	401.73
396.671	405.79
397.05	385.91
397.429	369.64
397.808	377.32
398.186	371.45
398.565	371.9
398.944	392.01
399.323	402.4
399.701	401.5
400.08	417.77
400.458	403.53
400.837	397.89
401.215	387.94
401.594	391.56
401.972	398.79
402.351	397.66
402.729	384.33
403.107	414.61
403.486	406.7
403.864	403.53
404.242	373.7
404.62	408.05
404.999	422.29
405.377	414.16
405.755	407.38
406.133	410.09
406.511	412.35
406.889	409.18
407.267	441.5
407.645	424.33
408.023	436.98
408.401	441.27
408.779	429.75
409.156	442.18
409.534	432.23
409.912	423.42
410.29	446.7
410.667	457.77
411.045	456.19
411.422	456.19
411.8	456.19
412.178	462.29
412.555	450.09
412.933	455.28
413.31	457.77
413.687	473.14
414.065	483.53
414.442	471.1
414.819	451.22
415.197	472.46
415.574	498
415.951	467.26
416.328	501.16
416.705	485.79
417.082	473.36
417.46	506.58
417.837	514.94
418.214	490.54
418.591	512.68
418.967	506.58
419.344	515.17
419.721	527.6
420.098	498.9
420.475	512.91
420.852	516.98
421.228	524.44
421.605	525.79
421.982	529.86
422.358	544.55
422.735	535.51
423.111	526.47
423.488	540.93
423.864	537.77
424.241	527.83
424.617	528.28
424.994	537.99
425.37	539.58
425.746	556.52
426.123	570.31
426.499	578.67
426.875	547.71
427.251	567.15
427.627	550.88
428.003	572.8
428.379	582.74
428.756	575.06
429.132	601.04
429.507	587.03
429.883	621.83
430.259	591.1
430.635	601.5
431.011	600.59
431.387	618.67
431.763	635.62
432.138	617.09
432.514	624.77
432.89	610.76
433.265	638.1
433.641	641.49
434.016	639.91
434.392	662.51
434.767	662.06
435.143	665.22
435.518	657.31
435.894	699.12
436.269	664.77
436.644	685.11
437.02	683.75
437.395	675.17
437.77	695.96
438.145	711.32
438.52	707.03
438.895	722.85
439.271	721.04
439.646	717.42
440.021	725.79
440.395	720.36
440.77	728.95
441.145	727.82
441.52	766.46
441.895	751.77
442.27	740.7
442.645	741.83
443.019	762.4
443.394	762.62
443.769	768.27
444.143	755.39
444.518	758.1
444.892	735.28
445.267	776.18
445.641	791.1
446.016	785.67
446.39	819.57
446.764	797.2
447.139	800.81
447.513	808.5
447.887	796.07
448.262	797.65
448.636	795.39
449.01	836.07
449.384	837.42
449.758	820.47
450.132	853.24
450.506	799.91
450.88	847.82
451.254	840.59
451.628	850.98
452.002	856.86
452.376	859.12
452.75	871.54
453.123	867.03
453.497	888.72
453.871	855.27
454.244	915.16
454.618	900.02
454.992	886.69
455.365	898.44
455.739	937.31
456.112	946.35
456.486	950.64
456.859	973.69
457.232	966.23
457.606	956.51
457.979	981.6
458.352	997.64
458.725	1003.52
459.099	1000.58
459.472	1026.57
459.845	1033.35
460.218	1038.32
460.591	1034.7
460.964	1051.2
461.337	1048.94
461.71	1080.13
462.083	1115.15
462.456	1096.4
462.829	1129.17
463.201	1098.21
463.574	1129.17
463.947	1143.4
464.32	1173.01
464.692	1155.15
465.065	1169.62
465.438	1172.55
465.81	1208.26
466.183	1220.69
466.555	1252.78
466.928	1257.98
467.3	1246.68
467.672	1300.46
468.045	1300.01
468.417	1277.64
468.789	1313.57
469.161	1335.04
469.534	1308.37
469.906	1377.07
470.278	1399.21
470.65	1389.95
471.022	1401.93
471.394	1422.26
471.766	1434.92
472.138	1477.86
472.51	1507.69
472.882	1522.15
473.253	1538.19
473.625	1538.19
473.997	1582.71
474.369	1613.67
474.74	1624.29
475.112	1668.81
475.484	1693.9
475.855	1723.27
476.227	1732.99
476.598	1764.4
476.97	1795.81
477.341	1844.4
477.713	1870.39
478.084	1924.85
478.455	1939.09
478.827	1953.78
479.198	2048.01
479.569	2027.67
479.94	2063.15
480.311	2116.71
480.682	2162.36
481.053	2200.32
481.424	2279.19
481.795	2290.04
482.166	2314.22
482.537	2348.57
482.908	2424.72
483.279	2459.98
483.65	2513.31
484.021	2534.78
484.391	2626.08
484.762	2605.28
485.133	2644.38
485.503	2686.41
485.874	2789.46
486.244	2784.04
486.615	2848.67
486.985	2908.78
487.356	2979.74
487.726	2975.44
488.097	3065.84
488.467	3066.29
488.837	3170.24
489.207	3194.87
489.578	3236.45
489.948	3266.74
490.318	3348.77
490.688	3333.63
491.058	3461.76
491.428	3500.4
491.798	3541.98
492.168	3581.3
492.538	3593.06
492.908	3658.14
493.278	3736.33
493.648	3734.52
494.017	3790.11
494.387	3834.18
494.757	3866.27
495.126	3940.39
495.496	3929.09
495.866	3988.07
496.235	4083.44
496.605	4040.95
496.974	4081.4
497.344	4122.76
497.713	4134.96
498.082	4197.79
498.452	4228.52
498.821	4315.07
499.19	4324.34
499.559	4296.31
499.928	4365.24
500.298	4408.4
500.667	4452.92
501.036	4471.45
501.405	4509.87
501.774	4492.69
502.143	4534.73
502.512	4573.37
502.88	4561.17
503.249	4661.95
503.618	4678
503.987	4700.82
504.356	4727.04
504.724	4754.61
505.093	4743.76
505.462	4772.01
505.83	4810.42
506.199	4840.93
506.567	4896.75
506.936	4898.33
507.304	4978.56
507.672	4952.34
508.041	5019.23
508.409	4984.43
508.777	5033.92
509.145	5045.9
509.514	5079.57
509.882	5150.75
510.25	5111.43
510.618	5210.64
510.986	5180.36
511.354	5262.62
511.722	5259
512.09	5278.21
512.458	5271.88
512.826	5318.66
513.193	5360.92
513.561	5382.84
513.929	5385.1
514.297	5388.94
514.664	5500.12
515.032	5424.42
515.4	5524.3
515.767	5521.37
516.135	5502.61
516.502	5477.53
516.869	5544.19
517.237	5619.89
517.604	5579.44
517.972	5673
518.339	5710.74
518.706	5658.76
519.073	5722.72
519.44	5698.31
519.808	5807.91
520.175	5749.38
520.542	5856.95
520.909	5829.61
521.276	5840.45
521.643	5940.11
522.009	5923.62
522.376	5976.95
522.743	5955.03
523.11	6014.91
523.477	6017.85
523.843	6061.46
524.21	6127.9
524.577	6186.43
524.943	6180.56
525.31	6186.89
525.676	6237.51
526.043	6286.54
526.409	6296.49
526.776	6307.11
527.142	6409.48
527.508	6427.78
527.874	6432.08
528.241	6479.53
528.607	6504.39
528.973	6569.93
529.339	6556.59
529.705	6565.41
530.071	6647.21
530.437	6681.56
530.803	6706.87
531.169	6717.27
531.535	6755.91
531.901	6820.99
532.267	6791.84
532.632	6840.2
532.998	6869.81
533.364	6902.8
533.73	6940.09
534.095	7020.31
534.461	6995.45
534.826	7053.98
535.192	7047.2
535.557	7093.53
535.923	7132.4
536.288	7172.4
536.653	7138.72
537.019	7157.48
537.384	7191.15
537.749	7242.45
538.114	7230.7
538.479	7323.58
538.845	7320.64
539.21	7322.9
539.575	7384.14
539.94	7355.22
540.305	7441.77
540.67	7446.06
541.034	7507.75
541.399	7493.97
541.764	7544.36
542.129	7557.02
542.494	7550.69
542.858	7657.36
543.223	7656.23
543.587	7663.23
543.952	7699.61
544.316	7740.06
544.681	7763.57
545.045	7837.01
545.41	7877.24
545.774	7832.04
546.138	7928.53
546.503	8019.83
546.867	8004.46
547.231	8046.95
547.595	8114.74
547.959	8075.2
548.324	8110.68
548.688	8155.42
549.052	8118.59
549.416	8141.18
549.779	8137.12
550.143	8252.59
550.507	8282.2
550.871	8253.95
551.235	8339.15
551.599	8315.42
551.962	8383.89
552.326	8372.14
552.689	8442.42
553.053	8434.28
553.417	8450.78
553.78	8524
554.143	8492.36
554.507	8560.16
554.87	8596.77
555.234	8703.66
555.597	8641.28
555.96	8621.62
556.323	8660.27
556.686	8661.62
557.05	8766.93
557.413	8779.36
557.776	8788.85
558.139	8808.29
558.502	8750.66
558.865	8867.49
559.228	8957.89
559.59	8941.62
559.953	9046.92
560.316	9088.28
560.679	9094.15
561.041	9096.19
561.404	9086.02
561.767	9083.98
562.129	9156.3
562.492	9215.73
562.854	9186.81
563.217	9263.87
563.579	9271.1
563.941	9354.94
564.304	9409.17
564.666	9457.08
565.028	9468.61
565.39	9389.06
565.753	9460.02
566.115	9503.86
566.477	9582.05
566.839	9613.46
567.201	9674.93
567.563	9647.13
567.925	9698.88
568.287	9696.85
568.648	9762.38
569.01	9890.52
569.372	9890.06
569.734	9848.71
570.095	10010.74
570.457	9956.96
570.819	10001.47
571.18	10100.23
571.542	10118.99
571.903	10196.5
572.265	10173.67
572.626	10234.24
572.987	10248.25
573.349	10315.14
573.71	10401.46
574.071	10464.96
574.432	10509.71
574.794	10595.36
575.155	10635.13
575.516	10631.74
575.877	10694.11
576.238	10813.66
576.599	10889.81
576.96	10945.86
577.32	10997.15
577.681	11097.72
578.042	11241.89
578.403	11319.18
578.763	11443.47
579.124	11378.39
579.485	11628.1
579.845	11729.79
580.206	11803.46
580.566	11931.59
580.927	12055.21
581.287	12170.23
581.648	12314.86
582.008	12518.92
582.368	12520.73
582.728	12778.58
583.089	12922.98
583.449	13033.48
583.809	13199.13
584.169	13386.02
584.529	13583.08
584.889	13840.24
585.249	13870.98
585.609	14084.3
585.969	14344.64
586.329	14542.82
586.688	14774.91
587.048	15014
587.408	15194.11
587.768	15271.84
588.127	15675.45
588.487	15778.05
588.846	16155.21
589.206	16361.08
589.565	16640.17
589.925	16961.97
590.284	17140.27
590.643	17471.79
591.003	17662.52
591.362	18074.93
591.721	18311.76
592.08	18448.71
592.44	18829.94
592.799	19074.68
593.158	19384.05
593.517	19697.72
593.876	20046.63
594.235	20281.88
594.593	20572.72
594.952	20910.34
595.311	21125.93
595.67	21594.84
596.029	21932.01
596.387	22224.66
596.746	22473.01
597.104	22651.31
597.463	22958.87
597.822	23441.8
598.18	23584.62
598.538	23881.11
598.897	24300.08
599.255	24470.47
599.613	24959.27
599.972	25092.6
600.33	25454.18
600.688	25584.57
601.046	26156.08
601.404	26407.14
601.762	26647.36
602.12	27074.47
602.478	27344.07
602.836	27549.71
603.194	27806.2
603.552	28119.42
603.91	28135.69
604.268	28579.74
604.625	28859.51
604.983	29127.75
605.341	29314.86
605.698	29821.97
606.056	29997.11
606.413	30194.39
606.771	30519.58
607.128	30793.92
607.485	30786.01
607.843	31177.87
608.2	31451.31
608.557	31764.52
608.914	31763.39
609.272	32288.8
609.629	32401.79
609.986	32722.46
610.343	32805.62
610.7	33224.37
611.057	33400.86
611.414	33441.76
611.771	33709.78
612.127	34008.07
612.484	34199.26
612.841	34489.64
613.198	34462.75
613.554	34792.69
613.911	35088.72
614.267	35172.56
614.624	35264.99
614.98	35597.86
615.337	35864.07
615.693	35937.97
616.05	36074.91
616.406	36467.9
616.762	36433.32
617.118	36538.4
617.475	36798.28
617.831	36955.12
618.187	37092.29
618.543	37302.68
618.899	37523.24
619.255	37695.66
619.611	37661.54
619.967	37812.27
620.323	38075.99
620.678	37958.71
621.034	38040.74
621.39	38145.59
621.746	38219.04
622.101	38662.42
622.457	38483.66
622.812	38721.17
623.168	38901.73
623.523	38979.92
623.879	39202.97
624.234	38918.91
624.589	39159.35
624.945	39379.68
625.3	39400.7
625.655	39457.87
626.01	39502.17
626.365	39682.28
626.72	39647.02
627.075	39801.59
627.43	39767.7
627.785	39772.44
628.14	39988.93
628.495	39957.75
628.85	39943.74
629.205	40043.4
629.559	40344.41
629.914	40100.12
630.269	40218.76
630.623	40200.23
630.978	40096.05
631.332	40455.59
631.687	40476.38
632.041	40355.7
632.396	40472.31
632.75	40256.72
633.104	40356.16
633.459	40199.55
633.813	40278.87
634.167	40401.8
634.521	40347.8
634.875	40456.27
635.229	40388.7
635.583	40362.26
635.937	40375.36
636.291	40343.28
636.645	40467.79
636.999	40294.46
637.352	40405.19
637.706	40340.34
638.06	40510.28
638.413	40411.3
638.767	40303.73
639.121	40361.58
639.474	40166.33
639.828	40302.6
640.181	40225.54
640.534	40401.35
640.888	40367
641.241	40133.56
641.594	40269.38
641.947	40461.01
642.301	40334.01
642.654	40337.4
643.007	40336.27
643.36	40345.76
643.713	40308.25
644.066	40320.68
644.419	40251.98
644.771	39904.64
645.124	39556.18
645.477	39377.2
645.83	39194.38
646.182	39176.3
646.535	39142.18
646.888	39290.87
647.24	38964.1
647.593	39220.14
647.945	39095.62
648.298	39126.36
648.65	38892.01
649.002	38826.03
649.355	38946.02
649.707	39011.56
650.059	39102.18
650.411	39575.39
650.763	39605.44
651.115	40098.99
651.467	39879.11
651.819	39862.84
652.171	39778.77
652.523	39757.3
652.875	39783.29
653.227	39442.96
653.578	39814.93
653.93	39839.33
654.282	39597.76
654.633	39625.55
654.985	39666.68
655.337	39696.06
655.688	39617.64
656.039	39841.82
656.391	39601.83
656.742	39640.92
657.094	39567.93
657.445	39734.93
657.796	39688.6
658.147	39526.57
658.498	39613.13
658.849	39691.09
659.2	39481.15
659.551	39533.35
659.902	39585.33
660.253	39450.19
660.604	39533.58
660.955	39466.69
661.306	39489.51
661.656	39487.48
662.007	39468.27
662.358	39376.3
662.708	39438.21
663.059	39398.67
663.409	39156.87
663.76	39409.97
664.11	39494.94
664.461	39430.31
664.811	39419.68
665.161	39401.83
665.511	39321.83
665.862	39376.07
666.212	39457.87
666.562	39413.58
666.912	39366.13
667.262	39262.63
667.612	39359.12
667.962	39428.5
668.312	39370.19
668.662	39604.76
669.011	39335.17
669.361	39419.23
669.711	39365.67
670.06	39187.6
670.41	39223.08
670.76	39170.2
671.109	39250.87
671.459	39254.04
671.808	39223.98
672.157	39143.08
672.507	38999.13
672.856	38955.97
673.205	39262.4
673.554	39166.81
673.904	39147.6
674.253	39351.89
674.602	39118.22
674.951	38698.35
675.3	38448.18
675.649	39143.98
675.998	38966.36
676.346	39017.66
676.695	39105.79
677.044	38862.64
677.393	38993.48
677.741	38934.95
678.09	38814.95
678.438	38800.27
678.787	38817.21
679.135	38816.99
679.484	38571.8
679.832	38763.66
680.181	38446.6
680.529	38696.09
680.877	38635.07
681.225	38417.68
681.573	38676.2
681.922	38430.78
682.27	38236.66
682.618	38367.06
682.966	38223.11
683.314	38328.64
683.661	38138.81
684.009	37935.43
684.357	38054.07
684.705	37937.91
685.053	38050.91
685.4	37964.35
685.748	37721.42
686.095	37800.07
686.443	37728.65
686.79	37604.82
687.138	37710.58
687.485	37676.23
687.832	37574.99
688.18	37593.74
688.527	37375.67
688.874	37325.28
689.221	37308.55
689.568	37088.45
689.915	36992.4
690.262	37064.49
690.609	36953.08
690.956	36830.6
691.303	36855.68
691.65	36746.53
691.997	36625.41
692.344	36359.65
692.69	36519.2
693.037	36482.59
693.383	36180.9
693.73	36251.41
694.077	36080.34
694.423	36067.46
694.769	35908.36
695.116	35889.38
695.462	35867.23
695.808	35654.13
696.155	35779.1
696.501	35464.31
696.847	35596.51
697.193	35189.06
697.539	35316.51
697.885	35141.38
698.231	34988.39
698.577	35078.1
698.923	35022.51
699.269	34865.68
699.614	34662.29
699.96	34760.6
700.306	34579.59
700.651	34410.1
700.997	34425.24
701.342	34302.76
701.688	34240.16
702.033	34215.3
702.379	34109.09
702.724	33972.37
703.069	34046.27
703.415	33683.11
703.76	33803.56
704.105	33825.03
704.45	33684.92
704.795	33527.18
705.14	33437.02
705.485	33344.36
705.83	33319.05
706.175	33288.55
706.52	33201.09
706.865	33130.36
707.209	33105.73
707.554	33000.64
707.899	33049.68
708.243	32867.99
708.588	32756.81
708.932	32574.89
709.277	32487.89
709.621	32545.97
709.966	32431.17
710.31	32521.11
710.654	32183.26
710.998	32095.36
711.342	32232.75
711.687	32088.58
712.031	31960.44
712.375	31778.08
712.719	31871.18
713.063	31750.06
713.407	31816.49
713.75	31781.69
714.094	31724.97
714.438	31709.38
714.782	31595.93
715.125	31441.81
715.469	31409.72
715.812	31208.83
716.156	31271.42
716.499	31237.07
716.843	31254.47
717.186	31036.4
717.53	31109.39
717.873	31063.07
718.216	31126.34
718.559	30921.38
718.902	30666.02
719.246	30745.79
719.589	30628.73
719.932	30507.38
720.275	30499.69
720.617	30522.97
720.96	30420.15
721.303	30427.83
721.646	30566.36
721.989	30238.46
722.331	30397.1
722.674	30315.97
723.016	30245.24
723.359	30235.52
723.701	30176.99
724.044	30082.98
724.386	29954.62
724.729	30054.51
725.071	29914.62
725.413	29940.84
725.755	30033.26
726.097	29875.98
726.439	29633.05
726.782	29768.41
727.124	29804.8
727.465	29646.38
727.807	29674.18
728.149	29475.54
728.491	29523.45
728.833	29488.65
729.175	29377.01
729.516	29278.93
729.858	29276.67
730.199	29346.73
730.541	29270.8
730.882	29127.75
731.224	29156.22
731.565	29031.26
731.906	28985.83
732.248	29108.54
732.589	28894.08
732.93	28905.38
733.271	28732.06
733.612	28845.27
733.953	28868.55
734.294	28718.95
734.635	28673.98
734.976	28689.34
735.317	28540.65
735.658	28705.62
735.999	28633.07
736.339	28522.12
736.68	28643.92
737.021	28450.48
737.361	28457.71
737.702	28467.66
738.042	28375
738.383	28337.72
738.723	28339.52
739.063	28381.78
739.404	28321.67
739.744	28172.3
740.084	28177.72
740.424	28141.79
740.764	28124.61
741.104	28200.54
741.444	28063.37
741.784	27842.14
742.124	28039.64
742.464	27814.34
742.804	27951.74
743.143	27747.22
743.483	27769.59
743.823	27616.15
744.162	27637.62
744.502	27757.17
744.841	27394.92
745.181	27695.25
745.52	27514.46
745.86	27470.85
746.199	27407.12
746.538	27362.15
746.877	27553.56
747.216	27535.25
747.556	27321.7
747.895	27363.05
748.234	27330.74
748.573	27224.98
748.911	27182.94
749.25	27227.91
749.589	27121.25
749.928	27209.84
750.267	27201.47
750.605	27050.29
750.944	27006
751.283	27008.03
751.621	27058.2
751.96	26876.96
752.298	26854.36
752.636	26858.43
752.975	26724.42
753.313	26636.74
753.651	26765.78
753.989	26646.69
754.327	26581.15
754.666	26443.53
755.004	26487.37
755.342	26456.18
755.679	26379.8
756.017	26408.5
756.355	26413.7
756.693	26261.84
757.031	26246.92
757.368	26119.47
757.706	26081.5
758.044	25947.5
758.381	25975.07
758.719	25881.96
759.056	26051.22
759.394	25812.58
759.731	25628.86
760.068	25622.53
760.405	25635.87
