Data from hue_250_FLMS001491_00051.txt Node
Date: Tue Feb 07 16:01:09 GMT 2017
User: dcchb
Spectrometer: FLMS00149
Trigger mode: 0
Integration Time (sec): 2.000000E-2
Scans to average: 10
Electric dark correction enabled: true
Nonlinearity correction enabled: false
Boxcar width: 0
XAxis mode: Wavelengths
Number of Pixels in Spectrum: 2048
>>>>>Begin Spectral Data<<<<<
341.393	-1.58
341.776	-1.58
342.16	-1.58
342.543	-67.34
342.927	-70.28
343.31	-67.57
343.693	-59.21
344.077	-68.47
344.46	-64.18
344.843	-60.79
345.226	-51.3
345.61	-35.25
345.993	-23.5
346.376	-15.37
346.759	28.02
347.142	11.3
347.525	32.54
347.908	68.47
348.291	76.61
348.674	104.63
349.057	124.06
349.44	113.9
349.823	123.16
350.206	135.36
350.588	172.2
350.971	199.32
351.354	202.03
351.737	229.82
352.119	269.15
352.502	233.44
352.884	268.02
353.267	271.63
353.65	284.51
354.032	279.09
354.414	301.46
354.797	282.03
355.179	315.25
355.562	303.04
355.944	315.25
356.326	333.55
356.709	321.8
357.091	322.25
357.473	336.04
357.855	329.03
358.238	317.05
358.62	338.75
359.002	335.58
359.384	345.75
359.766	347.56
360.148	329.48
360.53	322.25
360.912	313.21
361.294	339.43
361.676	347.11
362.057	332.42
362.439	322.7
362.821	328.35
363.203	322.25
363.584	343.72
363.966	321.35
364.348	310.5
364.729	324.96
365.111	313.66
365.493	319.99
365.874	305.53
366.256	302.59
366.637	284.29
367.019	295.36
367.4	304.62
367.781	300.11
368.163	319.09
368.544	313.21
368.925	302.14
369.306	309.82
369.688	298.52
370.069	306.21
370.45	277.51
370.831	303.95
371.212	297.39
371.593	295.13
371.974	301.46
372.355	305.53
372.736	304.4
373.117	298.3
373.498	305.3
373.879	301.69
374.26	303.04
374.641	315.02
375.021	327
375.402	300.11
375.783	309.14
376.163	326.09
376.544	291.52
376.925	334.68
377.305	319.54
377.686	317.28
378.066	324.96
378.447	300.78
378.827	337.17
379.208	335.13
379.588	328.58
379.968	328.35
380.349	329.48
380.729	316.15
381.109	338.52
381.489	341.91
381.87	325.42
382.25	306.66
382.63	324.51
383.01	324.06
383.39	349.14
383.77	337.62
384.15	335.58
384.53	336.04
384.91	352.31
385.29	336.26
385.67	331.29
386.049	341.91
386.429	333.1
386.809	311.4
387.189	340.56
387.568	356.15
387.948	361.12
388.328	342.14
388.707	343.49
389.087	361.12
389.466	365.64
389.846	346.66
390.225	359.31
390.605	377.39
390.984	342.14
391.363	365.41
391.743	329.26
392.122	352.31
392.501	368.35
392.881	374
393.26	389.14
393.639	384.17
394.018	369.71
394.397	365.87
394.776	357.73
395.155	357.73
395.534	390.72
395.913	381.23
396.292	398.86
396.671	370.61
397.05	398.86
397.429	393.89
397.808	383.04
398.186	406.09
398.565	391.63
398.944	408.35
399.323	397.05
399.701	423.49
400.08	417.16
400.458	421.23
400.837	416.26
401.215	432.31
401.594	409.03
401.972	413.32
402.351	427.11
402.729	425.3
403.107	423.49
403.486	421.23
403.864	431.85
404.242	469.82
404.62	436.37
404.999	438.86
405.377	454.9
405.755	474.34
406.133	452.87
406.511	463.04
406.889	472.53
407.267	473.89
407.645	476.6
408.023	477.73
408.401	480.44
408.779	489.03
409.156	497.84
409.534	499.87
409.912	508.69
410.29	512.08
410.667	512.98
411.045	524.51
411.422	510.27
411.8	524.51
412.178	550.95
412.555	551.4
412.933	573.09
413.31	564.5
413.687	562.02
414.065	590.49
414.442	582.36
414.819	594.56
415.197	595.01
415.574	583.04
415.951	586.43
416.328	601.11
416.705	637.72
417.082	621.9
417.46	618.74
417.837	610.38
418.214	631.85
418.591	661.23
418.967	662.36
419.344	656.48
419.721	675.46
420.098	684.28
420.475	664.39
420.852	663.26
421.228	701.45
421.605	717.5
421.982	710.94
422.358	722.24
422.735	739.42
423.111	745.52
423.488	761.79
423.864	761.56
424.241	786.19
424.617	762.47
424.994	793.43
425.37	791.39
425.746	814.22
426.123	803.59
426.499	822.8
426.875	860.32
427.251	827.32
427.627	877.72
428.003	881.33
428.379	893.54
428.756	883.59
429.132	906.87
429.507	899.19
429.883	928.34
430.259	926.98
430.635	920.43
431.011	951.39
431.387	952.29
431.763	994.78
432.138	988.22
432.514	1007.21
432.89	1016.02
433.265	1028.22
433.641	1044.94
434.016	1070.25
434.392	1080.65
434.767	1092.4
435.143	1080.88
435.518	1115.9
435.894	1144.83
436.269	1153.42
436.644	1161.55
437.02	1211.95
437.395	1199.52
437.77	1180.08
438.145	1246.29
438.52	1252.85
438.895	1261.21
439.271	1254.43
439.646	1317.71
440.021	1318.38
440.395	1298.5
440.77	1340.08
441.145	1338.04
441.52	1391.15
441.895	1383.92
442.27	1400.87
442.645	1358.38
443.019	1410.36
443.394	1416.46
443.769	1423.47
444.143	1428.89
444.518	1471.15
444.892	1479.06
445.267	1473.41
445.641	1470.02
446.016	1496.68
446.39	1499.4
446.764	1507.08
447.139	1517.7
447.513	1524.25
447.887	1539.85
448.262	1561.99
448.636	1576.46
449.01	1571.48
449.384	1558.83
449.758	1595.66
450.132	1592.95
450.506	1607.42
450.88	1625.27
451.254	1639.73
451.628	1679.05
452.002	1683.8
452.376	1704.59
452.75	1718.15
453.123	1729.9
453.497	1734.64
453.871	1754.08
454.244	1771.93
454.618	1778.94
454.992	1819.39
455.365	1811.03
455.739	1878.59
456.112	1865.26
456.486	1871.82
456.859	1881.08
457.232	1953.62
457.606	1940.97
457.979	1958.82
458.352	1976.45
458.725	2001.76
459.099	2026.16
459.472	2018.93
459.845	2055.99
460.218	2071.81
460.591	2101.19
460.964	2143.22
461.337	2150.23
461.71	2190.22
462.083	2185.25
462.456	2200.85
462.829	2215.76
463.201	2235.87
463.574	2258.02
463.947	2300.96
464.32	2342.09
464.692	2330.33
465.065	2389.09
465.438	2430.22
465.81	2422.31
466.183	2441.29
466.555	2503.89
466.928	2533.72
467.3	2513.61
467.672	2566.49
468.045	2589.08
468.417	2620.27
468.789	2611.68
469.161	2651.91
469.534	2712.7
469.906	2772.58
470.278	2769.42
470.65	2815.97
471.022	2857.78
471.394	2884.22
471.766	2883.54
472.138	2966.25
472.51	2992.69
472.882	3025.68
473.253	3047.83
473.625	3074.5
473.997	3169.63
474.369	3158.34
474.74	3214.15
475.112	3259.12
475.484	3317.65
475.855	3372.11
476.227	3376.63
476.598	3455.5
476.97	3499.34
477.341	3569.4
477.713	3596.29
478.084	3625.89
478.455	3714.03
478.827	3730.07
479.198	3867.92
479.569	3845.55
479.94	3918.09
480.311	3941.82
480.682	4052.1
481.053	4103.39
481.424	4180.68
481.795	4224.3
482.166	4218.19
482.537	4319.43
482.908	4352.65
483.279	4400.56
483.65	4487.11
484.021	4557.62
484.391	4612.08
484.762	4652.76
485.133	4671.06
485.503	4730.72
485.874	4801.23
486.244	4828.12
486.615	4957.84
486.985	4984.05
487.356	5079.19
487.726	5091.17
488.097	5170.26
488.467	5167.77
488.837	5286.41
489.207	5354.21
489.578	5375.68
489.948	5443.25
490.318	5518.27
490.688	5500.65
491.058	5599.63
491.428	5673.52
491.798	5731.6
492.168	5812.28
492.538	5845.95
492.908	5875.55
493.278	5966.62
493.648	5989.9
494.017	5983.57
494.387	6042.33
494.757	6073.96
495.126	6186.96
495.496	6205.03
495.866	6166.39
496.235	6278.93
496.605	6258.59
496.974	6352.15
497.344	6380.17
497.713	6467.85
498.082	6428.53
498.452	6441.64
498.821	6510.56
499.19	6540.17
499.559	6622.65
499.928	6617.91
500.298	6626.27
500.667	6681.41
501.036	6659.26
501.405	6730.22
501.774	6740.16
502.143	6755.3
502.512	6779.93
502.88	6828.97
503.249	6835.75
503.618	6899.03
503.987	6972.92
504.356	6944
504.724	6962.08
505.093	6976.31
505.462	7051.79
505.83	7068.06
506.199	7116.88
506.567	7083.43
506.936	7155.07
507.304	7238
507.672	7266.25
508.041	7209.3
508.409	7244.56
508.777	7287.27
509.145	7397.32
509.514	7349.19
509.882	7370.43
510.25	7376.98
510.618	7363.2
510.986	7441.61
511.354	7493.81
511.722	7520.71
512.09	7619.69
512.458	7522.51
512.826	7590.31
513.193	7615.17
513.561	7555.51
513.929	7679.35
514.297	7685
514.664	7740.14
515.032	7764.77
515.4	7763.64
515.767	7798.21
516.135	7820.13
516.502	7704.66
516.869	7847.93
517.237	7821.49
517.604	7820.81
517.972	7887.93
518.339	7876.18
518.706	7890.64
519.073	7914.37
519.44	7916.63
519.808	7957.3
520.175	7993.24
520.542	8068.04
520.909	8078.21
521.276	8042.05
521.643	8049.28
522.009	8116.17
522.376	8128.6
522.743	8156.62
523.11	8220.57
523.477	8199.78
523.843	8260.57
524.21	8321.14
524.577	8325.2
524.943	8339.44
525.31	8320.46
525.676	8463.28
526.043	8383.96
526.409	8379.21
526.776	8502.38
527.142	8488.36
527.508	8517.74
527.874	8584.18
528.241	8533.11
528.607	8485.43
528.973	8576.5
529.339	8541.92
529.705	8614.91
530.071	8630.96
530.437	8610.4
530.803	8693.56
531.169	8670.73
531.535	8647.46
531.901	8672.99
532.267	8715.25
532.632	8731.52
532.998	8627.57
533.364	8743.72
533.73	8719.77
534.095	8856.72
534.461	8813.55
534.826	8783.95
535.192	8829.37
535.557	8822.82
535.923	8799.54
536.288	8853.33
536.653	8758.19
537.019	8750.73
537.384	8737.4
537.749	8771.75
538.114	8778.07
538.479	8725.19
538.845	8785.53
539.21	8721.35
539.575	8780.56
539.94	8674.57
540.305	8760.45
540.67	8734.46
541.034	8793.89
541.399	8738.08
541.764	8792.76
542.129	8785.98
542.494	8795.7
542.858	8743.5
543.223	8729.26
543.587	8854.46
543.952	8805.19
544.316	8710.96
544.681	8713.22
545.045	8790.5
545.41	8754.57
545.774	8687.46
546.138	8728.36
546.503	8768.81
546.867	8693.1
547.231	8750.5
547.595	8748.24
547.959	8762.26
548.324	8723.39
548.688	8729.04
549.052	8788.7
549.416	8728.36
549.779	8763.39
550.143	8688.13
550.507	8738.75
550.871	8697.85
551.235	8642.48
551.599	8764.29
551.962	8736.49
552.326	8821.01
552.689	8681.35
553.053	8635.25
553.417	8692.2
553.78	8850.16
554.143	8756.38
554.507	8750.5
554.87	8741.92
555.234	8829.82
555.597	8740.11
555.96	8688.81
556.323	8826.21
556.686	8803.38
557.05	8844.97
557.413	8757.96
557.776	8752.54
558.139	8810.62
558.502	8865.53
558.865	8822.14
559.228	8892.65
559.59	8919.54
559.953	8891.97
560.316	8988.92
560.679	8871.18
561.041	8958.18
561.404	8991.18
561.767	9029.82
562.129	8936.94
562.492	9086.54
562.854	8977.84
563.217	8994.57
563.579	9098.29
563.941	9127.9
564.304	9124.96
564.666	9144.39
565.028	9188.46
565.39	9223.49
565.753	9206.99
566.115	9176.48
566.477	9287.67
566.839	9247.89
567.201	9355.23
567.563	9344.39
567.925	9357.04
568.287	9336.48
568.648	9378.96
569.01	9427.1
569.372	9482.91
569.734	9425.97
570.095	9473.88
570.457	9471.62
570.819	9485.17
571.18	9477.72
571.542	9640.65
571.903	9553.42
572.265	9662.57
572.626	9643.81
572.987	9576.47
573.349	9672.74
573.71	9739.4
574.071	9725.39
574.432	9747.77
574.794	9800.42
575.155	9792.74
575.516	9787.77
575.877	9775.11
576.238	9845.62
576.599	9861.89
576.96	9870.25
577.32	9920.87
577.681	9957.03
578.042	9977.14
578.403	9999.96
578.763	9994.09
579.124	10030.92
579.485	10032.05
579.845	10117.02
580.206	9993.18
580.566	10082.22
580.927	10121.99
581.287	10150.69
581.648	10151.6
582.008	10195.89
582.368	10113.86
582.728	10163.12
583.089	10148.66
583.449	10312.5
583.809	10207.42
584.169	10192.05
584.529	10187.53
584.889	10351.37
585.249	10309.79
585.609	10264.14
585.969	10397.92
586.329	10298.71
586.688	10362.89
587.048	10362.44
587.408	10300.97
587.768	10357.47
588.127	10393.85
588.487	10387.75
588.846	10399.05
589.206	10447.63
589.565	10430.91
589.925	10511.81
590.284	10411.03
590.643	10480.18
591.003	10456.67
591.362	10530.8
591.721	10432.95
592.08	10480.85
592.44	10575.99
592.799	10464.36
593.158	10495.54
593.517	10588.2
593.876	10555.88
594.235	10599.5
594.593	10592.26
594.952	10547.52
595.311	10565.37
595.67	10606.05
596.029	10633.84
596.387	10648.99
596.746	10643.56
597.104	10631.81
597.463	10565.15
597.822	10678.14
598.18	10626.39
598.538	10622.32
598.897	10624.13
599.255	10563.56
599.613	10764.91
599.972	10663.22
600.33	10663.45
600.688	10644.24
601.046	10711.13
601.404	10773.73
601.762	10651.47
602.12	10725.37
602.478	10704.58
602.836	10802.43
603.194	10721.53
603.552	10713.39
603.91	10755.65
604.268	10733.96
604.625	10790.9
604.983	10783.45
605.341	10768.53
605.698	10833.16
606.056	10829.77
606.413	10752.26
606.771	10789.77
607.128	10919.71
607.485	10800.62
607.843	10798.81
608.2	10815.31
608.557	10888.08
608.914	10844.23
609.272	10888.98
609.629	10904.8
609.986	10994.06
610.343	10859.15
610.7	10926.49
611.057	10950.67
611.414	10971.46
611.771	10951.12
612.127	10988.19
612.484	10970.11
612.841	11007.62
613.198	11011.24
613.554	10975.98
613.911	10998.13
614.267	11100.5
614.624	10948.64
614.98	11043.1
615.337	11110.44
615.693	11076.09
616.05	10956.77
616.406	11103.44
616.762	11036.09
617.118	11083.78
617.475	11075.64
617.831	11089.43
618.187	11139.37
618.543	11072.93
618.899	11186.37
619.255	11247.61
619.611	11159.48
619.967	11142.98
620.323	11198.58
620.678	11194.06
621.034	11210.78
621.39	11184.56
621.746	11170.55
622.101	11239.03
622.457	11205.13
622.812	11189.76
623.168	11221.63
623.523	11206.71
623.879	11227.95
624.234	11097.56
624.589	11199.71
624.945	11189.54
625.3	11273.38
625.655	11181.4
626.01	11201.29
626.365	11224.79
626.72	11151.8
627.075	11206.49
627.43	11167.16
627.785	11151.12
628.14	11196.09
628.495	11147.28
628.85	11189.99
629.205	11124
629.559	11119.93
629.914	11113.83
630.269	11111.12
630.623	11127.84
630.978	11118.35
631.332	11126.94
631.687	11128.29
632.041	11027.96
632.396	11088.97
632.75	11001.97
633.104	11043.55
633.459	10975.53
633.813	10972.14
634.167	10989.99
634.521	10982.76
634.875	11011.24
635.229	10961.97
635.583	10982.31
635.937	10916.1
636.291	10902.54
636.645	10958.13
636.999	10877
637.352	10904.57
637.706	10830.9
638.06	10853.95
638.413	10916.78
638.767	10835.2
639.121	10857.34
639.474	10766.5
639.828	10775.54
640.181	10766.95
640.534	10733.73
640.888	10704.8
641.241	10636.33
641.594	10738.93
641.947	10703.45
642.301	10726.72
642.654	10698.02
643.007	10706.84
643.36	10717.68
643.713	10629.78
644.066	10675.43
644.419	10595.88
644.771	10590
645.124	10531.7
645.477	10458.93
645.83	10400.86
646.182	10378.71
646.535	10316.56
646.888	10351.37
647.24	10282.67
647.593	10358.37
647.945	10306.85
648.298	10278.15
648.65	10209.9
649.002	10239.5
649.355	10255.1
649.707	10242.67
650.059	10336.68
650.411	10433.62
650.763	10454.87
651.115	10511.14
651.467	10486.73
651.819	10489.22
652.171	10480.18
652.523	10474.07
652.875	10450.57
653.227	10414.87
653.578	10432.72
653.93	10485.15
654.282	10476.33
654.633	10446.28
654.985	10440.86
655.337	10436.34
655.688	10447.63
656.039	10565.37
656.391	10466.17
656.742	10437.01
657.094	10474.98
657.445	10481.08
657.796	10438.37
658.147	10477.69
658.498	10467.97
658.849	10444.25
659.2	10455.32
659.551	10380.97
659.902	10473.4
660.253	10406.73
660.604	10413.29
660.955	10397.92
661.306	10449.89
661.656	10449.44
662.007	10484.47
662.358	10499.84
662.708	10533.28
663.059	10483.34
663.409	10375.55
663.76	10419.61
664.11	10426.17
664.461	10477.92
664.811	10499.38
665.161	10461.87
665.511	10447.86
665.862	10467.75
666.212	10498.93
666.562	10462.32
666.912	10411.48
667.262	10455.32
667.612	10390.24
667.962	10433.17
668.312	10500.06
668.662	10479.95
669.011	10475.66
669.361	10413.96
669.711	10349.56
670.06	10417.81
670.41	10414.19
670.76	10380.29
671.109	10415.32
671.459	10439.5
671.808	10371.7
672.157	10347.3
672.507	10321.54
672.856	10362.89
673.205	10368.54
673.554	10453.28
673.904	10317.24
674.253	10430.23
674.602	10336.9
674.951	10195.44
675.3	10147.53
675.649	10349.33
675.998	10256.68
676.346	10256
676.695	10324.93
677.044	10196.79
677.393	10218.94
677.741	10258.94
678.09	10290.8
678.438	10249
678.787	10227.08
679.135	10234.08
679.484	10135.55
679.832	10185.49
680.181	10127.42
680.529	10162.44
680.877	10074.54
681.225	10152.05
681.573	10171.71
681.922	10072.05
682.27	10011.49
682.618	10014.65
682.966	9975.78
683.314	10041.77
683.661	10039.96
684.009	9912.28
684.357	9931.72
684.705	9911.15
685.053	9940.3
685.4	9905.05
685.748	9845.84
686.095	9835.22
686.443	9773.75
686.79	9817.59
687.138	9787.54
687.485	9786.64
687.832	9784.38
688.18	9704.6
688.527	9655.79
688.874	9643.59
689.221	9658.5
689.568	9643.59
689.915	9641.1
690.262	9555.91
690.609	9609.01
690.956	9500.09
691.303	9489.24
691.65	9388.68
691.997	9467.77
692.344	9385.29
692.69	9305.29
693.037	9359.53
693.383	9335.8
693.73	9294.22
694.077	9191.17
694.423	9220.55
694.769	9226.88
695.116	9188.01
695.462	9181.23
695.808	9114.79
696.155	9148.69
696.501	8995.02
696.847	9066.65
697.193	8988.01
697.539	8982.36
697.885	8980.33
698.231	8943.95
698.577	8913.89
698.923	8874.79
699.269	8794.35
699.614	8797.96
699.96	8772.88
700.306	8733.33
700.651	8698.08
700.997	8652.88
701.342	8662.82
701.688	8684.97
702.033	8621.47
702.379	8584.41
702.724	8553.67
703.069	8588.93
703.415	8499.44
703.76	8459.21
704.105	8443.85
704.45	8422.83
704.795	8402.49
705.14	8378.76
705.485	8369.27
705.83	8268.71
706.175	8324.3
706.52	8372.21
706.865	8228.71
707.209	8254.7
707.554	8196.85
707.899	8193
708.243	8188.03
708.588	8172.89
708.932	8107.13
709.277	8051.54
709.621	8113.68
709.966	8027.36
710.31	8009.28
710.654	7956.63
710.998	7990.07
711.342	8021.71
711.687	7928.15
712.031	7974.48
712.375	7923.41
712.719	7906.46
713.063	7877.31
713.407	7936.29
713.75	7884.09
714.094	7794.6
714.438	7808.61
714.782	7843.64
715.125	7767.25
715.469	7788.95
715.812	7770.64
716.156	7715.73
716.499	7744.2
716.843	7739.23
717.186	7768.61
717.53	7646.8
717.873	7694.71
718.216	7761.6
718.559	7659.01
718.902	7640.48
719.246	7673.24
719.589	7656.75
719.932	7569.97
720.275	7586.02
720.617	7535.85
720.96	7601.16
721.303	7602.96
721.646	7610.87
721.989	7508.96
722.331	7518.9
722.674	7537.43
723.016	7560.03
723.359	7522.97
723.701	7425.57
724.044	7492.01
724.386	7427.6
724.729	7528.16
725.071	7473.7
725.413	7407.71
725.755	7445.68
726.097	7380.37
726.439	7401.16
726.782	7414.04
727.124	7400.71
727.465	7386.25
727.807	7363.65
728.149	7306.02
728.491	7383.99
728.833	7437.09
729.175	7368.17
729.516	7395.29
729.858	7358.22
730.199	7432.57
730.541	7373.14
730.882	7370.43
731.224	7386.47
731.565	7306.02
731.906	7346.02
732.248	7304.89
732.589	7277.1
732.93	7261.05
733.271	7361.16
733.612	7329.52
733.953	7340.82
734.294	7303.08
734.635	7247.49
734.976	7326.14
735.317	7276.64
735.658	7320.49
735.999	7312.58
736.339	7250.43
736.68	7322.75
737.021	7299.47
737.361	7226.93
737.702	7262.63
738.042	7271.9
738.383	7282.29
738.723	7280.94
739.063	7319.58
739.404	7300.82
739.744	7272.58
740.084	7304.89
740.424	7335.63
740.764	7251.79
741.104	7314.38
741.444	7303.31
741.784	7244.1
742.124	7296.53
742.464	7367.49
742.804	7307.38
743.143	7326.81
743.483	7295.4
743.823	7310.77
744.162	7355.96
744.502	7344.21
744.841	7383.53
745.181	7386.25
745.52	7449.52
745.86	7458.33
746.199	7537.88
746.538	7484.1
746.877	7620.82
747.216	7530.65
747.556	7575.39
747.895	7603.19
748.234	7658.33
748.573	7666.47
748.911	7682.06
749.25	7698.55
749.589	7795.5
749.928	7862.17
750.267	7869.4
750.605	7926.35
750.944	7964.08
751.283	8023.74
751.621	8095.15
751.96	8094.02
752.298	8173.57
752.636	8156.85
752.975	8237.75
753.313	8275.49
753.651	8432.77
753.989	8437.29
754.327	8452.66
754.666	8556.39
755.004	8700.56
755.342	8771.52
755.679	8835.47
756.017	8917.28
756.355	9065.98
756.693	9072.53
757.031	9222.36
757.368	9263.03
757.706	9406.98
758.044	9457.38
758.381	9604.72
758.719	9656.7
759.056	9778.27
759.394	9893.07
759.731	9940.08
760.068	10038.61
760.405	10129.23
760.743	10235.21
761.08	10390.69
761.417	10326.06
761.754	10489.44
762.091	10654.18
762.428	10722.88
762.765	10813.73
763.102	10955.19
763.438	11024.34
