Data from hue_24_FLMS001491_00007.txt Node
Date: Tue Feb 07 17:11:40 GMT 2017
User: dcchb
Spectrometer: FLMS00149
Trigger mode: 0
Integration Time (sec): 2.000000E-2
Scans to average: 10
Electric dark correction enabled: true
Nonlinearity correction enabled: false
Boxcar width: 0
XAxis mode: Wavelengths
Number of Pixels in Spectrum: 2048
>>>>>Begin Spectral Data<<<<<
341.393	-15.13
341.776	-15.13
342.16	-15.13
342.543	-51.51
342.927	-65.97
343.31	-66.2
343.693	-68.23
344.077	-75.01
344.46	-45.41
344.843	-43.37
345.226	-38.18
345.61	-12.41
345.993	-25.52
346.376	-3.6
346.759	3.18
347.142	20.35
347.525	42.05
347.908	35.95
348.291	76.62
348.674	96.51
349.057	103.29
349.44	124.76
349.823	133.34
350.206	175.38
350.588	226.67
350.971	206.56
351.354	225.09
351.737	238.2
352.119	246.11
352.502	256.05
352.884	282.72
353.267	280.46
353.65	301.93
354.032	292.21
354.414	307.8
354.797	317.75
355.179	327.24
355.562	321.36
355.944	325.2
356.326	337.63
356.709	330.4
357.091	332.66
357.473	341.93
357.855	329.95
358.238	337.63
358.62	345.77
359.002	335.37
359.384	349.16
359.766	354.13
360.148	345.77
360.53	353.9
360.912	322.72
361.294	324.98
361.676	327.01
362.057	333.56
362.439	359.1
362.821	329.5
363.203	339.21
363.584	330.4
363.966	340.12
364.348	334.02
364.729	330.63
365.111	331.08
365.493	326.33
365.874	329.5
366.256	327.92
366.637	329.72
367.019	317.75
367.4	330.17
367.781	322.27
368.163	309.16
368.544	323.4
368.925	333.11
369.306	303.73
369.688	327.92
370.069	321.81
370.45	304.86
370.831	306.9
371.212	306.9
371.593	316.84
371.974	318.2
372.355	321.81
372.736	344.86
373.117	312.32
373.498	313.45
373.879	327.92
374.26	331.76
374.641	312.55
375.021	297.86
375.402	305.32
375.783	340.57
376.163	320.01
376.544	342.38
376.925	333.34
377.305	323.85
377.686	316.62
378.066	325.66
378.447	340.12
378.827	332.66
379.208	341.7
379.588	342.83
379.968	342.6
380.349	321.59
380.729	336.5
381.109	351.42
381.489	343.28
381.87	358.87
382.25	331.76
382.63	335.15
383.01	336.5
383.39	339.89
383.77	336.28
384.15	345.99
384.53	341.47
384.91	345.99
385.29	360
385.67	357.52
386.049	361.81
386.429	364.07
386.809	380.34
387.189	343.96
387.568	381.92
387.948	355.49
388.328	352.32
388.707	364.75
389.087	373.11
389.466	366.56
389.846	353.68
390.225	371.98
390.605	379.67
390.984	383.96
391.363	385.54
391.743	362.26
392.122	383.28
392.501	357.29
392.881	377.41
393.26	362.94
393.639	389.83
394.018	377.86
394.397	373.11
394.776	400.68
395.155	376.05
395.534	402.26
395.913	381.92
396.292	406.56
396.671	376.95
397.05	392.55
397.429	386.22
397.808	400
398.186	399.55
398.565	400.91
398.944	374.02
399.323	396.16
399.701	389.38
400.08	424.86
400.458	406.78
400.837	400.91
401.215	407.69
401.594	414.24
401.972	418.76
402.351	396.61
402.729	425.31
403.107	398.42
403.486	422.38
403.864	417.18
404.242	427.57
404.62	431.19
404.999	436.84
405.377	435.71
405.755	430.06
406.133	439.55
406.511	427.57
406.889	425.31
407.267	448.82
407.645	458.76
408.023	440.23
408.401	433.9
408.779	447.01
409.156	433.45
409.534	430.06
409.912	451.53
410.29	471.41
410.667	465.09
411.045	465.99
411.422	475.26
411.8	456.73
412.178	467.12
412.555	467.8
412.933	470.96
413.31	467.35
413.687	478.87
414.065	483.17
414.442	518.19
414.819	495.59
415.197	495.82
415.574	485.43
415.951	500.57
416.328	507.35
416.705	497.4
417.082	508.25
417.46	511.41
417.837	506.67
418.214	505.99
418.591	514.12
418.967	512.54
419.344	532.2
419.721	527.01
420.098	530.17
420.475	526.55
420.852	534.24
421.228	516.61
421.605	546.89
421.982	550.06
422.358	588.7
422.735	570.39
423.111	555.25
423.488	558.42
423.864	535.59
424.241	566.55
424.617	570.85
424.994	572.65
425.37	600
425.746	596.38
426.123	594.35
426.499	588.25
426.875	597.29
427.251	620.79
427.627	623.95
428.003	607
428.379	606.78
428.756	605.2
429.132	614.91
429.507	610.85
429.883	628.02
430.259	639.32
430.635	631.41
431.011	641.13
431.387	647.68
431.763	676.83
432.138	671.41
432.514	656.49
432.89	683.84
433.265	686.78
433.641	685.42
434.016	677.06
434.392	703.05
434.767	692.2
435.143	711.18
435.518	735.81
435.894	727.45
436.269	738.07
436.644	743.27
437.02	731.29
437.395	743.5
437.77	727.9
438.145	757.06
438.52	732.88
438.895	746.66
439.271	764.97
439.646	759.32
440.021	768.36
440.395	782.59
440.77	777.85
441.145	784.17
441.52	783.5
441.895	792.54
442.27	782.59
442.645	814.23
443.019	820.11
443.394	821.69
443.769	823.5
444.143	822.37
444.518	842.93
444.892	816.72
445.267	817.62
445.641	844.96
446.016	828.24
446.39	842.7
446.764	858.75
447.139	851.07
447.513	873.66
447.887	874.57
448.262	885.19
448.636	876.15
449.01	892.87
449.384	900.1
449.758	879.31
450.132	903.95
450.506	910.27
450.88	896.94
451.254	896.49
451.628	922.48
452.002	936.49
452.376	930.84
452.75	951.18
453.123	967.45
453.497	974.45
453.871	961.8
454.244	987.56
454.618	991.63
454.992	988.46
455.365	996.6
455.739	1023.26
456.112	1010.84
456.486	1012.42
456.859	1041.79
457.232	1057.61
457.606	1071.85
457.979	1058.29
458.352	1107.33
458.725	1080.21
459.099	1097.16
459.472	1099.65
459.845	1140.55
460.218	1137.16
460.591	1158.63
460.964	1151.17
461.337	1202.24
461.71	1186.42
462.083	1218.06
462.456	1236.59
462.829	1222.81
463.201	1214.67
463.574	1261.22
463.947	1274.33
464.32	1276.36
464.692	1294.22
465.065	1325.4
465.438	1284.05
465.81	1343.71
466.183	1324.73
466.555	1357.94
466.928	1383.48
467.3	1346.65
467.672	1390.49
468.045	1429.13
468.417	1450.37
468.789	1470.26
469.161	1464.83
469.534	1480.88
469.906	1543.02
470.278	1536.47
470.65	1555
471.022	1586.87
471.394	1617.6
471.766	1624.83
472.138	1646.3
472.51	1695.79
472.882	1664.83
473.253	1705.96
473.625	1746.63
473.997	1781.21
474.369	1805.16
474.74	1807.88
475.112	1834.32
475.484	1895.11
475.855	1939.62
476.227	1950.47
476.598	1977.82
476.97	2023.01
477.341	2050.81
477.713	2063.69
478.084	2082.45
478.455	2174.42
478.827	2211.26
479.198	2256
479.569	2251.25
479.94	2333.51
480.311	2364.7
480.682	2410.57
481.053	2455.54
481.424	2486.05
481.795	2529.21
482.166	2585.26
482.537	2594.75
482.908	2665.25
483.279	2694.63
483.65	2782.09
484.021	2820.73
484.391	2864.35
484.762	2885.14
485.133	2925.59
485.503	2964.68
485.874	3037.45
486.244	3068.41
486.615	3165.58
486.985	3180.04
487.356	3230.44
487.726	3257.56
488.097	3330.55
488.467	3348.63
488.837	3427.27
489.207	3455.97
489.578	3542.07
489.948	3658.67
490.318	3637.21
490.688	3698
491.058	3746.13
491.428	3836.98
491.798	3838.11
492.168	3921.94
492.538	3915.84
492.908	4005.56
493.278	4028.61
493.648	3996.97
494.017	4135.72
494.387	4165.1
494.757	4200.13
495.126	4231.32
495.496	4290.07
495.866	4293.69
496.235	4388.37
496.605	4447.35
496.974	4490.74
497.344	4514.7
497.713	4519.44
498.082	4567.35
498.452	4646.45
498.821	4613
499.19	4653.45
499.559	4690.74
499.928	4733.22
500.298	4776.61
500.667	4853.67
501.036	4780.45
501.405	4878.76
501.774	4883.5
502.143	4966.89
502.512	4932.09
502.88	4958.08
503.249	5057.96
503.618	5077.85
503.987	5084.4
504.356	5114.46
504.724	5118.75
505.093	5110.61
505.462	5189.48
505.83	5191.74
506.199	5241.46
506.567	5368.01
506.936	5317.61
507.304	5343.6
507.672	5331.63
508.041	5395.8
508.409	5427.22
508.777	5471.96
509.145	5522.13
509.514	5538.63
509.882	5548.12
510.25	5581.79
510.618	5617.72
510.986	5634.44
511.354	5678.51
511.722	5706.53
512.09	5762.12
512.458	5740.2
512.826	5766.19
513.193	5758.73
513.561	5779.07
513.929	5831.73
514.297	5892.74
514.664	5892.97
515.032	5964.15
515.4	6000.53
515.767	6003.47
516.135	6053.41
516.502	5953.98
516.869	6109.68
517.237	6082.57
517.604	6065.39
517.972	6176.57
518.339	6211.15
518.706	6194.43
519.073	6156.01
519.44	6245.05
519.808	6334.31
520.175	6284.59
520.542	6345.16
520.909	6377.93
521.276	6374.54
521.643	6451.6
522.009	6450.69
522.376	6525.04
522.743	6516.23
523.11	6581.31
523.477	6616.34
523.843	6615.43
524.21	6753.28
524.577	6748.99
524.943	6799.61
525.31	6812.49
525.676	6774.98
526.043	6869.21
526.409	6911.02
526.776	6975.2
527.142	6961.64
527.508	7052.26
527.874	7043.9
528.241	7108.98
528.607	7120.73
528.973	7193.95
529.339	7259.26
529.705	7234.63
530.071	7302.2
530.437	7333.38
530.803	7414.73
531.169	7405.24
531.535	7389.42
531.901	7427.62
532.267	7467.39
532.632	7563.21
532.998	7516.2
533.364	7603.2
533.73	7652.24
534.095	7678.23
534.461	7658.8
534.826	7731.11
535.192	7728.17
535.557	7851.11
535.923	7857.21
536.288	7830.54
536.653	7910.31
537.019	7877.55
537.384	7939.69
537.749	8017.2
538.114	8016.98
538.479	7998.22
538.845	8006.13
539.21	8073.25
539.575	8136.52
539.94	8126.81
540.305	8183.75
540.67	8196.86
541.034	8212.45
541.399	8303.98
541.764	8307.37
542.129	8291.77
542.494	8352.11
542.858	8396.18
543.223	8434.59
543.587	8523.63
543.952	8461.94
544.316	8526.8
544.681	8513.46
545.045	8574.93
545.41	8612.22
545.774	8664.19
546.138	8720.69
546.503	8772.66
546.867	8691.31
547.231	8843.17
547.595	8801.36
547.959	8809.05
548.324	8811.08
548.688	8843.62
549.052	8902.83
549.416	8934.69
549.779	8903.28
550.143	8955.71
550.507	9005.43
550.871	9018.53
551.235	9104.18
551.599	9123.84
551.962	9202.48
552.326	9181.02
552.689	9237.29
553.053	9196.83
553.417	9234.8
553.78	9346.21
554.143	9283.39
554.507	9392.54
554.87	9392.54
555.234	9480.22
555.597	9422.59
555.96	9474.12
556.323	9475.25
556.686	9443.83
557.05	9592.53
557.413	9647.22
557.776	9599.99
558.139	9685.41
558.502	9651.74
558.865	9763.6
559.228	9766.09
559.59	9804.28
559.953	9839.08
560.316	9991.39
560.679	9906.42
561.041	9990.26
561.404	10012.18
561.767	10098.05
562.129	10080.2
562.492	10136.47
562.854	10113.65
563.217	10152.52
563.579	10169.24
563.941	10192.74
564.304	10299.63
564.666	10336.69
565.028	10326.3
565.39	10305.28
565.753	10446.75
566.115	10481.55
566.477	10511.6
566.839	10541.88
567.201	10555.67
567.563	10561.09
567.925	10630.02
568.287	10614.42
568.648	10757.92
569.01	10747.3
569.372	10797.24
569.734	10733.07
570.095	10839.28
570.457	10893.51
570.819	10916.34
571.18	10990.23
571.542	11099.84
571.903	11061.64
572.265	11139.16
572.626	11212.83
572.987	11233.62
573.349	11298.7
573.71	11306.84
574.071	11427.06
574.432	11406.72
574.794	11531.91
575.155	11561.52
575.516	11615.08
575.877	11701.63
576.238	11794.28
576.599	11802.64
576.96	11926.93
577.32	12020.94
577.681	12120.15
578.042	12087.83
578.403	12315.4
578.763	12398.33
579.124	12451.44
579.485	12593.58
579.845	12775.27
580.206	12791.09
580.566	12926.45
580.927	13026.11
581.287	13185.43
581.648	13244.64
582.008	13479.66
582.368	13622.93
582.728	13707.45
583.089	13916.48
583.449	14023.37
583.809	14206.65
584.169	14393.99
584.529	14584.26
584.889	14814.09
585.249	14856.12
585.609	14982.67
585.969	15336.79
586.329	15527.29
586.688	15704.91
587.048	15893.83
587.408	16148.74
587.768	16399.36
588.127	16584.44
588.487	16905.78
588.846	17173.57
589.206	17392.1
589.565	17591.64
589.925	17921.35
590.284	18161.12
590.643	18422.35
591.003	18780.54
591.362	19104.37
591.721	19414.64
592.08	19616.67
592.44	19958.59
592.799	20242.42
593.158	20512.47
593.517	20720.37
593.876	20973.02
594.235	21368.72
594.593	21642.16
594.952	21970.06
595.311	22203.95
595.67	22600.1
596.029	23074.44
596.387	23329.8
596.746	23607.3
597.104	23851.36
597.463	24131.36
597.822	24473.95
598.18	24697.67
598.538	25034.61
598.897	25444.99
599.255	25561.15
599.613	26347.8
599.972	26397.74
600.33	26751.18
600.688	26900.55
601.046	27342.8
601.404	27757.93
601.762	27859.17
602.12	28391.13
602.478	28590
602.836	28803.1
603.194	28908.86
603.552	29342.52
603.91	29537.32
604.268	29844.43
604.625	30026.8
604.983	30423.85
605.341	30626.55
605.698	31061.34
606.056	31375.46
606.413	31616.36
606.771	31846.41
607.128	32150.13
607.485	32189
607.843	32509.22
608.2	32814.29
608.557	33212.93
608.914	33245.92
609.272	33572.01
609.629	33861.04
609.986	34241.37
610.343	34184.2
610.7	34679.78
611.057	34806.33
611.414	35022.14
611.771	35199.09
612.127	35592.52
612.484	35741.22
612.841	35875.23
613.198	35963.81
613.554	36263.69
613.911	36460.52
614.267	36651.03
614.624	36864.81
614.98	37081.75
615.337	37512.02
615.693	37449.88
616.05	37654.17
616.406	38014.83
616.762	37988.85
617.118	38179.8
617.475	38353.13
617.831	38488.04
618.187	38757.87
618.543	38841.03
618.899	39089.38
619.255	39131.41
619.611	39242.6
619.967	39617.96
620.323	39669.25
620.678	39630.38
621.034	39707.9
621.39	39801.23
621.746	39969.81
622.101	40396.69
622.457	40163.25
622.812	40444.6
623.168	40593.52
623.523	40552.17
623.879	40756.46
624.234	40575.22
624.589	40853.63
624.945	41060.86
625.3	41087.75
625.655	41178.14
626.01	41235.31
626.365	41389.21
626.72	41306.5
627.075	41448.87
627.43	41428.98
627.785	41392.82
628.14	41734.74
628.495	41691.35
628.85	41778.58
629.205	41546.27
629.559	41902.42
629.914	41816.99
630.269	41825.58
630.623	41859.25
630.978	41822.19
631.332	42089.75
631.687	42143.76
632.041	41932.92
632.396	42236.87
632.75	42035.07
633.104	42108.96
633.459	41906.48
633.813	42027.61
634.167	42028.97
634.521	42170.88
634.875	42243.42
635.229	42172.69
635.583	42111.68
635.937	42131.79
636.291	42071.68
636.645	42188.74
636.999	42141.05
637.352	42276.64
637.706	41983.77
638.06	42225.12
638.413	42117.32
638.767	42054.5
639.121	42125.91
639.474	41913.04
639.828	42139.7
640.181	42104.67
640.534	42058.57
640.888	42109.64
641.241	41904.68
641.594	41964.56
641.947	42122.97
642.301	42090.43
642.654	42050.43
643.007	42015.86
643.36	42073.26
643.713	42047.95
644.066	42180.15
644.419	41946.93
644.771	41631.91
645.124	41290.68
645.477	41240.96
645.83	41135.88
646.182	41040.74
646.535	40859.5
646.888	40967.98
647.24	40749.9
647.593	40922.33
647.945	40816.79
648.298	40797.81
648.65	40703.12
649.002	40586.97
649.355	40761.2
649.707	40684.14
650.059	40941.08
650.411	41443.22
650.763	41361.86
651.115	41807.95
651.467	41585.81
651.819	41688.41
652.171	41552.37
652.523	41557.79
652.875	41548.07
653.227	41309.44
653.578	41675.75
653.93	41509.66
654.282	41351.47
654.633	41320.06
654.985	41577.68
655.337	41583.33
655.688	41381.52
656.039	41635.3
656.391	41263.79
656.742	41544.23
657.094	41348.76
657.445	41460.39
657.796	41344.01
658.147	41256.56
658.498	41371.13
658.849	41432.37
659.2	41416.33
659.551	41348.98
659.902	41451.13
660.253	41285.93
660.604	41380.62
660.955	41165.94
661.306	41323.9
661.656	41205.94
662.007	41276.89
662.358	41316.22
662.708	41237.8
663.059	41183.79
663.409	41015.66
663.76	41306.05
664.11	41273.73
664.461	41283.67
664.811	41269.21
665.161	41198.7
665.511	41064.47
665.862	41181.08
666.212	41326.84
666.562	41302.88
666.912	41234.64
667.262	41164.36
667.612	41230.57
667.962	41221.53
668.312	41262.43
668.662	41405.71
669.011	41174.75
669.361	41020.4
669.711	41172.26
670.06	41058.6
670.41	41076
670.76	40934.31
671.109	41165.71
671.459	40965.04
671.808	40965.94
672.157	41006.17
672.507	40857.7
672.856	40857.92
673.205	41038.26
673.554	41025.15
673.904	40967.07
674.253	41038.94
674.602	40965.26
674.951	40478.05
675.3	40189.47
675.649	40833.52
675.998	40773.41
676.346	40893.4
676.695	40954.87
677.044	40530.02
677.393	40734.76
677.741	40795.1
678.09	40764.82
678.438	40477.59
678.787	40678.04
679.135	40594.65
679.484	40446.63
679.832	40384.26
680.181	40134.55
680.529	40417.71
680.877	40405.51
681.225	40172.97
681.573	40377.26
681.922	40263.36
682.27	40155.34
682.618	40225.17
682.966	40005.29
683.314	40135
683.661	39899.08
684.009	39801.91
684.357	39773.88
684.705	39674.45
685.053	39850.49
685.4	39725.52
685.748	39427.23
686.095	39583.83
686.443	39379.54
686.79	39431.29
687.138	39550.61
687.485	39558.97
687.832	39318.08
688.18	39250.28
688.527	39013.9
688.874	39146.78
689.221	38946.79
689.568	38817.52
689.915	38812.33
690.262	38960.35
690.609	38673.57
690.956	38556.97
691.303	38547.25
691.65	38483.3
691.997	38469.29
692.344	38149.75
692.69	38113.36
693.037	38189.07
693.383	37820.26
693.73	38040.37
694.077	37770.32
694.423	37813.03
694.769	37809.19
695.116	37646.26
695.462	37537.11
695.808	37448.07
696.155	37524.23
696.501	37241.75
696.847	37297.56
697.193	37023.67
697.539	37121.52
697.885	36825.94
698.231	36779.61
698.577	36984.58
698.923	36635.66
699.269	36612.16
699.614	36387.98
699.96	36518.83
700.306	36304.6
700.651	36139.85
700.997	36159.74
701.342	35999.07
701.688	36050.14
702.033	35926.98
702.379	35776.25
702.724	35602.24
703.069	35615.8
703.415	35414.9
703.76	35443.38
704.105	35506.88
704.45	35373.77
704.795	35162.48
705.14	35075.48
705.485	34974.01
705.83	34928.14
706.175	34924.97
706.52	34882.03
706.865	34809.49
707.209	34750.51
707.554	34583.96
707.899	34677.07
708.243	34510.52
708.588	34428.49
708.932	34142.62
709.277	34268.49
709.621	34309.39
709.966	34053.58
710.31	34076.63
710.654	33756.87
710.998	33916.41
711.342	33733.82
711.687	33649.98
712.031	33601.62
712.375	33391.23
712.719	33512.35
713.063	33449.53
713.407	33475.29
713.75	33337.67
714.094	33303.55
714.438	33074.85
714.782	33324.56
715.125	33162.98
715.469	33156.88
715.812	32865.82
716.156	32816.55
716.499	32807.29
716.843	32905.36
717.186	32611.59
717.53	32772.26
717.873	32755.31
718.216	32633.28
718.559	32486.84
718.902	32193.97
719.246	32375.66
719.589	32323.23
719.932	32289.56
720.275	32137.47
720.617	32179.96
720.96	32030.13
721.303	32112.62
721.646	32024.26
721.989	31882.79
722.331	31974.09
722.674	31735.9
723.016	31910.14
723.359	31751.72
723.701	31751.95
724.044	31628.56
724.386	31408
724.729	31657.94
725.071	31488
725.413	31575.91
725.755	31471.5
726.097	31321.68
726.439	31110.83
726.782	31152.87
727.124	31285.29
727.465	31141.34
727.807	31088.69
728.149	31115.35
728.491	30892.08
728.833	31020.44
729.175	30811.86
729.516	30873.55
729.858	30690.28
730.199	30874.46
730.541	30754.46
730.882	30611.41
731.224	30661.81
731.565	30537.29
731.906	30466.11
732.248	30538.65
732.589	30330.29
732.93	30246.45
733.271	30290.74
733.612	30401.7
733.953	30416.62
734.294	30208.71
734.635	30160.58
734.976	30214.36
735.317	30074.93
735.658	30172.55
735.999	30061.14
736.339	30027.02
736.68	30024.99
737.021	29927.59
737.361	29787.71
737.702	29999.23
738.042	29882.62
738.383	29625.45
738.723	29843.3
739.063	29759.23
739.404	29910.19
739.744	29713.58
740.084	29605.79
740.424	29578.67
740.764	29513.36
741.104	29600.82
741.444	29431.1
741.784	29304.55
742.124	29399.92
742.464	29399.92
742.804	29248.28
743.143	29177.1
743.483	29192.69
743.823	29078.8
744.162	29096.2
744.502	29108.85
744.841	28987.73
745.181	29044.45
745.52	28914.51
745.86	28954.96
746.199	28897.11
746.538	28849.65
746.877	28852.36
747.216	28984.79
747.556	28847.17
747.895	28833.15
748.234	28614.18
748.573	28699.15
748.911	28656.89
749.25	28703.21
749.589	28559.72
749.928	28656.66
750.267	28535.76
750.605	28479.49
750.944	28365.82
751.283	28415.76
751.621	28390.91
751.96	28372.15
752.298	28176.45
752.636	28119.05
752.975	28011.71
753.313	27931.03
753.651	28128.77
753.989	27880.86
754.327	27832.73
754.666	27824.14
755.004	27791.37
755.342	27830.69
755.679	27664.6
756.017	27631.38
756.355	27604.94
756.693	27404.72
757.031	27536.47
757.368	27298.28
757.706	27212.41
758.044	27323.59
758.381	27274.78
758.719	27207.43
759.056	27059.87
759.394	27097.38
759.731	26860.78
