Data from hue_32_FLMS001491_00091.txt Node
Date: Tue Feb 07 17:24:16 GMT 2017
User: dcchb
Spectrometer: FLMS00149
Trigger mode: 0
Integration Time (sec): 2.000000E-2
Scans to average: 10
Electric dark correction enabled: true
Nonlinearity correction enabled: false
Boxcar width: 0
XAxis mode: Wavelengths
Number of Pixels in Spectrum: 2048
>>>>>Begin Spectral Data<<<<<
341.393	-23.12
341.776	-23.12
342.16	-23.12
342.543	-60.63
342.927	-73.97
343.31	-79.16
343.693	-72.61
344.077	-60.18
344.46	-67.19
344.843	-55.44
345.226	-45.27
345.61	-29.45
345.993	-11.14
346.376	-17.25
346.759	4.9
347.142	32.24
347.525	50.32
347.908	62.07
348.291	97.33
348.674	92.81
349.057	98.01
349.44	137.1
349.823	130.77
350.206	170.77
350.588	184.78
350.971	195.86
351.354	223.43
351.737	247.83
352.119	238.12
352.502	248.06
352.884	288.28
353.267	265.91
353.65	280.37
354.032	300.03
354.414	302.52
354.797	306.59
355.179	332.8
355.562	302.52
355.944	346.13
356.326	350.65
356.709	333.71
357.091	322.41
357.473	342.97
357.855	322.86
358.238	333.25
358.62	351.33
359.002	341.16
359.384	346.81
359.766	342.97
360.148	348.85
360.53	322.18
360.912	332.12
361.294	332.12
361.676	334.38
362.057	327.15
362.439	340.49
362.821	323.76
363.203	330.54
363.584	328.96
363.966	318.79
364.348	311.79
364.729	321.73
365.111	315.63
365.493	330.32
365.874	307.94
366.256	328.28
366.637	324.67
367.019	302.75
367.4	335.74
367.781	317.89
368.163	310.88
368.544	330.09
368.925	300.94
369.306	304.33
369.688	293.48
370.069	298.9
370.45	321.5
370.831	323.99
371.212	322.63
371.593	344.78
371.974	313.59
372.355	310.2
372.736	322.18
373.117	300.71
373.498	321.05
373.879	316.08
374.26	302.75
374.641	310.66
375.021	329.41
375.402	318.57
375.783	333.48
376.163	332.35
376.544	309.3
376.925	313.14
377.305	319.92
377.686	331.22
378.066	307.94
378.447	311.79
378.827	332.8
379.208	338
379.588	338.9
379.968	333.03
380.349	349.52
380.729	329.41
381.109	335.06
381.489	332.12
381.87	337.77
382.25	334.38
382.63	341.16
383.01	340.94
383.39	342.97
383.77	342.75
384.15	351.56
384.53	356.08
384.91	362.86
385.29	342.75
385.67	355.63
386.049	365.12
386.429	356.08
386.809	354.5
387.189	367.38
387.568	352.91
387.948	367.6
388.328	358.79
388.707	350.2
389.087	361.28
389.466	362.86
389.846	331.67
390.225	364.21
390.605	361.05
390.984	371.22
391.363	363.08
391.743	359.47
392.122	366.47
392.501	379.58
392.881	390.65
393.26	371.9
393.639	370.09
394.018	378.45
394.397	369.86
394.776	380.94
395.155	407.15
395.534	365.8
395.913	387.04
396.292	375.29
396.671	402.86
397.05	375.29
397.429	414.16
397.808	385.68
398.186	408.28
398.565	399.01
398.944	402.4
399.323	411.67
399.701	377.77
400.08	413.93
400.458	389.07
400.837	389.98
401.215	423.65
401.594	410.99
401.972	395.63
402.351	390.65
402.729	415.74
403.107	403.76
403.486	418
403.864	413.25
404.242	417.55
404.62	409.41
404.999	424.1
405.377	422.74
405.755	434.04
406.133	440.82
406.511	443.53
406.889	447.38
407.267	415.51
407.645	427.94
408.023	445.34
408.401	448.73
408.779	440.37
409.156	460.71
409.534	448.28
409.912	445.12
410.29	441.95
410.667	450.76
411.045	472.23
411.422	462.06
411.8	451.89
412.178	460.03
412.555	465
412.933	482.85
413.31	484.66
413.687	469.07
414.065	498.45
414.442	500.03
414.819	499.13
415.197	480.37
415.574	495.96
415.951	507.94
416.328	507.49
416.705	500.26
417.082	495.74
417.46	514.49
417.837	525.34
418.214	519.69
418.591	512.46
418.967	511.1
419.344	529.86
419.721	525.11
420.098	539.58
420.475	523.53
420.852	522.4
421.228	549.07
421.605	536.41
421.982	521.72
422.358	531.89
422.735	540.71
423.111	568.05
423.488	565.56
423.864	558.33
424.241	547.26
424.617	558.33
424.994	575.28
425.37	551.55
425.746	588.39
426.123	578.9
426.499	580.93
426.875	585.22
427.251	590.2
427.627	588.84
428.003	584.55
428.379	591.33
428.756	608.5
429.132	590.42
429.507	591.78
429.883	610.53
430.259	609.18
430.635	632.46
431.011	625.9
431.387	652.12
431.763	634.04
432.138	638.33
432.514	648.27
432.89	660.48
433.265	665.22
433.641	647.14
434.016	651.66
434.392	691.66
434.767	685.34
435.143	695.73
435.518	716.52
435.894	709.06
436.269	737.99
436.644	715.84
437.02	723.53
437.395	719.23
437.77	704.77
438.145	723.07
438.52	736.18
438.895	759.91
439.271	751.77
439.646	753.58
440.021	784.09
440.395	734.83
440.77	764.2
441.145	789.06
441.52	807.14
441.895	802.17
442.27	793.13
442.645	780.93
443.019	813.92
443.394	781.38
443.769	791.1
444.143	827.03
444.518	800.81
444.892	805.33
445.267	820.92
445.641	817.54
446.016	840.13
446.39	833.58
446.764	829.29
447.139	838.1
447.513	860.47
447.887	874.03
448.262	847.82
448.636	874.03
449.01	866.35
449.384	852.56
449.758	881.94
450.132	874.71
450.506	897.31
450.88	879.68
451.254	901.83
451.628	924.88
452.002	930.53
452.376	941.15
452.75	931.2
453.123	943.63
453.497	937.76
453.871	943.86
454.244	966.01
454.618	969.62
454.992	987.7
455.365	987.02
455.739	990.19
456.112	1012.11
456.486	999.68
456.859	1036.96
457.232	1055.95
457.606	1063.4
457.979	1068.83
458.352	1096.4
458.725	1068.6
459.099	1094.82
459.472	1076.29
459.845	1089.39
460.218	1094.14
460.591	1120.13
460.964	1134.59
461.337	1137.3
461.71	1173.68
462.083	1182.95
462.456	1179.11
462.829	1184.53
463.201	1224.08
463.574	1228.82
463.947	1252.33
464.32	1243.51
464.692	1278.31
465.065	1245.09
465.438	1298.2
465.81	1329.84
466.183	1318.76
466.555	1330.97
466.928	1370.74
467.3	1391.98
467.672	1391.53
468.045	1422.49
468.417	1416.84
468.789	1480.34
469.161	1474.92
469.534	1490.96
469.906	1520.79
470.278	1520.12
470.65	1528.48
471.022	1551.75
471.394	1577.52
471.766	1622.26
472.138	1683.73
472.51	1685.53
472.882	1727.34
473.253	1732.99
473.625	1769.15
473.997	1803.05
474.369	1804.4
474.74	1857.06
475.112	1890.5
475.484	1912.87
475.855	1950.84
476.227	1975.92
476.598	2056.6
476.97	2063.15
477.341	2118.52
477.713	2128.46
478.084	2174.79
478.455	2271.73
478.827	2288
479.198	2385.4
479.569	2379.3
479.94	2445.51
480.311	2493.2
480.682	2547.43
481.053	2673.76
481.424	2709.24
481.795	2754.43
482.166	2773.19
482.537	2855.67
482.908	2957.59
483.279	3011.38
483.65	3063.58
484.021	3119.85
484.391	3200.07
484.762	3277.81
485.133	3341.76
485.503	3379.28
485.874	3497.92
486.244	3528.2
486.615	3623.11
486.985	3708.53
487.356	3803.9
487.726	3845.93
488.097	3932.03
488.467	3964.12
488.837	4112.14
489.207	4189.88
489.578	4197.56
489.948	4291.57
490.318	4367.05
490.688	4479.59
491.058	4525.46
491.428	4659.02
491.798	4705.12
492.168	4814.94
492.538	4913.7
492.908	4960.48
493.278	5090.64
493.648	5095.39
494.017	5209.51
494.387	5260.81
494.757	5315.95
495.126	5430.52
495.496	5480.24
495.866	5548.94
496.235	5602.49
496.605	5732.21
496.974	5757.29
497.344	5864.63
497.713	5924.29
498.082	5983.73
498.452	6080
498.821	6117.06
499.19	6133.55
499.559	6227.79
499.928	6290.61
500.298	6385.3
500.667	6421
501.036	6468.23
501.405	6607.44
501.774	6585.29
502.143	6703.71
502.512	6708.91
502.88	6756.59
503.249	6808.11
503.618	6874.78
503.987	6863.48
504.356	7002.68
504.724	7066.41
505.093	7057.14
505.462	7128.56
505.83	7169.68
506.199	7286.29
506.567	7338.95
506.936	7391.83
507.304	7444.71
507.672	7485.16
508.041	7558.37
508.409	7550.24
508.777	7670.24
509.145	7752.72
509.514	7685.6
509.882	7795.88
510.25	7839.5
510.618	7896.22
510.986	7953.39
511.354	7988.65
511.722	8069.1
512.09	8157.46
512.458	8090.56
512.826	8184.8
513.193	8273.61
513.561	8287.62
513.929	8374.4
514.297	8405.36
514.664	8439.03
515.032	8519.48
515.4	8552.92
515.767	8609.42
516.135	8556.54
516.502	8611.68
516.869	8735.07
517.237	8747.04
517.604	8767.16
517.972	8856.42
518.339	8944.55
518.706	8894.38
519.073	8949.3
519.44	9043.53
519.808	9039.24
520.175	9057.32
520.542	9192.91
520.909	9252.79
521.276	9223.87
521.643	9397.42
522.009	9402.17
522.376	9408.95
522.743	9494.14
523.11	9620.69
523.477	9587.47
523.843	9648.72
524.21	9810.52
524.577	9834.02
524.943	9854.81
525.31	9888.48
525.676	9998.99
526.043	10037.18
526.409	10019.78
526.776	10177.29
527.142	10238.76
527.508	10307.23
527.874	10303.39
528.241	10363.72
528.607	10408.24
528.973	10473.33
529.339	10535.25
529.705	10541.12
530.071	10604.4
530.437	10706.99
530.803	10766.43
531.169	10815.46
531.535	10741.12
531.901	10901.56
532.267	10900.21
532.632	10950.6
532.998	11054.78
533.364	11091.16
533.73	11169.13
534.095	11258.84
534.461	11287.77
534.826	11320.31
535.192	11341.33
535.557	11444.37
535.923	11430.36
536.288	11558.95
536.653	11527.31
537.019	11533.41
537.384	11550.36
537.749	11625.16
538.114	11659.51
538.479	11692.5
538.845	11821.09
539.21	11847.98
539.575	11854.08
539.94	11863.35
540.305	11977.47
540.67	11931.82
541.034	11985.38
541.399	12040.29
541.764	12058.37
542.129	12152.38
542.494	12290.45
542.858	12235.99
543.223	12275.31
543.587	12372.94
543.952	12278.02
544.316	12392.82
544.681	12517.11
545.045	12579.26
545.41	12671.46
545.774	12635.08
546.138	12718.01
546.503	12634.63
546.867	12695.64
547.231	12797.56
547.595	12885.01
547.959	12903.54
548.324	12974.96
548.688	13064.67
549.052	13033.48
549.416	13167.27
549.779	13104.44
550.143	13190.54
550.507	13230.77
550.871	13229.64
551.235	13308.73
551.599	13412.01
551.962	13418.11
552.326	13489.07
552.689	13551.44
553.053	13512.34
553.417	13601.38
553.78	13743.07
554.143	13684.32
554.507	13675.05
554.87	13777.42
555.234	13830.75
555.597	13775.61
555.96	13898.1
556.323	13862.62
556.686	13999.56
557.05	14078.2
557.413	14098.09
557.776	13976.29
558.139	14241.81
558.502	14183.96
558.865	14164.75
559.228	14367.46
559.59	14318.87
559.953	14397.06
560.316	14557.06
560.679	14561.35
561.041	14652.65
561.404	14658.53
561.767	14791.63
562.129	14785.08
562.492	14862.14
562.854	14877.96
563.217	14844.06
563.579	14974.45
563.941	15060.55
564.304	15001.57
564.666	15117.27
565.028	15197.27
565.39	15237.72
565.753	15292.63
566.115	15365.63
566.477	15424.83
566.839	15459.18
567.201	15501.22
567.563	15543.48
567.925	15639.07
568.287	15652.4
568.648	15717.48
569.01	15838.16
569.372	15943.92
569.734	15857.59
570.095	15983.01
570.457	16042.45
570.819	16074.76
571.18	16129.22
571.542	16172.61
571.903	16233.4
572.265	16367.41
572.626	16425.94
572.987	16438.82
573.349	16539.16
573.71	16634.29
574.071	16696.44
574.432	16836.32
574.794	16982.99
575.155	17089.88
575.516	17014.17
575.877	17065.47
576.238	17290.77
576.599	17386.36
576.96	17458
577.32	17613.7
577.681	17705.45
578.042	17870.65
578.403	17900.7
578.763	17973.24
579.124	18100.7
579.485	18434.47
579.845	18551.98
580.206	18656.39
580.566	18681.92
580.927	18886.21
581.287	19071.74
581.648	19135.47
582.008	19467.67
582.368	19545.18
582.728	19688.45
583.089	19871.95
583.449	20022.45
583.809	20315.78
584.169	20409.34
584.529	20558.48
584.889	20885.26
585.249	20924.58
585.609	21228.07
585.969	21510.1
586.329	21714.84
586.688	21988.05
587.048	22061.5
587.408	22316.4
587.768	22565.21
588.127	22785.32
588.487	22929.04
588.846	23473.21
589.206	23384.85
589.565	23772.86
589.925	23965.85
590.284	24309.8
590.643	24615.33
591.003	24902.78
591.362	25151.58
591.721	25282.65
592.08	25605.36
592.44	26061.84
592.799	26153.59
593.158	26509.29
593.517	26627.03
593.876	27120.12
594.235	27189.27
594.593	27470.39
594.952	27846.2
595.311	27938.86
595.67	28262.46
596.029	28709.23
596.387	28939.28
596.746	29175.43
597.104	29387.18
597.463	29614.29
597.822	29930.22
598.18	30171.79
598.538	30342.86
598.897	30789.85
599.255	30682.06
599.613	31496.05
599.972	31418.76
600.33	31726.33
600.688	31898.98
601.046	32201.34
601.404	32511.16
601.762	32733.53
602.12	32994.77
602.478	33288.32
602.836	33547.97
603.194	33510.46
603.552	33844.46
603.91	33858.02
604.268	34212.82
604.625	34351.34
604.983	34677.21
605.341	34647.61
605.698	35091.21
606.056	35222.28
606.413	35585.21
606.771	35609.61
607.128	35867.69
607.485	35877.4
607.843	36139.09
608.2	36511.06
608.557	36745.63
608.914	36801.22
609.272	36906.08
609.629	37286.18
609.986	37472.84
610.343	37520.75
610.7	37928.2
611.057	37972.49
611.414	38111.02
611.771	38363.44
612.127	38491.8
612.484	38702.19
612.841	38879.36
613.198	38819.02
613.554	38932.47
613.911	39380.36
614.267	39425.79
614.624	39548.49
614.98	39665.1
615.337	39781.48
615.693	39883.63
616.05	39972.66
616.406	40403.16
616.762	40369.26
617.118	40373.78
617.475	40415.82
617.831	40657.17
618.187	40799.99
618.543	41018.51
618.899	41263.93
619.255	41322.91
619.611	41285.85
619.967	41520.42
620.323	41710.25
620.678	41580.31
621.034	41531.72
621.39	41766.97
621.746	41754.76
622.101	42146.17
622.457	41983.68
622.812	42104.81
623.168	42256.22
623.523	42350
623.879	42484.69
624.234	42404.69
624.589	42500.96
624.945	42461.64
625.3	42576.66
625.655	42707.28
626.01	42651.69
626.365	42733.72
626.72	42717.9
627.075	42838.8
627.43	42810.56
627.785	42853.49
628.14	42961.29
628.495	43114.73
628.85	42998.35
629.205	42817.79
629.559	43253.71
629.914	42937.11
630.269	43142.75
630.623	43009.87
630.978	42978.69
631.332	43183.43
631.687	43355.17
632.041	43274.72
632.396	43181.39
632.75	43094.16
633.104	43308.62
633.459	43022.98
633.813	43149.08
634.167	43253.48
634.521	43111.11
634.875	43116.31
635.229	43149.76
635.583	43098.23
635.937	43134.84
636.291	43031.79
636.645	43015.75
636.999	42929.42
637.352	43134.61
637.706	42891.91
638.06	43266.81
638.413	42987.73
638.767	43017.78
639.121	43064.79
639.474	42796.32
639.828	42877.22
640.181	42942.08
640.534	43034.73
640.888	42855.07
641.241	42709.31
641.594	43017.1
641.947	42973.94
642.301	42885.81
642.654	42863.89
643.007	42905.47
643.36	42797.9
643.713	42793.15
644.066	43057.1
644.419	42779.37
644.771	42561.07
645.124	42147.97
645.477	42117.92
645.83	41752.5
646.182	41712.96
646.535	41655.78
646.888	41655.11
647.24	41450.59
647.593	41739.17
647.945	41692.84
648.298	41399.97
648.65	41363.14
649.002	41340.09
649.355	41575.11
649.707	41418.73
650.059	41688.32
650.411	42199.72
650.763	42085.15
651.115	42569.66
651.467	42373.05
651.819	42502.77
652.171	42366.5
652.523	42225.26
652.875	42334.64
653.227	42150.69
653.578	42416.67
653.93	42232.94
654.282	42030.46
654.633	42030.46
654.985	42115.88
655.337	42203.11
655.688	42110.46
656.039	42215.09
656.391	42047.86
656.742	41983.46
657.094	42048.54
657.445	42338.48
657.796	42194.07
658.147	42016.68
658.498	41960.86
658.849	42077.69
659.2	42008.32
659.551	41946.62
659.902	42120.4
660.253	41971.03
660.604	42112.95
660.955	41868.66
661.306	41983.46
661.656	41844.03
662.007	41937.13
662.358	41985.27
662.708	41958.83
663.059	41924.48
663.409	41669.12
663.76	41878.15
664.11	42009.22
664.461	41976
664.811	41884.93
665.161	41860.75
665.511	41696.69
665.862	41882.67
666.212	42028.65
666.562	41810.81
666.912	41781.43
667.262	41669.79
667.612	41781.43
667.962	41766.97
668.312	41611.72
668.662	41924.93
669.011	41766.51
669.361	41791.15
669.711	41664.82
670.06	41677.25
670.41	41553.87
670.76	41607.65
671.109	41747.53
671.459	41635.44
671.808	41545.05
672.157	41850.81
672.507	41402.46
672.856	41445.62
673.205	41571.04
673.554	41685.39
673.904	41586.63
674.253	41504.83
674.602	41571.04
674.951	41143.03
675.3	40773.77
675.649	41538.5
675.998	41439.29
676.346	41451.04
676.695	41591.83
677.044	41316.13
677.393	41336.24
677.741	41427.99
678.09	41437.26
678.438	41330.82
678.787	41410.37
679.135	41327.2
679.484	41065.97
679.832	41230.94
680.181	40896.48
680.529	41006.99
680.877	40897.16
681.225	40896.71
681.573	41217.6
681.922	40827.78
682.27	40783.72
682.618	40909.14
682.966	40576.04
683.314	40719.08
683.661	40646.09
684.009	40417.4
684.357	40428.02
684.705	40250.62
685.053	40389.15
685.4	40377.62
685.748	40183.51
686.095	40114.81
686.443	40031.65
686.79	39918.43
687.138	40079.1
687.485	40068.25
687.832	39888.82
688.18	39974.92
688.527	39698.32
688.874	39801.37
689.221	39672.78
689.568	39386.46
689.915	39466.69
690.262	39524.77
690.609	39317.99
690.956	39139.92
691.303	39070.31
691.65	39007.49
691.997	38880.49
692.344	38771.11
692.69	38685.92
693.037	38722.08
693.383	38391.24
693.73	38483.66
694.077	38388.98
694.423	38409.31
694.769	38222.88
695.116	38186.72
695.462	38114.18
695.808	38166.16
696.155	38064.01
696.501	37816.34
696.847	37737.69
697.193	37513.29
697.539	37659.05
697.885	37352.62
698.231	37402.34
698.577	37176.58
698.923	37299.29
699.269	37150.36
699.614	36924.83
699.96	36903.59
700.306	36871.73
700.651	36768.68
700.997	36608.23
701.342	36583.83
701.688	36610.27
702.033	36454.34
702.379	36415.47
702.724	36254.34
703.069	36329.6
703.415	35858.87
703.76	35986.78
704.105	35914.69
704.45	35869.49
704.795	35769.38
705.14	35668.82
705.485	35613.68
705.83	35532.1
706.175	35547.92
706.52	35406.23
706.865	35147.93
707.209	35140.47
707.554	34910.2
707.899	35091.44
708.243	35053.47
708.588	34971.67
708.932	34740.94
709.277	34795.85
709.621	34708.62
709.966	34589.75
710.31	34755.17
710.654	34268.18
710.998	34449.19
711.342	34239.71
711.687	34235.64
712.031	34130.11
712.375	33888.08
712.719	34119.48
713.063	34015.08
713.407	34034.97
713.75	33853.05
714.094	33757.91
714.438	33766.95
714.782	33835.42
715.125	33598.59
715.469	33507.52
715.812	33581.42
716.156	33197.93
716.499	33169.23
716.843	33307.3
717.186	33077.25
717.53	33238.83
717.873	33304.14
718.216	33273.63
718.559	33038.83
718.902	32790.93
719.246	32845.85
719.589	32866.18
719.932	32661.44
720.275	32724.72
720.617	32555.46
720.96	32653.76
721.303	32575.34
721.646	32537.15
721.989	32341.9
722.331	32358.17
722.674	32310.49
723.016	32361.34
723.359	32346.88
723.701	32261.23
724.044	31965.64
724.386	31970.16
724.729	32081.12
725.071	31918.86
725.413	31883.61
725.755	31991.86
726.097	31664.63
726.439	31714.35
726.782	31787.12
727.124	31762.03
727.465	31578.31
727.807	31701.02
728.149	31444.98
728.491	31504.86
728.833	31504.64
729.175	31370.86
729.516	31310.52
729.858	31087.93
730.199	31244.31
730.541	31182.61
730.882	31231.42
731.224	31140.13
731.565	31053.58
731.906	31036.4
732.248	31058.1
732.589	30782.4
732.93	30851.55
733.271	30854.71
733.612	30821.27
733.953	30926.12
734.294	30712.12
734.635	30641.38
734.976	30817.42
735.317	30493.59
735.658	30527.04
735.999	30518
736.339	30381.96
736.68	30422.86
737.021	30482.52
737.361	30153.03
737.702	30447.26
738.042	30207.72
738.383	30301.96
738.723	30270.77
739.063	30219.7
739.404	30189.42
739.744	30027.16
740.084	30066.26
740.424	29978.58
740.764	29981.74
741.104	29960.05
741.444	29876.88
741.784	29731.58
742.124	29863.32
742.464	29679.6
742.804	29693.61
743.143	29622.88
743.483	29703.1
743.823	29586.72
744.162	29620.39
744.502	29484.8
744.841	29453.17
745.181	29444.8
745.52	29380.63
745.86	29435.99
746.199	29333.4
746.538	29272.38
746.877	29359.84
747.216	29376.11
747.556	29123.23
747.895	29206.85
748.234	29049.56
748.573	29011.37
748.911	29063.35
749.25	28862
749.589	28827.87
749.928	28865.61
750.267	28974.76
750.605	28877.14
750.944	28715.33
751.283	28640.98
751.621	28714.2
751.96	28495.68
752.298	28520.31
752.636	28486.86
752.975	28462.46
753.313	28257.94
753.651	28450.71
753.989	28168.23
754.327	28269.92
754.666	27993.77
755.004	28111.51
755.342	28143.82
755.679	28060.21
756.017	27948.57
756.355	27988.35
756.693	27809.59
757.031	27834.9
757.368	27712.2
757.706	27693.66
