Data from hue_350_FLMS001491_99.txt Node
Date: Mon Feb 06 15:38:48 GMT 2017
User: dcchb
Spectrometer: FLMS00149
Trigger mode: 0
Integration Time (sec): 2.000000E-2
Scans to average: 10
Electric dark correction enabled: true
Nonlinearity correction enabled: false
Boxcar width: 0
XAxis mode: Wavelengths
Number of Pixels in Spectrum: 2048
>>>>>Begin Spectral Data<<<<<
341.393	-28.94
341.776	-28.94
342.16	-28.94
342.543	-92.89
342.927	-75.94
343.31	-73.68
343.693	-92.89
344.077	-56.51
344.46	-64.42
344.843	-36.17
345.226	-54.02
345.61	-47.7
345.993	-26.68
346.376	4.96
346.759	19.65
347.142	33.66
347.525	48.57
347.908	67.55
348.291	65.75
348.674	93.09
349.057	118.85
349.44	131.73
349.823	157.95
350.206	162.92
350.588	197.49
350.971	223.93
351.354	204.73
351.737	232.07
352.119	242.24
352.502	272.52
352.884	261.9
353.267	274.55
353.65	308.45
354.032	301.9
354.414	298.28
354.797	276.81
355.179	315.01
355.562	327.89
355.944	312.07
356.326	330.37
356.709	327.66
357.091	326.98
357.473	326.53
357.855	347.1
358.238	343.25
358.62	334.21
359.002	330.6
359.384	339.86
359.766	348.68
360.148	325.18
360.53	347.32
360.912	334.44
361.294	342.12
361.676	318.4
362.057	324.72
362.439	342.35
362.821	340.09
363.203	329.02
363.584	301.45
363.966	331.95
364.348	320.88
364.729	332.63
365.111	306.19
365.493	325.4
365.874	321.56
366.256	302.8
366.637	311.84
367.019	307.32
367.4	308.9
367.781	303.93
368.163	302.35
368.544	317.27
368.925	299.41
369.306	310.71
369.688	303.93
370.069	300.99
370.45	289.02
370.831	297.15
371.212	309.13
371.593	282.24
371.974	307.1
372.355	296.02
372.736	311.84
373.117	293.76
373.498	319.98
373.879	322.69
374.26	309.81
374.641	308
375.021	308.68
375.402	317.49
375.783	319.3
376.163	329.69
376.544	320.88
376.925	295.35
377.305	330.82
377.686	302.12
378.066	294.44
378.447	329.69
378.827	311.84
379.208	337.6
379.588	304.16
379.968	341.22
380.349	336.7
380.729	330.82
381.109	327.89
381.489	317.49
381.87	322.24
382.25	344.84
382.63	352.29
383.01	309.81
383.39	331.73
383.77	320.43
384.15	327.21
384.53	359.07
384.91	330.6
385.29	330.37
385.67	332.86
386.049	355
386.429	336.25
386.809	345.97
387.189	342.8
387.568	340.09
387.948	331.05
388.328	334.44
388.707	326.3
389.087	322.24
389.466	344.16
389.846	333.31
390.225	324.05
390.605	344.16
390.984	363.82
391.363	359.98
391.743	331.73
392.122	371.73
392.501	368.56
392.881	360.88
393.26	340.99
393.639	357.04
394.018	358.39
394.397	369.24
394.776	380.99
395.155	349.36
395.534	392.29
395.913	361.78
396.292	357.04
396.671	345.97
397.05	387.55
397.429	362.69
397.808	359.98
398.186	363.14
398.565	370.15
398.944	365.63
399.323	392.97
399.701	383.48
400.08	380.31
400.458	380.31
400.837	413.53
401.215	373.54
401.594	365.63
401.972	389.35
402.351	394.33
402.729	409.69
403.107	398.17
403.486	400.88
403.864	400.88
404.242	416.92
404.62	419.41
404.999	413.31
405.377	415.79
405.755	415.12
406.133	398.17
406.511	394.1
406.889	424.61
407.267	421.44
407.645	441.56
408.023	430.03
408.401	404.72
408.779	428.9
409.156	446.3
409.534	450.6
409.912	446.75
410.29	448.11
410.667	451.5
411.045	440.43
411.422	429.58
411.8	442.69
412.178	443.14
412.555	449.92
412.933	443.36
413.31	463.02
413.687	444.49
414.065	445.85
414.442	477.49
414.819	492.63
415.197	479.07
415.574	477.94
415.951	470.03
416.328	474.1
416.705	452.86
417.082	489.92
417.46	476.81
417.837	492.85
418.214	495.11
418.591	508.45
418.967	496.7
419.344	484.04
419.721	497.15
420.098	508.67
420.475	501.22
420.852	500.31
421.228	512.74
421.605	498.96
421.982	504.83
422.358	529.92
422.735	526.07
423.111	550.71
423.488	564.72
423.864	532.85
424.241	548.67
424.617	540.99
424.994	574.21
425.37	552.74
425.746	569.46
426.123	566.52
426.499	565.62
426.875	557.26
427.251	596.35
427.627	575.56
428.003	597.48
428.379	598.16
428.756	582.12
429.132	598.84
429.507	595.22
429.883	591.61
430.259	602.46
430.635	615.11
431.011	616.47
431.387	613.53
431.763	644.49
432.138	640.42
432.514	625.28
432.89	634.32
433.265	674.09
433.641	673.41
434.016	659.86
434.392	667.54
434.767	676.8
435.143	699.18
435.518	663.47
435.894	699.63
436.269	679.74
436.644	695.11
437.02	709.35
437.395	715.45
437.77	688.56
438.145	717.26
438.52	716.8
438.895	744.37
439.271	730.81
439.646	754.09
440.021	744.37
440.395	755.67
440.77	726.29
441.145	738.27
441.52	770.81
441.895	791.15
442.27	786.63
442.645	793.86
443.019	781.21
443.394	774.2
443.769	789.57
444.143	797.03
444.518	792.28
444.892	818.95
445.267	804.71
445.641	795.45
446.016	792.06
446.39	815.11
446.764	825.27
447.139	789.34
447.513	802.68
447.887	811.94
448.262	817.14
448.636	817.59
449.01	843.13
449.384	841.32
449.758	860.3
450.132	845.84
450.506	850.13
450.88	854.2
451.254	853.3
451.628	864.37
452.002	856.23
452.376	880.41
452.75	896.69
453.123	894.43
453.497	892.62
453.871	903.01
454.244	910.92
454.618	942.33
454.992	919.28
455.365	937.81
455.739	962.45
456.112	963.35
456.486	970.58
456.859	964.48
457.232	999.28
457.606	988.21
457.979	996.34
458.352	986.63
458.725	1018.94
459.099	1006.29
459.472	1053.29
459.845	1035.21
460.218	1046.96
460.591	1064.36
460.964	1070.01
461.337	1079.96
461.71	1080.64
462.083	1106.85
462.456	1085.38
462.829	1135.78
463.201	1126.74
463.574	1104.82
463.947	1107.53
464.32	1184.36
464.692	1174.87
465.065	1162.22
465.438	1178.94
465.81	1206.28
466.183	1211.03
466.555	1247.86
466.928	1250.12
467.3	1267.3
467.672	1264.36
468.045	1290.8
468.417	1307.07
468.789	1297.8
469.161	1309.33
469.534	1326.5
469.906	1362.21
470.278	1356.11
470.65	1395.66
471.022	1401.53
471.394	1446.73
471.766	1453.06
472.138	1463.22
472.51	1467.74
472.882	1481.08
473.253	1542.54
473.625	1534.41
473.997	1560.85
474.369	1575.99
474.74	1598.36
475.112	1604.01
475.484	1639.04
475.855	1698.25
476.227	1679.49
476.598	1712.94
476.97	1726.49
477.341	1787.51
477.713	1804.23
478.084	1835.19
478.455	1860.95
478.827	1890.11
479.198	1944.34
479.569	1972.14
479.94	2015.75
480.311	2053.49
480.682	2069.76
481.053	2120.61
481.424	2116.31
481.795	2202.64
482.166	2198.57
482.537	2192.92
482.908	2284.9
483.279	2283.54
483.65	2330.55
484.021	2385.01
484.391	2413.03
484.762	2437.66
485.133	2448.51
485.503	2481.73
485.874	2570.31
486.244	2573.7
486.615	2622.06
486.985	2629.52
487.356	2674.49
487.726	2726.24
488.097	2765.56
488.467	2783.87
488.837	2837.88
489.207	2857.76
489.578	2934.15
489.948	2971.66
490.318	2984.99
490.688	3028.83
491.058	3067.93
491.428	3093.24
491.798	3166.23
492.168	3185.21
492.538	3215.49
492.908	3221.14
493.278	3251.2
493.648	3308.83
494.017	3340.24
494.387	3375.26
494.757	3391.31
495.126	3427.69
495.496	3445.32
495.866	3459.1
496.235	3483.28
496.605	3537.07
496.974	3615.71
497.344	3579.1
497.713	3614.13
498.082	3636.5
498.452	3708.59
498.821	3685.09
499.19	3732.77
499.559	3782.26
499.928	3764.86
500.298	3765.08
500.667	3819.77
501.036	3841.01
501.405	3866.1
501.774	3886.66
502.143	3891.18
502.512	3891.63
502.88	3948.58
503.249	3928.24
503.618	4008.47
503.987	3968.7
504.356	4028.81
504.724	3987.68
505.093	4039.88
505.462	4067.22
505.83	4105.41
506.199	4097.96
506.567	4128.92
506.936	4155.36
507.304	4202.36
507.672	4258.86
508.041	4253.66
508.409	4254.56
508.777	4285.97
509.145	4316.48
509.514	4299.31
509.882	4337.05
510.25	4291.85
510.618	4343.6
510.986	4342.92
511.354	4414.79
511.722	4428.57
512.09	4469.7
512.458	4435.8
512.826	4487.1
513.193	4477.83
513.561	4449.13
513.929	4490.04
514.297	4555.57
514.664	4573.65
515.032	4589.47
515.4	4619.53
515.767	4636.02
516.135	4637.83
516.502	4595.35
516.869	4689.13
517.237	4744.27
517.604	4678.73
517.972	4721.22
518.339	4744.95
518.706	4746.98
519.073	4766.87
519.44	4800.76
519.808	4816.13
520.175	4847.09
520.542	4826.75
520.909	4866.07
521.276	4847.32
521.643	4933.42
522.009	4949.69
522.376	5001.44
522.743	4992.17
523.11	5043.92
523.477	5045.95
523.843	5061.1
524.21	5114.43
524.577	5138.61
524.943	5173.41
525.31	5134.54
525.676	5174.31
526.043	5246.4
526.409	5240.3
526.776	5271.71
527.142	5306.06
527.508	5308.09
527.874	5353.07
528.241	5362.78
528.607	5412.5
528.973	5453.18
529.339	5403.91
529.705	5462.44
530.071	5485.49
530.437	5530.69
530.803	5635.09
531.169	5638.48
531.535	5588.77
531.901	5627.18
532.267	5715.09
532.632	5723.23
532.998	5730.23
533.364	5760.06
533.73	5767.07
534.095	5743.79
534.461	5781.08
534.826	5840.96
535.192	5808.19
535.557	5916.67
535.923	5897.68
536.288	5898.36
536.653	5995.31
537.019	5968.87
537.384	5954.18
537.749	5983.33
538.114	6028.53
538.479	6028.08
538.845	6077.57
539.21	6061.07
539.575	6129.77
539.94	6101.29
540.305	6170.9
540.67	6237.34
541.034	6202.76
541.399	6217
541.764	6253.83
542.129	6322.53
542.494	6294.28
542.858	6388.74
543.223	6351.68
543.587	6436.43
543.952	6442.08
544.316	6376.99
544.681	6437.78
545.045	6459.25
545.41	6493.15
545.774	6535.18
546.138	6533.15
546.503	6616.08
546.867	6612.92
547.231	6653.37
547.595	6646.14
547.959	6679.36
548.324	6680.49
548.688	6741.05
549.052	6788.73
549.416	6742.41
549.779	6780.15
550.143	6812.91
550.507	6835.96
550.871	6908.96
551.235	6910.31
551.599	6900.82
551.962	6940.37
552.326	6962.97
552.689	7035.28
553.053	6939.92
553.417	7014.49
553.78	7012
554.143	7044.09
554.507	7087.26
554.87	7095.39
555.234	7167.71
555.597	7076.18
555.96	7156.86
556.323	7237.76
556.686	7201.15
557.05	7253.58
557.413	7226.01
557.776	7239.34
558.139	7288.16
558.502	7374.71
558.865	7375.61
559.228	7374.48
559.59	7400.7
559.953	7417.42
560.316	7530.41
560.679	7503.74
561.041	7605.66
561.404	7621.93
561.767	7612.22
562.129	7562.95
562.492	7663.97
562.854	7734.7
563.217	7708.94
563.579	7696.73
563.941	7660.35
564.304	7725.88
564.666	7842.72
565.028	7808.14
565.39	7846.11
565.753	7877.07
566.115	7880.23
566.477	7925.2
566.839	7967.46
567.201	7972.66
567.563	7935.82
567.925	8100.79
568.287	8027.8
568.648	8058.98
569.01	8176.72
569.372	8227.79
569.734	8220.33
570.095	8225.53
570.457	8307.56
570.819	8300.33
571.18	8382.59
571.542	8426.66
571.903	8394.57
572.265	8482.25
572.626	8585.97
572.987	8516.37
573.349	8577.39
573.71	8597.27
574.071	8692.41
574.432	8665.07
574.794	8725.18
575.155	8808.57
575.516	8841.56
575.877	8866.19
576.238	8973.76
576.599	9109.58
576.96	9101.67
577.32	9209.46
577.681	9297.37
578.042	9269.8
578.403	9447.2
578.763	9513.86
579.124	9633.4
579.485	9683.57
579.845	9782.1
580.206	9768.99
580.566	9900.06
580.927	10053.73
581.287	10197.01
581.648	10313.84
582.008	10373.72
582.368	10565.13
582.728	10690.78
583.089	10780.72
583.449	10903.43
583.809	11093.03
584.169	11252.35
584.529	11361.04
584.889	11610.98
585.249	11741.37
585.609	11858.88
585.969	12093.23
586.329	12281.24
586.688	12415.93
587.048	12603.27
587.408	12860.66
587.768	13166.42
588.127	13343.82
588.487	13432.85
588.846	13817.93
589.206	13921.43
589.565	14167.97
589.925	14438.48
590.284	14605.48
590.643	14962.76
591.003	15224.67
591.362	15504.89
591.721	15698.1
592.08	15997.98
592.44	16324.3
592.799	16547.35
593.158	16776.04
593.517	16976.04
593.876	17292.64
594.235	17586.19
594.593	17882.68
594.952	18194.08
595.311	18415.77
595.67	18743.67
596.029	19089.43
596.387	19359.48
596.746	19670.66
597.104	19875.62
597.463	20142.96
597.822	20497.07
598.18	20642.83
598.538	20974.58
598.897	21369.59
599.255	21408.69
599.613	21985.85
599.972	22220.87
600.33	22532.73
600.688	22694.53
601.046	23097.46
601.404	23450.22
601.762	23689.31
602.12	24056.98
602.478	24228.5
602.836	24584.88
603.194	24710.07
603.552	24925.43
603.91	25134.69
604.268	25449.71
604.625	25578.07
604.983	26075.46
605.341	26072.29
605.698	26611.94
606.056	26894.42
606.413	26920.86
606.771	27322.88
607.128	27506.38
607.485	27640.16
607.843	28004.45
608.2	28419.13
608.557	28674.49
608.914	28761.49
609.272	28952.44
609.629	29399.44
609.986	29537.29
610.343	29622.71
610.7	30030.16
611.057	30085.97
611.414	30287.1
611.771	30547.66
612.127	30624.94
612.484	30935.22
612.841	31133.86
613.198	31244.14
613.554	31540.17
613.911	31746.5
614.267	32046.83
614.624	31906.49
614.98	32176.77
615.337	32661.05
615.693	32576.3
616.05	32687.26
616.406	33139.68
616.762	33079.79
617.118	33217.19
617.475	33322.05
617.831	33535.15
618.187	33710.74
618.543	33695.15
618.899	34143.72
619.255	34163.61
619.611	34363.38
619.967	34538.51
620.323	34612.86
620.678	34695.12
621.034	34613.31
621.39	34809.69
621.746	34727.89
622.101	35370.36
622.457	35030.25
622.812	35317.93
623.168	35621.65
623.523	35572.38
623.879	35572.61
624.234	35584.59
624.589	35810.57
624.945	35778.71
625.3	36014.63
625.655	36054.41
626.01	36088.53
626.365	36271.35
626.72	36246.04
627.075	36247.17
627.43	36322.87
627.785	36317.45
628.14	36546.82
628.495	36578.01
628.85	36537.1
629.205	36556.09
629.559	36840.83
629.914	36649.42
630.269	36789.53
630.623	36677.21
630.978	36836.08
631.332	36931.22
631.687	36933.48
632.041	36936.42
632.396	36896.64
632.75	36819.36
633.104	36861.16
633.459	36911.33
633.813	36885.57
634.167	37033.59
634.521	37107.71
634.875	36972.57
635.229	37099.12
635.583	36977.54
635.937	36888.96
636.291	36964.66
636.645	36992.91
636.999	36891.9
637.352	37018.9
637.706	36814.16
638.06	36981.39
638.413	36974.83
638.767	37047.6
639.121	37094.38
639.474	36767.38
639.828	36923.76
640.181	36988.17
640.534	36998.56
640.888	36894.61
641.241	36732.81
641.594	36874.27
641.947	37064.55
642.301	36975.96
642.654	36990.88
643.007	37053.47
643.36	37005.57
643.713	36914.72
644.066	36905.91
644.419	36752.92
644.771	36555.18
645.124	36166.72
645.477	36161.52
645.83	36023.45
646.182	35884.47
646.535	35662.1
646.888	35905.93
647.24	35707.97
647.593	35806.5
647.945	35728.31
648.298	35568.54
648.65	35590.24
649.002	35687.18
649.355	35619.84
649.707	35549.79
650.059	35847.18
650.411	36026.61
650.763	36294.85
651.115	36650.55
651.467	36527.16
651.819	36444.45
652.171	36545.92
652.523	36427.28
652.875	36483.77
653.227	36211.69
653.578	36608.97
653.93	36314.29
654.282	36285.13
654.633	36158.58
654.985	36411.91
655.337	36290.78
655.688	36326.71
656.039	36351.35
656.391	36145.25
656.742	36223.67
657.094	36170.56
657.445	36249.2
657.796	36325.81
658.147	36258.47
658.498	36115.42
658.849	36260.95
659.2	36240.16
659.551	36128.75
659.902	36199.94
660.253	36159.94
660.604	36171.69
660.955	36072.03
661.306	36159.49
661.656	36012.15
662.007	36134.4
662.358	36006.5
662.708	35993.62
663.059	36041.3
663.409	35850.34
663.76	36187.06
664.11	36127.4
664.461	36161.29
664.811	36098.47
665.161	36041.98
665.511	35972.83
665.862	36104.12
666.212	36066.83
666.562	35998.81
666.912	35888.53
667.262	36048.98
667.612	35953.84
667.962	36145.25
668.312	35975.99
668.662	36193.84
669.011	36083.56
669.361	35950.68
669.711	36043.78
670.06	35947.29
670.41	35864.35
670.76	35798.37
671.109	36043.11
671.459	35840.4
671.808	35921.53
672.157	35940.28
672.507	35690.35
672.856	35580.97
673.205	35850.79
673.554	36002.88
673.904	35662.78
674.253	35832.04
674.602	35805.15
674.951	35314.99
675.3	35074.09
675.649	35688.09
675.998	35634.53
676.346	35630.69
676.695	35778.71
677.044	35370.36
677.393	35635.21
677.741	35605.15
678.09	35434.99
678.438	35481.09
678.787	35514.53
679.135	35424.14
679.484	35353.41
679.832	35406.29
680.181	35256.91
680.529	35409
680.877	35285.39
681.225	35232.73
681.573	35416.91
681.922	35123.36
682.27	35141.89
682.618	35035.67
682.966	34995.22
683.314	35048.56
683.661	34960.87
684.009	34717.49
684.357	34755
684.705	34695.8
685.053	34712.75
685.4	34592.97
685.748	34413.54
686.095	34507.1
686.443	34316.15
686.79	34243.61
687.138	34322.02
687.485	34345.98
687.832	34140.56
688.18	34184.85
688.527	34102.37
688.874	33988.02
689.221	33964.97
689.568	33859.66
689.915	33827.35
690.262	33763.84
690.609	33723.17
690.956	33658.08
691.303	33645.88
691.65	33344.42
691.997	33482.72
692.344	33255.38
692.69	33186.23
693.037	33249.96
693.383	33031.21
693.73	33093.35
694.077	32851.78
694.423	32915.28
694.769	32886.58
695.116	32839.35
695.462	32713.7
695.808	32600.94
696.155	32638.68
696.501	32348.29
696.847	32377.21
697.193	32133.83
697.539	32232.13
697.885	32105.81
698.231	31896.55
698.577	32023.78
698.923	31840.96
699.269	31771.81
699.614	31535.43
699.96	31602.32
700.306	31515.99
700.651	31408.43
700.997	31389.89
701.342	31443
701.688	31309.45
702.033	31203.46
702.379	31137.02
702.724	31053.86
703.069	31116.46
703.415	30698.39
703.76	30838.05
704.105	30688.22
704.45	30693.42
704.795	30501.78
705.14	30453.42
705.485	30508.79
705.83	30220.21
706.175	30311.51
706.52	30192.19
706.865	30112.64
707.209	30066.31
707.554	29952.19
707.899	30019.08
708.243	29794.91
708.588	29788.58
708.932	29719.2
709.277	29577.51
709.621	29614.35
709.966	29394.92
710.31	29481.47
710.654	29246.9
710.998	29308.37
711.342	29313.79
711.687	29250.06
712.031	29165.32
712.375	29001.71
712.719	29079.22
713.063	28998.77
713.407	28944.31
713.75	28940.24
714.094	28872.22
714.438	28703.86
714.782	28763.3
715.125	28609.86
715.469	28791.09
715.812	28587.03
716.156	28323.31
716.499	28408.05
716.843	28356.3
717.186	28217.77
717.53	28411.67
717.873	28427.04
718.216	28296.19
718.559	28038.8
718.902	28019.14
719.246	28150.66
719.589	27905.92
719.932	27859.37
720.275	27726.71
720.617	27713.38
720.96	27734.4
721.303	27731.91
721.646	27671.57
721.989	27529.21
722.331	27640.16
722.674	27634.29
723.016	27668.86
723.359	27519.26
723.701	27584.35
724.044	27319.27
724.386	27176.45
724.729	27353.62
725.071	27300.96
725.413	27261.42
725.755	27288.53
726.097	27076.79
726.439	27105.94
726.782	26957.47
727.124	27083.57
727.465	26963.57
727.807	26928.54
728.149	26860.3
728.491	26739.85
728.833	26790.02
729.175	26752.05
729.516	26783.01
729.858	26659.62
730.199	26660.3
730.541	26637.48
730.882	26536.01
731.224	26682.9
731.565	26460.53
731.906	26469.57
732.248	26506.18
732.589	26336.69
732.93	26235.68
733.271	26335.11
733.612	26282.68
733.953	26242.46
734.294	26209.24
734.635	25985.29
734.976	26186.87
735.317	25982.58
735.658	26075.68
735.999	26089.7
736.339	25938.96
736.68	26124.72
737.021	25925.41
737.361	25751.4
737.702	25906.65
738.042	25970.38
738.383	25797.05
738.723	25769.25
739.063	25684.51
739.404	25676.6
739.744	25583.95
740.084	25471.41
740.424	25482.48
740.764	25437.74
741.104	25567.9
741.444	25402.26
741.784	25360.45
742.124	25329.49
742.464	25379.66
742.804	25340.56
743.143	25203.39
743.483	25187.12
743.823	25071.19
744.162	25056.73
744.502	25173.79
744.841	24966.56
745.181	25060.34
745.52	24971.76
745.86	25093.56
746.199	25086.33
746.538	24878.2
746.877	25032.77
747.216	24884.76
747.556	24854.7
747.895	24807.7
748.234	24874.13
748.573	24775.61
748.911	24748.94
749.25	24611.77
749.589	24525.67
749.928	24465.78
750.267	24633.01
750.605	24496.06
750.944	24397.54
751.283	24396.18
751.621	24414.49
751.96	24289.74
752.298	24329.06
752.636	24213.13
752.975	24226.69
753.313	24036.87
753.651	24211.1
753.989	24103.76
754.327	24016.3
754.666	23948.73
755.004	23977.21
755.342	23914.84
755.679	23915.97
756.017	23712.36
756.355	23792.81
756.693	23625.35
757.031	23629.65
757.368	23586.48
757.706	23558.24
758.044	23444.57
758.381	23442.08
758.719	23377.45
759.056	23385.81
759.394	23314.4
759.731	23211.35
760.068	23114.18
760.405	23095.65
