Data from hue_290_FLMS001491_00021.txt Node
Date: Tue Feb 07 15:52:30 GMT 2017
User: dcchb
Spectrometer: FLMS00149
Trigger mode: 0
Integration Time (sec): 2.000000E-2
Scans to average: 10
Electric dark correction enabled: true
Nonlinearity correction enabled: false
Boxcar width: 0
XAxis mode: Wavelengths
Number of Pixels in Spectrum: 2048
>>>>>Begin Spectral Data<<<<<
341.393	-15.14
341.776	-15.14
342.16	-15.14
342.543	-59.21
342.927	-74.12
343.31	-82.03
343.693	-41.35
344.077	-71.86
344.46	-45.65
344.843	-67.34
345.226	-31.41
345.61	-46.1
345.993	-5.2
346.376	-8.36
346.759	23.5
347.142	16.72
347.525	41.81
347.908	58.3
348.291	66.44
348.674	81.81
349.057	110.73
349.44	136.04
349.823	140.79
350.206	172.42
350.588	192.76
350.971	193.44
351.354	212.2
351.737	218.07
352.119	235.02
352.502	272.76
352.884	264.4
353.267	301.01
353.65	274.34
354.032	308.01
354.414	325.87
354.797	295.36
355.179	311.18
355.562	305.53
355.944	312.99
356.326	338.75
356.709	319.77
357.091	320.44
357.473	331.06
357.855	331.06
358.238	351.63
358.62	339.43
359.002	327.68
359.384	334.91
359.766	355.92
360.148	348.69
360.53	351.4
360.912	351.4
361.294	349.37
361.676	345.98
362.057	324.51
362.439	309.6
362.821	321.12
363.203	312.76
363.584	348.69
363.966	327
364.348	331.52
364.729	309.82
365.111	307.79
365.493	323.61
365.874	278.64
366.256	309.37
366.637	318.86
367.019	328.58
367.4	324.06
367.781	310.27
368.163	320.9
368.544	313.21
368.925	331.29
369.306	316.6
369.688	302.36
370.069	288.58
370.45	303.27
370.831	337.39
371.212	311.18
371.593	303.04
371.974	321.8
372.355	306.66
372.736	319.09
373.117	300.33
373.498	314.12
373.879	307.34
374.26	318.86
374.641	324.51
375.021	294.23
375.402	315.92
375.783	322.7
376.163	332.87
376.544	320.22
376.925	327.45
377.305	327.22
377.686	330.84
378.066	324.74
378.447	339.43
378.827	322.7
379.208	313.21
379.588	317.05
379.968	324.06
380.349	317.28
380.729	325.64
381.109	324.51
381.489	324.96
381.87	348.01
382.25	361.8
382.63	351.4
383.01	351.86
383.39	329.71
383.77	338.07
384.15	341.46
384.53	347.11
384.91	332.19
385.29	361.12
385.67	354.79
386.049	362.48
386.429	350.95
386.809	361.8
387.189	357.28
387.568	345.75
387.948	358.41
388.328	347.79
388.707	370.39
389.087	352.31
389.466	368.58
389.846	359.54
390.225	361.12
390.605	359.76
390.984	380.1
391.363	367.9
391.743	364.96
392.122	374.23
392.501	398.41
392.881	386.43
393.26	382.14
393.639	384.62
394.018	380.78
394.397	382.14
394.776	388.69
395.155	388.69
395.534	388.24
395.913	381.91
396.292	390.05
396.671	393.89
397.05	406.77
397.429	414
397.808	403.83
398.186	376.26
398.565	394.11
398.944	401.8
399.323	415.81
399.701	425.07
400.08	425.3
400.458	420.55
400.837	423.94
401.215	418.97
401.594	429.37
401.972	416.71
402.351	415.36
402.729	427.33
403.107	425.53
403.486	434.79
403.864	449.71
404.242	439.99
404.62	467.11
404.999	460.55
405.377	449.48
405.755	456.26
406.133	459.42
406.511	470.95
406.889	452.64
407.267	475.47
407.645	484.96
408.023	489.03
408.401	487.9
408.779	485.41
409.156	486.77
409.534	482.47
409.912	504.39
410.29	525.41
410.667	524.96
411.045	514.79
411.422	543.26
411.8	561.57
412.178	540.55
412.555	563.38
412.933	567.67
413.31	568.35
413.687	577.84
414.065	554.79
414.442	583.94
414.819	571.28
415.197	600.44
415.574	609.7
415.951	628.46
416.328	624.16
416.705	624.62
417.082	628.91
417.46	646.08
417.837	654.67
418.214	670.94
418.591	674.33
418.967	692.64
419.344	703.03
419.721	688.34
420.098	707.55
420.475	710.26
420.852	710.94
421.228	724.95
421.605	731.28
421.982	734.67
422.358	747.1
422.735	785.97
423.111	769.25
423.488	779.87
423.864	774.44
424.241	809.92
424.617	823.03
424.994	842.69
425.37	813.76
425.746	824.39
426.123	824.39
426.499	858.06
426.875	860.99
427.251	891.95
427.627	896.93
428.003	868
428.379	903.25
428.756	915
429.132	908.68
429.507	939.18
429.883	923.82
430.259	948.68
430.635	957.04
431.011	976.92
431.387	983.03
431.763	1007.43
432.138	999.3
432.514	1035.23
432.89	1002.01
433.265	1045.17
433.641	1034.1
434.016	1059.63
434.392	1065.73
434.767	1102.12
435.143	1105.28
435.518	1136.69
435.894	1140.08
436.269	1138.05
436.644	1147.77
437.02	1170.82
437.395	1189.8
437.77	1172.85
438.145	1212.62
438.52	1230.7
438.895	1232.96
439.271	1227.54
439.646	1263.92
440.021	1293.07
440.395	1283.13
440.77	1278.16
441.145	1296.01
441.52	1310.7
441.895	1297.14
442.27	1320.19
442.645	1309.8
443.019	1343.69
443.394	1345.73
443.769	1329.91
444.143	1345.28
444.518	1364.48
444.892	1350.47
445.267	1399.06
445.641	1362.22
446.016	1367.65
446.39	1406.97
446.764	1395.67
447.139	1401.32
447.513	1402.67
447.887	1421.43
448.262	1415.78
448.636	1429.34
449.01	1424.14
449.384	1444.48
449.758	1441.54
450.132	1454.65
450.506	1476.57
450.88	1498.94
451.254	1499.85
451.628	1491.49
452.002	1509.11
452.376	1509.11
452.75	1540.75
453.123	1525.84
453.497	1519.73
453.871	1548.21
454.244	1551.37
454.618	1575.55
454.992	1587.98
455.365	1600.86
455.739	1626.17
456.112	1660.75
456.486	1647.64
456.859	1653.06
457.232	1676.11
457.606	1690.35
457.979	1704.14
458.352	1703.01
458.725	1713.18
459.099	1753.4
459.472	1745.26
459.845	1782.33
460.218	1772.61
460.591	1792.5
460.964	1803.57
461.337	1845.6
461.71	1839.05
462.083	1881.98
462.456	1871.59
462.829	1873.4
463.201	1919.27
463.574	1941.64
463.947	1905.26
464.32	1951.81
464.692	1983.68
465.065	1975.54
465.438	1990.68
465.81	1975.99
466.183	2007.4
466.555	2061.41
466.928	2037.91
467.3	2024.58
467.672	2060.06
468.045	2142.09
468.417	2148.19
468.789	2121.98
469.161	2161.53
469.534	2185.71
469.906	2205.37
470.278	2214.18
470.65	2250.34
471.022	2284.91
471.394	2292.82
471.766	2341.41
472.138	2331.69
472.51	2364.01
472.882	2404.68
473.253	2432.48
473.625	2455.75
473.997	2500.5
474.369	2506.6
474.74	2487.62
475.112	2491.91
475.484	2585.47
475.855	2550.22
476.227	2606.49
476.598	2657.11
476.97	2697.1
477.341	2727.39
477.713	2745.46
478.084	2760.61
478.455	2820.26
478.827	2822.75
479.198	2876.08
479.569	2884.67
479.94	2940.94
480.311	2990.2
480.682	3038.11
481.053	3088.96
481.424	3122.4
481.795	3130.09
482.166	3181.16
482.537	3216.86
482.908	3266.81
483.279	3259.8
483.65	3277.65
484.021	3381.15
484.391	3360.36
484.762	3363.98
485.133	3399.46
485.503	3444.88
485.874	3495.05
486.244	3521.72
486.615	3569.17
486.985	3626.35
487.356	3650.07
487.726	3674.03
488.097	3713.35
488.467	3723.74
488.837	3802.39
489.207	3786.57
489.578	3894.13
489.948	3846.23
490.318	3911.08
490.688	3945.43
491.058	3997.63
491.428	4023.62
491.798	4031.08
492.168	4107.69
492.538	4084.86
492.908	4142.49
493.278	4205.54
493.648	4229.27
494.017	4255.03
494.387	4317.17
494.757	4290.73
495.126	4305.42
495.496	4349.49
495.866	4355.37
496.235	4370.96
496.605	4411.41
496.974	4447.57
497.344	4437.17
497.713	4447.57
498.082	4526.66
498.452	4535.02
498.821	4534.12
499.19	4560.11
499.559	4602.59
499.928	4649.37
500.298	4666.09
500.667	4694.11
501.036	4687.79
501.405	4685.07
501.774	4709.48
502.143	4712.42
502.512	4756.71
502.88	4767.56
503.249	4777.73
503.618	4809.37
503.987	4842.58
504.356	4805.98
504.724	4869.7
505.093	4861.12
505.462	4862.7
505.83	4909.48
506.199	4952.86
506.567	5007.33
506.936	4950.38
507.304	4994.44
507.672	5023.14
508.041	5063.6
508.409	5088.68
508.777	5113.09
509.145	5073.99
509.514	5110.6
509.882	5094.78
510.25	5118.06
510.618	5142.46
510.986	5139.75
511.354	5202.12
511.722	5240.09
512.09	5246.19
512.458	5251.84
512.826	5280.31
513.193	5267.43
513.561	5278.51
513.929	5330.71
514.297	5293.19
514.664	5405.28
515.032	5372.97
515.4	5377.26
515.767	5403.93
516.135	5378.84
516.502	5408.22
516.869	5490.7
517.237	5464.94
517.604	5438.05
517.972	5491.38
518.339	5509.01
518.706	5510.36
519.073	5520.31
519.44	5610.47
519.808	5598.27
520.175	5610.7
520.542	5618.61
520.909	5610.93
521.276	5595.11
521.643	5753.3
522.009	5661.77
522.376	5723.47
522.743	5775.67
523.11	5779.74
523.477	5822.9
523.843	5878.49
524.21	5855.44
524.577	5925.72
524.943	5919.62
525.31	5939.28
525.676	6020.86
526.043	6075.32
526.409	6002.1
526.776	6091.37
527.142	6081.42
527.508	6072.16
527.874	6155.77
528.241	6125.71
528.607	6178.59
528.973	6194.41
529.339	6202.77
529.705	6246.84
530.071	6327.52
530.437	6329.1
530.803	6357.8
531.169	6335.88
531.535	6337.23
531.901	6360.51
532.267	6370.91
532.632	6411.13
532.998	6435.31
533.364	6464.46
533.73	6542.65
534.095	6549.43
534.461	6549.21
534.826	6532.03
535.192	6614.06
535.557	6604.8
535.923	6689.09
536.288	6614.29
536.653	6678.69
537.019	6690.45
537.384	6670.11
537.749	6714.63
538.114	6755.53
538.479	6722.99
538.845	6765.02
539.21	6783.55
539.575	6816.77
539.94	6819.03
540.305	6853.61
540.67	6880.72
541.034	6848.18
541.399	6884.11
541.764	6909.87
542.129	6900.61
542.494	6919.14
542.858	6943.55
543.223	6992.58
543.587	7043.2
543.952	6988.74
544.316	7038.46
544.681	7058.35
545.045	7077.1
545.41	7133.37
545.774	7124.33
546.138	7152.13
546.503	7135.86
546.867	7188.96
547.231	7209.98
547.595	7216.99
547.959	7212.47
548.324	7225.35
548.688	7240.49
549.052	7316.42
549.416	7256.31
549.779	7320.94
550.143	7314.84
550.507	7357.09
550.871	7425.79
551.235	7349.41
551.599	7444.78
551.962	7410.2
552.326	7420.37
552.689	7450.65
553.053	7487.26
553.417	7483.42
553.78	7518.67
554.143	7513.7
554.507	7581.27
554.87	7562.96
555.234	7639.8
555.597	7574.94
555.96	7574.26
556.323	7641.61
556.686	7688.61
557.05	7702.62
557.413	7683.41
557.776	7698.1
558.139	7729.06
558.502	7734.26
558.865	7769.06
559.228	7819
559.59	7820.59
559.953	7799.57
560.316	7922.73
560.679	7844.09
561.041	7946.46
561.404	7938.32
561.767	7961.82
562.129	7888.61
562.492	8007.47
562.854	8033.46
563.217	8010.41
563.579	8036.17
563.941	8052.44
564.304	8136.51
564.666	8113.23
565.028	8222.38
565.39	8163.85
565.753	8256.73
566.115	8214.02
566.477	8266
566.839	8242.27
567.201	8393.23
567.563	8333.57
567.925	8424.64
568.287	8405.65
568.648	8441.59
569.01	8470.51
569.372	8571.98
569.734	8489.27
570.095	8598.42
570.457	8533.33
570.819	8603.16
571.18	8563.84
571.542	8658.76
571.903	8677.96
572.265	8747.57
572.626	8761.8
572.987	8804.97
573.349	8805.19
573.71	8854.91
574.071	8931.74
574.432	8978.07
574.794	9007.45
575.155	9034.34
575.516	9055.13
575.877	9129.25
576.238	9201.57
576.599	9249.7
576.96	9189.36
577.32	9265.52
577.681	9390.94
578.042	9409.24
578.403	9515.68
578.763	9538.51
579.124	9518.39
579.485	9661.21
579.845	9717.26
580.206	9807.2
580.566	9873.41
580.927	9876.12
581.287	10030.92
581.648	9961.09
582.008	10143.01
582.368	10224.36
582.728	10330.58
583.089	10405.83
583.449	10466.62
583.809	10618.48
584.169	10670.68
584.529	10743.22
584.889	10950.9
585.249	10950.22
585.609	11012.59
585.969	11117
586.329	11263.43
586.688	11369.64
587.048	11531
587.408	11548.4
587.768	11684.66
588.127	11781.61
588.487	11921.04
588.846	12148.38
589.206	12194.26
589.565	12321.71
589.925	12447.13
590.284	12571.19
590.643	12682.6
591.003	12862.49
591.362	13072.42
591.721	13194
592.08	13221.57
592.44	13436.71
592.799	13525.07
593.158	13641.22
593.517	13871.05
593.876	13997.37
594.235	14026.52
594.593	14262.45
594.952	14354.65
595.311	14491.82
595.67	14678.71
596.029	14775.2
596.387	14963.67
596.746	15079.15
597.104	15213.39
597.463	15315.3
597.822	15476.43
598.18	15533.83
598.538	15566.14
598.897	15858.79
599.255	15970.43
599.613	16256.3
599.972	16183.98
600.33	16415.16
600.688	16396.86
601.046	16533.8
601.404	16808.82
601.762	16901.48
602.12	16978.99
602.478	17036.16
602.836	17221.24
603.194	17191.86
603.552	17323.61
603.91	17352.31
604.268	17553.66
604.625	17534.68
604.983	17673.21
605.341	17704.17
605.698	17842.92
606.056	18107.32
606.413	18118.62
606.771	18281.33
607.128	18287.65
607.485	18299.86
607.843	18365.62
608.2	18649.23
608.557	18776.23
608.914	18715.67
609.272	18839.05
609.629	18944.13
609.986	19073.62
610.343	19071.81
610.7	19230.23
611.057	19246.27
611.414	19257.57
611.771	19334.86
612.127	19505.48
612.484	19587.51
612.841	19761.97
613.198	19608.75
613.554	19708.18
613.911	19973.26
614.267	19884
614.624	19869.08
614.98	20067.49
615.337	20199.02
615.693	20136.87
616.05	20218
616.406	20420.93
616.762	20290.09
617.118	20439.91
617.475	20528.27
617.831	20517.65
618.187	20570.08
618.543	20585.9
618.899	20768.04
619.255	20770.3
619.611	20700.47
619.967	20870.41
620.323	20985.44
620.678	20865.67
621.034	20970.75
621.39	20931.65
621.746	20859.11
622.101	21216.84
622.457	21039.67
622.812	21113.57
623.168	21178.43
623.523	21221.59
623.879	21304.52
624.234	21217.3
624.589	21262.04
624.945	21252.55
625.3	21370.74
625.655	21330.06
626.01	21436.95
626.365	21430.85
626.72	21436.5
627.075	21384.52
627.43	21405.99
627.785	21398.76
628.14	21460
628.495	21504.07
628.85	21568.92
629.205	21424.3
629.559	21558.3
629.914	21428.59
630.269	21418.87
630.623	21381.81
630.978	21433.33
631.332	21454.8
631.687	21530.73
632.041	21406.22
632.396	21489.6
632.75	21380.91
633.104	21426.33
633.459	21302.04
633.813	21267.46
634.167	21416.16
634.521	21400.57
634.875	21423.39
635.229	21345.2
635.583	21278.54
635.937	21403.05
636.291	21348.37
636.645	21399.66
636.999	21304.98
637.352	21306.78
637.706	21238.31
638.06	21370.96
638.413	21327.35
638.767	21250.97
639.121	21249.16
639.474	21239.22
639.828	21211.42
640.181	21236.28
640.534	21224.3
640.888	21044.42
641.241	20996.74
641.594	21147.24
641.947	21092.33
642.301	21128.71
642.654	21167.13
643.007	21130.07
643.36	21068.6
643.713	21047.36
644.066	21072.21
644.419	20941.6
644.771	20831.32
645.124	20703.41
645.477	20638.33
645.83	20594.49
646.182	20482.63
646.535	20476.52
646.888	20502.06
647.24	20348.17
647.593	20561.72
647.945	20448.73
648.298	20403.31
648.65	20407.15
649.002	20320.14
649.355	20417.99
649.707	20447.6
650.059	20531.66
650.411	20701.6
650.763	20750.64
651.115	21059.56
651.467	20925.33
651.819	20976.85
652.171	20884.65
652.523	20915.38
652.875	20887.36
653.227	20833.58
653.578	21001.26
653.93	20916.51
654.282	20901.37
654.633	20780.47
654.985	20931.43
655.337	20849.17
655.688	20913.12
656.039	20959.67
656.391	20820.92
656.742	20850.53
657.094	20919.22
657.445	20932.33
657.796	20921.26
658.147	20968.49
658.498	20935.95
658.849	20804.2
659.2	20990.86
659.551	20803.97
659.902	20962.39
660.253	20927.59
660.604	20967.36
660.955	20915.83
661.306	20902.28
661.656	20970.3
662.007	20911.77
662.358	20909.28
662.708	21015.27
663.059	21009.17
663.409	20916.96
663.76	21024.53
664.11	21066.56
664.461	21085.1
664.811	20948.6
665.161	20974.36
665.511	20939.11
665.862	20968.71
666.212	21035.61
666.562	21008.49
666.912	21017.3
667.262	21022.05
667.612	20986.34
667.962	20896.85
668.312	20948.15
668.662	21056.85
669.011	20980.01
669.361	20851.88
669.711	20847.59
670.06	20882.16
670.41	20873.12
670.76	20880.35
671.109	21007.13
671.459	20858.66
671.808	20684.43
672.157	20841.26
672.507	20761.71
672.856	20766.23
673.205	20776.18
673.554	20899.79
673.904	20704.54
674.253	20927.36
674.602	20776.85
674.951	20613.92
675.3	20452.57
675.649	20881.71
675.998	20655.73
676.346	20798.78
676.695	20730.53
677.044	20534.38
677.393	20706.57
677.741	20659.8
678.09	20664.09
678.438	20577.54
678.787	20570.31
679.135	20641.49
679.484	20563.98
679.832	20522.62
680.181	20427.94
680.529	20375.74
680.877	20446.24
681.225	20372.8
681.573	20521.95
681.922	20394.04
682.27	20383.87
682.618	20262.52
682.966	20195.18
683.314	20367.15
683.661	20227.26
684.009	19970.32
684.357	20036.99
684.705	20053.26
685.053	20121.28
685.4	20045.12
685.748	19893.04
686.095	19970.1
686.443	19807.61
686.79	19768.75
687.138	19853.72
687.485	19790.67
687.832	19696.21
688.18	19766.26
688.527	19617.34
688.874	19637.68
689.221	19603.1
689.568	19445.36
689.915	19434.52
690.262	19348.87
690.609	19315.42
690.956	19262.09
691.303	19277.46
691.65	19203.11
691.997	19161.53
692.344	18986.85
692.69	18999.95
693.037	19020.29
693.383	18806.74
693.73	18823.91
694.077	18667.98
694.423	18818.26
694.769	18665.72
695.116	18653.07
695.462	18648.1
695.808	18552.73
696.155	18505.28
696.501	18395.9
696.847	18491.04
697.193	18286.98
697.539	18291.95
697.885	18032.07
698.231	18000.88
698.577	18042.92
698.923	18021.9
699.269	17884.73
699.614	17802.02
699.96	17731.29
700.306	17808.35
700.651	17718.86
700.997	17617.62
701.342	17595.47
701.688	17622.59
702.033	17514.12
702.379	17436.6
702.724	17383.27
703.069	17448.13
703.415	17206.1
703.76	17374.23
704.105	17193.45
704.45	17106.89
704.795	17109.38
705.14	16967.46
705.485	16958.65
705.83	16874.36
706.175	16890.63
706.52	16842.95
706.865	16728.37
707.209	16802.5
707.554	16681.37
707.899	16702.61
708.243	16681.82
708.588	16555.5
708.932	16487.02
709.277	16383.52
709.621	16557.98
709.966	16357.08
710.31	16395.05
710.654	16236.64
710.998	16137.65
711.342	16261.49
711.687	16156.41
712.031	16067.83
712.375	16068.05
712.719	16072.12
713.063	16152.57
713.407	16046.36
713.75	15991.22
714.094	15979.47
714.438	15874.61
714.782	15820.83
715.125	15797.55
715.469	15805.91
715.812	15749.87
716.156	15680.94
716.499	15610.21
716.843	15756.2
717.186	15612.24
717.53	15680.94
717.873	15625.8
718.216	15599.82
718.559	15526.82
718.902	15465.81
719.246	15506.48
719.589	15452.25
719.932	15429.88
720.275	15472.59
720.617	15476.2
720.96	15397.34
721.303	15446.6
721.646	15432.59
721.989	15306.94
722.331	15314.63
722.674	15342.87
723.016	15239.15
723.359	15282.99
723.701	15372.48
724.044	15174.06
724.386	15146.95
724.729	15138.81
725.071	15168.87
725.413	15106.04
725.755	15170.67
726.097	15009.1
726.439	14974.75
726.782	15114.63
727.124	15136.55
727.465	14982.2
727.807	15039.38
728.149	15009.1
728.491	14980.62
728.833	14906.27
729.175	14933.39
729.516	14910.12
729.858	14917.8
730.199	14941.53
730.541	14935.88
730.882	14923.68
731.224	15033.73
731.565	14893.85
731.906	14825.15
732.248	14935.43
732.589	14827.63
732.93	14779.72
733.271	14797.35
733.612	14882.77
733.953	14878.7
734.294	14760.52
734.635	14818.37
734.976	14819.5
735.317	14736.79
735.658	14760.52
735.999	14857.91
736.339	14787.41
736.68	14902.66
737.021	14775.43
737.361	14724.58
737.702	14791.7
738.042	14775.88
738.383	14712.61
738.723	14822.89
739.063	14735.66
739.404	14820.63
739.744	14760.29
740.084	14715.09
740.424	14782.89
740.764	14838.93
741.104	14892.49
741.444	14835.99
741.784	14908.08
742.124	14885.94
742.464	14938.59
742.804	14864.24
743.143	14790.8
743.483	14930.45
743.823	14939.04
744.162	14923
744.502	14950.57
744.841	14902.88
745.181	15046.38
745.52	15031.24
745.86	15160.28
746.199	15044.35
746.538	15141.07
746.877	15252.71
747.216	15234.85
747.556	15208.19
747.895	15359.6
748.234	15301.07
748.573	15386.26
748.911	15435.07
749.25	15483.21
749.589	15499.71
749.928	15631
750.267	15676.65
750.605	15746.93
750.944	15809.98
751.283	15784.9
751.621	16023.53
751.96	16033.93
752.298	16076.64
752.636	16195.51
752.975	16179.46
753.313	16208.39
753.651	16486.35
753.989	16587.36
754.327	16585.78
754.666	16715.04
755.004	16882.72
755.342	16955.49
755.679	16975.37
756.017	17088.14
756.355	17185.76
756.693	17243.16
757.031	17388.24
757.368	17453.1
757.706	17512.08
758.044	17637.28
758.381	17788.68
758.719	17883.37
759.056	17977.15
759.394	18036.59
759.731	18047.89
