Data from hue_300_FLMS001491_00084.txt Node
Date: Tue Feb 07 15:51:19 GMT 2017
User: dcchb
Spectrometer: FLMS00149
Trigger mode: 0
Integration Time (sec): 2.000000E-2
Scans to average: 10
Electric dark correction enabled: true
Nonlinearity correction enabled: false
Boxcar width: 0
XAxis mode: Wavelengths
Number of Pixels in Spectrum: 2048
>>>>>Begin Spectral Data<<<<<
341.393	-12.46
341.776	-12.46
342.16	-12.46
342.543	-49.29
342.927	-45.9
343.31	-73.25
343.693	-54.04
344.077	-72.57
344.46	-52
344.843	-40.93
345.226	-53.36
345.61	-47.03
345.993	-7.71
346.376	8.11
346.759	3.59
347.142	25.96
347.525	40.2
347.908	39.97
348.291	68.9
348.674	96.47
349.057	117.71
349.44	114.55
349.823	157.26
350.206	148.44
350.588	187.99
350.971	199.51
351.354	242.9
351.737	244.71
352.119	250.13
352.502	244.03
352.884	260.76
353.267	285.16
353.65	295.78
354.032	300.98
354.414	317.93
354.797	344.82
355.179	300.98
355.562	325.61
355.944	328.55
356.326	322
356.709	333.97
357.091	332.84
357.473	338.04
357.855	349.79
358.238	351.37
358.62	334.88
359.002	354.99
359.384	364.03
359.766	338.04
360.148	337.82
360.53	339.85
360.912	340.98
361.294	335.1
361.676	345.05
362.057	333.3
362.439	363.8
362.821	336.46
363.203	316.57
363.584	339.4
363.966	313.18
364.348	339.85
364.729	333.75
365.111	296.69
365.493	345.05
365.874	333.75
366.256	333.97
366.637	338.04
367.019	316.35
367.4	335.1
367.781	341.21
368.163	340.75
368.544	327.19
368.925	345.95
369.306	331.04
369.688	314.99
370.069	334.2
370.45	312.73
370.831	328.78
371.212	325.84
371.593	323.58
371.974	325.84
372.355	329.23
372.736	312.51
373.117	312.96
373.498	314.31
373.879	320.19
374.26	326.29
374.641	326.06
375.021	333.75
375.402	341.43
375.783	322.9
376.163	330.36
376.544	328.55
376.925	315.22
377.305	340.08
377.686	341.43
378.066	343.47
378.447	354.31
378.827	361.77
379.208	334.2
379.588	356.35
379.968	344.37
380.349	354.09
380.729	354.54
381.109	345.95
381.489	353.18
381.87	339.85
382.25	337.59
382.63	369
383.01	344.37
383.39	374.65
383.77	374.88
384.15	377.81
384.53	354.09
384.91	369.45
385.29	366.06
385.67	377.59
386.049	377.14
386.429	383.46
386.809	377.59
387.189	370.13
387.568	347.76
387.948	366.29
388.328	370.81
388.707	389.57
389.087	382.79
389.466	387.98
389.846	398.61
390.225	418.72
390.605	400.19
390.984	418.49
391.363	395.44
391.743	399.96
392.122	394.99
392.501	410.36
392.881	415.55
393.26	403.12
393.639	421.2
394.018	416.68
394.397	394.09
394.776	411.94
395.155	432.5
395.534	406.06
395.913	410.81
396.292	423.92
396.671	425.95
397.05	447.19
397.429	421.43
397.808	419.85
398.186	433.86
398.565	449.45
398.944	438.38
399.323	453.75
399.701	433.63
400.08	444.48
400.458	439.28
400.837	451.49
401.215	451.71
401.594	444.71
401.972	460.07
402.351	481.09
402.729	471.82
403.107	486.96
403.486	457.36
403.864	459.85
404.242	504.14
404.62	477.25
404.999	502.56
405.377	501.43
405.755	504.59
406.133	510.92
406.511	501.43
406.889	537.36
407.267	524.25
407.645	526.06
408.023	519.28
408.401	542.1
408.779	553.18
409.156	567.41
409.534	558.15
409.912	569.9
410.29	595.21
410.667	588.88
411.045	591.14
411.422	587.75
411.8	624.81
412.178	622.55
412.555	630.92
412.933	639.05
413.31	670.91
413.687	649.45
414.065	667.3
414.442	705.26
414.819	705.49
415.197	703
415.574	700.29
415.951	742.78
416.328	746.62
416.705	741.87
417.082	761.53
417.46	742.33
417.837	763.12
418.214	787.75
418.591	800.63
418.967	809.89
419.344	799.5
419.721	807.41
420.098	801.98
420.475	840.85
420.852	843.57
421.228	846.28
421.605	864.13
421.982	884.92
422.358	897.35
422.735	896.22
423.111	895.77
423.488	914.75
423.864	933.73
424.241	965.14
424.617	948.42
424.994	956.33
425.37	956.56
425.746	988.19
426.123	972.6
426.499	1011.92
426.875	1014.63
427.251	1018.02
427.627	1047.18
428.003	1075.65
428.379	1055.99
428.756	1070.45
429.132	1104.58
429.507	1134.41
429.883	1117
430.259	1147.29
430.635	1143.44
431.011	1141.18
431.387	1197.68
431.763	1194.29
432.138	1159.26
432.514	1234.97
432.89	1230.45
433.265	1261.86
433.641	1259.6
434.016	1270.9
434.392	1323.78
434.767	1334.85
435.143	1325.81
435.518	1331.24
435.894	1353.61
436.269	1357.22
436.644	1405.13
437.02	1422.99
437.395	1396.55
437.77	1414.4
438.145	1448.52
438.52	1445.13
438.895	1466.6
439.271	1484
439.646	1504.34
440.021	1507.95
440.395	1500.05
440.77	1507.95
441.145	1542.98
441.52	1591.79
441.895	1532.36
442.27	1542.76
442.645	1562.42
443.019	1563.09
443.394	1578.46
443.769	1577.11
444.143	1559.48
444.518	1611.91
444.892	1599.7
445.267	1610.55
445.641	1649.65
446.016	1628.18
446.39	1657.56
446.764	1625.92
447.139	1600.16
447.513	1642.19
447.887	1644.67
448.262	1664.79
448.636	1667.95
449.01	1665.01
449.384	1694.16
449.758	1708.4
450.132	1712.02
450.506	1746.14
450.88	1726.03
451.254	1723.32
451.628	1746.37
452.002	1741.17
452.376	1778.46
452.75	1748.17
453.123	1775.29
453.497	1811.45
453.871	1774.16
454.244	1867.04
454.618	1834.5
454.992	1863.2
455.365	1884.22
455.739	1878.79
456.112	1886.25
456.486	1914.05
456.859	1903.65
457.232	1909.98
457.606	1907.27
457.979	1985.23
458.352	2016.64
458.725	2039.24
459.099	2010.77
459.472	2025.23
459.845	2083.76
460.218	2045.34
460.591	2049.64
460.964	2077.21
461.337	2142.97
461.71	2151.78
462.083	2152.91
462.456	2173.93
462.829	2171.67
463.201	2179.35
463.574	2189.74
463.947	2198.33
464.32	2277.43
464.692	2292.34
465.065	2270.19
465.438	2324.2
465.81	2350.64
466.183	2336.86
466.555	2391.77
466.928	2415.73
467.3	2362.17
467.672	2400.81
468.045	2499.12
468.417	2490.08
468.789	2495.27
469.161	2506.8
469.534	2536.4
469.906	2577.08
470.278	2572.33
470.65	2589.51
471.022	2629.51
471.394	2683.07
471.766	2688.71
472.138	2684.65
472.51	2778.2
472.882	2789.5
473.253	2777.75
473.625	2815.49
473.997	2874.47
474.369	2871.53
474.74	2872.44
475.112	2955.37
475.484	3002.83
475.855	3013.68
476.227	3030.63
476.598	3078.76
476.97	3108.59
477.341	3118.08
477.713	3188.36
478.084	3198.53
478.455	3269.04
478.827	3264.74
479.198	3315.14
479.569	3338.19
479.94	3408.92
480.311	3442.14
480.682	3486.21
481.053	3544.74
481.424	3575.92
481.795	3586.09
482.166	3618.41
482.537	3666.99
482.908	3686.65
483.279	3769.36
483.65	3822.02
484.021	3858.18
484.391	3876.25
484.762	3927.1
485.133	3904.05
485.503	3963.94
485.874	4026.76
486.244	4017.04
486.615	4114.21
486.985	4139.52
487.356	4150.82
487.726	4205.51
488.097	4240.76
488.467	4286.41
488.837	4382
489.207	4384.26
489.578	4452.74
489.948	4459.06
490.318	4504.71
490.688	4559.17
491.058	4544.71
491.428	4606.86
491.798	4646.18
492.168	4717.36
492.538	4684.37
492.908	4737.7
493.278	4794.65
493.648	4752.39
494.017	4869.22
494.387	4902.89
494.757	4909.45
495.126	4923.01
495.496	4957.58
495.866	4955.32
496.235	5011.37
496.605	5037.58
496.974	5008.88
497.344	5112.83
497.713	5122.1
498.082	5165.26
498.452	5161.64
498.821	5217.24
499.19	5216.33
499.559	5215.65
499.928	5240.74
500.298	5350.34
500.667	5353.73
501.036	5341.07
501.405	5377.01
501.774	5346.05
502.143	5353.05
502.512	5461.3
502.88	5499.26
503.249	5461.07
503.618	5480.51
503.987	5482.54
504.356	5533.61
504.724	5512.6
505.093	5522.76
505.462	5595.08
505.83	5606.15
506.199	5626.04
506.567	5677.11
506.936	5654.29
507.304	5739.03
507.672	5708.52
508.041	5715.98
508.409	5761.4
508.777	5811.12
509.145	5823.1
509.514	5805.47
509.882	5871
510.25	5880.27
510.618	5872.13
510.986	5933.38
511.354	5912.13
511.722	5991
512.09	6056.31
512.458	6052.92
512.826	6033.26
513.193	6049.98
513.561	6097.89
513.929	6100.6
514.297	6100.83
514.664	6131.56
515.032	6165.91
515.4	6215.4
515.767	6114.39
516.135	6212.46
516.502	6175.85
516.869	6314.38
517.237	6301.27
517.604	6269.86
517.972	6295.17
518.339	6358.9
518.706	6344.44
519.073	6360.03
519.44	6358
519.808	6417.88
520.175	6462.63
520.542	6477.77
520.909	6504.43
521.276	6487.48
521.643	6563.64
522.009	6543.08
522.376	6632.79
522.743	6654.03
523.11	6656.75
523.477	6748.95
523.843	6758.66
524.21	6791.21
524.577	6770.19
524.943	6796.4
525.31	6899.9
525.676	6896.51
526.043	6927.47
526.409	6940.58
526.776	7058.77
527.142	7023.74
527.508	7091.31
527.874	7104.19
528.241	7117.98
528.607	7169.5
528.973	7177.86
529.339	7213.34
529.705	7286.11
530.071	7290.4
530.437	7284.07
530.803	7425.31
531.169	7415.6
531.535	7401.36
531.901	7420.57
532.267	7497.85
532.632	7436.16
532.998	7557.06
533.364	7628.02
533.73	7622.14
534.095	7685.65
534.461	7672.99
534.826	7730.84
535.192	7748.02
535.557	7812.87
535.923	7840.9
536.288	7858.97
536.653	7895.81
537.019	7828.47
537.384	7908.46
537.749	7985.75
538.114	7994.79
538.479	8001.8
538.845	8034.11
539.21	8054.9
539.575	8052.42
539.94	8130.15
540.305	8158.4
540.67	8196.82
541.034	8221.68
541.399	8244.27
541.764	8308.68
542.129	8317.27
542.494	8362.92
542.858	8426.64
543.223	8442.24
543.587	8453.31
543.952	8482.69
544.316	8495.79
544.681	8489.01
545.045	8541.44
545.41	8634.55
545.774	8594.1
546.138	8671.83
546.503	8740.76
546.867	8696.24
547.231	8773.98
547.595	8790.25
547.959	8798.61
548.324	8786.63
548.688	8816.24
549.052	8922.9
549.416	8904.14
549.779	8973.97
550.143	8958.61
550.507	9030.92
550.871	9075.44
551.235	9108.21
551.599	9049.23
551.962	9111.14
552.326	9151.14
552.689	9263.91
553.053	9218.26
553.417	9178.04
553.78	9284.02
554.143	9219.39
554.507	9332.61
554.87	9290.57
555.234	9386.84
555.597	9354.98
555.96	9385.71
556.323	9512.49
556.686	9458.48
557.05	9580.28
557.413	9571.7
557.776	9603.79
558.139	9622.77
558.502	9664.58
558.865	9681.75
559.228	9751.13
559.59	9741.86
559.953	9795.87
560.316	9850.11
560.679	9847.85
561.041	9837.45
561.404	9908.64
561.767	9966.94
562.129	9980.05
562.492	10031.35
562.854	10093.49
563.217	10029.76
563.579	10084
563.941	10126.03
564.304	10149.31
564.666	10194.51
565.028	10219.59
565.39	10180.5
565.753	10254.84
566.115	10282.64
566.477	10289.19
566.839	10371
567.201	10486.93
567.563	10442.64
567.925	10531.9
568.287	10529.41
568.648	10544.55
569.01	10628.84
569.372	10648.96
569.734	10690.54
570.095	10739.8
570.457	10784.09
570.819	10859.35
571.18	10867.48
571.542	10968.5
571.903	10939.35
572.265	11047.14
572.626	11054.82
572.987	11100.7
573.349	11224.54
573.71	11229.28
574.071	11317.41
574.432	11365.77
574.794	11468.6
575.155	11488.94
575.516	11588.59
575.877	11674.69
576.238	11795.82
576.599	11853.9
576.96	11924.4
577.32	12064.51
577.681	12095.47
578.042	12262.93
578.403	12390.15
578.763	12527.78
579.124	12553.54
579.485	12722.8
579.845	12876.47
580.206	13007.31
580.566	13103.36
580.927	13302.67
581.287	13469.22
581.648	13618.14
582.008	13838.48
582.368	13904.92
582.728	14220.84
583.089	14287.73
583.449	14499.48
583.809	14751.22
584.169	15020.14
584.529	15176.97
584.889	15412.22
585.249	15598.43
585.609	15734.93
585.969	16182.6
586.329	16374
586.688	16673.21
587.048	16980.77
587.408	17218.05
587.768	17485.84
588.127	17682.22
588.487	17959.27
588.846	18456.44
589.206	18606.04
589.565	18915.18
589.925	19309.07
590.284	19648.72
590.643	19861.37
591.003	20339.78
591.362	20672.65
591.721	20942.92
592.08	21256.59
592.44	21552.85
592.799	21911.03
593.158	22273.06
593.517	22509.44
593.876	22969.09
594.235	23265.35
594.593	23586.24
594.952	23859.23
595.311	24193.01
595.67	24644.75
596.029	25085.87
596.387	25428
596.746	25749.13
597.104	26030.02
597.463	26371.26
597.822	26694.19
598.18	26913.16
598.538	27456.65
598.897	27944.32
599.255	27909.07
599.613	28695.26
599.972	28725.77
600.33	29127.12
600.688	29355.13
601.046	29771.39
601.404	30224.49
601.762	30378.38
602.12	30845.04
602.478	30953.51
602.836	31408.19
603.194	31648.63
603.552	31960.26
603.91	31997.77
604.268	32601.37
604.625	32624.88
604.983	33069.84
605.341	33153
605.698	33542.14
606.056	33934.9
606.413	34009.7
606.771	34532.85
607.128	34752.28
607.485	34814.65
607.843	35029.56
608.2	35404.69
608.557	35804.23
608.914	35966.71
609.272	36304.55
609.629	36583.87
609.986	36929.4
610.343	36883.07
610.7	37451.42
611.057	37510.85
611.414	37478.53
611.771	37948.13
612.127	38258.85
612.484	38360.32
612.841	38598.28
613.198	38641.89
613.554	38850.25
613.911	39175.44
614.267	39292.27
614.624	39570
614.98	39511.48
615.337	39965.93
615.693	40054.96
616.05	39990.11
616.406	40507.16
616.762	40434.84
617.118	40593.71
617.475	40844.55
617.831	41121.15
618.187	41159.57
618.543	41378.54
618.899	41583.74
619.255	41752.32
619.611	41649.5
619.967	41910.28
620.323	42125.42
620.678	42154.57
621.034	42184.4
621.39	42270.05
621.746	42378.07
622.101	42890.14
622.457	42641.34
622.812	42873.65
623.168	43051.72
623.523	43088.1
623.879	43286.07
624.234	43020.54
624.589	43477.02
624.945	43410.58
625.3	43552.05
625.655	43439.51
626.01	43555.44
626.365	43675.89
626.72	43727.86
627.075	43855.32
627.43	43858.93
627.785	43847.63
628.14	43862.55
628.495	44135.99
628.85	44085.37
629.205	44032.26
629.559	44347.96
629.914	44153.61
630.269	44247.17
630.623	44255.76
630.978	44024.35
631.332	44267.96
631.687	44536.88
632.041	44225.7
632.396	44441.97
632.75	44306.38
633.104	44422.76
633.459	44162.88
633.813	44244.01
634.167	44258.24
634.521	44131.69
634.875	44291.01
635.229	44256.44
635.583	44258.7
635.937	44271.8
636.291	44187.74
636.645	44264.57
636.999	44237.23
637.352	44387.96
637.706	44161.52
638.06	44364.68
638.413	44220.73
638.767	44098.25
639.121	44331.01
639.474	43925.6
639.828	44107.06
640.181	44161.07
640.534	44155.65
640.888	44105.93
641.241	44071.36
641.594	43994.75
641.947	44130.79
642.301	44032.71
642.654	44238.81
643.007	44186.38
643.36	44140.28
643.713	43905.94
644.066	44170.56
644.419	44039.04
644.771	43711.59
645.124	43340.3
645.477	43231.83
645.83	43084.04
646.182	42868.45
646.535	42885.17
646.888	42950.48
647.24	42726.53
647.593	42864.61
647.945	42858.51
648.298	42656.93
648.65	42728.57
649.002	42630.49
649.355	42795.23
649.707	42753.65
650.059	42838.39
650.411	43306.86
650.763	43341.66
651.115	43814.41
651.467	43788.42
651.819	43682.89
652.171	43658.03
652.523	43523.8
652.875	43610.12
653.227	43352.5
653.578	43724.25
653.93	43560.86
654.282	43440.64
654.633	43266.4
654.985	43521.99
655.337	43495.55
655.688	43470.69
656.039	43628.66
656.391	43280.19
656.742	43369
657.094	43428.89
657.445	43494.65
657.796	43445.16
658.147	43336.23
658.498	43347.53
658.849	43439.51
659.2	43378.04
659.551	43165.39
659.902	43376.91
660.253	43169.23
660.604	43334.43
660.955	43086.75
661.306	43365.84
661.656	43127.43
662.007	43209.23
662.358	43132.85
662.708	43193.86
663.059	43143.92
663.409	42975.11
663.76	43312.73
664.11	43167.88
664.461	43316.8
664.811	43215.56
665.161	43223.47
665.511	43147.54
665.862	43224.6
666.212	43178.72
666.562	43251.04
666.912	43109.12
667.262	43166.29
667.612	43048.11
667.962	43288.78
668.312	43113.87
668.662	43239.51
669.011	43074.55
669.361	43010.82
669.711	43023.47
670.06	43053.08
670.41	42904.15
670.76	42878.17
671.109	43038.84
671.459	43061.44
671.808	42897.83
672.157	42916.36
672.507	42682.69
672.856	42765.85
673.205	42882.69
673.554	42982.8
673.904	42792.97
674.253	43018.05
674.602	42700.54
674.951	42224.62
675.3	42085.64
675.649	42625.07
675.998	42649.25
676.346	42659.42
676.695	42780.32
677.044	42416.94
677.393	42595.91
677.741	42545.52
678.09	42573.32
678.438	42336.26
678.787	42509.81
679.135	42466.65
679.484	42289.71
679.832	42418.74
680.181	42211.29
680.529	42325.64
680.877	42178.98
681.225	42185.53
681.573	42511.4
681.922	42096.72
682.27	42005.42
682.618	41986.89
682.966	41868.25
683.314	41852.88
683.661	41943.5
684.009	41682.27
684.357	41556.17
684.705	41527.92
685.053	41567.01
685.4	41506.9
685.748	41339
686.095	41338.32
686.443	41181.71
686.79	41145.1
687.138	41164.99
687.485	41134.94
687.832	40986.92
688.18	41019.23
688.527	40736.75
688.874	40759.58
689.221	40701.73
689.568	40692.24
689.915	40494.95
690.262	40451.11
690.609	40436.2
690.956	40246.82
691.303	40289.53
691.65	40048.41
691.997	40165.92
692.344	39872.14
692.69	39705.14
693.037	39873.27
693.383	39545.6
693.73	39584.47
694.077	39399.84
694.423	39593.05
694.769	39370.91
695.116	39176.57
695.462	39077.36
695.808	39044.14
696.155	39024.93
696.501	38786.3
696.847	38929.8
697.193	38572.74
697.539	38740.42
697.885	38424.5
698.231	38398.28
698.577	38323.03
698.923	38256.82
699.269	38042.81
699.614	37885.98
699.96	37883.95
700.306	37866.77
700.651	37588.36
700.997	37533.22
701.342	37622.49
701.688	37479.89
702.033	37249.16
702.379	37230.86
702.724	37109.05
703.069	37234.7
703.415	36814.82
703.76	36890.53
704.105	36917.87
704.45	36677.88
704.795	36507.26
705.14	36424.1
705.485	36419.35
705.83	36204.67
706.175	36286.25
706.52	36214.16
706.865	36109.98
707.209	36028.4
707.554	35962.42
707.899	36017.33
708.243	35719.48
708.588	35709.32
708.932	35607.85
709.277	35485.14
709.621	35519.26
709.966	35273.39
710.31	35413.96
710.654	35111.36
710.998	35234.53
711.342	35131.48
711.687	35188.65
712.031	34901.2
712.375	34801.77
712.719	34886.06
713.063	34702.79
713.407	34786.18
713.75	34589.34
714.094	34620.53
714.438	34509.57
714.782	34544.37
715.125	34415.79
715.469	34487.65
715.812	34185.97
716.156	34053.77
716.499	33990.49
716.843	34037.27
717.186	33858.74
717.53	34092.63
717.873	33974.45
718.216	33907.1
718.559	33784.85
718.902	33536.27
719.246	33667.34
719.589	33541.01
719.932	33320
720.275	33291.07
720.617	33368.13
720.96	33342.15
721.303	33380.56
721.646	33228.48
721.989	33079.33
722.331	33206.56
722.674	33060.35
723.016	33201.13
723.359	33029.61
723.701	32990.29
724.044	32828.04
724.386	32625.55
724.729	32861.25
725.071	32613.8
725.413	32695.61
725.755	32602.05
726.097	32495.84
726.439	32374.49
726.782	32626.68
727.124	32515.95
727.465	32314.38
727.807	32296.3
728.149	32234.38
728.491	32253.13
728.833	32236.86
729.175	32160.48
729.516	32062.63
729.858	32006.36
730.199	32019.47
730.541	32026.93
730.882	31892.24
731.224	32007.72
731.565	31750.78
731.906	31813.82
732.248	31819.47
732.589	31520.95
732.93	31471.69
733.271	31601.63
733.612	31600.04
733.953	31551.01
734.294	31420.39
734.635	31209.77
734.976	31404.8
735.317	31278.25
735.658	31241.64
735.999	31150.57
736.339	31144.24
736.68	31139.27
737.021	31026.27
737.361	30983.11
737.702	31213.16
738.042	30937.46
738.383	30890.68
738.723	31017.01
739.063	30882.32
739.404	30949.44
739.744	30871.7
740.084	30691.37
740.424	30768.88
740.764	30727.75
741.104	30780.63
741.444	30690.46
741.784	30563.24
742.124	30579.73
742.464	30633.52
742.804	30543.58
743.143	30415.67
743.483	30493.86
743.823	30232.17
744.162	30337.03
744.502	30382
744.841	30167.54
745.181	30195.11
745.52	30143.59
745.86	30237.59
746.199	30193.53
746.538	30145.62
746.877	30215.22
747.216	30186.52
747.556	30092.97
747.895	29943.37
748.234	29916.25
748.573	29844.38
748.911	29884.16
749.25	29879.41
749.589	29685.29
749.928	29761.45
750.267	29867.89
750.605	29703.6
750.944	29652.07
751.283	29570.27
751.621	29718.06
751.96	29559.19
752.298	29480.78
752.636	29523.72
752.975	29351.29
753.313	29227.68
753.651	29576.82
753.989	29314.23
754.327	29207.11
754.666	29058.42
755.004	29142.93
755.342	29175.02
755.679	29319.43
756.017	28999.44
756.355	29156.27
756.693	28961.24
757.031	29036.95
757.368	28846.44
757.706	28938.19
758.044	28773.23
758.381	28672.21
758.719	28667.47
