Data from hue_100_FLMS001491_00060.txt Node
Date: Tue Feb 07 17:03:23 GMT 2017
User: dcchb
Spectrometer: FLMS00149
Trigger mode: 0
Integration Time (sec): 2.000000E-2
Scans to average: 10
Electric dark correction enabled: true
Nonlinearity correction enabled: false
Boxcar width: 0
XAxis mode: Wavelengths
Number of Pixels in Spectrum: 2048
>>>>>Begin Spectral Data<<<<<
341.393	1.77
341.776	1.77
342.16	1.77
342.543	-73.26
342.927	-72.13
343.31	-69.19
343.693	-62.87
344.077	-67.39
344.46	-51.11
344.843	-64.9
345.226	-49.53
345.61	-53.83
345.993	-6.82
346.376	-21.06
346.759	-19.93
347.142	45.15
347.525	55.78
347.908	54.87
348.291	92.61
348.674	96.23
349.057	121.99
349.44	136.23
349.823	135.77
350.206	170.35
350.588	185.72
350.971	197.01
351.354	218.03
351.737	248.54
352.119	256.67
352.502	266.84
352.884	294.64
353.267	286.28
353.65	286.73
354.032	277.92
354.414	307.97
354.797	301.42
355.179	304.13
355.562	330.34
355.944	314.98
356.326	345.03
356.709	331.7
357.091	334.19
357.473	321.53
357.855	339.16
358.238	347.29
358.62	339.38
359.002	355.88
359.384	347.75
359.766	316.11
360.148	339.38
360.53	343
360.912	333.96
361.294	331.7
361.676	335.99
362.057	332.15
362.439	328.99
362.821	329.44
363.203	309.78
363.584	331.25
363.966	315.66
364.348	309.55
364.729	330.57
365.111	320.85
365.493	338.71
365.874	326.28
366.256	313.85
366.637	320.85
367.019	315.66
367.4	295.54
367.781	319.05
368.163	314.3
368.544	340.06
368.925	314.3
369.306	322.89
369.688	338.48
370.069	303.9
370.45	322.21
370.831	292.38
371.212	323.34
371.593	303
371.974	315.43
372.355	319.72
372.736	319.27
373.117	316.11
373.498	318.82
373.879	310.68
374.26	333.28
374.641	312.49
375.021	326.5
375.402	331.02
375.783	346.84
376.163	328.99
376.544	318.14
376.925	332.83
377.305	340.97
377.686	336.22
378.066	313.4
378.447	336.67
378.827	337.8
379.208	323.11
379.588	319.5
379.968	338.25
380.349	344.36
380.729	321.31
381.109	330.8
381.489	348.65
381.87	337.58
382.25	352.49
382.63	347.97
383.01	358.37
383.39	351.13
383.77	357.46
384.15	360.63
384.53	364.02
384.91	349.55
385.29	354.3
385.67	341.87
386.049	333.51
386.429	361.08
386.809	361.76
387.189	358.14
387.568	377.12
387.948	343.9
388.328	376.9
388.707	355.65
389.087	365.6
389.466	375.31
389.846	365.82
390.225	354.75
390.605	366.5
390.984	365.37
391.363	367.86
391.743	371.47
392.122	381.87
392.501	382.32
392.881	376.67
393.26	392.04
393.639	377.8
394.018	375.99
394.397	387.07
394.776	368.76
395.155	387.74
395.534	396.11
395.913	385.71
396.292	392.94
396.671	397.91
397.05	389.33
397.429	398.14
397.808	397.91
398.186	392.04
398.565	410.34
398.944	405.6
399.323	416.67
399.701	399.95
400.08	411.25
400.458	415.54
400.837	413.96
401.215	415.54
401.594	416.44
401.972	398.14
402.351	415.99
402.729	407.63
403.107	423.45
403.486	401.75
403.864	416.22
404.242	403.79
404.62	431.36
404.999	431.58
405.377	433.39
405.755	456.22
406.133	430.23
406.511	410.79
406.889	449.66
407.267	446.05
407.645	438.59
408.023	458.25
408.401	449.89
408.779	458.93
409.156	442.43
409.534	470.23
409.912	456.44
410.29	480.4
410.667	458.7
411.045	476.56
411.422	465.93
411.8	468.42
412.178	487.18
412.555	488.76
412.933	486.5
413.31	485.82
413.687	498.25
414.065	503.9
414.442	479.04
414.819	510.68
415.197	499.61
415.574	507.51
415.951	509.55
416.328	531.92
416.705	521.3
417.082	523.79
417.46	520.17
417.837	517.01
418.214	527.18
418.591	519.72
418.967	512.26
419.344	525.82
419.721	545.03
420.098	511.81
420.475	563.78
420.852	576.44
421.228	557.68
421.605	554.07
421.982	553.62
422.358	559.26
422.735	581.64
423.111	559.26
423.488	588.19
423.864	582.99
424.241	592.71
424.617	591.81
424.994	574.63
425.37	605.82
425.746	572.15
426.123	592.71
426.499	576.44
426.875	621.41
427.251	611.24
427.627	620.96
428.003	625.03
428.379	622.77
428.756	647.62
429.132	641.52
429.507	642.43
429.883	638.36
430.259	665.93
430.635	661.41
431.011	661.64
431.387	653.27
431.763	682.43
432.138	694.63
432.514	707.74
432.89	707.28
433.265	694.85
433.641	714.06
434.016	702.54
434.392	719.49
434.767	736.66
435.143	701.86
435.518	730.33
435.894	727.4
436.269	741.18
436.644	747.28
437.02	763.78
437.395	767.62
437.77	772.59
438.145	780.73
438.52	758.36
438.895	797.22
439.271	775.3
439.646	790.45
440.021	795.19
440.395	814.4
440.77	806.49
441.145	791.35
441.52	826.38
441.895	829.31
442.27	843.55
442.645	855.75
443.019	871.35
443.394	859.37
443.769	853.72
444.143	885.58
444.518	854.62
444.892	887.39
445.267	878.8
445.641	909.54
446.016	895.3
446.39	895.08
446.764	890.56
447.139	904.11
447.513	912.48
447.887	902.08
448.262	886.04
448.636	936.66
449.01	926.26
449.384	947.05
449.758	939.37
450.132	965.13
450.506	952.02
450.88	981.17
451.254	949.09
451.628	978.91
452.002	1004.45
452.376	1014.39
452.75	1004.45
453.123	1004.9
453.497	1035.41
453.871	1041.51
454.244	1068.63
454.618	1040.83
454.992	1086.48
455.365	1089.87
455.739	1103.43
456.112	1119.25
456.486	1112.24
456.859	1142.75
457.232	1144.56
457.606	1142.98
457.979	1160.15
458.352	1156.99
458.725	1187.27
459.099	1214.16
459.472	1242.64
459.845	1230.43
460.218	1229.53
460.591	1274.73
460.964	1270.66
461.337	1283.09
461.71	1318.12
462.083	1338.23
462.456	1344.56
462.829	1362.18
463.201	1340.71
463.574	1379.36
463.947	1381.39
464.32	1432.46
464.692	1417.1
465.065	1447.15
465.438	1450.77
465.81	1487.38
466.183	1490.31
466.555	1542.29
466.928	1546.58
467.3	1571.67
467.672	1611.89
468.045	1622.74
468.417	1621.61
468.789	1645.11
469.161	1667.71
469.534	1716.75
469.906	1777.54
470.278	1794.03
470.65	1792.45
471.022	1833.36
471.394	1899.79
471.766	1900.47
472.138	1932.34
472.51	1995.84
472.882	1995.16
473.253	2050.3
473.625	2071.09
473.997	2161.93
474.369	2179.11
474.74	2217.53
475.112	2276.96
475.484	2311.31
475.855	2386.79
476.227	2387.92
476.598	2490.51
476.97	2509.95
477.341	2624.3
477.713	2670.4
478.084	2681.47
478.455	2830.84
478.827	2868.81
479.198	2943.38
479.569	3006.43
479.94	3156.94
480.311	3194.9
480.682	3270.61
481.053	3380.89
481.424	3400.55
481.795	3494.33
482.166	3606.64
482.537	3688.45
482.908	3815.9
483.279	3916.01
483.65	4059.29
484.021	4100.87
484.391	4243.24
484.762	4271.71
485.133	4387.41
485.503	4541.76
485.874	4648.42
486.244	4785.14
486.615	4932.71
486.985	5024.46
487.356	5157.56
487.726	5227.62
488.097	5401.17
488.467	5529.08
488.837	5661.5
489.207	5793.03
489.578	5924.77
489.948	6077.09
490.318	6168.16
490.688	6306.23
491.058	6447.47
491.428	6611.99
491.798	6758.42
492.168	6955.93
492.538	7013.56
492.908	7185.31
493.278	7221.91
493.648	7382.59
494.017	7518.63
494.387	7683.37
494.757	7843.37
495.126	8005.62
495.496	8097.82
495.866	8205.17
496.235	8340.76
496.605	8485.16
496.974	8634.31
497.344	8697.13
497.713	8780.97
498.082	8902.55
498.452	9068.65
498.821	9148.19
499.19	9229.32
499.559	9413.5
499.928	9495.53
500.298	9619.59
500.667	9679.03
501.036	9815.52
501.405	9922.63
501.774	9963.76
502.143	10080.82
502.512	10174.61
502.88	10273.36
503.249	10281.95
503.618	10457.99
503.987	10586.12
504.356	10620.92
504.724	10663.63
505.093	10769.17
505.462	10901.14
505.83	10939.56
506.199	11065.66
506.567	11226.78
506.936	11157.4
507.304	11403.05
507.672	11460.9
508.041	11541.58
508.409	11591.74
508.777	11664.51
509.145	11737.95
509.514	11736.82
509.882	11869.48
510.25	11892.98
510.618	11990.38
510.986	11981.11
511.354	12132.52
511.722	12263.14
512.09	12297.94
512.458	12260.88
512.826	12358.05
513.193	12392.4
513.561	12373.87
513.929	12509.23
514.297	12700.64
514.664	12700.41
515.032	12687.99
515.4	12816.57
515.767	12796.91
516.135	12880.97
516.502	12773.18
516.869	12961.2
517.237	13024.93
517.604	13023.8
517.972	13042.1
518.339	13088.88
518.706	13149.89
519.073	13111.03
519.44	13259.72
519.808	13378.36
520.175	13293.17
520.542	13432.37
520.909	13516.44
521.276	13407.06
521.643	13537.23
522.009	13525.7
522.376	13617.23
522.743	13584.01
523.11	13650.45
523.477	13804.11
523.843	13856.54
524.21	13889.31
524.577	13928.63
524.943	14008.4
525.31	14047.27
525.676	14101.06
526.043	14092.24
526.409	14162.98
526.776	14211.11
527.142	14191.9
527.508	14259.92
527.874	14234.39
528.241	14226.93
528.607	14247.72
528.973	14302.18
529.339	14268.51
529.705	14377.43
530.071	14444.55
530.437	14382.4
530.803	14399.35
531.169	14414.49
531.535	14269.19
531.901	14389.18
532.267	14369.98
532.632	14385.79
532.998	14451.56
533.364	14368.17
533.73	14427.83
534.095	14479.8
534.461	14373.37
534.826	14480.71
535.192	14393.48
535.557	14488.39
535.923	14327.94
536.288	14410.2
536.653	14461.5
537.019	14310.09
537.384	14394.16
537.749	14356.19
538.114	14328.17
538.479	14179.92
538.845	14264.67
539.21	14206.36
539.575	14148.06
539.94	14197.78
540.305	14184.67
540.67	14140.15
541.034	14111.68
541.399	14135.18
541.764	14074.16
542.129	14036.42
542.494	14013.83
542.858	14092.69
543.223	14006.37
543.587	14062.64
543.952	13911
544.316	13943.55
544.681	13882.3
545.045	13928.4
545.41	13874.17
545.774	13901.06
546.138	13815.64
546.503	13838.24
546.867	13788.75
547.231	13831.23
547.595	13725.02
547.959	13719.82
548.324	13635.31
548.688	13582.2
549.052	13598.02
549.416	13522.99
549.779	13579.26
550.143	13516.66
550.507	13572.71
550.871	13582.43
551.235	13504.46
551.599	13555.76
551.962	13440.51
552.326	13406.16
552.689	13528.64
553.053	13308.76
553.417	13357.12
553.78	13433.95
554.143	13279.83
554.507	13353.05
554.87	13386.95
555.234	13371.13
555.597	13351.7
555.96	13292.04
556.323	13344.92
556.686	13302.21
557.05	13311.47
557.413	13272.15
557.776	13264.47
558.139	13295.43
558.502	13267.86
558.865	13255.65
559.228	13374.97
559.59	13270.8
559.953	13231.25
560.316	13350.34
560.679	13408.87
561.041	13333.62
561.404	13322.77
561.767	13391.02
562.129	13349.21
562.492	13426.05
562.854	13398.93
563.217	13311.7
563.579	13366.84
563.941	13418.36
564.304	13456.78
564.666	13486.83
565.028	13440.96
565.39	13454.52
565.753	13466.04
566.115	13463.78
566.477	13525.7
566.839	13578.13
567.201	13577
567.563	13516.21
567.925	13621.75
568.287	13568.64
568.648	13629.66
569.01	13729.54
569.372	13690.45
569.734	13631.01
570.095	13637.79
570.457	13654.06
570.819	13754.4
571.18	13736.09
571.542	13692.7
571.903	13735.19
572.265	13733.38
572.626	13870.55
572.987	13797.11
573.349	13779.03
573.71	13910.55
574.071	13836.66
574.432	13898.58
574.794	14014.96
575.155	13871.46
575.516	13869.88
575.877	13879.14
576.238	13844.34
576.599	13986.93
576.96	13960.04
577.32	13938.35
577.681	13958.91
578.042	13920.95
578.403	14009.31
578.763	13917.33
579.124	14066.71
579.485	14011.57
579.845	14058.57
580.206	13963.43
580.566	13922.53
580.927	13921.4
581.287	14010.89
581.648	13885.02
582.008	13975.41
582.368	14018.8
582.728	13933.15
583.089	13999.14
583.449	13999.82
583.809	13890.44
584.169	13983.77
584.529	13911.91
584.889	13975.64
585.249	13895.19
585.609	13840.05
585.969	13963.66
586.329	13921.4
586.688	13887.95
587.048	13915.3
587.408	13848.18
587.768	13860.16
588.127	13844.79
588.487	13864.45
588.846	13879.14
589.206	13841.4
589.565	13793.04
589.925	13786.04
590.284	13753.04
590.643	13804.57
591.003	13805.47
591.362	13844.11
591.721	13809.09
592.08	13742.87
592.44	13839.37
592.799	13826.71
593.158	13792.59
593.517	13779.48
593.876	13743.1
594.235	13737
594.593	13712.59
594.952	13701.74
595.311	13735.64
595.67	13746.26
596.029	13752.82
596.387	13804.79
596.746	13828.75
597.104	13754.4
597.463	13649.32
597.822	13704.46
598.18	13693.83
598.538	13651.35
598.897	13733.38
599.255	13692.03
599.613	13832.36
599.972	13740.39
600.33	13727.73
600.688	13651.58
601.046	13717.11
601.404	13795.98
601.762	13694.06
602.12	13694.06
602.478	13704
602.836	13736.77
603.194	13614.51
603.552	13672.59
603.91	13635.76
604.268	13655.64
604.625	13591.69
604.983	13694.74
605.341	13686.83
605.698	13814.28
606.056	13838.69
606.413	13632.37
606.771	13752.36
607.128	13784.91
607.485	13735.42
607.843	13687.51
608.2	13766.38
608.557	13801.63
608.914	13817.22
609.272	13796.66
609.629	13762.76
609.986	13920.95
610.343	13838.01
610.7	13832.14
611.057	13873.94
611.414	13924.79
611.771	13889.08
612.127	13979.25
612.484	13910.1
612.841	13992.58
613.198	13929.08
613.554	13936.99
613.911	13986.26
614.267	14018.35
614.624	13967.5
614.98	14003.21
615.337	14031.23
615.693	14109.19
616.05	14033.49
616.406	14092.92
616.762	14024.45
617.118	14039.36
617.475	13979.25
617.831	14095.18
618.187	14101.51
618.543	14105.12
618.899	14110.32
619.255	14054.73
619.611	14063.32
619.967	14195.29
620.323	14168.85
620.678	14133.37
621.034	14120.26
621.39	14132.69
621.746	14021.74
622.101	14195.52
622.457	14076.65
622.812	14219.02
623.168	14149.42
623.523	14078.01
623.879	14238.23
624.234	14146.25
624.589	14206.36
624.945	14222.86
625.3	14078.91
625.655	14150.77
626.01	14259.24
626.365	14137.66
626.72	14140.38
627.075	14080.27
627.43	14123.65
627.785	14018.12
628.14	14165.23
628.495	14070.1
628.85	14073.71
629.205	14120.26
629.559	14086.37
629.914	14045.92
630.269	14074.16
630.623	14034.16
630.978	14037.1
631.332	14048.4
631.687	14135.86
632.041	13975.18
632.396	14031.68
632.75	13974.28
633.104	14031.68
633.459	14013.15
633.813	13956.88
634.167	13907.39
634.521	13939.93
634.875	13945.35
635.229	13868.52
635.583	13831.23
635.937	13885.24
636.291	13747.17
636.645	13724.34
636.999	13753.95
637.352	13736.09
637.706	13746.26
638.06	13757.34
638.413	13757.11
638.767	13654.51
639.121	13738.35
639.474	13648.41
639.828	13713.95
640.181	13612.71
640.534	13705.13
640.888	13593.27
641.241	13546.72
641.594	13632.37
641.947	13650.22
642.301	13546.72
642.654	13552.37
643.007	13612.71
643.36	13625.14
643.713	13528.64
644.066	13577.68
644.419	13538.36
644.771	13459.72
645.124	13306.5
645.477	13364.35
645.83	13226.05
646.182	13148.76
646.535	13201.42
646.888	13163.45
647.24	13137.47
647.593	13138.37
647.945	13165.26
648.298	13076.9
648.65	13077.13
649.002	13055.43
649.355	13121.87
649.707	13026.51
650.059	13119.61
650.411	13341.98
650.763	13242.1
651.115	13513.05
651.467	13406.84
651.819	13351.24
652.171	13381.75
652.523	13378.81
652.875	13344.69
653.227	13306.27
653.578	13404.8
653.93	13350.12
654.282	13337.23
654.633	13305.6
654.985	13354.63
655.337	13375.65
655.688	13401.19
656.039	13434.18
656.391	13297.01
656.742	13328.42
657.094	13346.73
657.445	13445.03
657.796	13407.97
658.147	13312.6
658.498	13267.86
658.849	13338.14
659.2	13375.2
659.551	13279.38
659.902	13373.84
660.253	13377.68
660.604	13317.8
660.955	13357.35
661.306	13322.32
661.656	13352.37
662.007	13420.85
662.358	13385.14
662.708	13393.5
663.059	13358.7
663.409	13308.76
663.76	13399.38
664.11	13370.45
664.461	13376.78
664.811	13410
665.161	13383.79
665.511	13355.99
665.862	13433.05
666.212	13415.65
666.562	13388.76
666.912	13360.74
667.262	13351.24
667.612	13406.61
667.962	13416.78
668.312	13333.84
668.662	13411.36
669.011	13414.52
669.361	13368.87
669.711	13373.39
670.06	13338.82
670.41	13335.2
670.76	13292.94
671.109	13344.24
671.459	13323
671.808	13305.37
672.157	13343.56
672.507	13193.96
672.856	13235.54
673.205	13236.67
673.554	13334.3
673.904	13231.02
674.253	13339.04
674.602	13243.45
674.951	13058.82
675.3	12957.13
675.649	13252.04
675.998	13185.37
676.346	13248.65
676.695	13272.38
677.044	13178.59
677.393	13170.23
677.741	13160.52
678.09	13127.07
678.438	13120.06
678.787	13102.44
679.135	13131.82
679.484	13028.99
679.832	13131.14
680.181	12964.81
680.529	13002.78
680.877	12934.53
681.225	13021.76
681.573	13008.43
681.922	12954.87
682.27	12854.31
682.618	12878.72
682.966	12777.02
683.314	12899.05
683.661	12795.1
684.009	12700.19
684.357	12714.2
684.705	12647.31
685.053	12800.3
685.4	12664.26
685.748	12598.04
686.095	12633.3
686.443	12546.29
686.79	12477.14
687.138	12533.19
687.485	12562.11
687.832	12409.35
688.18	12504.04
688.527	12435.79
688.874	12478.27
689.221	12309.46
689.568	12330.93
689.915	12323.93
690.262	12319.18
690.609	12220.43
690.956	12222.46
691.303	12216.13
691.65	12157.38
691.997	12098.62
692.344	12037.61
692.69	11968.68
693.037	12040.09
693.383	11925.07
693.73	11916.25
694.077	11815.69
694.423	11885.07
694.769	11725.98
695.116	11782.7
695.462	11673.32
695.808	11661.35
696.155	11666.32
696.501	11661.35
696.847	11647.79
697.193	11504.74
697.539	11585.87
697.885	11507.23
698.231	11405.99
698.577	11334.57
698.923	11350.62
699.269	11328.25
699.614	11205.54
699.96	11209.15
700.306	11124.41
700.651	11108.14
700.997	11036.05
701.342	11026.56
701.688	11016.39
702.033	11002.83
702.379	10980.46
702.724	10909.5
703.069	10864.53
703.415	10763.97
703.76	10869.5
704.105	10802.61
704.45	10827.7
704.795	10679.22
705.14	10704.76
705.485	10657.3
705.83	10563.97
706.175	10563.3
706.52	10563.07
706.865	10523.97
707.209	10499.79
707.554	10467.93
707.899	10438.55
708.243	10452.34
708.588	10454.37
708.932	10350.19
709.277	10294.83
709.621	10261.61
709.966	10221.16
710.31	10222.29
710.654	10176.87
710.998	10159.69
711.342	10231.33
711.687	10137.09
712.031	10061.61
712.375	10071.56
712.719	10111.56
713.063	10030.43
713.407	10029.98
713.75	10005.57
714.094	9923.54
714.438	9938.45
714.782	9995.85
715.125	9893.71
715.469	9922.41
715.812	9886.25
716.156	9807.61
716.499	9859.36
716.843	9886.03
717.186	9796.54
717.53	9856.65
717.873	9784.33
718.216	9805.12
718.559	9761.06
718.902	9709.53
719.246	9654.39
719.589	9667.95
719.932	9705.24
720.275	9646.03
720.617	9583.43
720.96	9710.44
721.303	9578.24
721.646	9661.85
721.989	9562.42
722.331	9611.68
722.674	9620.95
723.016	9601.29
723.359	9555.64
723.701	9559.71
724.044	9490.56
724.386	9425.92
724.729	9512.25
725.071	9511.57
725.413	9490.78
725.755	9449.65
726.097	9453.95
726.439	9387.51
726.782	9383.44
727.124	9473.15
727.465	9392.48
727.807	9363.1
728.149	9392.71
728.491	9411.01
728.833	9388.64
729.175	9356.32
729.516	9399.26
729.858	9367.85
730.199	9299.37
730.541	9372.82
730.882	9370.56
731.224	9321.97
731.565	9372.37
731.906	9335.31
732.248	9328.07
732.589	9315.64
732.93	9328.3
733.271	9243.33
733.612	9340.95
733.953	9331.92
734.294	9332.82
734.635	9298.92
734.976	9347.06
735.317	9295.08
735.658	9316.77
735.999	9350.22
736.339	9387.51
736.68	9381.63
737.021	9301.86
737.361	9296.89
737.702	9345.25
738.042	9299.83
738.383	9305.02
738.723	9333.05
739.063	9348.86
739.404	9356.55
739.744	9344.57
740.084	9373.5
740.424	9344.57
740.764	9349.54
741.104	9424.79
741.444	9370.56
741.784	9357
742.124	9451.01
742.464	9411.01
742.804	9491.46
743.143	9447.17
743.483	9497.56
743.823	9465.7
744.162	9514.51
744.502	9500.27
744.841	9579.14
745.181	9613.04
745.52	9644.68
745.86	9662.53
746.199	9695.52
746.538	9748.18
746.877	9829.3
747.216	9907.27
747.556	9853.03
747.895	9971.45
748.234	9954.5
748.573	10006.7
748.911	10098
749.25	10076.3
749.589	10158.79
749.928	10297.31
750.267	10350.19
750.605	10333.92
750.944	10460.93
751.283	10457.08
751.621	10597.19
751.96	10631.54
752.298	10750.41
752.636	10858.88
752.975	10879.45
753.313	11005.09
753.651	11143.39
753.989	11257.97
754.327	11280.11
754.666	11443.95
755.004	11545.42
755.342	11690.27
755.679	11858.4
756.017	11860.44
756.355	12059.3
756.693	12135.46
757.031	12376.36
757.368	12381.1
757.706	12579.51
758.044	12682.79
758.381	12835.33
