Data from hue_170_FLMS001491_00048.txt Node
Date: Tue Feb 07 16:48:45 GMT 2017
User: dcchb
Spectrometer: FLMS00149
Trigger mode: 0
Integration Time (sec): 2.000000E-2
Scans to average: 10
Electric dark correction enabled: true
Nonlinearity correction enabled: false
Boxcar width: 0
XAxis mode: Wavelengths
Number of Pixels in Spectrum: 2048
>>>>>Begin Spectral Data<<<<<
341.393	-21.1
341.776	-21.1
342.16	-21.1
342.543	-76.69
342.927	-50.93
343.31	-77.14
343.693	-67.88
344.077	-65.17
344.46	-65.62
344.843	-55
345.226	-45.73
345.61	-37.37
345.993	-8.45
346.376	4.43
346.759	18.22
347.142	48.28
347.525	39.01
347.908	44.21
348.291	62.06
348.674	87.82
349.057	118.33
349.44	108.39
349.823	128.5
350.206	175.5
350.588	193.81
350.971	210.76
351.354	238.33
351.737	222.28
352.119	235.39
352.502	257.99
352.884	272.45
353.267	290.98
353.65	284.43
354.032	297.31
354.414	305.22
354.797	322.39
355.179	318.32
355.562	311.77
355.944	327.14
356.326	325.33
356.709	323.52
357.091	338.21
357.473	364.43
357.855	338.89
358.238	339.12
358.62	326.23
359.002	320.13
359.384	354.03
359.766	345.44
360.148	328.72
360.53	347.93
360.912	323.07
361.294	332.34
361.676	325.56
362.057	317.65
362.439	312.9
362.821	330.75
363.203	327.82
363.584	323.07
363.966	336.63
364.348	325.78
364.729	317.65
365.111	310.19
365.493	327.14
365.874	314.48
366.256	327.36
366.637	307.03
367.019	326.69
367.4	307.25
367.781	326.01
368.163	296.4
368.544	302.05
368.925	318.1
369.306	295.95
369.688	319.68
370.069	297.76
370.45	310.64
370.831	316.07
371.212	306.35
371.593	315.84
371.974	324.43
372.355	294.82
372.736	331.66
373.117	308.38
373.498	327.14
373.879	306.57
374.26	337.31
374.641	314.26
375.021	343.86
375.402	305.22
375.783	318.1
376.163	321.94
376.544	312.45
376.925	321.26
377.305	333.92
377.686	305.67
378.066	321.04
378.447	336.4
378.827	318.55
379.208	338.21
379.588	326.46
379.968	354.71
380.349	309.06
380.729	344.31
381.109	356.29
381.489	328.95
381.87	312.22
382.25	334.37
382.63	335.5
383.01	343.41
383.39	332.11
383.77	330.08
384.15	344.76
384.53	338.44
384.91	350.41
385.29	338.21
385.67	350.19
386.049	367.14
386.429	342.05
386.809	345.67
387.189	350.64
387.568	341.83
387.948	333.69
388.328	340.47
388.707	337.08
389.087	382.73
389.466	379.57
389.846	377.53
390.225	366.23
390.605	368.72
390.984	359.23
391.363	366.23
391.743	365.33
392.122	367.59
392.501	361.26
392.881	387.48
393.26	359
393.639	383.63
394.018	402.84
394.397	401.49
394.776	399.45
395.155	366.69
395.534	370.53
395.913	370.98
396.292	402.62
396.671	387.7
397.05	375.05
397.429	400.36
397.808	396.74
398.186	411.66
398.565	388.61
398.944	394.71
399.323	399.45
399.701	435.38
400.08	406.68
400.458	412.11
400.837	419.11
401.215	405.55
401.594	403.29
401.972	420.7
402.351	429.51
402.729	423.18
403.107	408.72
403.486	408.72
403.864	436.97
404.242	435.38
404.62	435.16
404.999	434.03
405.377	439.45
405.755	436.29
406.133	457.08
406.511	457.08
406.889	436.29
407.267	454.14
407.645	460.69
408.023	459.11
408.401	461.82
408.779	463.41
409.156	468.38
409.534	495.27
409.912	484.87
410.29	492.11
410.667	477.87
411.045	490.98
411.422	519.22
411.8	533.01
412.178	490.3
412.555	513.57
412.933	535.49
413.31	540.01
413.687	532.1
414.065	540.47
414.442	552.9
414.819	561.93
415.197	533.91
415.574	544.53
415.951	558.77
416.328	558.54
416.705	575.04
417.082	579.11
417.46	596.96
417.837	579.11
418.214	592.89
418.591	581.59
418.967	586.57
419.344	603.29
419.721	610.29
420.098	609.39
420.475	621.37
420.852	646.68
421.228	641.25
421.605	663.63
421.982	668.6
422.358	669.05
422.735	676.06
423.111	664.98
423.488	667.02
423.864	665.66
424.241	705.21
424.617	695.49
424.994	701.37
425.37	696.62
425.746	700.24
426.123	717.86
426.499	724.42
426.875	745.88
427.251	765.54
427.627	772.55
428.003	780.91
428.379	756.96
428.756	759.44
429.132	785.43
429.507	819.78
429.883	795.37
430.259	805.32
430.635	808.48
431.011	807.13
431.387	853.45
431.763	841.02
432.138	856.62
432.514	857.52
432.89	849.84
433.265	874.69
433.641	884.64
434.016	915.15
434.392	916.95
434.767	931.87
435.143	957.4
435.518	937.29
435.894	950.4
436.269	942.72
436.644	987.69
437.02	983.17
437.395	992.66
437.77	1035.59
438.145	1002.37
438.52	1073.11
438.895	1055.48
439.271	1057.29
439.646	1069.72
440.021	1092.09
440.395	1108.59
440.77	1114.69
441.145	1110.85
441.52	1121.47
441.895	1138.64
442.27	1135.7
442.645	1153.78
443.019	1173.67
443.394	1163.73
443.769	1177.06
444.143	1158.08
444.518	1206.66
444.892	1208.47
445.267	1196.72
445.641	1229.71
446.016	1246.66
446.39	1236.49
446.764	1242.59
447.139	1262.48
447.513	1266.77
447.887	1275.81
448.262	1261.13
448.636	1288.47
449.01	1333.67
449.384	1313.78
449.758	1339.54
450.132	1336.15
450.506	1345.64
450.88	1379.77
451.254	1365.3
451.628	1389.03
452.002	1406.88
452.376	1438.07
452.75	1424.74
453.123	1440.33
453.497	1475.13
453.871	1492.53
454.244	1506.77
454.618	1493.44
454.992	1508.58
455.365	1539.54
455.739	1552.19
456.112	1571.85
456.486	1593.32
456.859	1613.66
457.232	1666.09
457.606	1666.31
457.979	1675.13
458.352	1706.99
458.725	1737.27
459.099	1724.39
459.472	1770.26
459.845	1779.53
460.218	1811.17
460.591	1828.79
460.964	1836.03
461.337	1883.03
461.71	1881.67
462.083	1932.29
462.456	1934.55
462.829	1943.82
463.201	1993.08
463.574	1999.86
463.947	2047.09
464.32	2078.73
464.692	2095.45
465.065	2165.06
465.438	2191.5
465.81	2175.23
466.183	2231.04
466.555	2299.97
466.928	2316.46
467.3	2327.76
467.672	2338.61
468.045	2437.37
468.417	2427.2
468.789	2450.92
469.161	2506.74
469.534	2511.71
469.906	2599.85
470.278	2625.16
470.65	2678.04
471.022	2723.01
471.394	2806.17
471.766	2781.76
472.138	2854.98
472.51	2931.36
472.882	2987.41
473.253	3045.94
473.625	3061.08
473.997	3155.99
474.369	3181.07
474.74	3217.23
475.112	3341.75
475.484	3398.92
475.855	3488.64
476.227	3530.22
476.598	3642.98
476.97	3698.35
477.341	3767.05
477.713	3887.95
478.084	3911.22
478.455	4059.24
478.827	4122.97
479.198	4258.33
479.569	4303.98
479.94	4433.25
480.311	4540.13
480.682	4621.04
481.053	4748.94
481.424	4865.78
481.795	4904.87
482.166	5010.18
482.537	5128.14
482.908	5273
483.279	5328.36
483.65	5502.37
484.021	5682.03
484.391	5748.69
484.762	5838.63
485.133	5928.12
485.503	5992.3
485.874	6185.29
486.244	6315.91
486.615	6470.71
486.985	6639.51
487.356	6695.56
487.726	6776.23
488.097	7026.62
488.467	7087.64
488.837	7217.35
489.207	7341.19
489.578	7482.66
489.948	7614.86
490.318	7759.94
490.688	7841.52
491.058	7983.43
491.428	8100.72
491.798	8216.87
492.168	8487.15
492.538	8530.99
492.908	8650.31
493.278	8738.67
493.648	8856.86
494.017	9006.01
494.387	9126.68
494.757	9192.44
495.126	9336.84
495.496	9375.26
495.866	9507.69
496.235	9643.5
496.605	9707.68
496.974	9836.72
497.344	9989.94
497.713	10059.54
498.082	10094.11
498.452	10259.53
498.821	10276.93
499.19	10316.48
499.559	10447.78
499.928	10549.24
500.298	10626.53
500.667	10774.55
501.036	10759.18
501.405	10826.3
501.774	10885.28
502.143	11005.5
502.512	11052.73
502.88	11143.58
503.249	11172.73
503.618	11254.53
503.987	11234.42
504.356	11416.11
504.724	11431.03
505.093	11435.32
505.462	11500.63
505.83	11641.64
506.199	11657.46
506.567	11795.76
506.936	11804.12
507.304	11943.78
507.672	11973.39
508.041	12028.07
508.409	12063.55
508.777	12269.2
509.145	12205.7
509.514	12212.7
509.882	12274.62
510.25	12337.44
510.618	12343.32
510.986	12296.99
511.354	12437.78
511.722	12527.04
512.09	12654.72
512.458	12615.18
512.826	12672.12
513.193	12771.56
513.561	12752.8
513.929	12774.49
514.297	12880.03
514.664	12939.01
515.032	12950.08
515.4	13037.31
515.767	13022.17
516.135	12993.02
516.502	12967.48
516.869	13092
517.237	13144.2
517.604	13120.7
517.972	13185.33
518.339	13242.05
518.706	13218.32
519.073	13193.69
519.44	13228.27
519.808	13449.05
520.175	13276.85
520.542	13393.46
520.909	13417.19
521.276	13368.6
521.643	13614.92
522.009	13476.62
522.376	13603.4
522.743	13573.57
523.11	13699.89
523.477	13650.4
523.843	13724.53
524.21	13843.85
524.577	13858.53
524.943	13918.65
525.31	13869.38
525.676	14007.46
526.043	13946.67
526.409	13928.59
526.776	14024.63
527.142	13866.67
527.508	14014.01
527.874	14060.56
528.241	14092.88
528.607	14036.16
528.973	14152.31
529.339	14113.67
529.705	14104.63
530.071	14159.54
530.437	14209.71
530.803	14117.51
531.169	14194.57
531.535	14165.64
531.901	14138.07
532.267	14100.34
532.632	14096.72
532.998	14026.67
533.364	14075.48
533.73	14011.75
534.095	14149.37
534.461	14060.79
534.826	14081.58
535.192	14074.35
535.557	14112.76
535.923	13971.53
536.288	14052.88
536.653	13998.42
537.019	13971.75
537.384	13942.83
537.749	13920.91
538.114	13832.55
538.479	13737.86
538.845	13833.22
539.21	13760.01
539.575	13760.01
539.94	13682.72
540.305	13727.46
540.67	13640.69
541.034	13623.51
541.399	13664.41
541.764	13559.11
542.129	13579.67
542.494	13475.27
542.858	13512.33
543.223	13392.78
543.587	13444.31
543.952	13326.57
544.316	13315.72
544.681	13268.49
545.045	13269.17
545.41	13304.88
545.774	13271.88
546.138	13210.19
546.503	13148.04
546.867	13075.5
547.231	13190.98
547.595	13027.6
547.959	12990.99
548.324	13040.7
548.688	12854.94
549.052	12986.47
549.416	12941.5
549.779	12838.9
550.143	12865.79
550.507	12839.35
550.871	12802.74
551.235	12789.18
551.599	12813.14
551.962	12744.66
552.326	12696.08
552.689	12725.68
553.053	12597.78
553.417	12530.43
553.78	12656.76
554.143	12536.53
554.507	12614.05
554.87	12589.87
555.234	12608.85
555.597	12461.96
555.96	12464.45
556.323	12499.47
556.686	12473.03
557.05	12464.9
557.413	12499.02
557.776	12445.69
558.139	12472.13
558.502	12394.39
558.865	12379.93
559.228	12449.76
559.59	12454.05
559.953	12377.44
560.316	12479.36
560.679	12420.83
561.041	12452.24
561.404	12480.49
561.767	12439.81
562.129	12349.42
562.492	12409.76
562.854	12397.1
563.217	12387.61
563.579	12365.24
563.941	12380.15
564.304	12452.24
564.666	12480.49
565.028	12517.78
565.39	12496.08
565.753	12439.36
566.115	12516.42
566.477	12518.91
566.839	12452.47
567.201	12573.14
567.563	12568.4
567.925	12562.75
568.287	12599.81
568.648	12603.43
569.01	12622.86
569.372	12695.63
569.734	12544.44
570.095	12640.94
570.457	12690.2
570.819	12698.79
571.18	12672.58
571.542	12672.12
571.903	12710.99
572.265	12625.8
572.626	12718
572.987	12737.66
573.349	12723.87
573.71	12758.68
574.071	12783.99
574.432	12780.14
574.794	12890.65
575.155	12782.4
575.516	12672.12
575.877	12803.87
576.238	12786.25
576.599	12837.54
576.96	12801.61
577.32	12758.68
577.681	12809.07
578.042	12839.13
578.403	12800.26
578.763	12781.05
579.124	12828.28
579.485	12863.08
579.845	12818.34
580.206	12767.49
580.566	12758.45
580.927	12758.68
581.287	12842.74
581.648	12807.04
582.008	12882.74
582.368	12760.26
582.728	12759.13
583.089	12751.67
583.449	12833.25
583.809	12794.83
584.169	12699.24
584.529	12725.68
584.889	12860.37
585.249	12764.1
585.609	12666.93
585.969	12745.12
586.329	12738.79
586.688	12700.82
587.048	12735.63
587.408	12641.62
587.768	12599.36
588.127	12596.65
588.487	12575.4
588.846	12700.82
589.206	12633.71
589.565	12610.66
589.925	12742.18
590.284	12570.88
590.643	12619.02
591.003	12585.57
591.362	12570.43
591.721	12621.28
592.08	12620.83
592.44	12681.39
592.799	12571.11
593.158	12536.08
593.517	12520.94
593.876	12498.8
594.235	12528.17
594.593	12502.86
594.952	12465.35
595.311	12472.13
595.67	12536.08
596.029	12590.77
596.387	12528.4
596.746	12569.53
597.104	12439.14
597.463	12445.92
597.822	12605.23
598.18	12512.81
598.538	12491.79
598.897	12516.2
599.255	12377.22
599.613	12560.26
599.972	12547.16
600.33	12579.47
600.688	12449.98
601.046	12541.05
601.404	12534.95
601.762	12478.91
602.12	12588.96
602.478	12495.18
602.836	12516.42
603.194	12535.4
603.552	12533.82
603.91	12421.74
604.268	12503.99
604.625	12366.82
604.983	12491.79
605.341	12400.95
605.698	12470.32
606.056	12510.09
606.413	12467.84
606.771	12466.25
607.128	12505.12
607.485	12390.55
607.843	12484.11
608.2	12527.5
608.557	12545.35
608.914	12592.13
609.272	12478.23
609.629	12565.69
609.986	12571.56
610.343	12530.43
610.7	12623.09
611.057	12654.05
611.414	12638.68
611.771	12580.83
612.127	12662.63
612.484	12682.97
612.841	12764.1
613.198	12627.61
613.554	12624.89
613.911	12711.45
614.267	12695.4
614.624	12712.12
614.98	12672.35
615.337	12772.69
615.693	12669.86
616.05	12779.69
616.406	12848.84
616.762	12667.83
617.118	12689.53
617.475	12736.08
617.831	12762.07
618.187	12752.57
618.543	12737.43
618.899	12903.08
619.255	12809.97
619.611	12855.17
619.967	12811.1
620.323	12827.83
620.678	12748.96
621.034	12838.45
621.39	12767.49
621.746	12815.4
622.101	12905.11
622.457	12824.21
622.812	12826.7
623.168	12812.01
623.523	12922.06
623.879	12830.76
624.234	12869.63
624.589	12896.3
624.945	12824.44
625.3	12814.95
625.655	12874.15
626.01	12808.17
626.365	12864.89
626.72	12801.16
627.075	12770.88
627.43	12868.73
627.785	12806.81
628.14	12856.07
628.495	12819.69
628.85	12822.18
629.205	12704.21
629.559	12740.6
629.914	12650.43
630.269	12795.96
630.623	12750.54
630.978	12703.08
631.332	12749.41
631.687	12729.3
632.041	12659.47
632.396	12768.17
632.75	12629.87
633.104	12631.22
633.459	12588.28
633.813	12567.49
634.167	12524.33
634.521	12618.79
634.875	12522.98
635.229	12496.31
635.583	12479.59
635.937	12550.55
636.291	12437.55
636.645	12520.94
636.999	12374.96
637.352	12483.88
637.706	12441.4
638.06	12399.82
638.413	12425.58
638.767	12339.93
639.121	12384
639.474	12272.81
639.828	12216.54
640.181	12380.61
640.534	12342.87
640.888	12293.83
641.241	12248.41
641.594	12216.32
641.947	12343.55
642.301	12307.39
642.654	12331.34
643.007	12294.96
643.36	12221.74
643.713	12262.87
644.066	12256.99
644.419	12209.76
644.771	12190.78
645.124	12003.22
645.477	12005.7
645.83	11914.86
646.182	11964.12
646.535	11844.58
646.888	11897.23
647.24	11857.91
647.593	11901.3
647.945	11820.62
648.298	11795.99
648.65	11824.46
649.002	11740.62
649.355	11893.61
649.707	11777.91
650.059	11903.33
650.411	12057.9
650.763	12017.68
651.115	12131.12
651.467	12164.57
651.819	12111.91
652.171	12095.87
652.523	12046.15
652.875	12012.25
653.227	12003.22
653.578	12042.54
653.93	12065.13
654.282	12019.49
654.633	12051.35
654.985	12015.64
655.337	12058.81
655.688	12033.5
656.039	12076.21
656.391	12045.47
656.742	12068.98
657.094	12041.41
657.445	12124.12
657.796	12082.54
658.147	12074.63
658.498	12075.08
658.849	12049.99
659.2	12038.24
659.551	11947.17
659.902	12053.61
660.253	12023.33
660.604	12002.31
660.955	11989.43
661.306	12058.13
661.656	12078.02
662.007	12048.64
662.358	12089.99
662.708	12108.07
663.059	12036.43
663.409	11976.55
663.76	12160.27
664.11	12104.46
664.461	12183.55
664.811	12115.98
665.161	11998.92
665.511	12083.89
665.862	12119.82
666.212	12126.15
666.562	12090.67
666.912	12096.32
667.262	12126.38
667.612	12133.61
667.962	12227.16
668.312	12151.69
668.662	12174.74
669.011	12090.22
669.361	12138.35
669.711	12154.85
670.06	12034.85
670.41	12022.2
670.76	12055.42
671.109	12093.38
671.459	12047.51
671.808	12089.99
672.157	12102.87
672.507	12006.61
672.856	11928.64
673.205	12080.05
673.554	12084.57
673.904	12043.89
674.253	12022.42
674.602	12007.96
674.951	11860.85
675.3	11764.8
675.649	11934.52
675.998	11976.32
676.346	11928.87
676.695	12006.61
677.044	11863.56
677.393	11947.4
677.741	11960.73
678.09	11948.75
678.438	11845.71
678.787	11853.61
679.135	11849.77
679.484	11776.33
679.832	11764.35
680.181	11686.39
680.529	11767.52
680.877	11777.68
681.225	11723.9
681.573	11754.86
681.922	11666.5
682.27	11594.64
682.618	11620.63
682.966	11609.78
683.314	11638.48
683.661	11524.58
684.009	11454.3
684.357	11534.08
684.705	11508.31
685.053	11469.22
685.4	11465.38
685.748	11420.63
686.095	11405.94
686.443	11300.18
686.79	11281.2
687.138	11392.61
687.485	11320.3
687.832	11300.86
688.18	11261.99
688.527	11224.03
688.874	11169.11
689.221	11176.34
689.568	11107.19
689.915	11166.85
690.262	11110.36
690.609	11036.01
690.956	10957.59
691.303	10985.39
691.65	10927.31
691.997	10943.13
692.344	10824.72
692.69	10853.19
693.037	10767.77
693.383	10740.65
693.73	10771.38
694.077	10622.91
694.423	10659.97
694.769	10618.39
695.116	10593.99
695.462	10639.18
695.808	10524.16
696.155	10565.74
696.501	10469.24
696.847	10448
697.193	10341.34
697.539	10405.74
697.885	10348.34
698.231	10284.84
698.577	10288.68
698.923	10269.93
699.269	10191.74
699.614	10101.12
699.96	10043.49
700.306	10040.1
700.651	10065.41
700.997	9957.85
701.342	10003.95
701.688	9923.27
702.033	9902.48
702.379	9869.94
702.724	9871.97
703.069	9848.92
703.415	9812.09
703.76	9792.65
704.105	9767.12
704.45	9684.18
704.795	9616.39
705.14	9599.66
705.485	9598.31
705.83	9536.61
706.175	9598.98
706.52	9523.73
706.865	9470.63
707.209	9459.78
707.554	9370.29
707.899	9408.48
708.243	9374.81
708.588	9292.78
708.932	9293
709.277	9328.94
709.621	9279.67
709.966	9192.44
710.31	9224.53
710.654	9151.31
710.998	9120.81
711.342	9176.62
711.687	9118.09
712.031	9100.92
712.375	9018.66
712.719	9107.02
713.063	9070.64
713.407	9036.51
713.75	9037.87
714.094	8946.8
714.438	8913.81
714.782	9020.47
715.125	8900.47
715.469	8920.81
715.812	8803.07
716.156	8852.56
716.499	8753.13
716.843	8865.67
717.186	8803.07
717.53	8828.16
717.873	8827.03
718.216	8830.64
718.559	8677.65
718.902	8711.78
719.246	8797.88
719.589	8675.17
719.932	8722.4
720.275	8666.81
720.617	8618.22
720.96	8669.07
721.303	8621.84
721.646	8698.22
721.989	8624.77
722.331	8648.28
722.674	8617.09
723.016	8557.88
723.359	8604.21
723.701	8598.33
724.044	8573.93
724.386	8576.41
724.729	8568.73
725.071	8585.23
725.413	8615.28
725.755	8550.88
726.097	8468.17
726.439	8487.15
726.782	8499.13
727.124	8528.96
727.465	8439.92
727.807	8526.92
728.149	8478.56
728.491	8457.77
728.833	8441.73
729.175	8428.39
729.516	8478.11
729.858	8455.29
730.199	8476.53
730.541	8444.21
730.882	8435.85
731.224	8426.36
731.565	8407.83
731.906	8404.21
732.248	8460.71
732.589	8470.43
732.93	8483.53
733.271	8444.44
733.612	8475.4
733.953	8477.43
734.294	8481.5
734.635	8430.43
734.976	8442.63
735.317	8433.59
735.658	8357.66
735.999	8456.64
736.339	8396.53
736.68	8502.97
737.021	8465.46
737.361	8460.03
737.702	8449.86
738.042	8424.78
738.383	8443.76
738.723	8469.07
739.063	8456.64
739.404	8480.82
739.744	8509.75
740.084	8450.77
740.424	8494.61
740.764	8460.94
741.104	8533.25
741.444	8489.64
741.784	8502.06
742.124	8570.54
742.464	8573.93
742.804	8557.2
743.143	8576.19
743.483	8596.98
743.823	8577.99
744.162	8722.4
744.502	8688.05
744.841	8696.64
745.181	8759.01
745.52	8729.86
745.86	8768.27
746.199	8883.3
746.538	8908.61
746.877	8908.38
747.216	9000.13
747.556	9019.11
747.895	9042.84
748.234	9064.31
748.573	9111.09
748.911	9207.13
749.25	9338.2
749.589	9315.38
749.928	9349.27
750.267	9456.62
750.605	9494.35
750.944	9580.45
751.283	9639.21
751.621	9792.2
751.96	9774.12
752.298	9859.54
752.636	10005.3
752.975	10097.73
753.313	10217.05
753.651	10281
753.989	10395.57
754.327	10513.76
754.666	10516.25
755.004	10706.53
755.342	10836.69
755.679	10973.86
756.017	11100.19
756.355	11206.85
756.693	11331.37
757.031	11501.31
757.368	11569.33
757.706	11712.38
