Data from hue_280_FLMS001491_00008.txt Node
Date: Tue Feb 07 15:54:44 GMT 2017
User: dcchb
Spectrometer: FLMS00149
Trigger mode: 0
Integration Time (sec): 2.000000E-2
Scans to average: 10
Electric dark correction enabled: true
Nonlinearity correction enabled: false
Boxcar width: 0
XAxis mode: Wavelengths
Number of Pixels in Spectrum: 2048
>>>>>Begin Spectral Data<<<<<
341.393	-23.59
341.776	-23.59
342.16	-23.59
342.543	-55.68
342.927	-66.75
343.31	-59.52
343.693	-68.11
344.077	-73.3
344.46	-87.54
344.843	-58.16
345.226	-42.12
345.61	-16.36
345.993	-1.44
346.376	-17.71
346.759	-7.54
347.142	39.91
347.525	41.27
347.908	55.06
348.291	93.25
348.674	103.64
349.057	98.67
349.44	133.92
349.823	154.04
350.206	166.01
350.588	227.93
350.971	211.44
351.354	199.68
351.737	218.21
352.119	255.05
352.502	263.64
352.884	277.42
353.267	298.66
353.65	283.3
354.032	287.59
354.414	310.19
354.797	314.03
355.179	297.99
355.562	294.37
355.944	315.61
356.326	313.81
356.709	324.88
357.091	345.22
357.473	336.86
357.855	353.35
358.238	320.58
358.62	328.04
359.002	344.76
359.384	337.99
359.766	336.4
360.148	324.65
360.53	337.31
360.912	331.88
361.294	333.92
361.676	316.07
362.057	363.52
362.439	345.89
362.821	320.13
363.203	334.82
363.584	321.71
363.966	338.89
364.348	317.87
364.729	326.69
365.111	348.15
365.493	335.05
365.874	300.47
366.256	316.74
366.637	316.07
367.019	333.24
367.4	309.96
367.781	316.52
368.163	307.48
368.544	321.04
368.925	306.12
369.306	314.03
369.688	311.09
370.069	293.69
370.45	301.83
370.831	305.67
371.212	303.18
371.593	302.05
371.974	332.79
372.355	337.31
372.736	323.3
373.117	330.3
373.498	333.24
373.879	310.42
374.26	321.26
374.641	321.49
375.021	325.33
375.402	308.38
375.783	323.52
376.163	319.91
376.544	311.32
376.925	330.98
377.305	331.21
377.686	340.92
378.066	312.22
378.447	331.88
378.827	323.07
379.208	334.82
379.588	335.27
379.968	325.56
380.349	341.15
380.729	356.74
381.109	354.71
381.489	307.93
381.87	333.47
382.25	341.38
382.63	360.13
383.01	338.89
383.39	341.6
383.77	365.33
384.15	353.58
384.53	356.97
384.91	365.78
385.29	353.58
385.67	363.75
386.049	350.41
386.429	364.88
386.809	341.83
387.189	335.5
387.568	367.36
387.948	387.02
388.328	359
388.707	366.01
389.087	375.72
389.466	361.26
389.846	353.13
390.225	367.14
390.605	372.56
390.984	384.31
391.363	402.62
391.743	387.48
392.122	377.53
392.501	384.31
392.881	392.67
393.26	394.03
393.639	388.61
394.018	376.85
394.397	400.81
394.776	396.74
395.155	401.03
395.534	404.42
395.913	395.61
396.292	394.93
396.671	395.39
397.05	399.9
397.429	408.94
397.808	415.72
398.186	391.09
398.565	408.04
398.944	407.14
399.323	417.98
399.701	420.02
400.08	426.12
400.458	424.76
400.837	426.8
401.215	429.96
401.594	416.4
401.972	434.03
402.351	441.03
402.729	436.06
403.107	436.06
403.486	449.39
403.864	458.21
404.242	451.65
404.62	463.41
404.999	458.66
405.377	448.49
405.755	469.51
406.133	487.13
406.511	473.35
406.889	500.69
407.267	485.33
407.645	481.03
408.023	509.51
408.401	507.02
408.779	491.2
409.156	501.15
409.534	515.38
409.912	527.13
410.29	517.42
410.667	522.61
411.045	547.47
411.422	519
411.8	563.74
412.178	567.58
412.555	550.18
412.933	566.68
413.31	595.61
413.687	580.24
414.065	602.61
414.442	566.23
414.819	603.74
415.197	604.19
415.574	631.31
415.951	636.28
416.328	654.14
416.705	643.97
417.082	655.49
417.46	647.81
417.837	675.83
418.214	670.86
418.591	681.48
418.967	708.15
419.344	714.02
419.721	707.02
420.098	716.28
420.475	702.95
420.852	723.06
421.228	749.95
421.605	741.59
421.982	738.65
422.358	768.48
422.735	763.74
423.111	770.52
423.488	805.09
423.864	794.47
424.241	813.45
424.617	829.95
424.994	807.13
425.37	835.37
425.746	859.55
426.123	857.07
426.499	854.58
426.875	880.12
427.251	890.06
427.627	904.98
428.003	921.7
428.379	907.01
428.756	922.6
429.132	940.68
429.507	966.9
429.883	976.39
430.259	983.62
430.635	978.42
431.011	1015.03
431.387	1009.38
431.763	1020.45
432.138	1038.08
432.514	1047.12
432.89	1053.9
433.265	1091.41
433.641	1108.36
434.016	1101.13
434.392	1135.03
434.767	1167.12
435.143	1149.94
435.518	1161.47
435.894	1188.36
436.269	1210.28
436.644	1215.93
437.02	1219.77
437.395	1266.32
437.77	1298.64
438.145	1278.53
438.52	1308.36
438.895	1299.54
439.271	1310.84
439.646	1349.94
440.021	1332.31
440.395	1342.25
440.77	1355.59
441.145	1346.77
441.52	1382.48
441.895	1390.84
442.27	1423.38
442.645	1411.63
443.019	1407.34
443.394	1411.86
443.769	1423.38
444.143	1423.15
444.518	1456.37
444.892	1455.92
445.267	1463.15
445.641	1498.63
446.016	1494.57
446.39	1488.24
446.764	1516.71
447.139	1490.5
447.513	1511.51
447.887	1537.95
448.262	1525.98
448.636	1561.23
449.01	1559.42
449.384	1561.46
449.758	1555.58
450.132	1598.97
450.506	1615.01
450.88	1573.43
451.254	1615.47
451.628	1613.66
452.002	1650.04
452.376	1664.5
452.75	1657.5
453.123	1637.39
453.497	1670.61
453.871	1700.89
454.244	1722.58
454.618	1742.47
454.992	1756.25
455.365	1755.8
455.739	1771.39
456.112	1773.43
456.486	1802.58
456.859	1823.6
457.232	1824.27
457.606	1836.48
457.979	1846.87
458.352	1895.68
458.725	1894.33
459.099	1896.14
459.472	1953.54
459.845	1947.89
460.218	1967.1
460.591	1956.25
460.964	1981.33
461.337	2017.94
461.71	2062.01
462.083	2080.31
462.456	2070.14
462.829	2063.59
463.201	2133.87
463.574	2118.96
463.947	2145.85
464.32	2172.06
464.692	2226.98
465.065	2218.84
465.438	2205.28
465.81	2250.7
466.183	2243.25
466.555	2276.01
466.928	2310.36
467.3	2301.32
467.672	2353.3
468.045	2406.86
468.417	2380.42
468.789	2427.87
469.161	2447.76
469.534	2447.99
469.906	2518.72
470.278	2491.15
470.65	2552.84
471.022	2592.16
471.394	2595.78
471.766	2629.9
472.138	2640.75
472.51	2683.01
472.882	2710.35
473.253	2745.83
473.625	2770.69
473.997	2847.52
474.369	2803.01
474.74	2876.45
475.112	2901.53
475.484	2930.23
475.855	2969.78
476.227	2951.93
476.598	3025.82
476.97	3059.72
477.341	3115.09
477.713	3158.93
478.084	3146.05
478.455	3202.54
478.827	3240.06
479.198	3299.49
479.569	3319.38
479.94	3404.35
480.311	3453.16
480.682	3467.85
481.053	3548.75
481.424	3543.1
481.795	3568.63
482.166	3624
482.537	3672.36
482.908	3685.69
483.279	3737.9
483.65	3816.99
484.021	3850.44
484.391	3878.91
484.762	3932.24
485.133	3936.99
485.503	4001.62
485.874	4051.11
486.244	4077.55
486.615	4119.81
486.985	4197.54
487.356	4221.95
487.726	4248.62
488.097	4284.77
488.467	4302.18
488.837	4365.22
489.207	4466.46
489.578	4519.57
489.948	4543.98
490.318	4620.58
490.688	4539
491.058	4617.65
491.428	4668.72
491.798	4691.77
492.168	4800.02
492.538	4816.51
492.908	4880.24
493.278	4903.52
493.648	4892.67
494.017	4952.1
494.387	4982.38
494.757	5021.48
495.126	5073.68
495.496	5037.3
495.866	5103.06
496.235	5086.79
496.605	5133.57
496.974	5153.23
497.344	5193.9
497.713	5212.89
498.082	5252.43
498.452	5277.52
498.821	5320.45
499.19	5348.48
499.559	5316.61
499.928	5374.24
500.298	5343.28
500.667	5467.79
501.036	5418.53
501.405	5489.49
501.774	5502.82
502.143	5520.67
502.512	5503.27
502.88	5539.2
503.249	5582.59
503.618	5589.15
503.987	5609.94
504.356	5652.65
504.724	5652.2
505.093	5660.78
505.462	5702.82
505.83	5787.56
506.199	5769.93
506.567	5774.68
506.936	5753.44
507.304	5884.73
507.672	5841.8
508.041	5863.72
508.409	5920.44
508.777	5912.75
509.145	5941.45
509.514	5904.17
509.882	6029.81
510.25	6005.18
510.618	5991.85
510.986	6037.95
511.354	6064.39
511.722	6107.78
512.09	6133.77
512.458	6149.36
512.826	6169.02
513.193	6175.35
513.561	6203.14
513.929	6183.48
514.297	6248.11
514.664	6196.81
515.032	6255.8
515.4	6252.41
515.767	6268.45
516.135	6314.78
516.502	6287.66
516.869	6381.22
517.237	6383.93
517.604	6372.63
517.972	6383.48
518.339	6384.83
518.706	6439.97
519.073	6414.66
519.44	6500.08
519.808	6442.91
520.175	6453.98
520.542	6530.37
520.909	6573.53
521.276	6558.84
521.643	6598.61
522.009	6608.56
522.376	6638.38
522.743	6670.02
523.11	6665.05
523.477	6755.67
523.843	6740.75
524.21	6822.11
524.577	6802.9
524.943	6887.19
525.31	6854.42
525.676	6958.38
526.043	6933.97
526.409	6994.08
526.776	7014.87
527.142	7005.38
527.508	7073.63
527.874	7072.95
528.241	7095.32
528.607	7061.42
528.973	7215.54
529.339	7185.72
529.705	7194.75
530.071	7279.95
530.437	7271.14
530.803	7308.65
531.169	7289.67
531.535	7292.6
531.901	7324.69
532.267	7358.59
532.632	7359.5
532.998	7403.11
533.364	7484.69
533.73	7481.75
534.095	7542.99
534.461	7516.1
534.826	7511.13
535.192	7566.72
535.557	7594.29
535.923	7549.32
536.288	7713.61
536.653	7662.09
537.019	7556.1
537.384	7690.56
537.749	7665.7
538.114	7623.9
538.479	7707.28
538.845	7724.46
539.21	7704.35
539.575	7759.49
539.94	7723.78
540.305	7806.04
540.67	7767.85
541.034	7808.75
541.399	7777.34
541.764	7893.72
542.129	7856.21
542.494	7917.67
542.858	7894.4
543.223	7941.18
543.587	7978.01
543.952	7894.17
544.316	7938.24
544.681	7955.86
545.045	8016.88
545.41	8053.04
545.774	8085.58
546.138	8047.61
546.503	8106.82
546.867	8051.68
547.231	8113.6
547.595	8159.47
547.959	8087.16
548.324	8135.75
548.688	8137.33
549.052	8159.25
549.416	8175.29
549.779	8187.95
550.143	8181.4
550.507	8200.15
550.871	8256.2
551.235	8231.11
551.599	8245.8
551.962	8249.87
552.326	8278.34
552.689	8363.54
553.053	8345.23
553.417	8312.01
553.78	8481.5
554.143	8374.38
554.507	8396.53
554.87	8363.54
555.234	8466.59
555.597	8469.52
555.96	8418.9
556.323	8441.28
556.686	8511.78
557.05	8599.69
557.413	8545.91
557.776	8530.31
558.139	8613.47
558.502	8630.65
558.865	8601.72
559.228	8720.59
559.59	8712.45
559.953	8685.79
560.316	8752
560.679	8775.5
561.041	8780.7
561.404	8786.35
561.767	8894.6
562.129	8905.67
562.492	8948.83
562.854	8930.3
563.217	8862.06
563.579	8971.2
563.941	9019.57
564.304	8993.58
564.666	9087.36
565.028	9084.87
565.39	9137.08
565.753	9145.89
566.115	9241.03
566.477	9222.95
566.839	9262.04
567.201	9324.87
567.563	9317.64
567.925	9375.94
568.287	9310.18
568.648	9336.39
569.01	9434.7
569.372	9471.3
569.734	9482.38
570.095	9485.54
570.457	9542.49
570.819	9615.48
571.18	9599.44
571.542	9708.81
571.903	9643.73
572.265	9757.4
572.626	9699.1
572.987	9826.32
573.349	9783.39
573.71	9891.41
574.071	9832.65
574.432	9958.07
574.794	9980.67
575.155	9956.49
575.516	9920.33
575.877	10013.21
576.238	10056.83
576.599	10112.42
576.96	10158.74
577.32	10227.67
577.681	10214.34
578.042	10293.2
578.403	10318.97
578.763	10287.33
579.124	10416.36
579.485	10467.89
579.845	10457.72
580.206	10557.15
580.566	10537.27
580.927	10572.29
581.287	10659.75
581.648	10695.45
582.008	10774.77
582.368	10772.29
582.728	10855
583.089	10843.02
583.449	10903.36
583.809	10948.33
584.169	11049.12
584.529	11012.06
584.889	11186.97
585.249	11144.48
585.609	11193.97
585.969	11379.28
586.329	11307.64
586.688	11416.34
587.048	11502.66
587.408	11489.56
587.768	11522.78
588.127	11619.27
588.487	11744.92
588.846	11847.06
589.206	11834.63
589.565	11940.84
589.925	11985.59
590.284	12042.99
590.643	12112.59
591.003	12183.1
591.362	12336.31
591.721	12294.06
592.08	12390.1
592.44	12504.67
592.799	12577.66
593.158	12594.39
593.517	12618.57
593.876	12730.65
594.235	12678
594.593	12847.49
594.952	12924.32
595.311	12859.01
595.67	13033.47
596.029	13156.63
596.387	13219.91
596.746	13234.6
597.104	13233.24
597.463	13285.67
597.822	13397.76
598.18	13386.23
598.538	13424.2
598.897	13570.18
599.255	13509.16
599.613	13711.87
599.972	13731.98
600.33	13735.83
600.688	13774.24
601.046	13875.26
601.404	14024.86
601.762	13942.83
602.12	14079.55
602.478	14090.17
602.836	14157.06
603.194	14006.1
603.552	14065.76
603.91	14219.65
604.268	14322.48
604.625	14214.23
604.983	14404.73
605.341	14389.82
605.698	14389.59
606.056	14465.3
606.413	14449.48
606.771	14665.07
607.128	14602.92
607.485	14631.17
607.843	14689.7
608.2	14690.83
608.557	14707.78
608.914	14826.64
609.272	14878.85
609.629	14883.59
609.986	14966.3
610.343	14896.92
610.7	15077.94
611.057	15032.97
611.414	15071.61
611.771	15115.22
612.127	15152.06
612.484	15162.68
612.841	15139.63
613.198	15162.91
613.554	15209.46
613.911	15284.49
614.267	15324.71
614.624	15297.37
614.98	15413.52
615.337	15428.66
615.693	15382.79
616.05	15437.93
616.406	15549.56
616.762	15509.56
617.118	15505.5
617.475	15517.7
617.831	15514.99
618.187	15687.64
618.543	15571.48
618.899	15654.42
619.255	15739.84
619.611	15616.45
619.967	15775.09
620.323	15728.09
620.678	15721.99
621.034	15712.95
621.39	15733.96
621.746	15737.13
622.101	15863
622.457	15669.79
622.812	15786.39
623.168	15814.19
623.523	15842.21
623.879	15962.43
624.234	15814.41
624.589	15856.45
624.945	15924.24
625.3	15896.67
625.655	15824.58
626.01	15890.57
626.365	15799.27
626.72	15845.15
627.075	15893.51
627.43	15981.64
627.785	15834.98
628.14	15958.82
628.495	15868.65
628.85	15945.48
629.205	15869.78
629.559	15929.67
629.914	15829.1
630.269	15891.02
630.623	15845.83
630.978	15900.06
631.332	15884.92
631.687	15838.82
632.041	15872.27
632.396	15787.3
632.75	15688.32
633.104	15833.62
633.459	15741.65
633.813	15807.18
634.167	15853.74
634.521	15752.04
634.875	15760.18
635.229	15812.15
635.583	15647.19
635.937	15702.78
636.291	15681.76
636.645	15737.58
636.999	15637.02
637.352	15707.07
637.706	15509.79
638.06	15610.8
638.413	15551.82
638.767	15586.4
639.121	15557.7
639.474	15572.61
639.828	15539.62
640.181	15471.6
640.534	15550.24
640.888	15398.15
641.241	15420.53
641.594	15448.55
641.947	15521.99
642.301	15428.66
642.654	15451.71
643.007	15449.45
643.36	15411.94
643.713	15368.1
644.066	15515.21
644.419	15345.95
644.771	15275.67
645.124	15165.62
645.477	15162.91
645.83	15092.85
646.182	14957.49
646.535	14917.26
646.888	14915.46
647.24	14898.96
647.593	14952.06
647.945	14888.34
648.298	14785.74
648.65	14797.72
649.002	14745.74
649.355	14861.45
649.707	14842.01
650.059	15011.95
650.411	15128.56
650.763	15119.29
651.115	15341.88
651.467	15200.42
651.819	15223.24
652.171	15210.36
652.523	15198.39
652.875	15239.06
653.227	15228.89
653.578	15277.93
653.93	15229.12
654.282	15291.49
654.633	15183.92
654.985	15195.67
655.337	15266.86
655.688	15186.86
656.039	15283.36
656.391	15183.02
656.742	15152.74
657.094	15235.9
657.445	15251.49
657.796	15254.2
658.147	15179.18
658.498	15290.13
658.849	15194.54
659.2	15322
659.551	15243.36
659.902	15295.33
660.253	15341.21
660.604	15331.49
660.955	15240.64
661.306	15297.14
661.656	15237.48
662.007	15260.76
662.358	15346.86
662.708	15340.98
663.059	15321.77
663.409	15214.66
663.76	15353.18
664.11	15360.19
664.461	15382.34
664.811	15355.9
665.161	15465.95
665.511	15265.28
665.862	15340.3
666.212	15350.25
666.562	15395.67
666.912	15428.66
667.262	15358.83
667.612	15290.36
667.962	15334.88
668.312	15288.55
668.662	15396.12
669.011	15366.52
669.361	15375.33
669.711	15274.32
670.06	15301.66
670.41	15252.85
670.76	15248.33
671.109	15354.77
671.459	15248.78
671.808	15248.33
672.157	15249.68
672.507	15120.42
672.856	15110.03
673.205	15245.62
673.554	15244.94
673.904	15178.27
674.253	15269.34
674.602	15280.19
674.951	14952.74
675.3	14934.66
675.649	15136.01
675.998	15154.09
676.346	15086.07
676.695	15203.13
677.044	15058.95
677.393	15134.66
677.741	15098.05
678.09	14991.16
678.438	15040.2
678.787	15004.04
679.135	15020.54
679.484	14951.84
679.832	15024.38
680.181	14873.65
680.529	14930.6
680.877	14848.34
681.225	14896.92
681.573	14879.07
681.922	14825.97
682.27	14779.19
682.618	14768.34
682.966	14666.42
683.314	14813.54
683.661	14758.62
684.009	14605.18
684.357	14690.83
684.705	14530.38
685.053	14633.43
685.4	14559.76
685.748	14418.52
686.095	14512.53
686.443	14406.32
686.79	14354.79
687.138	14453.09
687.485	14427.11
687.832	14279.77
688.18	14318.18
688.527	14251.52
688.874	14297.17
689.221	14179.88
689.568	14110.96
689.915	14019.66
690.262	14022.6
690.609	14079.55
690.956	13908.25
691.303	13844.75
691.65	13870.06
691.997	13761.59
692.344	13665.09
692.69	13627.81
693.037	13749.16
693.383	13571.76
693.73	13686.11
694.077	13540.58
694.423	13495.61
694.769	13518.43
695.116	13514.59
695.462	13407.02
695.808	13407.7
696.155	13448.83
696.501	13295.16
696.847	13304.42
697.193	13200.02
697.539	13237.99
697.885	13029.18
698.231	13026.69
698.577	13032.11
698.923	12961.16
699.269	12954.83
699.614	12934.04
699.96	12844.55
700.306	12810.88
700.651	12703.54
700.997	12676.42
701.342	12682.52
701.688	12642.52
702.033	12580.6
702.379	12582.64
702.724	12610.88
703.069	12583.54
703.415	12425.35
703.76	12378.57
704.105	12419.7
704.45	12366.37
704.795	12255.19
705.14	12252.47
705.485	12141.97
705.83	12166.15
706.175	12206.37
706.52	12181.52
706.865	12112.59
707.209	12075.53
707.554	11991.46
707.899	12020.16
708.243	11927.29
708.588	11812.94
708.932	11834.63
709.277	11812.03
709.621	11735.65
709.966	11728.42
710.31	11802.99
710.654	11592.15
710.998	11653.39
711.342	11639.84
711.687	11695.65
712.031	11586.73
712.375	11511.93
712.719	11463.12
713.063	11514.41
713.407	11509.22
713.75	11478.48
714.094	11444.36
714.438	11439.39
714.782	11450.24
715.125	11323.69
715.469	11319.62
715.812	11294.53
716.156	11189.23
716.499	11219.73
716.843	11242.56
717.186	11225.38
717.53	11230.81
717.873	11203.69
718.216	11215.67
718.559	11178.83
718.902	11094.31
719.246	11060.42
719.589	11076.46
719.932	11095.67
720.275	11010.93
720.617	11021.55
720.96	10995.33
721.303	10984.94
721.646	11010.7
721.989	10960.76
722.331	10964.37
722.674	11013.86
723.016	10998.95
723.359	10991.04
723.701	11019.96
724.044	10825.85
724.386	10868.33
724.729	10950.14
725.071	10925.5
725.413	10842.57
725.755	10833.3
726.097	10857.93
726.439	10788.33
726.782	10823.81
727.124	10822
727.465	10813.64
727.807	10769.12
728.149	10749.24
728.491	10794.21
728.833	10813.42
729.175	10739.07
729.516	10731.61
729.858	10714.89
730.199	10647.77
730.541	10720.31
730.882	10723.25
731.224	10754.21
731.565	10660.88
731.906	10723.93
732.248	10811.16
732.589	10679.63
732.93	10636.02
733.271	10656.13
733.612	10645.29
733.953	10683.93
734.294	10673.53
734.635	10659.3
734.976	10703.81
735.317	10671.73
735.658	10712.4
735.999	10668.11
736.339	10647.77
736.68	10743.81
737.021	10720.76
737.361	10656.81
737.702	10709.24
738.042	10671.73
738.383	10667.43
738.723	10706.75
739.063	10717.15
739.404	10731.61
739.744	10739.07
740.084	10678.73
740.424	10700.42
740.764	10692.52
741.104	10773.42
741.444	10725.51
741.784	10743.36
742.124	10794.21
742.464	10776.58
742.804	10808.22
743.143	10805.73
743.483	10866.52
743.823	10880.08
744.162	10854.55
744.502	10904.71
744.841	10944.26
745.181	11011.38
745.52	11016.8
745.86	11113.97
746.199	11041.66
746.538	11105.39
746.877	11186.06
747.216	11266.29
747.556	11268.32
747.895	11327.53
748.234	11371.37
748.573	11363.46
748.911	11389.67
749.25	11490.91
749.589	11583.34
749.928	11647.07
750.267	11747.18
750.605	11772.04
750.944	11900.62
751.283	11887.51
751.621	12082.31
751.96	12093.83
752.298	12208.41
752.636	12300.61
752.975	12339.93
753.313	12488.85
753.651	12615.63
753.989	12727.72
754.327	12820.14
754.666	12836.19
755.004	13005
755.342	13162.51
755.679	13207.03
756.017	13330.41
756.355	13472.33
756.693	13614.7
757.031	13758.88
757.368	13851.08
757.706	14064.18
758.044	14117.28
758.381	14338.07
758.719	14337.84
