Data from hue_110_FLMS001491_00077.txt Node
Date: Tue Feb 07 17:01:48 GMT 2017
User: dcchb
Spectrometer: FLMS00149
Trigger mode: 0
Integration Time (sec): 2.000000E-2
Scans to average: 10
Electric dark correction enabled: true
Nonlinearity correction enabled: false
Boxcar width: 0
XAxis mode: Wavelengths
Number of Pixels in Spectrum: 2048
>>>>>Begin Spectral Data<<<<<
341.393	-8.95
341.776	-8.95
342.16	-8.95
342.543	-70.42
342.927	-84.66
343.31	-60.48
343.693	-76.75
344.077	-60.48
344.46	-76.75
344.843	-53.02
345.226	-34.94
345.61	-34.49
345.993	-13.7
346.376	-6.92
346.759	15.23
347.142	19.97
347.525	41.44
347.908	59.29
348.291	61.55
348.674	97.71
349.057	122.34
349.44	135
349.823	147.88
350.206	160.31
350.588	196.69
350.971	206.18
351.354	208.67
351.737	228.55
352.119	258.16
352.502	250.7
352.884	261.32
353.267	294.09
353.65	300.87
354.032	297.25
354.414	296.57
354.797	314.65
355.179	307.87
355.562	317.59
355.944	349.45
356.326	330.7
356.709	316.91
357.091	335.22
357.473	337.48
357.855	349.68
358.238	319.62
358.62	348.1
359.002	338.83
359.384	339.96
359.766	347.19
360.148	336.12
360.53	339.51
360.912	360.3
361.294	342.45
361.676	309.46
362.057	305.16
362.439	322.11
362.821	314.43
363.203	326.63
363.584	333.41
363.966	339.28
364.348	339.51
364.729	345.16
365.111	306.29
365.493	314.88
365.874	330.02
366.256	294.09
366.637	318.95
367.019	327.53
367.4	334.99
367.781	323.24
368.163	320.53
368.544	307.42
368.925	316.46
369.306	332.73
369.688	298.83
370.069	315.33
370.45	306.97
370.831	327.31
371.212	333.64
371.593	328.89
371.974	308.78
372.355	320.53
372.736	316.23
373.117	333.18
373.498	312.84
373.879	319.4
374.26	323.01
374.641	330.47
375.021	305.61
375.402	306.29
375.783	325.73
376.163	314.88
376.544	323.01
376.925	344.93
377.305	339.96
377.686	322.79
378.066	343.13
378.447	298.16
378.827	336.8
379.208	329.57
379.588	334.31
379.968	327.08
380.349	349
380.729	353.97
381.109	337.7
381.489	336.35
381.87	332.28
382.25	362.56
382.63	356.91
383.01	356.69
383.39	327.08
383.77	346.74
384.15	332.51
384.53	332.05
384.91	348.55
385.29	364.59
385.67	335.67
386.049	343.35
386.429	368.89
386.809	355.1
387.189	369.79
387.568	372.96
387.948	387.87
388.328	374.09
388.707	379.74
389.087	372.28
389.466	392.62
389.846	375.67
390.225	372.96
390.605	383.8
390.984	378.15
391.363	383.8
391.743	377.7
392.122	389.91
392.501	389
392.881	392.39
393.26	390.58
393.639	383.8
394.018	390.13
394.397	390.81
394.776	386.74
395.155	394.2
395.534	386.29
395.913	388.32
396.292	393.97
396.671	417.02
397.05	415.89
397.429	403.92
397.808	397.36
398.186	418.15
398.565	392.62
398.944	412.96
399.323	418.83
399.701	424.93
400.08	393.07
400.458	424.48
400.837	413.86
401.215	437.36
401.594	427.87
401.972	424.25
402.351	418.6
402.729	443.69
403.107	435.1
403.486	441.66
403.864	443.46
404.242	457.7
404.62	449.56
404.999	442.11
405.377	463.8
405.755	463.8
406.133	457.25
406.511	461.99
406.889	456.12
407.267	449.11
407.645	468.1
408.023	479.85
408.401	482.33
408.779	465.38
409.156	486.63
409.534	471.48
409.912	484.37
410.29	516.68
410.667	493.86
411.045	497.25
411.422	490.02
411.8	488.21
412.178	511.94
412.555	527.98
412.933	520.07
413.31	531.6
413.687	532.73
414.065	547.64
414.442	533.18
414.819	514.87
415.197	521.65
415.574	530.24
415.951	535.44
416.328	553.52
416.705	563.01
417.082	563.69
417.46	557.36
417.837	559.17
418.214	551.93
418.591	558.04
418.967	584.7
419.344	551.26
419.721	610.69
420.098	578.37
420.475	578.83
420.852	593.06
421.228	599.17
421.605	622.22
421.982	615.89
422.358	584.02
422.735	600.07
423.111	610.92
423.488	611.82
423.864	614.53
424.241	633.97
424.617	623.12
424.994	599.62
425.37	673.29
425.746	623.12
426.123	644.36
426.499	668.99
426.875	643.01
427.251	647.07
427.627	684.59
428.003	673.74
428.379	695.66
428.756	671.71
429.132	684.36
429.507	702.89
429.883	714.19
430.259	712.16
430.635	715.77
431.011	754.87
431.387	737.24
431.763	753.74
432.138	741.31
432.514	735.88
432.89	729.56
433.265	736.79
433.641	763
434.016	776.11
434.392	781.08
434.767	801.65
435.143	811.81
435.518	786.96
435.894	808.43
436.269	818.59
436.644	819.27
437.02	827.86
437.395	855.88
437.77	833.51
438.145	862.43
438.52	861.76
438.895	879.84
439.271	878.25
439.646	887.97
440.021	886.84
440.395	886.39
440.77	875.54
441.145	910.12
441.52	922.55
441.895	928.42
442.27	925.71
442.645	943.34
443.019	932.26
443.394	941.08
443.769	939.72
444.143	960.51
444.518	988.08
444.892	983.34
445.267	994.41
445.641	998.7
446.016	982.43
446.39	1014.52
446.764	990.34
447.139	982.43
447.513	1031.02
447.887	1026.05
448.262	1043
448.636	1027.4
449.01	1050.68
449.384	1065.59
449.758	1052.71
450.132	1054.07
450.506	1075.08
450.88	1045.03
451.254	1107.17
451.628	1103.78
452.002	1125.03
452.376	1107.17
452.75	1156.66
453.123	1113.05
453.497	1150.79
453.871	1159.6
454.244	1188.3
454.618	1184.01
454.992	1201.18
455.365	1184.69
455.739	1234.18
456.112	1242.54
456.486	1252.03
456.859	1272.37
457.232	1267.62
457.606	1307.62
457.979	1295.42
458.352	1304.68
458.725	1346.94
459.099	1352.37
459.472	1365.7
459.845	1393.72
460.218	1404.34
460.591	1440.95
460.964	1402.08
461.337	1477.33
461.71	1446.6
462.083	1482.76
462.456	1500.38
462.829	1530.21
463.201	1540.84
463.574	1578.8
463.947	1579.7
464.32	1619.7
464.692	1620.83
465.065	1651.79
465.438	1649.53
465.81	1689.98
466.183	1705.35
466.555	1746.93
466.928	1770.43
467.3	1783.09
467.672	1798
468.045	1868.28
468.417	1881.62
468.789	1888.17
469.161	1920.71
469.534	1948.73
469.906	2010.2
470.278	2042.29
470.65	2103.08
471.022	2120.71
471.394	2135.4
471.766	2216.75
472.138	2235.73
472.51	2275.96
472.882	2331.77
473.253	2375.84
473.625	2426.69
473.997	2472.34
474.369	2470.75
474.74	2536.29
475.112	2599.34
475.484	2687.47
475.855	2725.44
476.227	2769.05
476.598	2874.13
476.97	2903.29
477.341	2977.63
477.713	3099.44
478.084	3122.71
478.455	3232.99
478.827	3311.86
479.198	3398.64
479.569	3459.43
479.94	3549.14
480.311	3654.45
480.682	3753.66
481.053	3847.44
481.424	3957.04
481.795	4036.36
482.166	4207.88
482.537	4298.73
482.908	4407.43
483.279	4467.31
483.65	4574.2
484.021	4741.88
484.391	4836.79
484.762	4979.84
485.133	5039.27
485.503	5200.17
485.874	5330.79
486.244	5491.69
486.615	5682.2
486.985	5758.58
487.356	5898.91
487.726	6007.16
488.097	6213.25
488.467	6334.38
488.837	6483.53
489.207	6633.58
489.578	6792.45
489.948	6919.45
490.318	7110.63
490.688	7155.6
491.058	7432.21
491.428	7542.94
491.798	7729.83
492.168	7970.95
492.538	7978.41
492.908	8184.95
493.278	8347.44
493.648	8432.41
494.017	8619.29
494.387	8756.01
494.757	8857.93
495.126	9080.75
495.496	9211.14
495.866	9310.12
496.235	9511.25
496.605	9654.29
496.974	9763.9
497.344	9878.24
497.713	9979.71
498.082	10188.97
498.452	10275.75
498.821	10320.94
499.19	10425.8
499.559	10703.31
499.928	10754.38
500.298	10901.49
500.667	11024.65
501.036	11043.86
501.405	11249.96
501.774	11316.17
502.143	11439.33
502.512	11496.28
502.88	11701.25
503.249	11730.4
503.618	11866.89
503.987	11939.43
504.356	11974.23
504.724	12116.6
505.093	12200.89
505.462	12279.08
505.83	12418.29
506.199	12477.27
506.567	12754.33
506.936	12745.96
507.304	12877.03
507.672	12979.18
508.041	12951.16
508.409	13147.08
508.777	13264.37
509.145	13351.82
509.514	13274.76
509.882	13391.37
510.25	13469.11
510.618	13596.56
510.986	13630.91
511.354	13735.32
511.722	13815.77
512.09	13953.16
512.458	13868.87
512.826	14059.6
513.193	14065.93
513.561	14176.21
513.929	14228.64
514.297	14347.96
514.664	14460.5
515.032	14465.69
515.4	14460.95
515.767	14578.01
516.135	14580.04
516.502	14514.28
516.869	14761.73
517.237	14799.92
517.604	14713.14
517.972	14817.77
518.339	14879.47
518.706	14942.97
519.073	15027.94
519.44	15037.43
519.808	15272.9
520.175	15120.59
520.542	15209.4
520.909	15297.54
521.276	15300.7
521.643	15360.13
522.009	15479.45
522.376	15449.17
522.743	15570.3
523.11	15615.27
523.477	15840.12
523.843	15743.4
524.21	15969.83
524.577	15940
524.943	16011.19
525.31	15968.7
525.676	16048.02
526.043	16227
526.409	16187.68
526.776	16311.75
527.142	16170.51
527.508	16336.6
527.874	16384.74
528.241	16386.09
528.607	16424.74
528.973	16435.58
529.339	16448.69
529.705	16492.98
530.071	16580.21
530.437	16581.12
530.803	16602.59
531.169	16665.18
531.535	16528.01
531.901	16490.95
532.267	16531.4
532.632	16639.2
532.998	16642.13
533.364	16685.97
533.73	16621.57
534.095	16632.19
534.461	16697.72
534.826	16669.25
535.192	16749.93
535.557	16691.85
535.923	16608.69
536.288	16680.78
536.653	16667.22
537.019	16593.32
537.384	16556.71
537.749	16608.01
538.114	16561.46
538.479	16505.87
538.845	16430.61
539.21	16427.22
539.575	16536.83
539.94	16453.44
540.305	16423.16
540.67	16399.65
541.034	16482.59
541.399	16405.98
541.764	16377.96
542.129	16361.24
542.494	16348.58
542.858	16383.16
543.223	16306.32
543.587	16276.72
543.952	16211.64
544.316	16207.57
544.681	16063.62
545.045	16245.53
545.41	16224.97
545.774	16083.73
546.138	16081.7
546.503	16078.53
546.867	15951.98
547.231	16070.62
547.595	16092.09
547.959	16026.56
548.324	16006.44
548.688	15983.17
549.052	15926.22
549.416	15785.88
549.779	15929.61
550.143	15858.42
550.507	15837.86
550.871	15852.1
551.235	15857.07
551.599	15879.89
551.962	15903.17
552.326	15751.31
552.689	15808.26
553.053	15683.74
553.417	15682.16
553.78	15859.33
554.143	15778.88
554.507	15703.17
554.87	15667.24
555.234	15784.3
555.597	15615.04
555.96	15731.65
556.323	15597.41
556.686	15611.43
557.05	15647.13
557.413	15659.33
557.776	15717.86
558.139	15682.38
558.502	15639
558.865	15663.63
559.228	15706.79
559.59	15687.81
559.953	15652.55
560.316	15672.44
560.679	15697.07
561.041	15746.34
561.404	15700.46
561.767	15764.64
562.129	15782.04
562.492	15786.56
562.854	15733.91
563.217	15670.63
563.579	15740.24
563.941	15787.47
564.304	15859.78
564.666	15850.97
565.028	15868.14
565.39	15879.89
565.753	15994.47
566.115	15935.94
566.477	15970.74
566.839	16022.26
567.201	16097.74
567.563	15998.76
567.925	16078.53
568.287	16135.25
568.648	16023.39
569.01	16112.43
569.372	16091.41
569.734	16043.28
570.095	16137.06
570.457	16197.85
570.819	16257.74
571.18	16186.55
571.542	16206.44
571.903	16178.42
572.265	16282.37
572.626	16299.77
572.987	16304.06
573.349	16252.09
573.71	16248.92
574.071	16382.48
574.432	16355.36
574.794	16526.43
575.155	16341.35
575.516	16386.09
575.877	16447.34
576.238	16373.44
576.599	16488.46
576.96	16467
577.32	16456.6
577.681	16464.28
578.042	16550.84
578.403	16544.51
578.763	16448.69
579.124	16504.28
579.485	16544.73
579.845	16640.33
580.206	16539.31
580.566	16609.14
580.927	16446.66
581.287	16578.18
581.648	16511.52
582.008	16545.41
582.368	16463.15
582.728	16588.58
583.089	16507.22
583.449	16429.94
583.809	16537.5
584.169	16504.06
584.529	16463.15
584.889	16477.62
585.249	16365.76
585.609	16365.98
585.969	16313.1
586.329	16272.88
586.688	16434.23
587.048	16401.46
587.408	16373.67
587.768	16377.06
588.127	16454.57
588.487	16238.98
588.846	16384.96
589.206	16273.1
589.565	16349.03
589.925	16279.66
590.284	16271.07
590.643	16332.08
591.003	16362.82
591.362	16327.57
591.721	16305.64
592.08	16266.32
592.44	16305.87
592.799	16300.9
593.158	16132.99
593.517	16259.09
593.876	16234.69
594.235	16164.86
594.593	16184.97
594.952	16342.03
595.311	16174.57
595.67	16172.99
596.029	16300.45
596.387	16307
596.746	16255.25
597.104	16153.11
597.463	16225.42
597.822	16318.3
598.18	16232.65
598.538	16138.19
598.897	16244.18
599.255	16117.18
599.613	16390.84
599.972	16167.57
600.33	16230.17
600.688	16110.17
601.046	16236.95
601.404	16330.28
601.762	16173.44
602.12	16230.84
602.478	16155.59
602.836	16267.91
603.194	16160.34
603.552	16155.82
603.91	16061.58
604.268	16267.68
604.625	16134.35
604.983	16135.71
605.341	16084.41
605.698	16165.76
606.056	16225.65
606.413	16131.64
606.771	16234.23
607.128	16248.92
607.485	16236.04
607.843	16138.19
608.2	16333.21
608.557	16254.57
608.914	16224.52
609.272	16342.93
609.629	16346.32
609.986	16472.19
610.343	16332.08
610.7	16435.81
611.057	16401.91
611.414	16384.96
611.771	16354.68
612.127	16417.05
612.484	16436.94
612.841	16440.33
613.198	16405.76
613.554	16320.79
613.911	16491.4
614.267	16473.55
614.624	16455.92
614.98	16463.61
615.337	16513.1
615.693	16515.58
616.05	16540.89
616.406	16550.16
616.762	16551.97
617.118	16538.63
617.475	16555.58
617.831	16504.96
618.187	16638.74
618.543	16602.59
618.899	16685.97
619.255	16669.93
619.611	16685.52
619.967	16745.63
620.323	16772.07
620.678	16626.31
621.034	16632.42
621.39	16680.78
621.746	16571.85
622.101	16828.12
622.457	16684.84
622.812	16669.25
623.168	16662.02
623.523	16731.85
623.879	16753.54
624.234	16628.35
624.589	16695.92
624.945	16703.83
625.3	16733.66
625.655	16787.44
626.01	16716.26
626.365	16783.82
626.72	16744.28
627.075	16643.71
627.43	16699.53
627.785	16616.6
628.14	16705.63
628.495	16673.09
628.85	16605.52
629.205	16636.94
629.559	16769.59
629.914	16616.15
630.269	16597.16
630.623	16569.82
630.978	16522.81
631.332	16614.79
631.687	16586.54
632.041	16489.82
632.396	16547.67
632.75	16409.14
633.104	16524.4
633.459	16425.19
633.813	16437.39
634.167	16371.18
634.521	16340.67
634.875	16396.26
635.229	16370.95
635.583	16288.7
635.937	16254.12
636.291	16309.94
636.645	16341.58
636.999	16242.37
637.352	16272.88
637.706	16131.41
638.06	16290.28
638.413	16188.13
638.767	16167.12
639.121	16107.23
639.474	16092.77
639.828	16149.26
640.181	16087.12
640.534	16108.81
640.888	15984.07
641.241	15994.69
641.594	15978.65
641.947	15962.6
642.301	16013.22
642.654	16005.99
643.007	15908.59
643.36	15959.89
643.713	15923.06
644.066	15999.66
644.419	15877.63
644.771	15854.13
645.124	15786.79
645.477	15681.93
645.83	15539.56
646.182	15402.84
646.535	15440.13
646.888	15432.9
647.24	15396.29
647.593	15460.7
647.945	15420.47
648.298	15417.31
648.65	15384.76
649.002	15297.08
649.355	15452.33
649.707	15402.39
650.059	15452.79
650.411	15672.67
650.763	15736.39
651.115	15844.64
651.467	15775.72
651.819	15786.56
652.171	15769.16
652.523	15693.46
652.875	15655.72
653.227	15653.01
653.578	15763.29
653.93	15722.84
654.282	15627.7
654.633	15731.2
654.985	15699.78
655.337	15749.5
655.688	15660.92
656.039	15809.61
656.391	15633.57
656.742	15693.23
657.094	15739.11
657.445	15685.1
657.796	15693.01
658.147	15614.82
658.498	15743.85
658.849	15698.2
659.2	15755.15
659.551	15730.74
659.902	15716.73
660.253	15730.29
660.604	15789.27
660.955	15701.82
661.306	15780.69
661.656	15767.58
662.007	15743.4
662.358	15838.76
662.708	15760.12
663.059	15763.96
663.409	15698.88
663.76	15754.25
664.11	15754.92
664.461	15733.23
664.811	15780.46
665.161	15837.86
665.511	15661.37
665.862	15714.02
666.212	15778.65
666.562	15786.11
666.912	15761.25
667.262	15740.69
667.612	15741.14
667.962	15881.7
668.312	15757.64
668.662	15921.93
669.011	15711.54
669.361	15686.45
669.711	15725.32
670.06	15718.77
670.41	15676.28
670.76	15605.78
671.109	15726.45
671.459	15675.15
671.808	15626.34
672.157	15709.5
672.507	15567.13
672.856	15638.77
673.205	15653.46
673.554	15634.93
673.904	15620.46
674.253	15658.43
674.602	15691.65
674.951	15367.36
675.3	15330.98
675.649	15584.99
675.998	15454.82
676.346	15526.46
676.695	15584.53
677.044	15426.8
677.393	15432
677.741	15427.02
678.09	15347.25
678.438	15390.64
678.787	15453.69
679.135	15449.4
679.484	15342.73
679.832	15320.59
680.181	15206.92
680.529	15333.69
680.877	15253.92
681.225	15138.22
681.573	15363.52
681.922	15233.13
682.27	15145.68
682.618	15193.81
682.966	15137.09
683.314	15117.88
683.661	14987.49
684.009	15016.87
684.357	14887.83
684.705	14930.31
685.053	14957.88
685.4	14921.5
685.748	14829.07
686.095	14764.67
686.443	14813.71
686.79	14698.91
687.138	14740.49
687.485	14748.85
687.832	14721.73
688.18	14637.89
688.527	14528.74
688.874	14546.14
689.221	14568.74
689.568	14478.8
689.915	14425.69
690.262	14454.17
690.609	14358.8
690.956	14249.43
691.303	14356.09
691.65	14272.7
691.997	14234.29
692.344	14174.4
692.69	14058.7
693.037	14059.6
693.383	13947.74
693.73	13979.15
694.077	13983.22
694.423	13926.95
694.769	13877.91
695.116	13736.45
695.462	13779.84
695.808	13768.76
696.155	13702.32
696.501	13634.75
696.847	13576.68
697.193	13514.98
697.539	13605.38
697.885	13459.39
698.231	13378.04
698.577	13431.6
698.923	13302.79
699.269	13264.14
699.614	13134.88
699.96	13093.07
700.306	13077.48
700.651	13077.48
700.997	12954.55
701.342	13004.94
701.688	12944.83
702.033	12933.08
702.379	12877.49
702.724	12812.86
703.069	12869.12
703.415	12695.12
703.76	12673.42
704.105	12771.27
704.45	12657.83
704.795	12581.67
705.14	12558.85
705.485	12582.13
705.83	12462.58
706.175	12506.65
706.52	12405.41
706.865	12379.42
707.209	12280.67
707.554	12270.95
707.899	12274.56
708.243	12234.34
708.588	12159.99
708.932	12078.64
709.277	12045.19
709.621	11977.4
709.966	11974.46
710.31	12025.08
710.654	11879.32
710.998	11978.3
711.342	11889.72
711.687	11904.18
712.031	11789.38
712.375	11783.28
712.719	11770.62
713.063	11726.1
713.407	11791.64
713.75	11696.73
714.094	11684.3
714.438	11641.36
714.782	11644.52
715.125	11631.19
715.469	11668.48
715.812	11585.99
716.156	11487.47
716.499	11463.96
716.843	11502.38
717.186	11402.72
717.53	11501.93
717.873	11472.1
718.216	11494.47
718.559	11397.53
718.902	11356.85
719.246	11398.66
719.589	11324.08
719.932	11306.68
720.275	11338.77
720.617	11300.13
720.96	11253.35
721.303	11205.44
721.646	11228.49
721.989	11181.49
722.331	11242.05
722.674	11171.09
723.016	11214.71
723.359	11213.12
723.701	11199.34
724.044	11173.8
724.386	11056.52
724.729	11098.32
725.071	11181.26
725.413	11088.15
725.755	11103.52
726.097	11029.4
726.439	11028.5
726.782	10999.12
727.124	11085.67
727.465	11001.38
727.807	11031.43
728.149	11057.87
728.491	10980.59
728.833	10992.34
729.175	11026.91
729.516	10932.68
729.858	10878.44
730.199	10959.8
730.541	10906.69
730.882	10892.45
731.224	10950.53
731.565	10939.23
731.906	10877.31
732.248	10952.34
732.589	10883.19
732.93	10900.14
733.271	10840.25
733.612	10961.6
733.953	10877.09
734.294	10896.07
734.635	10827.6
734.976	10868.05
735.317	10832.12
735.658	10807.71
735.999	10822.4
736.339	10889.06
736.68	10910.31
737.021	10897.43
737.361	10827.37
737.702	10879.57
738.042	10887.71
738.383	10833.7
738.723	10940.14
739.063	10879.35
739.404	10939.23
739.744	10911.44
740.084	10900.14
740.424	11003.41
740.764	10887.93
741.104	10985.33
741.444	11000.93
741.784	10974.49
742.124	10957.31
742.464	11047.93
742.804	10968.61
743.143	11115.72
743.483	11114.37
743.823	11058.33
744.162	11116.18
744.502	11107.14
744.841	11135.84
745.181	11251.77
745.52	11204.08
745.86	11274.36
746.199	11334.93
746.538	11289.05
746.877	11430.52
747.216	11467.13
747.556	11477.3
747.895	11603.85
748.234	11550.52
748.573	11607.24
748.911	11778.53
749.25	11664.64
749.589	11829.83
749.928	11956.38
750.267	12039.09
750.605	12119.31
750.944	12162.93
751.283	12210.61
751.621	12335.13
751.96	12404.73
752.298	12432.98
752.636	12584.61
752.975	12613.31
753.313	12720.88
753.651	12869.35
753.989	12938.5
754.327	13119.06
754.666	13270.02
755.004	13392.95
755.342	13465.72
755.679	13549.33
756.017	13637.92
