Data from hue_32_FLMS001491_00048.txt Node
Date: Tue Feb 07 17:23:27 GMT 2017
User: dcchb
Spectrometer: FLMS00149
Trigger mode: 0
Integration Time (sec): 2.000000E-2
Scans to average: 10
Electric dark correction enabled: true
Nonlinearity correction enabled: false
Boxcar width: 0
XAxis mode: Wavelengths
Number of Pixels in Spectrum: 2048
>>>>>Begin Spectral Data<<<<<
341.393	-19.87
341.776	-19.87
342.16	-19.87
342.543	-60.78
342.927	-72.07
343.31	-49.02
343.693	-90.15
344.077	-65.29
344.46	-58.97
344.843	-60.55
345.226	-39.53
345.61	-37.27
345.993	-14.22
346.376	-3.6
346.759	11.54
347.142	16.74
347.525	33.69
347.908	74.36
348.291	74.59
348.674	87.02
349.057	120.69
349.44	134.93
349.823	142.16
350.206	157.98
350.588	207.92
350.971	209.5
351.354	219.67
351.737	256.96
352.119	261.25
352.502	263.96
352.884	282.04
353.267	278.2
353.65	312.32
354.032	312.77
354.414	294.47
354.797	344.19
355.179	325.88
355.562	339.67
355.944	325.66
356.326	327.24
356.709	353
357.091	338.08
357.473	346.45
357.855	355.49
358.238	349.84
358.62	347.8
359.002	329.72
359.384	343.06
359.766	333.34
360.148	319.33
360.53	343.73
360.912	339.89
361.294	333.34
361.676	345.99
362.057	323.62
362.439	348.93
362.821	331.3
363.203	335.15
363.584	329.05
363.966	346.67
364.348	316.84
364.729	322.27
365.111	331.98
365.493	320.68
365.874	343.28
366.256	331.08
366.637	323.17
367.019	306.9
367.4	316.39
367.781	316.84
368.163	330.85
368.544	329.95
368.925	331.98
369.306	324.3
369.688	308.25
370.069	329.95
370.45	326.33
370.831	317.07
371.212	325.2
371.593	320.23
371.974	308.25
372.355	318.2
372.736	348.25
373.117	311.42
373.498	319.78
373.879	314.81
374.26	311.64
374.641	320.46
375.021	329.72
375.402	333.79
375.783	333.79
376.163	329.5
376.544	333.11
376.925	305.54
377.305	331.98
377.686	316.62
378.066	346.22
378.447	321.59
378.827	355.94
379.208	338.76
379.588	329.72
379.968	338.76
380.349	331.53
380.729	332.43
381.109	331.3
381.489	348.48
381.87	329.72
382.25	336.28
382.63	344.19
383.01	358.2
383.39	353.9
383.77	362.04
384.15	353.68
384.53	343.73
384.91	364.98
385.29	346.9
385.67	363.62
386.049	378.08
386.429	336.73
386.809	342.6
387.189	367.01
387.568	380.8
387.948	345.32
388.328	357.97
388.707	348.93
389.087	386.44
389.466	364.52
389.846	361.36
390.225	360.23
390.605	366.11
390.984	364.52
391.363	366.56
391.743	363.85
392.122	357.74
392.501	368.82
392.881	398.87
393.26	365.88
393.639	391.87
394.018	382.38
394.397	399.1
394.776	397.07
395.155	393
395.534	391.64
395.913	402.04
396.292	401.36
396.671	405.43
397.05	381.25
397.429	408.59
397.808	395.26
398.186	406.11
398.565	370.63
398.944	414.24
399.323	404.52
399.701	401.81
400.08	391.87
400.458	404.98
400.837	386.44
401.215	433.22
401.594	423.51
401.972	410.4
402.351	434.13
402.729	419.21
403.107	423.73
403.486	431.42
403.864	414.24
404.242	428.48
404.62	425.99
404.999	423.73
405.377	441.58
405.755	442.94
406.133	445.88
406.511	456.5
406.889	442.94
407.267	415.37
407.645	447.69
408.023	457.86
408.401	452.66
408.779	437.97
409.156	456.05
409.534	462.15
409.912	468.25
410.29	459.21
410.667	480.91
411.045	434.13
411.422	475.71
411.8	468.7
412.178	459.66
412.555	491.98
412.933	463.73
413.31	463.73
413.687	506.67
414.065	491.98
414.442	520.23
414.819	474.58
415.197	487.68
415.574	507.35
415.951	516.84
416.328	512.99
416.705	521.81
417.082	506.44
417.46	527.46
417.837	545.08
418.214	507.57
418.591	526.1
418.967	505.99
419.344	533.56
419.721	529.94
420.098	539.21
420.475	540.34
420.852	543.73
421.228	535.14
421.605	547.34
421.982	535.82
422.358	540.79
422.735	553.22
423.111	541.47
423.488	585.54
423.864	566.1
424.241	553.9
424.617	565.87
424.994	569.49
425.37	577.17
425.746	583.05
426.123	579.21
426.499	578.3
426.875	593.9
427.251	607.23
427.627	589.6
428.003	624.4
428.379	609.04
428.756	587.12
429.132	632.54
429.507	625.99
429.883	641.58
430.259	638.42
430.635	654.23
431.011	653.56
431.387	656.04
431.763	678.87
432.138	694.91
432.514	661.92
432.89	672.76
433.265	661.47
433.641	684.97
434.016	696.04
434.392	713.44
434.767	719.32
435.143	717.28
435.518	718.19
435.894	698.3
436.269	728.36
436.644	772.42
437.02	741.01
437.395	736.72
437.77	747.79
438.145	763.16
438.52	767.9
438.895	761.8
439.271	768.13
439.646	757.96
440.021	770.84
440.395	789.37
440.77	781.46
441.145	787.56
441.52	779.65
441.895	804.06
442.27	807.45
442.645	810.39
443.019	822.14
443.394	808.13
443.769	822.82
444.143	813.78
444.518	835.92
444.892	816.26
445.267	833.21
445.641	830.95
446.016	841.35
446.39	874.12
446.764	845.19
447.139	871.86
447.513	828.47
447.887	838.86
448.262	892.19
448.636	884.51
449.01	878.64
449.384	903.49
449.758	901.46
450.132	897.17
450.506	907.11
450.88	908.46
451.254	901.23
451.628	894.23
452.002	925.41
452.376	955.7
452.75	948.92
453.123	953.89
453.497	956.37
453.871	957.73
454.244	1008.12
454.618	985.52
454.992	986.88
455.365	1001.8
455.739	1031.4
456.112	1019.65
456.486	1058.07
456.859	1077.5
457.232	1054
457.606	1063.04
457.979	1085.41
458.352	1099.65
458.725	1106.43
459.099	1107.1
459.472	1151.62
459.845	1161.79
460.218	1162.7
460.591	1154.56
460.964	1122.24
461.337	1193.66
461.71	1210.6
462.083	1212.86
462.456	1208.12
462.829	1227.33
463.201	1250.38
463.574	1252.41
463.947	1272.07
464.32	1286.08
464.692	1303.26
465.065	1306.19
465.438	1332.86
465.81	1362.24
466.183	1379.64
466.555	1396.59
466.928	1386.19
467.3	1398.85
467.672	1450.82
468.045	1456.92
468.417	1443.14
468.789	1479.52
469.161	1512.06
469.534	1555.91
469.906	1559.75
470.278	1582.57
470.65	1593.64
471.022	1637.49
471.394	1675.9
471.766	1690.82
472.138	1718.84
472.51	1743.7
472.882	1753.41
473.253	1804.03
473.625	1820.76
473.997	1907.08
474.369	1909.79
474.74	1925.84
475.112	1971.04
475.484	2021.88
475.855	2063.24
476.227	2119.96
476.598	2125.61
476.97	2133.52
477.341	2211.03
477.713	2260.52
478.084	2309.33
478.455	2370.57
478.827	2411.48
479.198	2463.68
479.569	2504.58
479.94	2592.94
480.311	2631.81
480.682	2689.66
481.053	2768.08
481.424	2808.75
481.795	2878.81
482.166	2923.78
482.537	3018.69
482.908	3108.86
483.279	3128.75
483.65	3209.87
484.021	3349.08
484.391	3385.01
484.762	3435.18
485.133	3486.25
485.503	3627.26
485.874	3726.7
486.244	3768.05
486.615	3843.08
486.985	3901.38
487.356	4027.25
487.726	4060.25
488.097	4171.43
488.467	4271.54
488.837	4347.24
489.207	4414.14
489.578	4567.8
489.948	4581.81
490.318	4693.9
490.688	4721.02
491.058	4913.78
491.428	4966.44
491.798	5067.9
492.168	5155.81
492.538	5237.84
492.908	5280.55
493.278	5414.79
493.648	5473.77
494.017	5531.62
494.387	5643.48
494.757	5765.51
495.126	5832.4
495.496	5910.14
495.866	5982.91
496.235	6043.47
496.605	6159.17
496.974	6192.85
497.344	6258.83
497.713	6366.17
498.082	6406.17
498.452	6478.49
498.821	6599.61
499.19	6709.67
499.559	6732.49
499.928	6805.94
500.298	6890.91
500.667	6960.96
501.036	7016.1
501.405	7066.49
501.774	7139.26
502.143	7210.45
502.512	7269.88
502.88	7402.08
503.249	7342.87
503.618	7420.84
503.987	7499.48
504.356	7571.79
504.724	7632.81
505.093	7707.16
505.462	7730.66
505.83	7839.81
506.199	7904.44
506.567	7988.96
506.936	8003.19
507.304	8084.55
507.672	8145.79
508.041	8233.7
508.409	8323.86
508.777	8348.5
509.145	8372.68
509.514	8399.12
509.882	8524.31
510.25	8474.82
510.618	8531.77
510.986	8635.04
511.354	8716.62
511.722	8740.58
512.09	8856.05
512.458	8850.18
512.826	8909.16
513.193	9009.72
513.561	9037.29
513.929	9108.48
514.297	9172.88
514.664	9191.41
515.032	9295.81
515.4	9311.63
515.767	9415.81
516.135	9422.14
516.502	9355.93
516.869	9584.62
517.237	9612.19
517.604	9551.18
517.972	9665.75
518.339	9767.44
518.706	9647.9
519.073	9792.75
519.44	9766.09
519.808	9925.63
520.175	9994.78
520.542	10045.17
520.909	10080.65
521.276	10097.83
521.643	10148.9
522.009	10250.59
522.376	10286.75
522.743	10359.97
523.11	10498.04
523.477	10494.65
523.843	10606.97
524.21	10657.14
524.577	10759.05
524.943	10750.69
525.31	10782.33
525.676	10913.17
526.043	11011.02
526.409	10973.51
526.776	11120.17
527.142	11161.3
527.508	11264.8
527.874	11330.11
528.241	11325.82
528.607	11410.56
528.973	11567.17
529.339	11488.07
529.705	11566.94
530.071	11703.66
530.437	11695.98
530.803	11868.63
531.169	11836.77
531.535	11903.88
531.901	11919.02
532.267	11996.99
532.632	12063.43
532.998	12098.23
533.364	12179.58
533.73	12244.66
534.095	12266.36
534.461	12286.7
534.826	12405.56
535.192	12526.92
535.557	12498.89
535.923	12444.21
536.288	12579.12
536.653	12635.84
537.019	12563.53
537.384	12715.61
537.749	12818.66
538.114	12803.29
538.479	12908.6
538.845	12920.13
539.21	12992.44
539.575	12970.97
539.94	13071.99
540.305	13147.47
540.67	13114.25
541.034	13215.26
541.399	13227.69
541.764	13276.95
542.129	13379.55
542.494	13376.39
542.858	13445.08
543.223	13494.12
543.587	13610.73
543.952	13530.73
544.316	13687.56
544.681	13740.22
545.045	13689.6
545.41	13793.55
545.774	13916.26
546.138	13938.86
546.503	13948.12
546.867	13951.51
547.231	14134.11
547.595	14096.37
547.959	14175.91
548.324	14187.66
548.688	14197.15
549.052	14287.1
549.416	14318.06
549.779	14415
550.143	14379.07
550.507	14458.39
550.871	14581.78
551.235	14532.74
551.599	14626.3
551.962	14713.53
552.326	14725.5
552.689	14688.22
553.053	14708.55
553.417	14765.95
553.78	14978.83
554.143	14920.98
554.507	15013.4
554.87	15134.53
555.234	15219.5
555.597	15084.82
555.96	15184.93
556.323	15264.47
556.686	15329.33
557.05	15350.12
557.413	15461.98
557.776	15434.64
558.139	15507.63
558.502	15491.81
558.865	15613.16
559.228	15737
559.59	15740.84
559.953	15781.07
560.316	15921.18
560.679	15967.5
561.041	16015.41
561.404	16075.75
561.767	16259.47
562.129	16128.4
562.492	16365.46
562.854	16225.35
563.217	16306.25
563.579	16372.92
563.941	16449.53
564.304	16483.87
564.666	16617.88
565.028	16586.02
565.39	16658.11
565.753	16790.99
566.115	16715.73
566.477	16782.4
566.839	16917.54
567.201	16974.71
567.563	17076.63
567.925	17130.19
568.287	17221.48
568.648	17202.95
569.01	17294.25
569.372	17471.65
569.734	17383.51
570.095	17550.29
570.457	17559.33
570.819	17785.99
571.18	17734.01
571.542	17833.9
571.903	17862.14
572.265	18008.58
572.626	18008.58
572.987	18075.02
573.349	18182.81
573.71	18334.45
574.071	18438.85
574.432	18403.15
574.794	18585.74
575.155	18638.17
575.516	18623.71
575.877	18757.71
576.238	18838.84
576.599	19085.39
576.96	19139.4
577.32	19189.79
577.681	19432.5
578.042	19538.26
578.403	19500.07
578.763	19695.09
579.124	19884.01
579.485	20120.39
579.845	20193.16
580.206	20296.66
580.566	20382.98
580.927	20616.87
581.287	20786.59
581.648	20940.03
582.008	21245.56
582.368	21327.59
582.728	21588.15
583.089	21733.68
583.449	21924.41
583.809	22100
584.169	22342.93
584.529	22375.7
584.889	22880.09
585.249	22887.32
585.609	23057.94
585.969	23367.31
586.329	23431.04
586.688	23786.06
587.048	24006.16
587.408	24185.82
587.768	24533.15
588.127	24664.22
588.487	24844.11
588.846	25195.96
589.206	25421.27
589.565	25625.33
589.925	26082.49
590.284	26202.71
590.643	26536.72
591.003	26796.6
591.362	27019.19
591.721	27303.03
592.08	27557.71
592.44	27916.34
592.799	28092.38
593.158	28239.05
593.517	28545.93
593.876	28860.72
594.235	29042.41
594.593	29300.49
594.952	29721.04
595.311	29821.15
595.67	30155.61
596.029	30496.84
596.387	30736.16
596.746	31084.62
597.104	31218.63
597.463	31529.81
597.822	31722.8
598.18	31908.78
598.538	32119.17
598.897	32689.32
599.255	32558.03
599.613	33330.44
599.972	33322.53
600.33	33646.14
600.688	33626.02
601.046	34050.87
601.404	34251.32
601.762	34361.6
602.12	34779.44
602.478	34964.29
602.836	35134.68
603.194	35152.54
603.552	35467.1
603.91	35539.64
604.268	35971.72
604.625	36014.66
604.983	36289.23
605.341	36397.25
605.698	36802.66
606.056	37121.75
606.413	37145.25
606.771	37391.35
607.128	37551.34
607.485	37509.08
607.843	37734.16
608.2	38069.75
608.557	38367.82
608.914	38290.31
609.272	38610.98
609.629	38826.34
609.986	39208.02
610.343	39017.07
610.7	39402.14
611.057	39613.66
611.414	39555.36
611.771	39786.99
612.127	40084.16
612.484	40085.06
612.841	40365.73
613.198	40321.89
613.554	40415
613.911	40791.71
614.267	40778.15
614.624	40814.53
614.98	41005.26
615.337	41326.39
615.693	41401.19
616.05	41471.47
616.406	41725.92
616.762	41614.06
617.118	41696.77
617.475	41930.44
617.831	41988.29
618.187	42229.64
618.543	42274.61
618.899	42601.15
619.255	42612.23
619.611	42564.54
619.967	42858.1
620.323	42894.71
620.678	42861.49
621.034	42779.91
621.39	42900.58
621.746	43058.54
622.101	43509.15
622.457	43186.22
622.812	43434.58
623.168	43490.4
623.523	43536.5
623.879	43681.35
624.234	43456.5
624.589	43816.26
624.945	43774.46
625.3	43869.82
625.655	43811.29
626.01	43967.67
626.365	44122.92
626.72	44058.06
627.075	44035.69
627.43	43986.43
627.785	44103.04
628.14	44118.18
628.495	44201.79
628.85	44166.99
629.205	44021.91
629.559	44335.57
629.914	44096.26
630.269	44313.43
630.623	44347.32
630.978	44258.06
631.332	44354.55
631.687	44462.12
632.041	44293.99
632.396	44334.22
632.75	44302.58
633.104	44335.35
633.459	44218.96
633.813	44354.78
634.167	44281.34
634.521	44346.42
634.875	44476.36
635.229	44213.99
635.583	44182.13
635.937	44231.85
636.291	44222.35
636.645	44225.52
636.999	44173.77
637.352	44347.32
637.706	44099.42
638.06	44256.03
638.413	44070.72
638.767	44039.53
639.121	44204.95
639.474	43912.53
639.828	44083.15
640.181	44045.86
640.534	43993.43
640.888	43986.88
641.241	43844.74
641.594	43871.63
641.947	43996.37
642.301	44005.18
642.654	43961.8
643.007	43889.93
643.36	43920.44
643.713	43848.8
644.066	43987.33
644.419	43758.41
644.771	43467.57
645.124	43122.27
645.477	43064.19
645.83	42887.47
646.182	42700.81
646.535	42619.23
646.888	42691.32
647.24	42506.02
647.593	42871.88
647.945	42667.82
648.298	42488.39
648.65	42435.96
649.002	42262.41
649.355	42589.85
649.707	42492.46
650.059	42661.49
650.411	43102.38
650.763	43084.31
651.115	43509.6
651.467	43435.26
651.819	43329.27
652.171	43321.13
652.523	43277.75
652.875	43242.72
653.227	43016.28
653.578	43513.67
653.93	43289.5
654.282	43089.73
654.633	43034.36
654.985	43171.31
655.337	43147.81
655.688	43116.17
656.039	43253.57
656.391	42916.17
656.742	43118.88
657.094	43027.36
657.445	43152.33
657.796	43120.24
658.147	43003.63
658.498	43014.7
658.849	42995.72
659.2	42938.77
659.551	42800.24
659.902	42976.96
660.253	42900.81
660.604	42865.1
660.955	42787.82
661.306	42887.47
661.656	42821.26
662.007	42730.42
662.358	42909.39
662.708	42773.8
663.059	42717.31
663.409	42681.83
663.76	42872.11
664.11	42823.07
664.461	42945.33
664.811	42922.05
665.161	42920.69
665.511	42911.88
665.862	42748.49
666.212	43024.19
666.562	42783.75
666.912	42775.61
667.262	42748.49
667.612	42710.98
667.962	42819.23
668.312	42682.06
668.662	42838.89
669.011	42659.01
669.361	42769.96
669.711	42661.04
670.06	42655.84
670.41	42541.72
670.76	42558.44
671.109	42593.02
671.459	42403.64
671.808	42494.72
672.157	42453.14
672.507	42287.49
672.856	42315.74
673.205	42452.23
673.554	42494.72
673.904	42440.03
674.253	42549.63
674.602	42431.44
674.951	41938.35
675.3	41759.82
675.649	42530.2
675.998	42197.77
676.346	42357.32
676.695	42531.1
677.044	42165.91
677.393	42354.83
677.741	42330.2
678.09	42167.49
678.438	42034.62
678.787	42266.02
679.135	42170.88
679.484	41954.62
679.832	42019.47
680.181	41861.06
680.529	42025.12
680.877	41814.51
681.225	41755.07
681.573	42002.53
681.922	41783.1
682.27	41489.54
682.618	41713.72
682.966	41445.48
683.314	41708.52
683.661	41629.2
684.009	41285.26
684.357	41303.79
684.705	41202.77
685.053	41232.15
685.4	41064.47
685.748	40990.35
686.095	40990.35
686.443	40869.45
686.79	40890.46
687.138	40832.84
687.485	40884.14
687.832	40713.75
688.18	40778.15
688.527	40568.66
688.874	40626.52
689.221	40394.43
689.568	40269.01
689.915	40157.38
690.262	40264.72
690.609	40171.61
690.956	39997.83
691.303	39991.73
691.65	39832.87
691.997	39844.16
692.344	39546.77
692.69	39572.98
693.037	39520.56
693.383	39248.7
693.73	39316.95
694.077	39167.12
694.423	39170.51
694.769	39002.6
695.116	38926.22
695.462	38885.77
695.808	38817.07
696.155	38889.39
696.501	38507.93
696.847	38600.58
697.193	38217.77
697.539	38482.17
697.885	38056.87
698.231	38171.44
698.577	38153.59
698.923	37966.47
699.269	37875.85
699.614	37815.97
699.96	37683.77
700.306	37731.9
700.651	37545.69
700.997	37473.15
701.342	37442.87
701.688	37313.38
702.033	37186.83
702.379	37189.77
702.724	37011.47
703.069	37062.54
703.415	36617.58
703.76	36730.57
704.105	36631.37
704.45	36596.57
704.795	36488.09
705.14	36317.7
705.485	36306.4
705.83	36022.34
706.175	36191.15
706.52	35971.95
706.865	35982.8
707.209	35966.53
707.554	35682.47
707.899	35776.02
708.243	35685.86
708.588	35591.39
708.932	35479.08
709.277	35371.29
709.621	35325.86
709.966	35111.86
710.31	35180.56
710.654	34859.21
710.998	34926.55
711.342	34938.53
711.687	34880.9
712.031	34673.23
712.375	34680.01
712.719	34691.98
713.063	34649.5
713.407	34710.74
713.75	34347.59
714.094	34339.9
714.438	34299.9
714.782	34449.28
715.125	34411.99
715.469	34237.53
715.812	34064.2
716.156	33955.05
716.499	33971.55
716.843	33981.95
717.186	33786.02
717.53	34018.78
717.873	33950.31
718.216	33872.34
718.559	33637.1
718.902	33364.33
719.246	33523.2
719.589	33402.3
719.932	33283.21
720.275	33261.51
720.617	33374.73
720.96	33114.62
721.303	33129.99
721.646	33086.15
721.989	32947.4
722.331	33014.29
722.674	32973.38
723.016	32916.21
723.359	32859.26
723.701	32897.23
724.044	32608.65
724.386	32657.23
724.729	32663.56
725.071	32554.86
725.413	32500.85
725.755	32411.82
726.097	32373.17
726.439	32371.82
726.782	32209.11
727.124	32345.15
727.465	32246.62
727.807	32172.73
728.149	32212.05
728.491	32029
728.833	32195.78
729.175	32016.57
729.516	31933.19
729.858	31807.09
730.199	31995.78
730.541	31798.05
730.882	31915.56
731.224	31773.87
731.565	31518.96
731.906	31696.81
732.248	31607.77
732.589	31459.98
732.93	31364.61
733.271	31401.67
733.612	31413.43
733.953	31488.68
734.294	31293.88
734.635	31292.75
734.976	31307.21
735.317	31168.23
735.658	31151.96
735.999	31068.8
736.339	30999.43
736.68	31108.12
737.021	30974.57
737.361	30850.28
737.702	30989.93
738.042	30923.49
738.383	30849.82
738.723	30933.44
739.063	30749.26
739.404	30830.84
739.744	30649.83
740.084	30567.12
740.424	30594.01
740.764	30514.01
741.104	30626.1
741.444	30434.69
741.784	30347.01
742.124	30415.49
742.464	30423.85
742.804	30280.35
743.143	30163.51
743.483	30246.68
743.823	30041.94
744.162	29987.02
744.502	30055.04
744.841	29901.6
745.181	30064.99
745.52	29915.16
745.86	29826.12
746.199	29888.04
746.538	29828.16
746.877	29781.38
747.216	29942.05
747.556	29705.9
747.895	29880.36
748.234	29619.8
748.573	29578.67
748.911	29531.22
749.25	29510.88
749.589	29430.2
749.928	29510.2
750.267	29384.33
750.605	29288.51
750.944	29285.12
751.283	29130.32
751.621	29330.54
751.96	29091.68
752.298	29024.11
752.636	29114.05
752.975	28943.21
753.313	28881.51
753.651	28957.67
753.989	28904.34
754.327	28768.52
754.666	28536.89
755.004	28711.35
755.342	28577.79
755.679	28565.14
756.017	28388.65
756.355	28485.37
756.693	28316.11
757.031	28351.59
757.368	28144.58
