Data from hue_30_FLMS001491_91.txt Node
Date: Mon Feb 06 15:06:24 GMT 2017
User: dcchb
Spectrometer: FLMS00149
Trigger mode: 0
Integration Time (sec): 2.000000E-2
Scans to average: 10
Electric dark correction enabled: true
Nonlinearity correction enabled: false
Boxcar width: 0
XAxis mode: Wavelengths
Number of Pixels in Spectrum: 2048
>>>>>Begin Spectral Data<<<<<
341.393	-5.9
341.776	-5.9
342.16	-5.9
342.543	-59.91
342.927	-60.59
343.31	-68.95
343.693	-60.14
344.077	-82.96
344.46	-26.69
344.843	-49.52
345.226	-37.77
345.61	-41.16
345.993	-34.83
346.376	-15.4
346.759	16.24
347.142	30.71
347.525	37.26
347.908	57.6
348.291	71.61
348.674	83.59
349.057	120.42
349.44	130.82
349.823	140.76
350.206	144.6
350.588	189.12
350.971	195.9
351.354	213.07
351.737	233.64
352.119	243.36
352.502	250.59
352.884	279.51
353.267	277.25
353.65	296.46
354.032	301.43
354.414	304.37
354.797	323.81
355.179	301.43
355.562	320.42
355.944	330.13
356.326	329.68
356.709	326.52
357.091	316.12
357.473	357.93
357.855	361.54
358.238	333.75
358.62	359.96
359.002	334.43
359.384	313.18
359.766	336.46
360.148	373.07
360.53	327.65
360.912	355.67
361.294	329.23
361.676	347.08
362.057	317.93
362.439	335.1
362.821	350.7
363.203	317.93
363.584	324.93
363.966	325.16
364.348	327.19
364.729	319.29
365.111	322.45
365.493	305.5
365.874	307.08
366.256	311.15
366.637	306.86
367.019	314.77
367.4	319.06
367.781	304.82
368.163	304.14
368.544	290.81
368.925	331.71
369.306	340.98
369.688	298.27
370.069	304.6
370.45	303.01
370.831	299.62
371.212	323.58
371.593	303.24
371.974	310.25
372.355	304.37
372.736	306.63
373.117	313.41
373.498	317.25
373.879	326.74
374.26	306.86
374.641	335.33
375.021	304.14
375.402	321.77
375.783	312.05
376.163	326.97
376.544	352.73
376.925	326.52
377.305	330.58
377.686	326.97
378.066	306.18
378.447	319.06
378.827	325.84
379.208	315.9
379.588	321.32
379.968	307.08
380.349	311.6
380.729	342.34
381.109	331.94
381.489	333.97
381.87	339.17
382.25	336.91
382.63	333.3
383.01	326.29
383.39	337.59
383.77	334.43
384.15	321.09
384.53	329.68
384.91	326.97
385.29	329.91
385.67	344.37
386.049	324.03
386.429	352.05
386.809	337.82
387.189	353.18
387.568	350.47
387.948	338.95
388.328	342.34
388.707	345.95
389.087	350.47
389.466	358.83
389.846	335.56
390.225	347.53
390.605	370.58
390.984	350.92
391.363	356.8
391.743	369
392.122	366.29
392.501	369
392.881	365.84
393.26	373.52
393.639	383.46
394.018	389.34
394.397	372.17
394.776	377.36
395.155	366.74
395.534	373.97
395.913	352.73
396.292	389.79
396.671	360.19
397.05	384.14
397.429	376.23
397.808	394.31
398.186	397.25
398.565	392.96
398.944	389.11
399.323	397.7
399.701	379.4
400.08	366.29
400.458	376.91
400.837	382.79
401.215	367.42
401.594	390.92
401.972	413.07
402.351	366.52
402.729	394.99
403.107	390.24
403.486	391.83
403.864	386.85
404.242	385.72
404.62	397.7
404.999	388.89
405.377	392.96
405.755	404.48
406.133	419.62
406.511	414.42
406.889	418.94
407.267	408.32
407.645	425.72
408.023	415.33
408.401	404.25
408.779	438.38
409.156	424.14
409.534	412.39
409.912	428.89
410.29	423.92
410.667	435.67
411.045	443.35
411.422	433.18
411.8	437.47
412.178	455.55
412.555	441.54
412.933	421.2
413.31	430.92
413.687	444.71
414.065	444.25
414.442	450.58
414.819	464.37
415.197	465.95
415.574	458.72
415.951	456
416.328	457.81
416.705	471.82
417.082	470.92
417.46	467.53
417.837	495.33
418.214	482.22
418.591	469.79
418.967	482.44
419.344	474.99
419.721	479.73
420.098	496.68
420.475	489
420.852	505.95
421.228	520.18
421.605	490.58
421.982	511.14
422.358	484.48
422.735	507.76
423.111	512.73
423.488	511.14
423.864	534.65
424.241	525.83
424.617	540.07
424.994	515.21
425.37	516.12
425.746	529
426.123	542.78
426.499	531.94
426.875	564.93
427.251	526.29
427.627	555.89
428.003	554.99
428.379	558.83
428.756	559.96
429.132	577.58
429.507	574.42
429.883	590.92
430.259	575.1
430.635	564.02
431.011	573.06
431.387	585.95
431.763	602.89
432.138	592.72
432.514	613.74
432.89	565.83
433.265	606.51
433.641	620.29
434.016	609.9
434.392	616
434.767	636.34
435.143	632.95
435.518	625.72
435.894	631.82
436.269	647.64
436.644	637.7
437.02	648.54
437.395	647.19
437.77	665.04
438.145	689.9
438.52	677.69
438.895	677.02
439.271	681.31
439.646	687.86
440.021	707.3
440.395	686.28
440.77	689.45
441.145	678.37
441.52	690.35
441.895	684.02
442.27	684.02
442.645	685.6
443.019	726.96
443.394	700.97
443.769	731.48
444.143	719.05
444.518	732.38
444.892	719.73
445.267	721.31
445.641	747.07
446.016	716.56
446.39	726.96
446.764	729.67
447.139	732.38
447.513	766.05
447.887	758.6
448.262	753.85
448.636	761.53
449.01	781.19
449.384	779.61
449.758	778.71
450.132	766.05
450.506	793.4
450.88	778.03
451.254	787.75
451.628	787.07
452.002	818.26
452.376	812.38
452.75	817.35
453.123	822.55
453.497	844.7
453.871	853.96
454.244	853.73
454.618	867.52
454.992	872.04
455.365	877.69
455.739	862.55
456.112	886.73
456.486	883.34
456.859	896.67
457.232	888.08
457.606	902.55
457.979	930.12
458.352	935.77
458.725	962.88
459.099	943.45
459.472	949.55
459.845	962.21
460.218	985.71
460.591	962.88
460.964	1010.11
461.337	1008.53
461.71	1013.05
462.083	1010.57
462.456	1032.26
462.829	1027.97
463.201	1063.45
463.574	1058.02
463.947	1078.81
464.32	1055.54
464.692	1108.87
465.065	1082.2
465.438	1106.84
465.81	1124.24
466.183	1122.65
466.555	1154.97
466.928	1175.31
467.3	1170.79
467.672	1178.02
468.045	1218.7
468.417	1213.73
468.789	1222.76
469.161	1269.54
469.534	1253.5
469.906	1296.66
470.278	1307.06
470.65	1306.83
471.022	1321.52
471.394	1335.98
471.766	1363.1
472.138	1375.08
472.51	1383.21
472.882	1438.35
473.253	1455.07
473.625	1486.71
473.997	1509.99
474.369	1507.95
474.74	1552.7
475.112	1571
475.484	1620.04
475.855	1595.86
476.227	1634.28
476.598	1718.8
476.97	1712.02
477.341	1747.95
477.713	1770.77
478.084	1831.11
478.455	1848.51
478.827	1881.05
479.198	1956.98
479.569	1938
479.94	2008.28
480.311	2056.19
480.682	2064.78
481.053	2160.14
481.424	2211.89
481.795	2220.03
482.166	2250.99
482.537	2309.52
482.908	2346.58
483.279	2370.53
483.65	2460.47
484.021	2482.39
484.391	2524.65
484.762	2597.19
485.133	2595.16
485.503	2653.69
485.874	2735.72
486.244	2772.1
486.615	2881.48
486.985	2900.69
487.356	2948.82
487.726	2994.24
488.097	3058.65
488.467	3100.68
488.837	3196.5
489.207	3252.77
489.578	3278.3
489.948	3348.81
490.318	3365.31
490.688	3420.9
491.058	3478.75
491.428	3567.11
491.798	3633.77
492.168	3730.72
492.538	3720.1
492.908	3816.14
493.278	3859.53
493.648	3903.37
494.017	3939.53
494.387	4019.08
494.757	4065.4
495.126	4109.69
495.496	4113.76
495.866	4193.53
496.235	4254.55
496.605	4278.73
496.974	4377.94
497.344	4404.15
497.713	4379.07
498.082	4440.53
498.452	4542.23
498.821	4544.71
499.19	4576.8
499.559	4631.94
499.928	4672.84
500.298	4732.73
500.667	4769.79
501.036	4719.17
501.405	4836.45
501.774	4849.79
502.143	4935.44
502.512	4962.55
502.88	4949.22
503.249	4993.96
503.618	5043.23
503.987	5069.44
504.356	5139.5
504.724	5098.14
505.093	5154.19
505.462	5183.56
505.83	5268.08
506.199	5287.29
506.567	5344.69
506.936	5355.54
507.304	5402.54
507.672	5423.33
508.041	5461.3
508.409	5512.6
508.777	5551.01
509.145	5531.8
509.514	5574.74
509.882	5639.6
510.25	5699.03
510.618	5730.89
510.986	5731.8
511.354	5819.25
511.722	5833.26
512.09	5810.89
512.458	5840.72
512.826	5849.08
513.193	5875.75
513.561	5929.53
513.929	5988.51
514.297	6026.71
514.664	6047.95
515.032	6044.78
515.4	6127.27
515.767	6090.66
516.135	6114.16
516.502	6111.68
516.869	6216.08
517.237	6196.42
517.604	6194.39
517.972	6240.26
518.339	6287.26
518.706	6273.48
519.073	6344.21
519.44	6355.06
519.808	6414.94
520.175	6416.98
520.542	6473.25
520.909	6525
521.276	6508.05
521.643	6592.57
522.009	6644.99
522.376	6647.48
522.743	6707.59
523.11	6761.15
523.477	6825.33
523.843	6809.96
524.21	6882.73
524.577	6892.67
524.943	6897.64
525.31	7000.92
525.676	6984.19
526.043	7042.72
526.409	7068.71
526.776	7081.37
527.142	7132.44
527.508	7197.52
527.874	7226
528.241	7282.04
528.607	7242.95
528.973	7342.38
529.339	7369.5
529.705	7371.08
530.071	7468.93
530.437	7491.98
530.803	7487.46
531.169	7545.99
531.535	7587.34
531.901	7618.53
532.267	7648.58
532.632	7685.65
532.998	7674.8
533.364	7757.28
533.73	7792.08
534.095	7898.52
534.461	7894
534.826	7883.15
535.192	7950.27
535.557	8011.51
535.923	7987.56
536.288	8030.95
536.653	8079.53
537.019	8075.01
537.384	8150.04
537.749	8163.6
538.114	8161.57
538.479	8222.13
538.845	8235.01
539.21	8210.6
539.575	8247.89
539.94	8296.25
540.305	8386.64
540.67	8389.13
541.034	8404.95
541.399	8363.82
541.764	8431.61
542.129	8526.75
542.494	8483.59
542.858	8577.15
543.223	8575.34
543.587	8640.2
543.952	8687.2
544.316	8684.26
544.681	8768.78
545.045	8739.4
545.41	8854.65
545.774	8901.88
546.138	8916.57
546.503	8913.41
546.867	8946.18
547.231	8981.2
547.595	8999.06
547.959	9057.13
548.324	9024.14
548.688	9027.76
549.052	9105.5
549.416	9133.06
549.779	9155.89
550.143	9204.02
550.507	9253.06
550.871	9297.81
551.235	9313.85
551.599	9307.52
551.962	9354.08
552.326	9408.99
552.689	9404.24
553.053	9450.8
553.417	9467.29
553.78	9575.54
554.143	9507.97
554.507	9557.23
554.87	9629.1
555.234	9626.84
555.597	9651.02
555.96	9720.17
556.323	9745.7
556.686	9707.06
557.05	9814.85
557.413	9888.98
557.776	9877
558.139	9919.26
558.502	9900.95
558.865	9915.19
559.228	10035.87
559.59	10071.8
559.953	10061.4
560.316	10197.44
560.679	10160.61
561.041	10191.34
561.404	10260.49
561.767	10286.25
562.129	10302.3
562.492	10301.62
562.854	10289.64
563.217	10345.46
563.579	10410.32
563.941	10488.51
564.304	10468.85
564.666	10610.77
565.028	10537.77
565.39	10572.35
565.753	10685.79
566.115	10681.72
566.477	10667.94
566.839	10766.47
567.201	10787.94
567.563	10874.26
567.925	10894.83
568.287	10927.82
568.648	10950.42
569.01	10997.87
569.372	11027.25
569.734	11012.56
570.095	11131.66
570.457	11143.18
570.819	11273.12
571.18	11275.83
571.542	11302.5
571.903	11315.38
572.265	11403.06
572.626	11527.13
572.987	11531.42
573.349	11554.47
573.71	11645.32
574.071	11615.26
574.432	11763.5
574.794	11847.12
575.155	11976.61
575.516	11927.12
575.877	11977.06
576.238	12066.77
576.599	12195.13
576.96	12190.84
577.32	12323.72
577.681	12419.31
578.042	12532.98
578.403	12646.19
578.763	12668.79
579.124	12843.02
579.485	12925.51
579.845	13083.7
580.206	13202.11
580.566	13278.27
580.927	13423.35
581.287	13577.02
581.648	13691.59
582.008	13899.49
582.368	13951.02
582.728	14167.06
583.089	14203.67
583.449	14360.72
583.809	14648.85
584.169	14826.93
584.529	14903.53
584.889	15209.06
585.249	15361.6
585.609	15436.4
585.969	15752.78
586.329	15882.27
586.688	16156.38
587.048	16315.47
587.408	16569.03
587.768	16728.57
588.127	16857.61
588.487	17109.35
588.846	17447.42
589.206	17653.52
589.565	17924.7
589.925	18092.83
590.284	18369.88
590.643	18511.58
591.003	18940.49
591.362	19166.25
591.721	19390.65
592.08	19658.21
592.44	19927.58
592.799	20153.34
593.158	20431.07
593.517	20539.54
593.876	20928.69
594.235	21124.84
594.593	21442.57
594.952	21620.19
595.311	22005.04
595.67	22292.72
596.029	22612.03
596.387	22844.79
596.746	23003.43
597.104	23261.73
597.463	23415.85
597.822	23915.73
598.18	23950.08
598.538	24275.27
598.897	24590.29
599.255	24521.81
599.613	25169.03
599.972	25286.99
600.33	25687.66
600.688	25588.23
601.046	26010.14
601.404	26334.19
601.762	26475.89
602.12	26810.57
602.478	27033.84
602.836	27262.98
603.194	27293.49
603.552	27643.09
603.91	27695.29
604.268	28018.67
604.625	28172.56
604.983	28540.01
605.341	28534.59
605.698	28853.22
606.056	28970.96
606.413	29181.8
606.771	29444.85
607.128	29803.48
607.485	29775.23
607.843	29946.98
608.2	30312.62
608.557	30465.39
608.914	30525.72
609.272	30890.23
609.629	31122.32
609.986	31152.15
610.343	31200.06
610.7	31707.39
611.057	31792.81
611.414	31872.58
611.771	32021.05
612.127	32270.08
612.484	32350.99
612.841	32528.83
613.198	32567.48
613.554	32849.73
613.911	32968.82
614.267	33101.47
614.624	33232.09
614.98	33424.63
615.337	33723.38
615.693	33585.08
616.05	33742.59
616.406	34047.44
616.762	34042.69
617.118	34135.12
617.475	34182.35
617.831	34436.13
618.187	34571.04
618.543	34689.46
618.899	34841.77
619.255	34966.28
619.611	35075.66
619.967	35288.54
620.323	35377.8
620.678	35295.09
621.034	35337.35
621.39	35409.44
621.746	35353.84
622.101	35809.43
622.457	35599.04
622.812	35762.42
623.168	35976.43
623.523	35999.48
623.879	36310.66
624.234	35933.94
624.589	36079.25
624.945	36151.56
625.3	36310.66
625.655	36285.35
626.01	36420.48
626.365	36449.63
626.72	36575.06
627.075	36533.02
627.43	36526.24
627.785	36494.15
628.14	36616.64
628.495	36747.25
628.85	36700.02
629.205	36745.22
629.559	36981.6
629.914	36813.69
630.269	36869.28
630.623	36807.59
630.978	36675.84
631.332	36956.74
631.687	36999.22
632.041	36952.22
632.396	36990.86
632.75	36921.49
633.104	36957.42
633.459	36761.04
633.813	36746.12
634.167	36840.81
634.521	36798.55
634.875	36976.17
635.229	36909.96
635.583	36746.58
635.937	36815.27
636.291	36957.19
636.645	36816.4
636.999	36890.98
637.352	37015.27
637.706	36881.04
638.06	36967.81
638.413	36903.86
638.767	36778.67
639.121	36841.26
639.474	36693.7
639.828	36776.18
640.181	36834.03
640.534	36789.51
640.888	36637.43
641.241	36662.74
641.594	36739.34
641.947	36724.43
642.301	36750.19
642.654	36684.2
643.007	36657.09
643.36	36627.26
643.713	36585.22
644.066	36707.48
644.419	36421.39
644.771	36205.35
645.124	35921.06
645.477	35898.69
645.83	35648.3
646.182	35489.89
646.535	35574.86
646.888	35705.25
647.24	35460.73
647.593	35673.84
647.945	35485.59
648.298	35444.92
648.65	35486.95
649.002	35272.26
649.355	35441.75
649.707	35370.12
650.059	35622.76
650.411	36000.38
650.763	35979.59
651.115	36314.05
651.467	36104.33
651.819	36079.25
652.171	36112.69
652.523	36039.48
652.875	36029.76
653.227	35869.09
653.578	36213.93
653.93	36044.67
654.282	35799.03
654.633	35873.83
654.985	36009.19
655.337	35926.71
655.688	35973.72
656.039	36155.41
656.391	35816.21
656.742	35903.66
657.094	35784.34
657.445	36048.52
657.796	35776.43
658.147	35834.51
658.498	35878.12
658.849	35733.5
659.2	35798.8
659.551	35819.37
659.902	35791.8
660.253	35808.07
660.604	35866.83
660.955	35560.62
661.306	35777.56
661.656	35732.82
662.007	35749.09
662.358	35697.34
662.708	35642.65
663.059	35731.24
663.409	35536.21
663.76	35833.83
664.11	35911.57
664.461	35711.58
664.811	35706.6
665.161	35719.71
665.511	35602.88
665.862	35739.6
666.212	35858.01
666.562	35825.47
666.912	35744.57
667.262	35682.65
667.612	35694.85
667.962	35597.91
668.312	35614.4
668.662	35842.42
669.011	35686.49
669.361	35622.76
669.711	35557.91
670.06	35626.83
670.41	35443.79
670.76	35515.65
671.109	35535.08
671.459	35500.06
671.808	35474.75
672.157	35537.12
672.507	35264.36
672.856	35301.87
673.205	35412.15
673.554	35480.62
673.904	35289.89
674.253	35493.95
674.602	35424.58
674.951	34938.26
675.3	34662.56
675.649	35283.34
675.998	35240.18
676.346	35267.97
676.695	35341.42
677.044	35041.54
677.393	35163.57
677.741	35192.27
678.09	35198.59
678.438	35046.96
678.787	35012.84
679.135	35065.49
679.484	34885.61
679.832	34955.21
680.181	34820.53
680.529	34979.62
680.877	34832.28
681.225	34680.87
681.573	34939.39
681.922	34672.51
682.27	34619.63
682.618	34527.43
682.966	34597.71
683.314	34563.81
683.661	34503.02
684.009	34571.49
684.357	34427.32
684.705	34177.83
685.053	34361.55
685.4	34254.44
685.748	34096.02
686.095	34184.38
686.443	34069.13
686.79	33972.64
687.138	34095.35
687.485	33952.75
687.832	33760.44
688.18	33826.88
688.527	33619.88
688.874	33694.45
689.221	33622.14
689.568	33520.67
689.915	33427.57
690.262	33357.96
690.609	33257.63
690.956	33183.96
691.303	33254.69
691.65	33022.83
691.997	33121.81
692.344	32757.3
692.69	32726.57
693.037	32862.61
693.383	32624.2
693.73	32755.72
694.077	32538.78
694.423	32389.18
694.769	32330.42
695.116	32332
695.462	32302.17
695.808	32230.54
696.155	32207.26
696.501	31964.78
696.847	32083.65
697.193	31749.87
697.539	31882.75
697.885	31669.87
698.231	31580.16
698.577	31659.7
698.923	31513.49
699.269	31382.42
699.614	31272.14
699.96	31205.7
700.306	31190.34
700.651	31054.3
700.997	30869.89
701.342	30877.13
701.688	30992.38
702.033	30837.13
702.379	30837.13
702.724	30661.99
703.069	30717.58
703.415	30326.41
703.76	30430.81
704.105	30398.49
704.45	30319.17
704.795	30128.45
705.14	30013.87
705.485	30121.44
705.83	29862.92
706.175	29929.81
706.52	29789.92
706.865	29757.61
707.209	29648.23
707.554	29655.69
707.899	29698.63
708.243	29559.87
708.588	29465.41
708.932	29270.61
709.277	29284.63
709.621	29277.17
709.966	29074.24
710.31	29218.19
710.654	28877.18
710.998	28932.54
711.342	29000.11
711.687	28952.43
712.031	28824.52
712.375	28713.79
712.719	28679.44
713.063	28612.78
713.407	28602.84
713.75	28444.42
714.094	28557.64
714.438	28369.4
714.782	28379.34
715.125	28321.03
715.469	28232.68
715.812	28187.03
716.156	28109.06
716.499	28070.65
716.843	28012.34
717.186	27922.63
717.53	27953.36
717.873	28003.76
718.216	27919.24
718.559	27765.8
718.902	27651.45
719.246	27755.4
719.589	27529.64
719.932	27430.89
720.275	27590.66
720.617	27486.93
720.96	27538.46
721.303	27420.72
721.646	27447.84
721.989	27274.96
722.331	27305.47
722.674	27287.16
723.016	27305.24
723.359	27122.65
723.701	27131.91
724.044	26926.5
724.386	26901.64
724.729	27042.65
725.071	26913.84
725.413	26936.21
725.755	26921.98
726.097	26797.91
726.439	26657.58
726.782	26696.44
727.124	26820.74
727.465	26546.17
727.807	26548.65
728.149	26587.52
728.491	26438.15
728.833	26556.56
729.175	26505.26
729.516	26399.73
729.858	26313.4
730.199	26401.31
730.541	26315.66
730.882	26312.27
731.224	26245.38
731.565	26112.28
731.906	26112.28
732.248	26289.68
732.589	25919.74
732.93	25958.84
733.271	25964.03
733.612	26035.22
733.953	25990.93
734.294	25822.12
734.635	25749.13
734.976	25862.57
735.317	25700.54
735.658	25736.7
735.999	25552.75
736.339	25645.17
736.68	25658.05
737.021	25447.89
737.361	25489.47
737.702	25560.43
738.042	25416.25
738.383	25439.53
738.723	25451.51
739.063	25469.13
739.404	25431.85
739.744	25379.64
740.084	25191.17
740.424	25223.49
740.764	25298.06
741.104	25233.88
741.444	25130.16
741.784	25050.61
742.124	25093.1
742.464	25010.39
742.804	25022.14
743.143	24950.5
743.483	24884.52
743.823	24801.35
744.162	24788.92
744.502	24793.44
744.841	24665.76
745.181	24860.79
745.52	24726.1
745.86	24680.23
746.199	24653.33
746.538	24595.94
746.877	24669.15
747.216	24642.49
747.556	24514.13
747.895	24489.27
748.234	24409.95
748.573	24322.72
748.911	24372.44
749.25	24323.63
749.589	24318.65
749.928	24344.64
750.267	24367.24
750.605	24347.13
750.944	24235.49
751.283	24059.23
751.621	24214.25
751.96	24020.81
752.298	24174.7
752.636	24093.8
752.975	24008.38
753.313	23918.44
753.651	23937.87
753.989	23895.84
754.327	23713.92
754.666	23712.34
755.004	23815.84
755.342	23739.91
755.679	23659.69
756.017	23577.88
756.355	23635.28
756.693	23495.4
757.031	23491.33
757.368	23349.19
757.706	23345.12
758.044	23271.22
758.381	23294.05
758.719	23181.06
759.056	23144.22
759.394	23131.11
759.731	22959.14
