Data from hue_340_FLMS001491_38.txt Node
Date: Mon Feb 06 15:43:02 GMT 2017
User: dcchb
Spectrometer: FLMS00149
Trigger mode: 0
Integration Time (sec): 2.000000E-2
Scans to average: 10
Electric dark correction enabled: true
Nonlinearity correction enabled: false
Boxcar width: 0
XAxis mode: Wavelengths
Number of Pixels in Spectrum: 2048
>>>>>Begin Spectral Data<<<<<
341.393	-0.97
341.776	-0.97
342.16	-0.97
342.543	-67.87
342.927	-62.44
343.31	-58.6
343.693	-66.06
344.077	-58.6
344.46	-61.54
344.843	-70.35
345.226	-37.81
345.61	-17.25
345.993	-14.53
346.376	-5.72
346.759	20.04
347.142	24.11
347.525	37.22
347.908	41.96
348.291	75.86
348.674	88.29
349.057	102.98
349.44	138.91
349.823	153.82
350.206	168.96
350.588	193.6
350.971	208.74
351.354	203.77
351.737	230.21
352.119	243.09
352.502	272.24
352.884	246.93
353.267	270.43
353.65	294.16
354.032	299.58
354.414	307.49
354.797	288.28
355.179	311.11
355.562	324.21
355.944	340.26
356.326	317.89
356.709	337.77
357.091	317.21
357.473	362.86
357.855	348.17
358.238	351.56
358.62	335.74
359.002	340.26
359.384	341.39
359.766	332.58
360.148	324.89
360.53	332.58
360.912	317.44
361.294	326.7
361.676	322.86
362.057	334.16
362.439	332.8
362.821	341.16
363.203	327.15
363.584	326.02
363.966	319.47
364.348	327.6
364.729	300.03
365.111	320.82
365.493	315.85
365.874	306.59
366.256	309.07
366.637	324.44
367.019	301.84
367.4	306.14
367.781	297.55
368.163	324.44
368.544	294.61
368.925	310.2
369.306	310.2
369.688	288.28
370.069	310.2
370.45	303.2
370.831	316.53
371.212	332.8
371.593	295.74
371.974	310.88
372.355	312.69
372.736	300.49
373.117	311.56
373.498	296.42
373.879	317.66
374.26	320.15
374.641	308.17
375.021	308.62
375.402	307.94
375.783	306.59
376.163	300.71
376.544	296.87
376.925	330.99
377.305	305.46
377.686	310.2
378.066	312.24
378.447	340.26
378.827	307.04
379.208	316.98
379.588	323.99
379.968	326.02
380.349	330.54
380.729	317.44
381.109	334.61
381.489	319.69
381.87	328.51
382.25	330.77
382.63	337.55
383.01	340.26
383.39	317.66
383.77	348.39
384.15	317.89
384.53	330.54
384.91	325.57
385.29	327.6
385.67	342.75
386.049	353.14
386.429	335.97
386.809	331.22
387.189	341.62
387.568	347.26
387.948	322.63
388.328	340.26
388.707	352.91
389.087	347.26
389.466	357.89
389.846	355.63
390.225	357.66
390.605	346.36
390.984	358.11
391.363	343.88
391.743	372.35
392.122	350.2
392.501	349.07
392.881	349.98
393.26	354.04
393.639	362.63
394.018	357.89
394.397	369.19
394.776	367.15
395.155	349.52
395.534	378
395.913	390.88
396.292	376.87
396.671	383.2
397.05	365.8
397.429	382.07
397.808	376.42
398.186	364.67
398.565	372.35
398.944	377.55
399.323	394.27
399.701	379.35
400.08	376.19
400.458	395.17
400.837	391.56
401.215	359.92
401.594	375.74
401.972	384.55
402.351	390.2
402.729	387.94
403.107	397.66
403.486	394.72
403.864	396.98
404.242	404.66
404.62	407.38
404.999	403.76
405.377	394.72
405.755	429.07
406.133	422.52
406.511	390.2
406.889	411.44
407.267	411.44
407.645	428.62
408.023	429.52
408.401	429.75
408.779	427.94
409.156	462.74
409.534	443.31
409.912	444.66
410.29	457.54
410.667	431.1
411.045	465.91
411.422	454.15
411.8	457.32
412.178	456.41
412.555	454.83
412.933	461.84
413.31	483.53
413.687	465.91
414.065	464.55
414.442	476.98
414.819	482.18
415.197	503.42
415.574	483.31
415.951	492.12
416.328	492.57
416.705	505.9
417.082	550.65
417.46	516.3
417.837	509.75
418.214	539.58
418.591	538.45
418.967	500.71
419.344	531.89
419.721	523.08
420.098	536.86
420.475	548.62
420.852	547.49
421.228	553.14
421.605	549.52
421.982	556.07
422.358	578.45
422.735	559.69
423.111	569.41
423.488	590.65
423.864	583.42
424.241	595.17
424.617	603.3
424.994	590.2
425.37	583.19
425.746	589.52
426.123	600.82
426.499	589.97
426.875	619.57
427.251	608.73
427.627	617.77
428.003	636.75
428.379	636.3
428.756	632.68
429.132	660.25
429.507	659.8
429.883	665.22
430.259	660.25
430.635	700.48
431.011	672.23
431.387	677.2
431.763	692.79
432.138	706.58
432.514	707.26
432.89	686.92
433.265	702.74
433.641	727.37
434.016	724.2
434.392	730.98
434.767	735.73
435.143	721.04
435.518	749.51
435.894	752.23
436.269	775.5
436.644	756.07
437.02	754.71
437.395	758.33
437.77	777.31
438.145	811.21
438.52	804.43
438.895	799
439.271	802.39
439.646	836.29
440.021	828.83
440.395	819.79
440.77	808.72
441.145	813.47
441.52	851.21
441.895	845.78
442.27	836.29
442.645	862.05
443.019	864.31
443.394	860.02
443.769	866.35
444.143	854.82
444.518	862.51
444.892	865.22
445.267	899.11
445.641	890.75
446.016	898.89
446.39	881.71
446.764	885.78
447.139	902.5
447.513	908.61
447.887	883.75
448.262	886.23
448.636	901.37
449.01	920.13
449.384	887.14
449.758	905.89
450.132	921.49
450.506	919
450.88	914.71
451.254	937.76
451.628	922.17
452.002	947.93
452.376	946.8
452.75	934.82
453.123	972.33
453.497	989.73
453.871	997.64
454.244	999.45
454.618	992.22
454.992	986.57
455.365	1002.84
455.739	1008.94
456.112	1043.29
456.486	1028.15
456.859	1043.52
457.232	1061.82
457.606	1048.94
457.979	1067.47
458.352	1071.09
458.725	1079
459.099	1101.6
459.472	1108.6
459.845	1116.28
460.218	1127.36
460.591	1129.39
460.964	1123.06
461.337	1129.84
461.71	1176.4
462.083	1129.84
462.456	1169.62
462.829	1177.98
463.201	1195.15
463.574	1194.25
463.947	1225.66
464.32	1234.02
464.692	1231.08
465.065	1242.16
465.438	1258.2
465.81	1263.62
466.183	1280.35
466.555	1303.62
466.928	1310.4
467.3	1306.34
467.672	1321.02
468.045	1332.55
468.417	1330.97
468.789	1347.24
469.161	1378.88
469.534	1386.79
469.906	1438.08
470.278	1420.01
470.65	1418.2
471.022	1427.01
471.394	1498.87
471.766	1498.87
472.138	1521.47
472.51	1539.32
472.882	1571.64
473.253	1565.76
473.625	1573.9
473.997	1572.32
474.369	1598.31
474.74	1642.15
475.112	1671.07
475.484	1661.58
475.855	1673.33
476.227	1707
476.598	1731.18
476.97	1745.42
477.341	1817.51
477.713	1823.38
478.084	1809.6
478.455	1859.32
478.827	1878.98
479.198	1944.51
479.569	1936.38
479.94	1982.02
480.311	1980.89
480.682	2039.42
481.053	2077.61
481.424	2076.26
481.795	2146.09
482.166	2129.82
482.537	2154
482.908	2226.31
483.279	2241.45
483.65	2240.77
484.021	2298.63
484.391	2315.57
484.762	2336.59
485.133	2363.48
485.503	2388.34
485.874	2448.68
486.244	2466.76
486.615	2492.29
486.985	2512.86
487.356	2535.23
487.726	2554.21
488.097	2637.15
488.467	2645.96
488.837	2711.27
489.207	2720.54
489.578	2723.47
489.948	2768.22
490.318	2782.46
490.688	2793.98
491.058	2850.7
491.428	2893.86
491.798	2905.16
492.168	2965.28
492.538	2962.56
492.908	3043.47
493.278	3051.37
493.648	3038.49
494.017	3096.8
494.387	3113.29
494.757	3127.08
495.126	3165.95
495.496	3130.92
495.866	3170.47
496.235	3178.6
496.605	3276.23
496.974	3308.09
497.344	3319.84
497.713	3333.4
498.082	3326.4
498.452	3345.38
498.821	3367.52
499.19	3363.23
499.559	3406.17
499.928	3447.07
500.298	3423.79
500.667	3451.59
501.036	3487.3
501.405	3483
501.774	3492.72
502.143	3542.44
502.512	3565.49
502.88	3549.67
503.249	3600.74
503.618	3594.41
503.987	3645.03
504.356	3607.97
504.724	3659.72
505.093	3646.61
505.462	3650.23
505.83	3718.02
506.199	3726.61
506.567	3724.8
506.936	3738.81
507.304	3757.34
507.672	3778.14
508.041	3761.64
508.409	3832.6
508.777	3809.32
509.145	3885.02
509.514	3852.48
509.882	3886.83
510.25	3849.77
510.618	3915.53
510.986	3885.48
511.354	3927.51
511.722	3934.74
512.09	3971.8
512.458	3966.83
512.826	3959.37
513.193	3998.24
513.561	3999.15
513.929	4026.49
514.297	4022.87
514.664	4031.01
515.032	4053.16
515.4	4090.22
515.767	4081.63
516.135	4157.79
516.502	4096.77
516.869	4182.87
517.237	4211.8
517.604	4189.2
517.972	4166.37
518.339	4189.65
518.706	4206.15
519.073	4188.29
519.44	4193.72
519.808	4310.1
520.175	4256.99
520.542	4317.1
520.909	4296.54
521.276	4302.42
521.643	4339.93
522.009	4394.16
522.376	4367.05
522.743	4360.72
523.11	4441.39
523.477	4459.02
523.843	4460.83
524.21	4503.99
524.577	4483.2
524.943	4545.35
525.31	4552.35
525.676	4563.2
526.043	4613.37
526.409	4599.13
526.776	4665.34
527.142	4714.16
527.508	4645.23
527.874	4682.29
528.241	4672.8
528.607	4728.84
528.973	4749.64
529.339	4785.57
529.705	4840.71
530.071	4814.72
530.437	4814.27
530.803	4845.9
531.169	4856.07
531.535	4877.32
531.901	4910.76
532.267	4943.75
532.632	4930.2
532.998	5005.9
533.364	4997.31
533.73	5028.95
534.095	5068.04
534.461	5063.07
534.826	5100.81
535.192	5087.71
535.557	5162.28
535.923	5126.8
536.288	5178.32
536.653	5183.97
537.019	5222.39
537.384	5211.32
537.749	5217.19
538.114	5293.35
538.479	5282.73
538.845	5323.86
539.21	5321.6
539.575	5331.99
539.94	5317.08
540.305	5370.64
540.67	5363.86
541.034	5426.45
541.399	5404.76
541.764	5512.78
542.129	5482.05
542.494	5482.5
542.858	5479.11
543.223	5503.74
543.587	5550.74
543.952	5601.82
544.316	5562.04
544.681	5611.99
545.045	5633.91
545.41	5646.79
545.774	5686.79
546.138	5676.62
546.503	5693.79
546.867	5752.55
547.231	5855.37
547.595	5798.2
547.959	5862.83
548.324	5834.58
548.688	5842.71
549.052	5835.26
549.416	5859.89
549.779	5877.06
550.143	5896.27
550.507	5947.34
550.871	6000.45
551.235	5964.97
551.599	5996.61
551.962	6013.56
552.326	6000.68
552.689	6078.19
553.053	6068.02
553.417	6082.26
553.78	6169.48
554.143	6178.07
554.507	6129.94
554.87	6175.36
555.234	6246.32
555.597	6224.4
555.96	6248.8
556.323	6278.63
556.686	6274.79
557.05	6322.02
557.413	6296.71
557.776	6326.09
558.139	6379.42
558.502	6350.27
558.865	6373.55
559.228	6426.88
559.59	6470.27
559.953	6439.08
560.316	6493.32
560.679	6508.91
561.041	6504.39
561.404	6552.75
561.767	6592.3
562.129	6534.22
562.492	6630.49
562.854	6617.16
563.217	6602.24
563.579	6591.39
563.941	6706.42
564.304	6655.35
564.666	6791.39
565.028	6736.93
565.39	6703.93
565.753	6790.03
566.115	6788.45
566.477	6833.42
566.839	6849.01
567.201	6901.89
567.563	6908
567.925	6921.78
568.287	6931.72
568.648	6939.63
569.01	6955.45
569.372	7092.85
569.734	7100.08
570.095	7057.82
570.457	7111.61
570.819	7147.76
571.18	7147.54
571.542	7193.19
571.903	7261.89
572.265	7278.16
572.626	7331.94
572.987	7331.04
573.349	7395.67
573.71	7431.6
574.071	7448.77
574.432	7500.07
574.794	7541.2
575.155	7625.94
575.516	7612.38
575.877	7772.83
576.238	7790.91
576.599	7900.29
576.96	7885.6
577.32	7950.68
577.681	8046.72
578.042	8143.67
578.403	8196.1
578.763	8196.1
579.124	8309.09
579.485	8435.64
579.845	8555.86
580.206	8589.53
580.566	8632.92
580.927	8770.77
581.287	8938.9
581.648	9039.92
582.008	9195.39
582.368	9301.38
582.728	9433.58
583.089	9506.57
583.449	9635.16
583.809	9779.33
584.169	9931.42
584.529	10141.58
584.889	10272.88
585.249	10447.34
585.609	10551.06
585.969	10767.1
586.329	11000.77
586.688	11178.17
587.048	11380.87
587.408	11522.79
587.768	11734.76
588.127	11883.23
588.487	12084.81
588.846	12394.86
589.206	12554.18
589.565	12763.66
589.925	13014.95
590.284	13289.98
590.643	13409.29
591.003	13751.66
591.362	14010.18
591.721	14272.1
592.08	14474.13
592.44	14714.8
592.799	15066.2
593.158	15213.31
593.517	15618.5
593.876	15839.29
594.235	16115.89
594.593	16300.74
594.952	16554.52
595.311	16827.96
595.67	17123.32
596.029	17498.45
596.387	17862.74
596.746	18024.99
597.104	18258.21
597.463	18511.08
597.822	18946.78
598.18	19092.31
598.538	19347.44
598.897	19650.94
599.255	19761.44
599.613	20382.22
599.972	20460.18
600.33	20796.67
600.688	20963.9
601.046	21286.38
601.404	21712.13
601.762	21799.81
602.12	22154.38
602.478	22310.53
602.836	22649.5
603.194	22703.74
603.552	22949.83
603.91	23278.64
604.268	23627.56
604.625	23719.53
604.983	24090.14
605.341	24215.56
605.698	24611.49
606.056	24849.22
606.413	24999.27
606.771	25231.36
607.128	25462.99
607.485	25507.73
607.843	25881.06
608.2	26159.47
608.557	26499.57
608.914	26471.55
609.272	26836.96
609.629	27026.34
609.986	27222.49
610.343	27370.96
610.7	27786.32
611.057	27820.44
611.414	27980.44
611.771	28195.35
612.127	28454.32
612.484	28568.22
612.841	28854.99
613.198	28906.29
613.554	29144.7
613.911	29391.92
614.267	29426.05
614.624	29578.13
614.98	29848.64
615.337	30151
615.693	30146.71
616.05	30246.82
616.406	30569.75
616.762	30616.75
617.118	30687.03
617.475	30833.24
617.831	30921.83
618.187	31118.43
618.543	31323.63
618.899	31559.78
619.255	31594.8
619.611	31791.18
619.967	31907.11
620.323	32129.93
620.678	31975.81
621.034	31971.52
621.39	32243.38
621.746	32187.56
622.101	32694.21
622.457	32609.69
622.812	32662.35
623.168	32881.32
623.523	32906.63
623.879	33004.26
624.234	32888.33
624.589	33131.71
624.945	33249.22
625.3	33369.45
625.655	33308.43
626.01	33392.72
626.365	33487.86
626.72	33424.81
627.075	33571.93
627.43	33684.69
627.785	33675.65
628.14	33794.3
628.495	33860.51
628.85	33715.43
629.205	33824.12
629.559	34101.41
629.914	33838.14
630.269	33924.24
630.623	33991.13
630.978	33881.07
631.332	34129.65
631.687	34185.02
632.041	34255.07
632.396	34124.68
632.75	34190.22
633.104	34146.15
633.459	34160.39
633.813	34133.95
634.167	34200.61
634.521	34215.3
634.875	34371.68
635.229	34258.69
635.583	34159.94
635.937	34299.59
636.291	34235.87
636.645	34276.54
636.999	34155.42
637.352	34180.73
637.706	33998.36
638.06	34295.3
638.413	34196.54
638.767	34182.53
639.121	34272.7
639.474	34082.65
639.828	34160.16
640.181	34080.84
640.534	34227.5
640.888	34132.37
641.241	34103.44
641.594	34125.81
641.947	34288.07
642.301	34135.3
642.654	34043.33
643.007	34215.3
643.36	34062.54
643.713	34115.42
644.066	34331
644.419	34029.32
644.771	33747.29
645.124	33477.92
645.477	33501.65
645.83	33262.56
646.182	33184.14
646.535	33070.92
646.888	33116.35
647.24	33025.05
647.593	33040.64
647.945	33080.42
648.298	32905.5
648.65	32827.77
649.002	32840.2
649.355	33139.4
649.707	32821.44
650.059	33065.05
650.411	33356.11
650.763	33486.05
651.115	33895.54
651.467	33702.77
651.819	33770.34
652.171	33653.96
652.523	33742.09
652.875	33686.5
653.227	33517.01
653.578	33776.89
653.93	33696.22
654.282	33479.73
654.633	33408.54
654.985	33434.08
655.337	33561.08
655.688	33563.57
656.039	33697.35
656.391	33350.92
656.742	33480.86
657.094	33483.12
657.445	33593.62
657.796	33481.31
658.147	33424.36
658.498	33441.54
658.849	33396.34
659.2	33423.68
659.551	33379.39
659.902	33564.47
660.253	33486.05
660.604	33406.73
660.955	33173.29
661.306	33366.74
661.656	33444.25
662.007	33309.56
662.358	33409.22
662.708	33439.5
663.059	33324.25
663.409	33004.71
663.76	33426.17
664.11	33307.08
664.461	33316.57
664.811	33401.99
665.161	33362.22
665.511	33235.67
665.862	33273.63
666.212	33515.21
666.562	33344.59
666.912	33208.32
667.262	33279.73
667.612	33171.49
667.962	33243.35
668.312	33149.57
668.662	33446.51
669.011	33276.34
669.361	33237.93
669.711	33370.13
670.06	33165.16
670.41	33079.06
670.76	33103.92
671.109	33255.55
671.459	33158.15
671.808	33117.7
672.157	33154.76
672.507	33011.72
672.856	32996.58
673.205	33091.94
673.554	33297.58
673.904	33045.16
674.253	33212.16
674.602	33079.06
674.951	32686.08
675.3	32456.93
675.649	32966.52
675.998	33005.62
676.346	33006.29
676.695	33025.95
677.044	32637.49
677.393	32933.75
677.741	32852.4
678.09	32826.41
678.438	32775.56
678.787	32753.87
679.135	32858.73
679.484	32588.68
679.832	32741.22
680.181	32471.39
680.529	32616.02
680.877	32547.77
681.225	32613.54
681.573	32699.86
681.922	32546.42
682.27	32338.74
682.618	32363.6
682.966	32227.33
683.314	32447.44
683.661	32157.28
684.009	32018.3
684.357	32054.45
684.705	32032.31
685.053	32048.58
685.4	31901.46
685.748	31910.95
686.095	31777.17
686.443	31778.08
686.79	31743.95
687.138	31739.43
687.485	31801.58
687.832	31611.3
688.18	31665.31
688.527	31410.63
688.874	31467.8
689.221	31459.67
689.568	31293.57
689.915	31164.76
690.262	31311.65
690.609	31207.24
690.956	31051.99
691.303	30914.6
691.65	30923.18
691.997	30939.45
692.344	30732.45
692.69	30602.06
693.037	30722.96
693.383	30351.45
693.73	30564.78
694.077	30340.37
694.423	30405.23
694.769	30290.88
695.116	30188.06
695.462	30111
695.808	30005.02
696.155	30224.67
696.501	29860.61
696.847	29868.07
697.193	29699.04
697.539	29807.28
697.885	29543.33
698.231	29501.53
698.577	29365.26
698.923	29437.57
699.269	29328.2
699.614	29191.93
699.96	29140.41
700.306	29098.15
700.651	29018.38
700.997	28889.57
701.342	28943.12
701.688	28831.49
702.033	28763.01
702.379	28754.43
702.724	28604.38
703.069	28632.4
703.415	28391.27
703.76	28376.58
704.105	28452.97
704.45	28264.95
704.795	28226.53
705.14	28080.1
705.485	28031.96
705.83	27938.18
706.175	28070.15
706.52	27911.51
706.865	27733.66
707.209	27717.39
707.554	27738.64
707.899	27812.98
708.243	27560.79
708.588	27578.87
708.932	27337.06
709.277	27384.75
709.621	27293.22
709.966	27236.95
710.31	27303.84
710.654	27046
710.998	26997.41
711.342	27034.7
711.687	27072.21
712.031	26816.63
712.375	26786.12
712.719	26794.71
713.063	26743.86
713.407	26841.26
713.75	26628.38
714.094	26717.64
714.438	26536.86
714.782	26544.09
715.125	26393.13
715.469	26460.93
715.812	26233.14
716.156	26150.43
716.499	26163.76
716.843	26289.18
717.186	25967.16
717.53	26198.34
717.873	26219.35
718.216	26103.65
718.559	26102.29
718.902	25873.83
719.246	25888.06
719.589	25860.94
719.932	25698.24
720.275	25797.22
720.617	25697.33
720.96	25638.58
721.303	25512.48
721.646	25651.23
721.989	25474.29
722.331	25491.46
722.674	25415.31
723.016	25428.87
723.359	25336.66
723.701	25332.14
724.044	25162.88
724.386	25177.12
724.729	25201.3
725.071	25089.21
725.413	25193.17
725.755	25108.87
726.097	24920.18
726.439	24791.37
726.782	24910.01
727.124	24934.42
727.465	24827.98
727.807	24727.41
728.149	24758.6
728.491	24737.36
728.833	24707.98
729.175	24590.47
729.516	24576.23
729.858	24584.37
730.199	24610.36
730.541	24473.18
730.882	24606.06
731.224	24421.43
731.565	24485.39
731.906	24389.34
732.248	24410.81
732.589	24251.04
732.93	24146.41
733.271	24160.88
733.612	24274.55
733.953	24211.72
734.294	24145.74
734.635	24103.02
734.976	24230.7
735.317	24086.98
735.658	24159.29
735.999	24145.51
736.339	23938.28
736.68	24024.16
737.021	23974.21
737.361	23787.55
737.702	24026.87
738.042	23790.49
738.383	23851.51
738.723	23803.6
739.063	23689.7
739.404	23811.51
739.744	23727.44
740.084	23560.21
740.424	23549.82
740.764	23526.54
741.104	23643.6
741.444	23435.92
741.784	23416.94
742.124	23424.62
742.464	23450.61
742.804	23426.66
743.143	23323.38
743.483	23350.5
743.823	23214.23
744.162	23167.68
744.502	23275.7
744.841	23115.48
745.181	23236.38
745.52	23074.8
745.86	23179.21
746.199	23167.68
746.538	22975.6
746.877	23055.82
747.216	23057.18
747.556	23021.47
747.895	22948.03
748.234	22830.29
748.573	22865.99
748.911	22712.1
749.25	22877.29
749.589	22713.23
749.928	22677.53
750.267	22773.79
750.605	22766.79
750.944	22584.42
751.283	22507.81
751.621	22582.16
751.96	22475.04
752.298	22512.11
752.636	22490.19
752.975	22319.12
753.313	22238.89
753.651	22419.68
753.989	22166.8
754.327	22192.79
754.666	22062.85
755.004	22138.78
755.342	22151.89
755.679	22130.42
756.017	21818.56
756.355	21996.64
756.693	21822.63
757.031	21826.25
757.368	21714.84
757.706	21638.23
758.044	21693.14
758.381	21712.8
758.719	21505.13
759.056	21571.57
759.394	21526.6
759.731	21415.64
760.068	21437.33
760.405	21357.11
760.743	21211.8
761.08	21249.54
