Data from hue_40_FLMS001491_48.txt Node
Date: Mon Feb 06 15:07:58 GMT 2017
User: dcchb
Spectrometer: FLMS00149
Trigger mode: 0
Integration Time (sec): 2.000000E-2
Scans to average: 10
Electric dark correction enabled: true
Nonlinearity correction enabled: false
Boxcar width: 0
XAxis mode: Wavelengths
Number of Pixels in Spectrum: 2048
>>>>>Begin Spectral Data<<<<<
341.393	6.93
341.776	6.93
342.16	6.93
342.543	-76.23
342.927	-58.15
343.31	-79.16
343.693	-78.49
344.077	-73.74
344.46	-49.56
344.843	-70.8
345.226	-59.28
345.61	-25.83
345.993	-1.88
346.376	-7.3
346.759	6.71
347.142	7.39
347.525	36.31
347.908	61.17
348.291	94.16
348.674	120.15
349.057	120.15
349.44	123.77
349.823	161.51
350.206	154.5
350.588	178.23
350.971	217.55
351.354	232.47
351.737	239.02
352.119	250.54
352.502	267.04
352.884	275.63
353.267	312.92
353.65	305.68
354.032	303.65
354.414	330.77
354.797	313.82
355.179	311.56
355.562	323.99
355.944	319.02
356.326	334.38
356.709	341.39
357.091	345.23
357.473	329.41
357.855	348.39
358.238	331.67
358.62	328.73
359.002	338.9
359.384	318.34
359.766	318.57
360.148	330.32
360.53	338.23
360.912	315.85
361.294	341.84
361.676	328.28
362.057	335.29
362.439	333.71
362.821	309.98
363.203	323.76
363.584	324.44
363.966	336.42
364.348	337.55
364.729	320.37
365.111	323.54
365.493	338.68
365.874	332.35
366.256	322.18
366.637	313.82
367.019	313.14
367.4	318.79
367.781	312.69
368.163	325.34
368.544	321.5
368.925	311.56
369.306	324.21
369.688	320.82
370.069	319.24
370.45	322.86
370.831	308.85
371.212	315.4
371.593	304.55
371.974	315.4
372.355	325.34
372.736	330.32
373.117	326.47
373.498	321.73
373.879	303.2
374.26	323.99
374.641	304.33
375.021	322.86
375.402	334.84
375.783	318.57
376.163	352.46
376.544	297.1
376.925	317.89
377.305	318.11
377.686	336.19
378.066	320.82
378.447	334.61
378.827	349.98
379.208	330.77
379.588	334.84
379.968	307.72
380.349	325.8
380.729	359.47
381.109	345.91
381.489	352.46
381.87	346.36
382.25	351.78
382.63	343.42
383.01	352.91
383.39	353.82
383.77	338.68
384.15	346.13
384.53	331.67
384.91	335.74
385.29	348.85
385.67	344.1
386.049	336.19
386.429	363.31
386.809	357.43
387.189	349.75
387.568	361.28
387.948	377.77
388.328	349.75
388.707	359.92
389.087	356.98
389.466	367.83
389.846	341.84
390.225	353.59
390.605	360.82
390.984	372.57
391.363	379.13
391.743	360.6
392.122	325.8
392.501	366.25
392.881	389.3
393.26	383.2
393.639	364.44
394.018	369.19
394.397	383.42
394.776	392.46
395.155	371.9
395.534	378
395.913	390.88
396.292	400.14
396.671	392.01
397.05	366.25
397.429	382.97
397.808	379.81
398.186	366.25
398.565	394.95
398.944	404.89
399.323	392.01
399.701	409.41
400.08	382.74
400.458	395.4
400.837	397.66
401.215	408.96
401.594	396.98
401.972	394.27
402.351	402.63
402.729	397.66
403.107	405.12
403.486	386.59
403.864	398.79
404.242	403.99
404.62	437.88
404.999	413.7
405.377	413.93
405.755	419.13
406.133	423.65
406.511	416.87
406.889	430.65
407.267	429.75
407.645	432.23
408.023	428.17
408.401	429.07
408.779	441.5
409.156	441.27
409.534	454.83
409.912	440.6
410.29	445.57
410.667	462.06
411.045	459.58
411.422	437.66
411.8	460.93
412.178	473.14
412.555	457.77
412.933	437.88
413.31	453.93
413.687	470.2
414.065	450.99
414.442	462.97
414.819	471.78
415.197	468.62
415.574	472.69
415.951	462.06
416.328	477.2
416.705	508.39
417.082	486.24
417.46	507.26
417.837	493.7
418.214	508.62
418.591	521.5
418.967	521.27
419.344	514.04
419.721	521.05
420.098	519.24
420.475	507.26
420.852	530.99
421.228	528.05
421.605	537.77
421.982	554.04
422.358	526.7
422.735	525.79
423.111	527.83
423.488	519.92
423.864	539.58
424.241	540.03
424.617	542.97
424.994	566.92
425.37	536.41
425.746	551.33
426.123	567.6
426.499	545.9
426.875	549.07
427.251	576.86
427.627	593.13
428.003	583.19
428.379	593.81
428.756	581.83
429.132	585.9
429.507	607.37
429.883	612.34
430.259	608.05
430.635	621.16
431.011	622.74
431.387	627.94
431.763	639.23
432.138	642.62
432.514	644.66
432.89	662.28
433.265	666.58
433.641	676.3
434.016	653.92
434.392	653.02
434.767	663.64
435.143	665.45
435.518	684.66
435.894	688.72
436.269	691.44
436.644	678.78
437.02	694.37
437.395	706.13
437.77	694.37
438.145	719.91
438.52	702.51
438.895	697.76
439.271	696.63
439.646	712.9
440.021	730.08
440.395	747.25
440.77	734.6
441.145	751.32
441.52	737.76
441.895	751.77
442.27	739.34
442.645	769.85
443.019	761.27
443.394	761.49
443.769	768.04
444.143	778.67
444.518	756.07
444.892	763.07
445.267	790.87
445.641	770.53
446.016	798.55
446.39	793.13
446.764	792.9
447.139	805.78
447.513	826.57
447.887	800.59
448.262	819.79
448.636	817.31
449.01	830.42
449.384	847.59
449.758	853.92
450.132	845.33
450.506	837.42
450.88	849.4
451.254	845.33
451.628	880.58
452.002	876.06
452.376	878.55
452.75	910.41
453.123	870.64
453.497	908.61
453.871	906.35
454.244	920.13
454.618	914.03
454.992	923.29
455.365	942.96
455.739	919.45
456.112	992.22
456.486	962.84
456.859	958.55
457.232	996.74
457.606	971.2
457.979	985.89
458.352	1017.08
458.725	1035.38
459.099	1022.95
459.472	1052.78
459.845	1043.97
460.218	1069.96
460.591	1071.54
460.964	1066.34
461.337	1106.57
461.71	1125.78
462.083	1145.44
462.456	1114.02
462.829	1163.06
463.201	1145.66
463.574	1158.32
463.947	1177.98
464.32	1205.32
464.692	1195.15
465.065	1235.6
465.438	1206.45
465.81	1269.95
466.183	1255.49
466.555	1301.82
466.928	1308.6
467.3	1320.8
467.672	1329.84
468.045	1380.46
468.417	1384.53
468.789	1369.84
469.161	1397.41
469.534	1400.34
469.906	1419.33
470.278	1469.5
470.65	1479.21
471.022	1502.26
471.394	1568.7
471.766	1619.55
472.138	1575.26
472.51	1642.6
472.882	1680.79
473.253	1674.91
473.625	1696.61
473.997	1761.69
474.369	1801.24
474.74	1817.96
475.112	1838.98
475.484	1892.31
475.855	1962.59
476.227	1979.76
476.598	2052.53
476.97	2075.36
477.341	2106.09
477.713	2167.33
478.084	2182.47
478.455	2282.36
478.827	2288.23
479.198	2411.62
479.569	2452.75
479.94	2524.16
480.311	2589.24
480.682	2643.48
481.053	2694.1
481.424	2818.39
481.795	2845.05
482.166	2919.4
482.537	3016.8
482.908	3045.27
483.279	3159.85
483.65	3203.91
484.021	3337.47
484.391	3403.23
484.762	3509.89
485.133	3494.98
485.503	3635.54
485.874	3738.36
486.244	3815.2
486.615	3910.11
486.985	4024.23
487.356	4089.99
487.726	4205.24
488.097	4342.19
488.467	4355.3
488.837	4501.28
489.207	4612.92
489.578	4772.91
489.948	4797.77
490.318	4925.9
490.688	4975.39
491.058	5133.58
491.428	5241.15
491.798	5350.07
492.168	5484.08
492.538	5527.47
492.908	5642.04
493.278	5836.16
493.648	5850.4
494.017	6030.05
494.387	6114.57
494.757	6200.44
495.126	6351.85
495.496	6382.81
495.866	6462.36
496.235	6590.49
496.605	6715.01
496.974	6776.93
497.344	6908.9
497.713	7035.45
498.082	7052.63
498.452	7299.62
498.821	7283.58
499.19	7322.9
499.559	7473.18
499.928	7597.7
500.298	7610.12
500.667	7836.11
501.036	7827.75
501.405	7938.93
501.774	7949.55
502.143	8122.65
502.512	8182.09
502.88	8341.4
503.249	8407.17
503.618	8449.42
503.987	8509.99
504.356	8632.7
504.724	8657.1
505.093	8777.78
505.462	8846.7
505.83	8915.63
506.199	9002.86
506.567	9104.77
506.936	9134.83
507.304	9301.15
507.672	9418.66
508.041	9469.28
508.409	9483.07
508.777	9580.47
509.145	9731.88
509.514	9803.06
509.882	9882.38
510.25	9823.4
510.618	10025.2
510.986	10057.74
511.354	10169.15
511.722	10269.49
512.09	10285.53
512.458	10376.83
512.826	10447.11
513.193	10479.65
513.561	10566.88
513.929	10620.44
514.297	10718.52
514.664	10844.62
515.032	10850.49
515.4	10986.08
515.767	11026.98
516.135	11075.57
516.502	11067.66
516.869	11299.75
517.237	11332.74
517.604	11276.24
517.972	11428.56
518.339	11514.2
518.706	11497.48
519.073	11611.15
519.44	11628.78
519.808	11769.56
520.175	11739.96
520.542	11901.99
520.909	11998.03
521.276	12001.42
521.643	12159.61
522.009	12275.31
522.376	12368.42
522.743	12403.22
523.11	12494.74
523.477	12575.19
523.843	12762.98
524.21	12784.45
524.577	12894.05
524.943	12937.89
525.31	12945.35
525.676	13168.85
526.043	13273.48
526.409	13196.42
526.776	13443.64
527.142	13512.12
527.508	13523.19
527.874	13642.28
528.241	13736.74
528.607	13767.7
528.973	13924.99
529.339	13937.64
529.705	14010.18
530.071	14098.09
530.437	14239.33
530.803	14250.18
531.169	14356.16
531.535	14216.5
531.901	14434.58
532.267	14438.19
532.632	14549.6
532.998	14667.34
533.364	14732.42
533.73	14784.85
534.095	14900.33
534.461	14944.62
534.826	15029.82
535.192	15087.22
535.557	15137.84
535.923	15171.06
536.288	15305.06
536.653	15274.78
537.019	15366.76
537.384	15453.08
537.749	15567.43
538.114	15470.94
538.479	15515.91
538.845	15677.94
539.21	15706.86
539.575	15711.61
539.94	15791.38
540.305	15928.55
540.67	15877.25
541.034	16009.68
541.399	16116.79
541.764	16161.76
542.129	16112.05
542.494	16257.58
542.858	16259.16
543.223	16310.91
543.587	16413.96
543.952	16462.32
544.316	16505.94
544.681	16464.36
545.045	16567.4
545.41	16804.91
545.774	16777.34
546.138	16792.26
546.503	16930.78
546.867	16855.53
547.231	17054.62
547.595	17027.96
547.959	17081.74
548.324	17061.18
548.688	17234.28
549.052	17283.32
549.416	17237.44
549.779	17301.17
550.143	17354.05
550.507	17472.46
550.871	17509.98
551.235	17578
551.599	17759.69
551.962	17855.28
552.326	17774.83
552.689	17887.82
553.053	17876.52
553.417	17925.33
553.78	18146.8
554.143	18023.41
554.507	18194.71
554.87	18160.58
555.234	18356.96
555.597	18310.63
555.96	18374.14
556.323	18455.04
556.686	18551.76
557.05	18687.57
557.413	18638.31
557.776	18650.51
558.139	18833.33
558.502	18928.47
558.865	18946.1
559.228	19190.39
559.59	19152.42
559.953	19137.73
560.316	19391.06
560.679	19390.15
561.041	19478.97
561.404	19466.31
561.767	19633.54
562.129	19616.36
562.492	19686.42
562.854	19692.97
563.217	19742.01
563.579	19882.34
563.941	19918.5
564.304	20078.27
564.666	20245.27
565.028	20096.58
565.39	20204.6
565.753	20367.3
566.115	20363.69
566.477	20352.16
566.839	20619.27
567.201	20712.83
567.563	20690.91
567.925	20875.99
568.287	20837.57
568.648	20920.74
569.01	21030.56
569.372	21151.92
569.734	21212.48
570.095	21340.16
570.457	21492.02
570.819	21477.78
571.18	21503.77
571.542	21642.75
571.903	21707.16
572.265	21766.36
572.626	21870.77
572.987	21921.39
573.349	22033.7
573.71	22183.98
574.071	22256.75
574.432	22266.46
574.794	22501.03
575.155	22568.38
575.516	22465.33
575.877	22608.83
576.238	22811.76
576.599	22888.37
576.96	22977.18
577.32	23029.38
577.681	23148.7
578.042	23375.81
578.403	23495.81
578.763	23559.76
579.124	23661
579.485	23940.09
579.845	24100.54
580.206	24150.48
580.566	24225.28
580.927	24320.42
581.287	24483.81
581.648	24606.97
582.008	24816.23
582.368	24957.24
582.728	25070.91
583.089	25221.41
583.449	25426.83
583.809	25535.08
584.169	25742.98
584.529	25891.45
584.889	26164.44
585.249	26228.39
585.609	26367.82
585.969	26610.98
586.329	26661.6
586.688	26828.6
587.048	26977.53
587.408	27156.96
587.768	27404.41
588.127	27601.24
588.487	27658.64
588.846	28124.39
589.206	28208.45
589.565	28206.19
589.925	28584.71
590.284	28771.6
590.643	28976.34
591.003	29124.59
591.362	29457.01
591.721	29546.5
592.08	29683.89
592.44	29972.7
592.799	30165.01
593.158	30263.31
593.517	30456.3
593.876	30664.66
594.235	30813.58
594.593	31097.87
594.952	31436.16
595.311	31367.01
595.67	31616.05
596.029	32006.09
596.387	32021.01
596.746	32253.32
597.104	32329.93
597.463	32422.13
597.822	32870.93
598.18	32821.44
598.538	32947.99
598.897	33196.8
599.255	33126.74
599.613	33844.46
599.972	33789.32
600.33	33913.84
600.688	34001.3
601.046	34277.22
601.404	34560.15
601.762	34516.08
602.12	34855.06
602.478	34965.34
602.836	35081.27
603.194	34973.47
603.552	35254.14
603.91	35364.2
604.268	35539.11
604.625	35596.06
604.983	35934.8
605.341	35826.78
605.698	36220.45
606.056	36317.62
606.413	36395.81
606.771	36716.93
607.128	36801.67
607.485	36661.56
607.843	36838.06
608.2	37097.26
608.557	37284.6
608.914	37165.96
609.272	37477.59
609.629	37651.59
609.986	37847.07
610.343	37755.77
610.7	38225.82
611.057	38133.39
611.414	38319.6
611.771	38413.16
612.127	38515.98
612.484	38574.28
612.841	38780.38
613.198	38731.57
613.554	38880.26
613.911	39019.24
614.267	39223.08
614.624	39099.01
614.98	39301.72
615.337	39634.37
615.693	39348.73
616.05	39389.85
616.406	39766.57
616.762	39638.66
617.118	39762.95
617.475	39852.67
617.831	39958.43
618.187	40105.54
618.543	40216.27
618.899	40440.45
619.255	40344.18
619.611	40425.99
619.967	40650.61
620.323	40849.02
620.678	40693.1
621.034	40637.73
621.39	40655.36
621.746	40562.48
622.101	41107.1
622.457	40754.79
622.812	40882.24
623.168	41037.27
623.523	40961.11
623.879	41211.28
624.234	41060.09
624.589	41350.71
624.945	41236.36
625.3	41281.1
625.655	41218.28
626.01	41383.93
626.365	41385.51
626.72	41372.4
627.075	41293.98
627.43	41504.15
627.785	41477.48
628.14	41539.85
628.495	41590.93
628.85	41587.99
629.205	41372.4
629.559	41631.6
629.914	41673.86
630.269	41715.22
630.623	41530.14
630.978	41488.1
631.332	41572.62
631.687	41665.05
632.041	41569.46
632.396	41781.2
632.75	41522.91
633.104	41577.37
633.459	41412.4
633.813	41491.72
634.167	41482.91
634.521	41298.05
634.875	41614.88
635.229	41501.66
635.583	41358.84
635.937	41410.14
636.291	41401.1
636.645	41253.08
636.999	41292.85
637.352	41545.28
637.706	41148.45
638.06	41338.5
638.413	41272.52
638.767	41169.24
639.121	41305.96
639.474	40984.61
639.828	41059.41
640.181	41112.07
640.534	41175.8
640.888	41135.12
641.241	40913.88
641.594	41037.27
641.947	41135.34
642.301	41049.47
642.654	41048.79
643.007	41017.16
643.36	40995.46
643.713	40904.39
644.066	41143.25
644.419	40870.49
644.771	40528.58
645.124	40235.93
645.477	40269.15
645.83	40003.62
646.182	39861.48
646.535	39842.27
646.888	39881.14
647.24	39633.01
647.593	39834.14
647.945	39673.69
648.298	39407.03
648.65	39380.14
649.002	39493.58
649.355	39600.24
649.707	39565.44
650.059	39617.19
650.411	40077.07
650.763	40129.5
651.115	40412.88
651.467	40387.57
651.819	40311.86
652.171	40247.91
652.523	40204.07
652.875	40219.89
653.227	40075.71
653.578	40247.01
653.93	40189.61
654.282	40016.5
654.633	40028.93
654.985	40123.17
655.337	39989.16
655.688	39976.05
656.039	40281.13
656.391	39814.48
656.742	39872.33
657.094	40004.75
657.445	40180.79
657.796	39924.3
658.147	39902.83
658.498	39856.73
658.849	39856.06
659.2	39932.21
659.551	39802.72
659.902	39954.81
660.253	39762.27
660.604	39983.96
660.955	39797.08
661.306	39879.78
661.656	39902.83
662.007	39892.44
662.358	39877.75
662.708	39802.95
663.059	39734.48
663.409	39651.54
663.76	39825.77
664.11	39943.29
664.461	39739
664.811	39840.24
665.161	39825.77
665.511	39614.03
665.862	39667.59
666.212	39749.17
666.562	39688.6
666.912	39670.98
667.262	39658.55
667.612	39586.23
667.962	39687.25
668.312	39654.71
668.662	39736.06
669.011	39571.09
669.361	39557.76
669.711	39574.71
670.06	39477.31
670.41	39439.12
670.76	39337.65
671.109	39512.56
671.459	39498.55
671.808	39254.72
672.157	39501.26
672.507	39290.87
672.856	39310.31
673.205	39271.67
673.554	39341.04
673.904	39240.03
674.253	39432.79
674.602	39260.82
674.951	38782.64
675.3	38604.56
675.649	39080.71
675.998	39098.56
676.346	39205.68
676.695	39275.05
677.044	39050.2
677.393	39110.99
677.741	39127.94
678.09	39151.44
678.438	39048.39
678.787	39045.46
679.135	38980.15
679.484	38745.13
679.832	38977.66
680.181	38916.42
680.529	38858.79
680.877	38806.37
681.225	38722.3
681.573	38918.68
681.922	38620.38
682.27	38510.56
682.618	38554.62
682.966	38387.62
683.314	38547.62
683.661	38291.13
684.009	38133.84
684.357	38260.84
684.705	38065.14
685.053	38083.45
685.4	38015.65
685.748	37950.8
686.095	38025.6
686.443	37796.9
686.79	37686.4
687.138	37809.33
687.485	37841.42
687.832	37716.68
688.18	37696.11
688.527	37443.69
688.874	37551.94
689.221	37294.77
689.568	37325.95
689.915	37221.55
690.262	37106.75
690.609	37047.32
690.956	37034.66
691.303	37004.38
691.65	36672.41
691.997	36887.55
692.344	36581.79
692.69	36572.53
693.037	36585.18
693.383	36340.89
693.73	36406.43
694.077	36144.29
694.423	36051.64
694.769	35991.75
695.116	35955.59
695.462	35944.97
695.808	35938.42
696.155	35890.29
696.501	35572.33
696.847	35574.81
697.193	35418.21
697.539	35460.01
697.885	35189.74
698.231	35134.82
698.577	35192.22
698.923	35017.77
699.269	34962.17
699.614	34858.22
699.96	34796.53
700.306	34792.46
700.651	34698.9
700.997	34469.31
701.342	34479.47
701.688	34396.31
702.033	34200.39
702.379	34130.11
702.724	34145.47
703.069	34088.3
703.415	33674.3
703.76	33790.68
704.105	33790.23
704.45	33689.89
704.795	33578.71
705.14	33472.5
705.485	33442.44
705.83	33235.44
706.175	33299.39
706.52	33245.16
706.865	33024.82
707.209	33107.53
707.554	32961.32
707.899	33078.83
708.243	32829.8
708.588	32732.85
708.932	32561.33
709.277	32592.97
709.621	32663.25
709.966	32403.82
710.31	32433.65
710.654	32227.1
710.998	32303.26
711.342	32200.44
711.687	32014.45
712.031	31936.72
712.375	31854.69
712.719	31892.65
713.063	31946.21
713.407	31997.73
713.75	31750.28
714.094	31722.03
714.438	31682.94
714.782	31682.26
715.125	31519.33
715.469	31602.26
715.812	31377.64
716.156	31221.26
716.499	31230.07
716.843	31287.92
717.186	31080.02
717.53	31255.15
717.873	31203.63
718.216	31122.95
718.559	30935.16
718.902	30759.57
719.246	30818.1
719.589	30742.85
719.932	30649.29
720.275	30684.32
720.617	30644.77
720.96	30457.89
721.303	30479.81
721.646	30462.63
721.989	30345.35
722.331	30366.14
722.674	30359.81
723.016	30191.68
723.359	30234.84
723.701	30222.86
724.044	30012.7
724.386	29895.19
724.729	30057.44
725.071	29851.35
725.413	29841.86
725.755	29970.89
726.097	29771.12
726.439	29638.47
726.782	29673.73
727.124	29717.57
727.465	29649.55
727.807	29589.89
728.149	29532.49
728.491	29579.26
728.833	29607.74
729.175	29360.74
729.516	29165.04
729.858	29323
730.199	29297.69
730.541	29206.62
730.882	29097.92
731.224	29379.72
731.565	28918.72
731.906	29080.29
732.248	29056.11
732.589	28935.44
732.93	28790.36
733.271	28831.26
733.612	28810.02
733.953	28873.97
734.294	28658.61
734.635	28671.27
734.976	28644.6
735.317	28504.94
735.658	28477.82
735.999	28604.83
736.339	28377.04
736.68	28543.59
737.021	28391.05
737.361	28248
737.702	28437.15
738.042	28359.18
738.383	28190.6
738.723	28262.24
739.063	28147.21
739.404	28309.02
739.744	28027.89
740.084	28031.51
740.424	28158.29
740.764	27910.16
741.104	28043.03
741.444	27791.97
741.784	27822.7
742.124	27874.68
742.464	27746.09
742.804	27782.48
743.143	27522.14
743.483	27669.48
743.823	27421.36
744.162	27564.4
744.502	27537.51
744.841	27350.17
745.181	27584.74
745.52	27310.4
745.86	27462.94
746.199	27317.4
746.538	27277.18
746.877	27216.61
747.216	27328.48
747.556	27189.95
747.895	27276.05
748.234	26995.38
748.573	26976.4
748.911	26945.21
749.25	26931.2
749.589	26759
749.928	26874.7
750.267	26876.74
750.605	26791.77
750.944	26658.66
751.283	26677.87
751.621	26663.18
751.96	26544.54
752.298	26540.7
752.636	26558.55
752.975	26254.15
753.313	26152.91
753.651	26329.18
753.989	26235.62
754.327	26193.36
754.666	26121.28
755.004	26046.93
755.342	26185.46
755.679	26036.98
756.017	25895.75
756.355	25983.2
756.693	25866.59
757.031	25872.92
757.368	25689.42
