Data from hue_70_FLMS001491_67.txt Node
Date: Mon Feb 06 15:21:16 GMT 2017
User: dcchb
Spectrometer: FLMS00149
Trigger mode: 0
Integration Time (sec): 2.000000E-2
Scans to average: 10
Electric dark correction enabled: true
Nonlinearity correction enabled: false
Boxcar width: 0
XAxis mode: Wavelengths
Number of Pixels in Spectrum: 2048
>>>>>Begin Spectral Data<<<<<
341.393	-5.31
341.776	-5.31
342.16	-5.31
342.543	-64.07
342.927	-66.55
343.31	-54.57
343.693	-57.06
344.077	-69.94
344.46	-60.45
344.843	-66.1
345.226	-42.15
345.61	-16.61
345.993	-37.4
346.376	-3.95
346.759	3.05
347.142	8.7
347.525	66.55
347.908	52.32
348.291	88.7
348.674	81.92
349.057	107
349.44	111.52
349.823	125.31
350.206	162.59
350.588	202.37
350.971	196.94
351.354	209.82
351.737	221.8
352.119	253.21
352.502	276.26
352.884	279.2
353.267	271.97
353.65	309.26
354.032	285.08
354.414	295.7
354.797	301.12
355.179	329.14
355.562	338.86
355.944	337.96
356.326	322.14
356.709	333.89
357.091	346.09
357.473	349.71
357.855	338.18
358.238	360.56
358.62	337.96
359.002	323.95
359.384	344.51
359.766	342.7
360.148	346.54
360.53	337.28
360.912	328.47
361.294	323.95
361.676	355.81
362.057	344.74
362.439	322.59
362.821	332.31
363.203	305.87
363.584	328.24
363.966	331.4
364.348	306.55
364.729	317.84
365.111	331.18
365.493	323.95
365.874	332.53
366.256	312.87
366.637	308.13
367.019	313.1
367.4	301.57
367.781	307.9
368.163	308.35
368.544	325.3
368.925	303.61
369.306	335.02
369.688	312.65
370.069	314.91
370.45	327.11
370.831	319.43
371.212	320.78
371.593	317.62
371.974	303.38
372.355	310.84
372.736	309.71
373.117	309.94
373.498	316.94
373.879	307.9
374.26	307.45
374.641	325.98
375.021	291.86
375.402	318.52
375.783	324.4
376.163	319.2
376.544	317.84
376.925	340.89
377.305	322.82
377.686	343.83
378.066	332.08
378.447	337.05
378.827	316.49
379.208	345.64
379.588	337.51
379.968	325.3
380.349	334.12
380.729	336.15
381.109	323.72
381.489	335.47
381.87	311.97
382.25	344.74
382.63	329.14
383.01	348.8
383.39	329.6
383.77	339.09
384.15	355.36
384.53	347.22
384.91	325.53
385.29	347.67
385.67	328.92
386.049	335.92
386.429	346.77
386.809	353.55
387.189	351.74
387.568	338.41
387.948	346.54
388.328	355.36
388.707	342.7
389.087	357.39
389.466	376.6
389.846	349.26
390.225	361.23
390.605	358.97
390.984	343.38
391.363	367.56
391.743	348.58
392.122	368.24
392.501	362.14
392.881	371.85
393.26	390.84
393.639	379.09
394.018	370.72
394.397	359.2
394.776	374.11
395.155	395.13
395.534	383.15
395.913	380.22
396.292	385.19
396.671	391.29
397.05	387.9
397.429	390.39
397.808	371.4
398.186	392.87
398.565	374.79
398.944	373.21
399.323	385.41
399.701	377.28
400.08	383.61
400.458	381.35
400.837	379.09
401.215	407.33
401.594	396.26
401.972	405.98
402.351	402.81
402.729	400.33
403.107	392.65
403.486	387.67
403.864	397.16
404.242	411.4
404.62	417.96
404.999	410.27
405.377	418.41
405.755	413.66
406.133	413.89
406.511	408.92
406.889	384.28
407.267	412.98
407.645	419.99
408.023	420.89
408.401	417.96
408.779	418.41
409.156	424.73
409.534	430.38
409.912	434.23
410.29	440.33
410.667	417.5
411.045	441.91
411.422	443.04
411.8	449.37
412.178	436.94
412.555	457.95
412.933	469.03
413.31	474
413.687	452.08
414.065	461.57
414.442	481.68
414.819	468.12
415.197	468.58
415.574	467.67
415.951	447.56
416.328	471.74
416.705	478.07
417.082	482.81
417.46	472.42
417.837	500.44
418.214	492.08
418.591	493.66
418.967	486.88
419.344	513.77
419.721	487.11
420.098	511.29
420.475	502.02
420.852	494.79
421.228	497.28
421.605	535.92
421.982	491.63
422.358	501.79
422.735	532.3
423.111	481.46
423.488	527.56
423.864	537.27
424.241	556.03
424.617	515.58
424.994	544.96
425.37	554
425.746	522.13
426.123	550.61
426.499	551.51
426.875	564.39
427.251	568.46
427.627	572.53
428.003	545.18
428.379	564.84
428.756	577.5
429.132	576.6
429.507	591.51
429.883	563.04
430.259	599.65
430.635	592.87
431.011	620.89
431.387	589.48
431.763	589.7
432.138	632.19
432.514	624.05
432.89	617.95
433.265	627.22
433.641	646.88
434.016	612.98
434.392	637.84
434.767	658.63
435.143	644.62
435.518	659.53
435.894	662.24
436.269	657.72
436.644	687.33
437.02	683.26
437.395	695.24
437.77	684.61
438.145	690.94
438.52	691.85
438.895	690.94
439.271	694.56
439.646	709.25
440.021	705.41
440.395	719.87
440.77	715.57
441.145	708.79
441.52	709.47
441.895	737.72
442.27	715.8
442.645	737.27
443.019	737.95
443.394	757.83
443.769	756.93
444.143	729.81
444.518	774.1
444.892	768
445.267	771.17
445.641	772.3
446.016	785.4
446.39	798.51
446.764	776.14
447.139	804.84
447.513	797.15
447.887	795.12
448.262	798.06
448.636	791.73
449.01	790.83
449.384	821.79
449.758	800.77
450.132	830.6
450.506	837.61
450.88	859.3
451.254	830.83
451.628	859.07
452.002	854.33
452.376	862.24
452.75	892.52
453.123	840.77
453.497	885.97
453.871	891.61
454.244	887.32
454.618	910.82
454.992	915.8
455.365	907.43
455.739	941.78
456.112	942.24
456.486	945.85
456.859	967.55
457.232	964.16
457.606	961.44
457.979	971.16
458.352	1013.19
458.725	1004.15
459.099	1059.52
459.472	1040.99
459.845	1047.77
460.218	1046.19
460.591	1067.66
460.964	1065.62
461.337	1097.26
461.71	1115.11
462.083	1122.57
462.456	1119.86
462.829	1129.8
463.201	1124.6
463.574	1167.99
463.947	1191.04
464.32	1193.3
464.692	1220.65
465.065	1238.27
465.438	1204.6
465.81	1243.47
466.183	1276.24
466.555	1287.76
466.928	1304.03
467.3	1280.08
467.672	1346.07
468.045	1367.31
468.417	1384.48
468.789	1385.61
469.161	1394.88
469.534	1444.37
469.906	1470.58
470.278	1485.05
470.65	1485.05
471.022	1548.09
471.394	1564.82
471.766	1620.41
472.138	1638.49
472.51	1680.75
472.882	1685.94
473.253	1732.95
473.625	1747.64
473.997	1814.3
474.369	1849.78
474.74	1864.7
475.112	1904.47
475.484	1953.51
475.855	1992.15
476.227	2051.36
476.598	2092.04
476.97	2126.61
477.341	2187.4
477.713	2273.5
478.084	2287.28
478.455	2337.68
478.827	2393.95
479.198	2526.15
479.569	2540.61
479.94	2639.14
480.311	2676.88
480.682	2762.53
481.053	2870.32
481.424	2901.96
481.795	2994.16
482.166	3136.53
482.537	3188.73
482.908	3296.07
483.279	3311.21
483.65	3471.21
484.021	3558.66
484.391	3625.55
484.762	3724.31
485.133	3750.97
485.503	3919.33
485.874	4103.06
486.244	4131.98
486.615	4273.45
486.985	4379.66
487.356	4519.32
487.726	4609.94
488.097	4755.69
488.467	4811.74
488.837	4984.16
489.207	5122.69
489.578	5231.84
489.948	5402.91
490.318	5531.94
490.688	5570.59
491.058	5774.2
491.428	5886.51
491.798	6043.57
492.168	6228.88
492.538	6318.59
492.908	6392.49
493.278	6598.81
493.648	6708.41
494.017	6823.66
494.387	6999.03
494.757	7131.22
495.126	7267.04
495.496	7406.25
495.866	7508.16
496.235	7704.54
496.605	7835.61
496.974	7999.68
497.344	8090.52
497.713	8267.92
498.082	8362.83
498.452	8506.1
498.821	8635.37
499.19	8725.31
499.559	8852.31
499.928	9023.15
500.298	9140.89
500.667	9259.3
501.036	9335.23
501.405	9551.95
501.774	9645.96
502.143	9740.65
502.512	9749.46
502.88	9989
503.249	10111.71
503.618	10197.13
503.987	10247.3
504.356	10441.65
504.724	10577.69
505.093	10660.17
505.462	10805.93
505.83	10936.32
506.199	11006.38
506.567	11135.19
506.936	11196.88
507.304	11363.2
507.672	11503.31
508.041	11614.5
508.409	11702.86
508.777	11823.08
509.145	11963.19
509.514	11959.12
509.882	12145.33
510.25	12161.83
510.618	12361.14
510.986	12430.75
511.354	12575.83
511.722	12689.5
512.09	12856.27
512.458	12835.26
512.826	13054.46
513.193	13069.6
513.561	13150.28
513.929	13277.96
514.297	13406.99
514.664	13505.29
515.032	13575.8
515.4	13681.56
515.767	13719.53
516.135	13817.38
516.502	13822.12
516.869	13998.84
517.237	14045.39
517.604	14126.52
517.972	14324.93
518.339	14346.4
518.706	14327.87
519.073	14492.84
519.44	14672.04
519.808	14643.34
520.175	14754.98
520.542	14997.46
520.909	15053.28
521.276	14994.75
521.643	15230.67
522.009	15293.72
522.376	15353.83
522.743	15447.84
523.11	15632.92
523.477	15730.77
523.843	15712.92
524.21	15967.15
524.577	16048.28
524.943	16076.3
525.31	16118.11
525.676	16281.27
526.043	16352.23
526.409	16436.97
526.776	16603.52
527.142	16651.88
527.508	16628.38
527.874	16831.53
528.241	16906.11
528.607	16895.26
528.973	17073.79
529.339	17053.68
529.705	17197.63
530.071	17334.57
530.437	17336.61
530.803	17467.68
531.169	17398.53
531.535	17499.09
531.901	17541.8
532.267	17667.9
532.632	17666.54
532.998	17704.73
533.364	17886.42
533.73	17846.42
534.095	17907.44
534.461	18025.85
534.826	17983.59
535.192	18159.41
535.557	18227.88
535.923	18099.07
536.288	18237.37
536.653	18259.07
537.019	18201.89
537.384	18355.34
537.749	18359.63
538.114	18310.37
538.479	18335.68
538.845	18483.24
539.21	18369.8
539.575	18464.71
539.94	18528.67
540.305	18606.86
540.67	18491.83
541.034	18569.57
541.399	18683.01
541.764	18625.39
542.129	18629.68
542.494	18736.8
542.858	18756.23
543.223	18728.66
543.587	18871.26
543.952	18742.22
544.316	18849.33
544.681	18744.25
545.045	18857.02
545.41	18954.87
545.774	18935.21
546.138	19022.66
546.503	18861.54
546.867	18835.32
547.231	19108.76
547.595	18998.94
547.959	19093.4
548.324	18965.94
548.688	19094.07
549.052	19080.74
549.416	19085.26
549.779	19204.58
550.143	19127.52
550.507	19229.66
550.871	19139.5
551.235	19301.98
551.599	19348.76
551.962	19238.25
552.326	19322.32
552.689	19515.76
553.053	19418.13
553.417	19357.8
553.78	19569.77
554.143	19521.86
554.507	19537.23
554.87	19629.2
555.234	19667.39
555.597	19606.6
555.96	19685.7
556.323	19697
556.686	19701.74
557.05	19811.34
557.413	19817.22
557.776	19841.4
558.139	19955.75
558.502	19991
558.865	19913.94
559.228	20110.54
559.59	20116.65
559.953	20186.25
560.316	20394.83
560.679	20269.86
561.041	20445.9
561.404	20462.4
561.767	20534.26
562.129	20447.48
562.492	20579.68
562.854	20588.5
563.217	20606.35
563.579	20663.52
563.941	20792.56
564.304	20915.72
564.666	20890.41
565.028	20990.07
565.39	20924.99
565.753	21055.6
566.115	21150.29
566.477	21203.62
566.839	21247.46
567.201	21300.34
567.563	21362.49
567.925	21438.65
568.287	21508.93
568.648	21506.67
569.01	21595.93
569.372	21619.88
569.734	21570.39
570.095	21750.05
570.457	21812.87
570.819	21971.74
571.18	21897.84
571.542	22006.77
571.903	21999.99
572.265	22024.84
572.626	22054.45
572.987	22108.68
573.349	22209.7
573.71	22269.36
574.071	22248.57
574.432	22309.13
574.794	22428
575.155	22506.87
575.516	22390.48
575.877	22416.02
576.238	22537.37
576.599	22554.32
576.96	22580.54
577.32	22604.26
577.681	22721.1
578.042	22694.88
578.403	22839.06
578.763	22660.99
579.124	22736.92
579.485	22742.34
579.845	22825.73
580.206	22778.5
580.566	22822.11
580.927	22822.11
581.287	22909.57
581.648	22870.02
582.008	22877.7
582.368	22872.51
582.728	22936.23
583.089	22932.84
583.449	22872.05
583.809	22898.95
584.169	23003.35
584.529	22943.69
584.889	23088.55
585.249	22880.19
585.609	22889.68
585.969	23047.87
586.329	22983.01
586.688	22964.71
587.048	23034.31
587.408	22921.32
587.768	22973.07
588.127	22916.35
588.487	22823.92
588.846	23095.32
589.206	22837.25
589.565	22956.57
589.925	23047.42
590.284	22991.37
590.643	22958.15
591.003	23033.41
591.362	22968.77
591.721	22892.62
592.08	23004.03
592.44	23055.33
592.799	22971.71
593.158	23042.67
593.517	22943.69
593.876	23046.96
594.235	22975.33
594.593	23057.81
594.952	23070.92
595.311	22984.37
595.67	22985.27
596.029	23130.13
596.387	23121.76
596.746	23138.94
597.104	23010.81
597.463	22926.52
597.822	23018.49
598.18	23110.24
598.538	23007.87
598.897	23175.77
599.255	22938.94
599.613	23309.1
599.972	23090.81
600.33	23195.44
600.688	23052.84
601.046	23179.16
601.404	23336.22
601.762	23282.21
602.12	23286.05
602.478	23312.04
602.836	23297.81
603.194	23190.24
603.552	23220.75
603.91	23165.83
604.268	23252.16
604.625	23248.54
604.983	23404.47
605.341	23239.05
605.698	23360.85
606.056	23415.32
606.413	23416.67
606.771	23500.74
607.128	23453.73
607.485	23342.32
607.843	23352.04
608.2	23505.03
608.557	23596.1
608.914	23485.6
609.272	23653.73
609.629	23730.56
609.986	23738.25
610.343	23632.49
610.7	23877
611.057	23797.23
611.414	23784.57
611.771	23785.48
612.127	23797.23
612.484	23869.32
612.841	23998.35
613.198	23866.83
613.554	23926.26
613.911	24104.56
614.267	24048.97
614.624	24105.69
614.98	24082.42
615.337	24201.96
615.693	24089.65
616.05	24101.17
616.406	24311.34
616.762	24089.42
617.118	24045.81
617.475	24240.38
617.831	24303.88
618.187	24196.31
618.543	24340.94
618.899	24433.37
619.255	24519.24
619.611	24356.53
619.967	24392.92
620.323	24516.98
620.678	24455.74
621.034	24362.64
621.39	24378.46
621.746	24402.86
622.101	24651.89
622.457	24515.85
622.812	24568.73
623.168	24486.25
623.523	24583.42
623.879	24692.35
624.234	24504.55
624.589	24508.85
624.945	24716.75
625.3	24691.22
625.655	24661.16
626.01	24649.18
626.365	24667.04
626.72	24566.25
627.075	24584.33
627.43	24572.12
627.785	24581.61
628.14	24576.42
628.495	24615.06
628.85	24533.48
629.205	24587.94
629.559	24686.24
629.914	24566.47
630.269	24523.54
630.623	24624.78
630.978	24460.49
631.332	24492.58
631.687	24513.82
632.041	24529.19
632.396	24505.01
632.75	24392.47
633.104	24398.79
633.459	24399.7
633.813	24351.11
634.167	24414.39
634.521	24346.37
634.875	24451.9
635.229	24412.8
635.583	24227.5
635.937	24301.39
636.291	24193.6
636.645	24349.76
636.999	24137.33
637.352	24339.36
637.706	24133.94
638.06	24275.18
638.413	24284.45
638.767	24127.39
639.121	24206.48
639.474	24004.91
639.828	24082.87
640.181	23970.1
640.534	24080.84
640.888	23994.51
641.241	23862.31
641.594	23929.43
641.947	24059.59
642.301	23876.77
642.654	23960.39
643.007	23957.45
643.36	23893.04
643.713	23744.35
644.066	24020.05
644.419	23746.83
644.771	23658.02
645.124	23388.88
645.477	23456.67
645.83	23235.89
646.182	23163.35
646.535	23169.22
646.888	23202.89
647.24	23009.23
647.593	23087.42
647.945	23127.41
648.298	22947.08
648.65	22918.38
649.002	22890.36
649.355	23089.9
649.707	23037.47
650.059	23152.27
650.411	23393.85
650.763	23387.29
651.115	23691.47
651.467	23566.72
651.819	23656.44
652.171	23412.83
652.523	23465.94
652.875	23462.55
653.227	23356.11
653.578	23554.97
653.93	23416.22
654.282	23408.54
654.633	23379.16
654.985	23432.04
655.337	23494.41
655.688	23479.5
656.039	23450.34
656.391	23250.35
656.742	23326.96
657.094	23318.6
657.445	23434.53
657.796	23392.94
658.147	23302.55
658.498	23319.95
658.849	23440.17
659.2	23319.73
659.551	23340.52
659.902	23397.01
660.253	23398.14
660.604	23357.46
660.955	23349.56
661.306	23339.84
661.656	23331.93
662.007	23358.82
662.358	23324.92
662.708	23367.41
663.059	23347.97
663.409	23236.34
663.76	23472.49
664.11	23340.74
664.461	23450.34
664.811	23373.96
665.161	23456.22
665.511	23270.24
665.862	23359.5
666.212	23419.61
666.562	23364.92
666.912	23351.59
667.262	23305.71
667.612	23430.46
667.962	23373.06
668.312	23304.81
668.662	23443.79
669.011	23292.83
669.361	23326.51
669.711	23274.98
670.06	23253.51
670.41	23308.43
670.76	23228.2
671.109	23267.98
671.459	23180.97
671.808	23232.72
672.157	23262.33
672.507	23060.98
672.856	23129
673.205	23121.76
673.554	23209.67
673.904	22937.59
674.253	23310.69
674.602	23125.38
674.951	22861.66
675.3	22708.89
675.649	23031.82
675.998	23051.94
676.346	22950.02
676.695	23127.19
677.044	22957.48
677.393	23068.43
677.741	23012.16
678.09	22939.85
678.438	22790.93
678.787	22943.01
679.135	22939.85
679.484	22692.17
679.832	22864.6
680.181	22709.57
680.529	22676.13
680.877	22680.87
681.225	22644.72
681.573	22728.1
681.922	22663.25
682.27	22542.35
682.618	22539.86
682.966	22561.33
683.314	22529.01
683.661	22463.48
684.009	22282.46
684.357	22346.87
684.705	22236.14
685.053	22164.73
685.4	22268.91
685.748	22124.05
686.095	22157.5
686.443	22115.46
686.79	22029.14
687.138	22027.1
687.485	22043.38
687.832	22051.51
688.18	21943.49
688.527	21848.13
688.874	21835.47
689.221	21731.74
689.568	21640
689.915	21638.41
690.262	21676.38
690.609	21631.18
690.956	21486.55
691.303	21419.89
691.65	21343.05
691.997	21280.23
692.344	21254.47
692.69	21201.82
693.037	21181.48
693.383	21094.47
693.73	21143.74
694.077	20936.51
694.423	21012.67
694.769	20820.36
695.116	20827.59
695.462	20730.42
695.808	20755.95
696.155	20816.97
696.501	20529.52
696.847	20544.21
697.193	20339.92
697.539	20433.7
697.885	20303.76
698.231	20201.62
698.577	20132.24
698.923	20132.92
699.269	20034.39
699.614	19949.42
699.96	19868.29
700.306	19875.75
700.651	19737.45
700.997	19639.6
701.342	19730.67
701.688	19551.46
702.033	19530.22
702.379	19576.55
702.724	19426.72
703.069	19445.03
703.415	19272.83
703.76	19313.96
704.105	19297.68
704.45	19150.8
704.795	19128.65
705.14	19106.28
705.485	19044.36
705.83	18979.73
706.175	18913.29
706.52	18954.42
706.865	18860.41
707.209	18730.47
707.554	18735.44
707.899	18767.76
708.243	18598.27
708.588	18619.06
708.932	18479.4
709.277	18462.45
709.621	18497.03
709.966	18352.4
710.31	18297.26
710.654	18249.12
710.998	18198.73
711.342	18310.14
711.687	18237.15
712.031	18140.88
712.375	18081.67
712.719	18006.42
713.063	18017.27
713.407	18089.13
713.75	17956.03
714.094	18004.84
714.438	17941.11
714.782	17821.57
715.125	17756.93
715.469	17827.67
715.812	17719.87
716.156	17573.44
716.499	17586.77
716.843	17578.86
717.186	17540.22
717.53	17660.89
717.873	17578.86
718.216	17526.43
718.559	17376.15
718.902	17384.51
719.246	17420.22
719.589	17341.8
719.932	17403.05
720.275	17271.52
720.617	17295.03
720.96	17250.73
721.303	17207.34
721.646	17282.37
721.989	17170.73
722.331	17088.93
722.674	17103.84
723.016	17272.65
723.359	17152.88
723.701	17061.59
724.044	16919.22
724.386	16940.46
724.729	17017.07
725.071	16950.85
725.413	16939.55
725.755	16970.51
726.097	16881.25
726.439	16781.82
726.782	16790.86
727.124	16977.52
727.465	16711.76
727.807	16821.59
728.149	16676.74
728.491	16729.84
728.833	16816.62
729.175	16710.86
729.516	16683.29
729.858	16670.64
730.199	16610.07
730.541	16696.62
730.882	16653.69
731.224	16641.94
731.565	16609.17
731.906	16554.03
732.248	16660.01
732.589	16558.1
732.93	16550.41
733.271	16478.55
733.612	16527.36
733.953	16515.16
734.294	16456.18
734.635	16486.69
734.976	16508.83
735.317	16332.56
735.658	16421.83
735.999	16430.64
736.339	16437.87
736.68	16444.43
737.021	16404.43
737.361	16377.31
737.702	16458.66
738.042	16326.01
738.383	16376.63
738.723	16396.07
739.063	16359.46
739.404	16467.48
739.744	16337.99
740.084	16261.61
740.424	16289.63
740.764	16300.7
741.104	16406.24
741.444	16209.18
741.784	16279.01
742.124	16344.32
742.464	16408.04
742.804	16251.44
743.143	16305.22
743.483	16343.41
743.823	16353.81
744.162	16234.04
744.502	16411.66
744.841	16388.16
745.181	16514.03
745.52	16370.3
745.86	16489.62
746.199	16477.42
746.538	16416.63
746.877	16598.32
747.216	16538.89
747.556	16457.53
747.895	16606.23
748.234	16582.28
748.573	16538.66
748.911	16597.87
749.25	16587.02
749.589	16564.88
749.928	16705.44
750.267	16846.45
750.605	16691.2
750.944	16783.63
751.283	16770.29
751.621	16939.33
751.96	16916.5
752.298	16984.3
752.636	17050.06
752.975	16999.44
753.313	17086.67
753.651	17223.39
753.989	17215.48
754.327	17218.64
754.666	17239.66
755.004	17356.49
755.342	17516.94
755.679	17502.7
756.017	17472.65
756.355	17659.31
756.693	17601.01
757.031	17736.82
