Data from hue_230_FLMS001491_00009.txt Node
Date: Tue Feb 07 16:36:44 GMT 2017
User: dcchb
Spectrometer: FLMS00149
Trigger mode: 0
Integration Time (sec): 2.000000E-2
Scans to average: 10
Electric dark correction enabled: true
Nonlinearity correction enabled: false
Boxcar width: 0
XAxis mode: Wavelengths
Number of Pixels in Spectrum: 2048
>>>>>Begin Spectral Data<<<<<
341.393	-17.54
341.776	-17.54
342.16	-17.54
342.543	-79.24
342.927	-60.7
343.31	-54.15
343.693	-65.45
344.077	-50.76
344.46	-57.77
344.843	-50.54
345.226	-56.86
345.61	-31.1
345.993	-33.36
346.376	-4.21
346.759	-3.76
347.142	27.88
347.525	43.93
347.908	66.3
348.291	67.2
348.674	94.77
349.057	107.88
349.44	117.6
349.823	134.32
350.206	167.99
350.588	177.93
350.971	216.8
351.354	226.52
351.737	235.78
352.119	246.63
352.502	249.57
352.884	259.06
353.267	292.96
353.65	285.95
354.032	294.31
354.414	304.71
354.797	305.84
355.179	311.71
355.562	312.17
355.944	322.56
356.326	320.98
356.709	324.14
357.091	329.79
357.473	326.86
357.855	347.42
358.238	335.67
358.62	330.47
359.002	331.6
359.384	333.86
359.766	333.86
360.148	339.06
360.53	330.02
360.912	321.43
361.294	326.18
361.676	324.37
362.057	324.82
362.439	323.24
362.821	311.04
363.203	330.02
363.584	301.32
363.966	331.6
364.348	306.52
364.729	299.06
365.111	322.11
365.493	306.52
365.874	342.22
366.256	294.99
366.637	319.17
367.019	311.94
367.4	314.65
367.781	305.16
368.163	318.95
368.544	315.33
368.925	303.13
369.306	314.43
369.688	288.66
370.069	330.7
370.45	300.87
370.831	291.83
371.212	318.04
371.593	305.39
371.974	312.17
372.355	321.66
372.736	325.05
373.117	302.45
373.498	300.19
373.879	330.47
374.26	303.58
374.641	319.62
375.021	318.72
375.402	341.77
375.783	313.97
376.163	322.79
376.544	309.91
376.925	315.33
377.305	323.47
377.686	310.13
378.066	324.14
378.447	329.12
378.827	342.22
379.208	339.96
379.588	336.35
379.968	341.32
380.349	342.22
380.729	315.56
381.109	342.9
381.489	337.48
381.87	340.19
382.25	329.57
382.63	334.77
383.01	330.02
383.39	336.8
383.77	334.77
384.15	340.19
384.53	356.23
384.91	363.69
385.29	335.44
385.67	365.5
386.049	355.56
386.429	368.66
386.809	366.4
387.189	348.55
387.568	342.67
387.948	347.65
388.328	358.95
388.707	353.97
389.087	372.05
389.466	361.43
389.846	382.67
390.225	365.5
390.605	369.57
390.984	384.26
391.363	347.87
391.743	376.57
392.122	371.15
392.501	379.96
392.881	384.71
393.26	367.98
393.639	380.41
394.018	382.67
394.397	372.96
394.776	364.14
395.155	392.84
395.534	384.03
395.913	386.29
396.292	381.77
396.671	392.39
397.05	385.61
397.429	396.91
397.808	401.66
398.186	394.42
398.565	417.93
398.944	395.55
399.323	422.9
399.701	427.19
400.08	403.92
400.458	416.8
400.837	423.58
401.215	442.11
401.594	416.8
401.972	423.12
402.351	405.72
402.729	445.27
403.107	422.22
403.486	434.65
403.864	435.1
404.242	449.79
404.62	424.25
404.999	452.73
405.377	443.24
405.755	452.73
406.133	476.68
406.511	442.78
406.889	465.84
407.267	465.38
407.645	487.3
408.023	497.47
408.401	491.6
408.779	478.49
409.156	482.78
409.534	506.96
409.912	502.67
410.29	504.48
410.667	531.37
411.045	541.99
411.422	532.95
411.8	528.88
412.178	555.32
412.555	560.97
412.933	532.95
413.31	565.95
413.687	550.8
414.065	576.34
414.442	584.93
414.819	591.71
415.197	591.71
415.574	595.32
415.951	630.8
416.328	612.05
416.705	623.35
417.082	621.76
417.46	632.61
417.837	659.5
418.214	644.36
418.591	659.5
418.967	667.19
419.344	685.72
419.721	673.97
420.098	663.34
420.475	664.7
420.852	697.47
421.228	704.7
421.605	704.47
421.982	709.9
422.358	737.69
422.735	759.39
423.111	751.03
423.488	786.96
423.864	772.95
424.241	809.78
424.617	801.87
424.994	782.44
425.37	813.17
425.746	827.41
426.123	841.19
426.499	872.38
426.875	857.24
427.251	874.64
427.627	896.56
428.003	906.28
428.379	905.15
428.756	929.1
429.132	916.22
429.507	923.68
429.883	932.49
430.259	966.16
430.635	948.31
431.011	963
431.387	999.83
431.763	1011.58
432.138	1031.02
432.514	1031.02
432.89	1026.05
433.265	1076.67
433.641	1054.29
434.016	1080.06
434.392	1125.03
434.767	1134.07
435.143	1136.78
435.518	1139.04
435.894	1180.84
436.269	1169.09
436.644	1219.71
437.02	1234.4
437.395	1261.97
437.77	1266.04
438.145	1308.3
438.52	1304.68
438.895	1313.27
439.271	1313.27
439.646	1371.57
440.021	1368.64
440.395	1383.78
440.77	1390.78
441.145	1378.13
441.52	1419.26
441.895	1420.39
442.27	1447.05
442.645	1472.59
443.019	1497.22
443.394	1502.19
443.769	1481.18
444.143	1488.63
444.518	1532.93
444.892	1510.78
445.267	1530.67
445.641	1553.26
446.016	1555.52
446.39	1616.09
446.764	1597.56
447.139	1613.38
447.513	1645.24
447.887	1624.45
448.262	1666.26
448.636	1637.1
449.01	1679.36
449.384	1673.26
449.758	1691.57
450.132	1715.97
450.506	1733.6
450.88	1731.56
451.254	1722.53
451.628	1761.39
452.002	1779.92
452.376	1769.98
452.75	1788.51
453.123	1808.62
453.497	1859.92
453.871	1868.51
454.244	1923.65
454.618	1905.57
454.992	1906.48
455.365	1909.64
455.739	1962.75
456.112	1971.33
456.486	2017.21
456.859	2028.05
457.232	2061.27
457.606	2052.23
457.979	2058.56
458.352	2114.83
458.725	2137.2
459.099	2130.88
459.472	2195.06
459.845	2214.49
460.218	2213.81
460.591	2219.69
460.964	2275.28
461.337	2267.37
461.71	2315.05
462.083	2380.59
462.456	2364.99
462.829	2345.33
463.201	2405.45
463.574	2406.35
463.947	2456.29
464.32	2482.05
464.692	2500.36
465.065	2513.24
465.438	2529.74
465.81	2600.47
466.183	2604.08
466.555	2647.02
466.928	2694.7
467.3	2649.51
467.672	2699.9
468.045	2813.12
468.417	2778.09
468.789	2814.7
469.161	2834.13
469.534	2890.63
469.906	2944.19
470.278	2916.62
470.65	2950.06
471.022	3054.47
471.394	3048.59
471.766	3081.81
472.138	3111.64
472.51	3179.44
472.882	3240.68
473.253	3224.86
473.625	3313.22
473.997	3365.19
474.369	3347.34
474.74	3397.28
475.112	3443.38
475.484	3507.56
475.855	3548.47
476.227	3620.33
476.598	3630.5
476.97	3658.75
477.341	3787.33
477.713	3781.68
478.084	3786.43
478.455	3899.42
478.827	3942.35
479.198	4054.22
479.569	4071.84
479.94	4140.31
480.311	4175.12
480.682	4227.54
481.053	4360.87
481.424	4386.64
481.795	4434.32
482.166	4472.06
482.537	4497.59
482.908	4568.55
483.279	4666.18
483.65	4756.8
484.021	4721.54
484.391	4834.99
484.762	4861.43
485.133	4881.76
485.503	4977.81
485.874	5090.8
486.244	5139.16
486.615	5203.11
486.985	5248.08
487.356	5302.77
487.726	5376.89
488.097	5464.8
488.467	5450.11
488.837	5561.75
489.207	5628.86
489.578	5687.17
489.948	5701.4
490.318	5789.31
490.688	5794.96
491.058	5881.06
491.428	5965.35
491.798	5983.43
492.168	6034.05
492.538	6084.22
492.908	6154.27
493.278	6175.97
493.648	6227.72
494.017	6246.93
494.387	6348.17
494.757	6348.17
495.126	6449.63
495.496	6474.94
495.866	6513.13
496.235	6506.81
496.605	6578.44
496.974	6631.32
497.344	6633.58
497.713	6763.07
498.082	6762.39
498.452	6774.14
498.821	6816.85
499.19	6814.14
499.559	6887.81
499.928	6868.6
500.298	6956.06
500.667	6976.17
501.036	6946.79
501.405	7042.61
501.774	7030.63
502.143	7072.89
502.512	7022.72
502.88	7135.04
503.249	7129.16
503.618	7199.67
503.987	7148.37
504.356	7195.6
504.724	7247.35
505.093	7262.49
505.462	7326.67
505.83	7295.94
506.199	7370.74
506.567	7388.82
506.936	7401.92
507.304	7534.12
507.672	7510.62
508.041	7504.29
508.409	7509.49
508.777	7584.74
509.145	7665.42
509.514	7620
509.882	7616.83
510.25	7645.99
510.618	7615.25
510.986	7643.27
511.354	7744.74
511.722	7770.5
512.09	7768.24
512.458	7758.98
512.826	7862.7
513.193	7961.23
513.561	7867.9
513.929	7907.45
514.297	7931.85
514.664	7930.5
515.032	7994.22
515.4	7959.88
515.767	7988.35
516.135	8023.15
516.502	7983.38
516.869	8091.62
517.237	8053.88
517.604	8054.34
517.972	8122.36
518.339	8106.54
518.706	8083.71
519.073	8086.43
519.44	8160.55
519.808	8139.31
520.175	8126.2
520.542	8248.68
520.909	8191.96
521.276	8207.33
521.643	8222.69
522.009	8220.89
522.376	8334.33
522.743	8298.85
523.11	8377.27
523.477	8436.93
523.843	8478.96
524.21	8525.06
524.577	8505.17
524.943	8473.31
525.31	8504.27
525.676	8555.34
526.043	8534.1
526.409	8588.11
526.776	8598.28
527.142	8548.33
527.508	8659.97
527.874	8711.72
528.241	8626.75
528.607	8729.35
528.973	8711.95
529.339	8657.26
529.705	8698.39
530.071	8742
530.437	8791.27
530.803	8747.2
531.169	8813.41
531.535	8778.61
531.901	8727.31
532.267	8781.32
532.632	8732.96
532.998	8796.92
533.364	8811.15
533.73	8803.92
534.095	8818.16
534.461	8793.3
534.826	8854.99
535.192	8798.72
535.557	8865.84
535.923	8822
536.288	8766.63
536.653	8780.64
537.019	8752.17
537.384	8847.54
537.749	8767.99
538.114	8765.28
538.479	8772.51
538.845	8743.81
539.21	8780.87
539.575	8757.82
539.94	8742.45
540.305	8750.59
540.67	8737.93
541.034	8746.97
541.399	8777.26
541.764	8710.36
542.129	8742
542.494	8726.41
542.858	8727.09
543.223	8707.2
543.587	8709.23
543.952	8710.36
544.316	8645.73
544.681	8644.15
545.045	8751.72
545.41	8677.37
545.774	8644.38
546.138	8686.41
546.503	8620.88
546.867	8622
547.231	8626.07
547.595	8630.59
547.959	8621.33
548.324	8644.83
548.688	8547.66
549.052	8621.78
549.416	8582.91
549.779	8535.91
550.143	8585.17
550.507	8616.13
550.871	8628.56
551.235	8572.06
551.599	8627.65
551.962	8613.19
552.326	8619.97
552.689	8622.23
553.053	8573.19
553.417	8517.83
553.78	8655.9
554.143	8544.27
554.507	8585.17
554.87	8555.57
555.234	8679.4
555.597	8597.15
555.96	8551.05
556.323	8590.37
556.686	8582.68
557.05	8622.23
557.413	8578.39
557.776	8604.15
558.139	8554.89
558.502	8604.83
558.865	8576.58
559.228	8612.29
559.59	8683.47
559.953	8666.98
560.316	8685.51
560.679	8736.13
561.041	8690.25
561.404	8748.33
561.767	8751.72
562.129	8647.99
562.492	8774.09
562.854	8759.18
563.217	8705.39
563.579	8777.48
563.941	8859.51
564.304	8821.55
564.666	8840.98
565.028	8867.87
565.39	8854.77
565.753	8819.97
566.115	8810.25
566.477	8887.31
566.839	8959.85
567.201	8986.06
567.563	8927.76
567.925	9018.6
568.287	9024.48
568.648	8976.8
569.01	9116
569.372	9165.49
569.734	9095.66
570.095	9120.52
570.457	9154.19
570.819	9140.86
571.18	9126.17
571.542	9194.19
571.903	9170.47
572.265	9236.45
572.626	9241.2
572.987	9299.05
573.349	9299.05
573.71	9297.24
574.071	9369.1
574.432	9356.67
574.794	9407.97
575.155	9380.18
575.516	9402.55
575.877	9354.42
576.238	9431.7
576.599	9507.41
576.96	9453.17
577.32	9475.09
577.681	9534.3
578.042	9497.24
578.403	9570.91
578.763	9560.96
579.124	9595.09
579.485	9634.41
579.845	9674.18
580.206	9678.47
580.566	9687.06
580.927	9614.52
581.287	9726.61
581.648	9618.81
582.008	9693.84
582.368	9752.82
582.728	9764.8
583.089	9741.98
583.449	9792.14
583.809	9751.01
584.169	9857.45
584.529	9802.31
584.889	9892.48
585.249	9819.94
585.609	9807.06
585.969	9791.24
586.329	9838.02
586.688	9899.94
587.048	9864.46
587.408	9903.33
587.768	9936.32
588.127	9961.63
588.487	9873.95
588.846	10007.96
589.206	9955.76
589.565	9941.07
589.925	10001.86
590.284	9957.34
590.643	9927.96
591.003	10030.78
591.362	10049.09
591.721	10042.53
592.08	10040.72
592.44	10071.46
592.799	10011.57
593.158	10044.11
593.517	10010.44
593.876	10030.56
594.235	10004.34
594.593	10089.99
594.952	10026.04
595.311	10004.12
595.67	10066.49
596.029	10159.37
596.387	10095.64
596.746	10148.29
597.104	10046.37
597.463	10115.75
597.822	10125.69
598.18	10137.45
598.538	10087.05
598.897	10163.89
599.255	10167.5
599.613	10270.32
599.972	10188.29
600.33	10176.77
600.688	10190.78
601.046	10156.43
601.404	10254.28
601.762	10225.8
602.12	10282.3
602.478	10181.06
602.836	10256.99
603.194	10226.93
603.552	10249.76
603.91	10167.5
604.268	10220.16
604.625	10134.06
604.983	10247.05
605.341	10227.84
605.698	10289.98
606.056	10289.76
606.413	10269.87
606.771	10323.2
607.128	10349.42
607.485	10248.18
607.843	10308.06
608.2	10346.71
608.557	10384.9
608.914	10295.63
609.272	10363.88
609.629	10346.71
609.986	10408.17
610.343	10360.49
610.7	10431.45
611.057	10373.82
611.414	10351.9
611.771	10401.62
612.127	10466.25
612.484	10501.05
612.841	10467.61
613.198	10447.27
613.554	10487.04
613.911	10553.25
614.267	10539.02
614.624	10561.84
614.98	10515.51
615.337	10588.73
615.693	10513.03
616.05	10550.32
616.406	10640.93
616.762	10504.44
617.118	10566.13
617.475	10528.85
617.831	10593.7
618.187	10617.88
618.543	10559.13
618.899	10611.78
619.255	10582.41
619.611	10619.92
619.967	10640.03
620.323	10688.62
620.678	10616.3
621.034	10533.59
621.39	10625.34
621.746	10607.94
622.101	10670.09
622.457	10635.06
622.812	10624.21
623.168	10675.51
623.523	10652.01
623.879	10706.24
624.234	10563.65
624.589	10626.25
624.945	10640.26
625.3	10657.43
625.655	10681.16
626.01	10564.55
626.365	10676.87
626.72	10573.37
627.075	10636.42
627.43	10670.31
627.785	10628.28
628.14	10621.73
628.495	10675.51
628.85	10596.19
629.205	10610.43
629.559	10639.13
629.914	10558
630.269	10598.45
630.623	10580.15
630.978	10583.31
631.332	10524.33
631.687	10568.62
632.041	10495.85
632.396	10562.07
632.75	10512.35
633.104	10493.59
633.459	10416.31
633.813	10470.54
634.167	10450.43
634.521	10460.6
634.875	10401.17
635.229	10393.71
635.583	10414.95
635.937	10360.72
636.291	10332.24
636.645	10298.12
636.999	10328.85
637.352	10411.79
637.706	10276.2
638.06	10341.73
638.413	10276.65
638.767	10262.41
639.121	10259.7
639.474	10298.8
639.828	10207.5
640.181	10261.28
640.534	10230.1
640.888	10210.44
641.241	10155.98
641.594	10099.03
641.947	10211.57
642.301	10158.01
642.654	10109.42
643.007	10226.48
643.36	10147.16
643.713	10090.89
644.066	10234.84
644.419	10049.31
644.771	10048.41
645.124	9997.56
645.477	9965.25
645.83	9872.59
646.182	9860.16
646.535	9825.14
646.888	9842.76
647.24	9767.96
647.593	9795.76
647.945	9785.36
648.298	9703.33
648.65	9713.05
649.002	9680.28
649.355	9754.86
649.707	9810.22
650.059	9818.81
650.411	9918.47
650.763	9895.42
651.115	10035.53
651.467	9926.15
651.819	9963.44
652.171	9993.72
652.523	9970.9
652.875	9969.09
653.227	9948.75
653.578	9997.11
653.93	9967.28
654.282	9970.44
654.633	9857.9
654.985	9933.38
655.337	9940.61
655.688	9935.64
656.039	10042.76
656.391	9876.89
656.742	9913.27
657.094	9931.12
657.445	9985.81
657.796	9978.81
658.147	9927.51
658.498	9873.05
658.849	9980.61
659.2	9896.77
659.551	9890.22
659.902	9952.59
660.253	9880.05
660.604	10042.08
660.955	9909.2
661.306	9943.78
661.656	9897.23
662.007	9890.45
662.358	9942.42
662.708	9978.58
663.059	10026.04
663.409	9826.27
663.76	9951.46
664.11	9988.52
664.461	9983.33
664.811	9997.11
665.161	9929.77
665.511	9913.5
665.862	9945.59
666.212	9978.35
666.562	10014.28
666.912	9972.7
667.262	9929.77
667.612	9870.11
667.962	9956.89
668.312	9905.81
668.662	10025.13
669.011	9975.42
669.361	9865.81
669.711	9925.02
670.06	9908.98
670.41	9922.99
670.76	9846.61
671.109	9921.63
671.459	9868.75
671.808	9862.88
672.157	9818.36
672.507	9738.59
672.856	9836.21
673.205	9864.91
673.554	9922.54
673.904	9843.67
674.253	9849.32
674.602	9875.53
674.951	9713.95
675.3	9632.83
675.649	9786.49
675.998	9798.7
676.346	9849.32
676.695	9858.36
677.044	9699.49
677.393	9787.62
677.741	9824.46
678.09	9754.63
678.438	9679.6
678.787	9695.65
679.135	9758.92
679.484	9685.71
679.832	9624.01
680.181	9565.93
680.529	9700.62
680.877	9514.41
681.225	9555.99
681.573	9620.85
681.922	9588.76
682.27	9499.95
682.618	9525.26
682.966	9467.41
683.314	9515.31
683.661	9500.63
684.009	9428.09
684.357	9438.03
684.705	9426.96
685.053	9359.61
685.4	9414.98
685.748	9353.06
686.095	9374.3
686.443	9283.91
686.79	9287.75
687.138	9268.32
687.485	9302.67
687.832	9283
688.18	9304.25
688.527	9152.16
688.874	9132.5
689.221	9152.16
689.568	9110.13
689.915	9082.33
690.262	9089.34
690.609	9014.76
690.956	9060.64
691.303	9073.97
691.65	8978.38
691.997	8957.14
692.344	8997.81
692.69	8944.71
693.037	8922.79
693.383	8809.12
693.73	8887.31
694.077	8826.52
694.423	8787.42
694.769	8745.84
695.116	8681.21
695.462	8716.47
695.808	8669.91
696.155	8746.52
696.501	8605.96
696.847	8581.78
697.193	8584.27
697.539	8617.26
697.885	8501.1
698.231	8482.12
698.577	8464.49
698.923	8437.83
699.269	8368
699.614	8337.94
699.96	8353.09
700.306	8332.75
700.651	8256.59
700.997	8244.16
701.342	8219.53
701.688	8186.08
702.033	8171.17
702.379	8143.6
702.724	8127.55
703.069	8093.43
703.415	8021.12
703.76	8047.56
704.105	8048.01
704.45	8056.82
704.795	7981.34
705.14	7898.63
705.485	7948.12
705.83	7898.63
706.175	7913.55
706.52	7850.27
706.865	7888.46
707.209	7844.85
707.554	7722.14
707.899	7799.65
708.243	7747.68
708.588	7700.67
708.932	7738.86
709.277	7612.99
709.621	7679.66
709.966	7573.22
710.31	7610.05
710.654	7515.37
710.998	7572.32
711.342	7560.56
711.687	7529.15
712.031	7511.3
712.375	7554.91
712.719	7500.68
713.063	7483.05
713.407	7429.04
713.75	7463.84
714.094	7497.06
714.438	7442.83
714.782	7455.26
715.125	7356.5
715.469	7389.95
715.812	7346.33
716.156	7337.52
716.499	7328.48
716.843	7308.82
717.186	7285.54
717.53	7308.59
717.873	7366.44
718.216	7293.23
718.559	7298.88
718.902	7210.97
719.246	7277.41
719.589	7270.85
719.932	7232.21
720.275	7184.53
720.617	7157.64
720.96	7192.89
721.303	7116.51
721.646	7160.57
721.989	7180.23
722.331	7166
722.674	7122.16
723.016	7094.59
723.359	7142.95
723.701	7139.78
724.044	7114.02
724.386	7045.78
724.729	7071.54
725.071	6996.06
725.413	7036.96
725.755	7107.24
726.097	7078.99
726.439	6977.08
726.782	7004.65
727.124	7049.39
727.465	7035.83
727.807	7018.43
728.149	6948.83
728.491	6988.83
728.833	7037.41
729.175	6967.36
729.516	6965.33
729.858	6937.08
730.199	6949.05
730.541	7009.84
730.882	6965.78
731.224	7011.43
731.565	6946.79
731.906	7011.43
732.248	6992.9
732.589	6883.52
732.93	6921.71
733.271	6935.95
733.612	6969.17
733.953	6945.66
734.294	6944.08
734.635	6920.81
734.976	6989.28
735.317	6924.42
735.658	6950.18
735.999	6944.53
736.339	6943.18
736.68	6945.44
737.021	6913.35
737.361	6928.26
737.702	6951.09
738.042	6936.17
738.383	6943.41
738.723	6959.9
739.063	6961.94
739.404	6924.2
739.744	6959
740.084	6972.56
740.424	6999.45
740.764	6996.06
741.104	7002.16
741.444	7002.84
741.784	7035.83
742.124	7031.31
742.464	6962.39
742.804	7008.04
743.143	7016.4
743.483	7003.74
743.823	7074.02
744.162	7053.68
744.502	7109.5
744.841	7130.29
745.181	7145.89
745.52	7169.84
745.86	7206.9
746.199	7206
746.538	7223.4
746.877	7276.96
747.216	7323.73
747.556	7292.77
747.895	7350.17
748.234	7284.86
748.573	7393.11
748.911	7449.61
749.25	7552.88
749.589	7478.08
749.928	7623.16
750.267	7670.17
750.605	7703.84
750.944	7733.89
751.283	7773.44
751.621	7845.08
751.96	7886.43
752.298	7972.08
752.636	8007.56
752.975	8101.34
753.313	8097.72
753.651	8239.87
753.989	8276.25
754.327	8315.8
754.666	8451.61
755.004	8560.09
755.342	8633.53
755.679	8739.74
756.017	8764.15
756.355	8905.16
756.693	8953.52
757.031	9083.69
757.368	9126.17
757.706	9221.31
758.044	9389.44
758.381	9533.39
758.719	9552.6
759.056	9798.02
759.394	9913.27
759.731	9874.4
760.068	10057.9
760.405	10064.23
760.743	10203.21
761.08	10456.76
761.417	10471.22
761.754	10615.17
762.091	10763.87
762.428	10852.23
762.765	11021.26
763.102	11112.33
763.438	11160.7
763.775	11294.7
764.112	11495.83
764.449	11564.07
764.785	11656.73
765.122	11811.98
765.458	11893.33
765.795	11971.3
766.131	12124.51
