Data from hue_10_FLMS001491_4.txt Node
Date: Mon Feb 06 15:31:19 GMT 2017
User: dcchb
Spectrometer: FLMS00149
Trigger mode: 0
Integration Time (sec): 2.000000E-2
Scans to average: 10
Electric dark correction enabled: true
Nonlinearity correction enabled: false
Boxcar width: 0
XAxis mode: Wavelengths
Number of Pixels in Spectrum: 2048
>>>>>Begin Spectral Data<<<<<
341.393	13.08
341.776	13.08
342.16	13.08
342.543	-63.98
342.927	-67.37
343.31	-82.74
343.693	-59.01
344.077	-74.38
344.46	-64.89
344.843	-52.68
345.226	-41.84
345.61	-23.3
345.993	-14.04
346.376	-17.2
346.759	5.85
347.142	36.58
347.525	35.9
347.908	58.73
348.291	74.32
348.674	93.3
349.057	125.39
349.44	135.79
349.823	130.36
350.206	160.87
350.588	213.53
350.971	220.3
351.354	235.22
351.737	231.6
352.119	248.55
352.502	260.08
352.884	283.13
353.267	286.07
353.65	322.68
354.032	326.29
354.414	309.34
354.797	310.7
355.179	304.82
355.562	330.81
355.944	330.58
356.326	335.78
356.709	336.01
357.091	344.37
357.473	354.54
357.855	347.99
358.238	339.4
358.62	345.05
359.002	345.27
359.384	340.75
359.766	352.28
360.148	355.22
360.53	342.34
360.912	328.1
361.294	337.59
361.676	315.44
362.057	337.36
362.439	338.27
362.821	323.81
363.203	342.79
363.584	325.16
363.966	343.69
364.348	327.65
364.729	323.35
365.111	325.61
365.493	319.29
365.874	310.7
366.256	324.26
366.637	320.42
367.019	337.14
367.4	306.4
367.781	336.69
368.163	313.64
368.544	311.38
368.925	328.78
369.306	317.48
369.688	289.68
370.069	315.67
370.45	309.34
370.831	300.3
371.212	321.55
371.593	309.12
371.974	321.77
372.355	296.91
372.736	302.56
373.117	313.64
373.498	297.37
373.879	317.03
374.26	300.98
374.641	297.37
375.021	318.38
375.402	326.06
375.783	306.18
376.163	324.48
376.544	306.86
376.925	322.68
377.305	309.34
377.686	337.36
378.066	354.31
378.447	316.35
378.827	348.44
379.208	331.94
379.588	347.99
379.968	339.62
380.349	324.71
380.729	335.1
381.109	353.18
381.489	329.45
381.87	334.43
382.25	338.49
382.63	341.21
383.01	328.1
383.39	334.43
383.77	326.97
384.15	352.28
384.53	347.31
384.91	340.53
385.29	354.09
385.67	337.36
386.049	358.61
386.429	347.99
386.809	364.48
387.189	359.06
387.568	347.76
387.948	362.45
388.328	346.86
388.707	349.34
389.087	350.47
389.466	365.61
389.846	330.58
390.225	361.77
390.605	360.87
390.984	341.66
391.363	348.89
391.743	362
392.122	371.26
392.501	364.03
392.881	356.8
393.26	355.67
393.639	380.53
394.018	377.81
394.397	347.53
394.776	364.48
395.155	373.75
395.534	358.38
395.913	378.04
396.292	385.72
396.671	377.36
397.05	369
397.429	390.24
397.808	383.46
398.186	399.28
398.565	371.04
398.944	385.27
399.323	359.51
399.701	411.49
400.08	381.66
400.458	383.92
400.837	400.19
401.215	390.7
401.594	388.44
401.972	401.09
402.351	378.94
402.729	386.4
403.107	403.8
403.486	419.85
403.864	384.14
404.242	413.52
404.62	411.03
404.999	427.98
405.377	408.55
405.755	415.33
406.133	402.45
406.511	412.16
406.889	408.77
407.267	435.21
407.645	425.27
408.023	417.81
408.401	425.27
408.779	417.59
409.156	432.5
409.534	418.94
409.912	446.97
410.29	443.8
410.667	432.95
411.045	450.81
411.422	445.16
411.8	428.21
412.178	421.66
412.555	456.23
412.933	456.68
413.31	442.9
413.687	459.62
414.065	465.27
414.442	432.73
414.819	455.1
415.197	449.45
415.574	459.39
415.951	478.6
416.328	470.47
416.705	456.46
417.082	467.76
417.46	487.87
417.837	498.49
418.214	486.29
418.591	485.83
418.967	481.32
419.344	472.95
419.721	481.77
420.098	490.58
420.475	515.44
420.852	492.39
421.228	509.79
421.605	504.37
421.982	531.26
422.358	532.39
422.735	510.92
423.111	538.71
423.488	539.62
423.864	521.09
424.241	533.74
424.617	515.89
424.994	542.56
425.37	528.32
425.746	552.05
426.123	540.97
426.499	545.95
426.875	539.39
427.251	557.25
427.627	547.98
428.003	550.47
428.379	564.7
428.756	554.08
429.132	558.83
429.507	557.92
429.883	564.25
430.259	572.61
430.635	593.85
431.011	580.07
431.387	600.41
431.763	612.39
432.138	599.5
432.514	584.82
432.89	617.58
433.265	619.39
433.641	604.25
434.016	623.23
434.392	628.88
434.767	636.34
435.143	625.04
435.518	637.24
435.894	642.89
436.269	635.66
436.644	652.84
437.02	656.9
437.395	650.58
437.77	654.87
438.145	677.69
438.52	695.32
438.895	673.17
439.271	670.24
439.646	682.21
440.021	686.06
440.395	696.45
440.77	714.3
441.145	693.06
441.52	697.35
441.895	701.87
442.27	736
442.645	711.37
443.019	750.23
443.394	738.94
443.769	709.78
444.143	720.63
444.518	768.09
444.892	749.1
445.267	739.39
445.641	733.51
446.016	751.36
446.39	731.25
446.764	735.32
447.139	745.94
447.513	764.92
447.887	750.69
448.262	761.76
448.636	781.42
449.01	789.1
449.384	796.56
449.758	771.48
450.132	783.91
450.506	794.08
450.88	801.76
451.254	790.91
451.628	822.32
452.002	800.18
452.376	810.57
452.75	833.17
453.123	819.39
453.497	810.57
453.871	855.32
454.244	849.21
454.618	851.47
454.992	853.73
455.365	878.59
455.739	882.43
456.112	876.33
456.486	878.59
456.859	876.56
457.232	883.56
457.606	900.29
457.979	926.95
458.352	917.69
458.725	920.4
459.099	965.37
459.472	949.78
459.845	960.17
460.218	965.14
460.591	971.02
460.964	986.61
461.337	988.19
461.71	1006.5
462.083	1000.17
462.456	1034.07
462.829	1026.61
463.201	1064.58
463.574	1045.37
463.947	1065.93
464.32	1052.6
464.692	1086.5
465.065	1106.38
465.438	1106.38
465.81	1089.66
466.183	1122.88
466.555	1122.88
466.928	1133.28
467.3	1129.89
467.672	1192.26
468.045	1177.79
468.417	1192.93
468.789	1200.39
469.161	1255.31
469.534	1235.65
469.906	1256.21
470.278	1245.14
470.65	1267.96
471.022	1296.43
471.394	1323.1
471.766	1351.35
472.138	1349.54
472.51	1380.5
472.882	1401.97
473.253	1400.39
473.625	1405.58
473.997	1449.88
474.369	1460.5
474.74	1488.07
475.112	1500.27
475.484	1502.08
475.855	1556.77
476.227	1571.68
476.598	1584.79
476.97	1599.03
477.341	1640.38
477.713	1659.82
478.084	1698.68
478.455	1731.68
478.827	1773.26
479.198	1826.82
479.569	1820.26
479.94	1852.8
480.311	1909.75
480.682	1911.79
481.053	1957.43
481.424	1987.49
481.795	2022.74
482.166	2050.09
482.537	2071.33
482.908	2122.63
483.279	2164.21
483.65	2188.39
484.021	2269.29
484.391	2270.65
484.762	2323.53
485.133	2324.66
485.503	2345.67
485.874	2407.59
486.244	2463.41
486.615	2487.59
486.985	2555.84
487.356	2560.58
487.726	2576.63
488.097	2666.57
488.467	2672.22
488.837	2716.06
489.207	2758.09
489.578	2813.01
489.948	2834.47
490.318	2835.6
490.688	2870.63
491.058	2957.18
491.428	2973.68
491.798	3034.92
492.168	3081.7
492.538	3063.62
492.908	3129.83
493.278	3179.32
493.648	3210.73
494.017	3223.39
494.387	3237.4
494.757	3301.13
495.126	3321.92
495.496	3355.82
495.866	3405.53
496.235	3450.73
496.605	3413.67
496.974	3450.05
497.344	3486.21
497.713	3517.39
498.082	3546.09
498.452	3601.91
498.821	3621.8
499.19	3648.46
499.559	3636.71
499.928	3685.52
500.298	3733.43
500.667	3766.2
501.036	3772.98
501.405	3779.76
501.774	3829.25
502.143	3840.77
502.512	3838.74
502.88	3917.16
503.249	3908.12
503.618	3881.9
503.987	3963.26
504.356	3944.73
504.724	3951.51
505.093	3959.87
505.462	4008.23
505.83	4033.99
506.199	4094.55
506.567	4116.93
506.936	4129.58
507.304	4137.04
507.672	4200.99
508.041	4162.57
508.409	4212.29
508.777	4250.48
509.145	4246.41
509.514	4285.73
509.882	4304.72
510.25	4339.74
510.618	4353.98
510.986	4407.31
511.354	4449.12
511.722	4416.8
512.09	4448.22
512.458	4429.69
512.826	4469.46
513.193	4482.79
513.561	4516.69
513.929	4509.91
514.297	4577.48
514.664	4572.73
515.032	4560.98
515.4	4598.27
515.767	4647.08
516.135	4648.44
516.502	4611.15
516.869	4688.44
517.237	4666.29
517.604	4710.58
517.972	4711.71
518.339	4786.06
518.706	4704.48
519.073	4739.73
519.44	4823.35
519.808	4828.32
520.175	4837.13
520.542	4885.27
520.909	4936.11
521.276	4923.46
521.643	4918.94
522.009	4993.06
522.376	4967.75
522.743	5027.64
523.11	5026.28
523.477	5033.96
523.843	5097.01
524.21	5110.12
524.577	5170.23
524.943	5139.95
525.31	5215.88
525.676	5240.51
526.043	5251.13
526.409	5274.86
526.776	5311.7
527.142	5330
527.508	5388.53
527.874	5353.05
528.241	5445.03
528.607	5461.07
528.973	5482.54
529.339	5485.03
529.705	5521.41
530.071	5566.83
530.437	5592.14
530.803	5588.3
531.169	5647.05
531.535	5656.09
531.901	5642.54
532.267	5701.29
532.632	5713.95
532.998	5814.96
533.364	5782.42
533.73	5741.52
534.095	5829.87
534.461	5855.86
534.826	5870.78
535.192	5919.59
535.557	5976.54
535.923	5948.52
536.288	5959.36
536.653	5983.77
537.019	6002.75
537.384	6020.38
537.749	6088.63
538.114	6128.4
538.479	6087.5
538.845	6114.16
539.21	6087.72
539.575	6132.47
539.94	6156.19
540.305	6296.76
540.67	6203.2
541.034	6190.32
541.399	6314.61
541.764	6315.29
542.129	6350.09
542.494	6343.53
542.858	6387.6
543.223	6389.63
543.587	6409.75
543.952	6438.22
544.316	6471.21
544.681	6438.67
545.045	6501.04
545.41	6532.23
545.774	6624.88
546.138	6578.78
546.503	6609.29
546.867	6616.52
547.231	6702.62
547.595	6660.81
547.959	6746.01
548.324	6726.35
548.688	6771.09
549.052	6817.19
549.416	6842.05
549.779	6834.59
550.143	6826.68
550.507	6939
550.871	6925.89
551.235	6901.26
551.599	6977.64
551.962	7010.86
552.326	7062.61
552.689	7070.52
553.053	7054.25
553.417	7071.42
553.78	7203.85
554.143	7141.93
554.507	7129.05
554.87	7178.31
555.234	7218.76
555.597	7213.79
555.96	7224.87
556.323	7232.55
556.686	7242.27
557.05	7337.86
557.413	7346.67
557.776	7314.36
558.139	7355.26
558.502	7333.79
558.865	7409.95
559.228	7442.04
559.59	7479.78
559.953	7441.58
560.316	7585.31
560.679	7567
561.041	7625.99
561.404	7634.8
561.767	7670.73
562.129	7630.51
562.492	7716.61
562.854	7761.35
563.217	7734.46
563.579	7769.94
563.941	7810.39
564.304	7892.42
564.666	7909.37
565.028	7944.17
565.39	7931.74
565.753	7953.89
566.115	8010.83
566.477	7988.69
566.839	8007.67
567.201	8061.68
567.563	8134
567.925	8117.27
568.287	8155.24
568.648	8175.12
569.01	8174.67
569.372	8276.14
569.734	8239.08
570.095	8336.93
570.457	8409.24
570.819	8401.78
571.18	8425.51
571.542	8468.9
571.903	8514.32
572.265	8511.61
572.626	8626.86
572.987	8609.01
573.349	8644.72
573.71	8674.77
574.071	8773.75
574.432	8802
574.794	8907.76
575.155	8947.76
575.516	8924.71
575.877	8993.86
576.238	9027.53
576.599	9102.11
576.96	9222.33
577.32	9209.9
577.681	9266.85
578.042	9385.04
578.403	9441.31
578.763	9484.92
579.124	9618.25
579.485	9720.39
579.845	9817.57
580.206	9907.28
580.566	10010.78
580.927	10075.41
581.287	10175.75
581.648	10355.86
582.008	10422.07
582.368	10529.41
582.728	10676.98
583.089	10803.76
583.449	10837.88
583.809	11121.26
584.169	11254.59
584.529	11327.36
584.889	11637.41
585.249	11690.29
585.609	11864.29
585.969	12050.73
586.329	12195.81
586.688	12474.45
587.048	12634.22
587.408	12718.51
587.768	13005.73
588.127	13127.08
588.487	13370.24
588.846	13621.08
589.206	13851.36
589.565	14159.37
589.925	14372.02
590.284	14558.91
590.643	14801.62
591.003	15134.72
591.362	15317.31
591.721	15594.59
592.08	15794.13
592.44	16030.74
592.799	16357.96
593.158	16648.12
593.517	16948.23
593.876	17119.3
594.235	17422.56
594.593	17717.92
594.952	18027.52
595.311	18207.18
595.67	18676.77
596.029	18983.2
596.387	19207.6
596.746	19579.8
597.104	19698.21
597.463	19938.88
597.822	20345.88
598.18	20662.25
598.538	20803.04
598.897	21244.84
599.255	21393.31
599.613	21865.39
599.972	22105.61
600.33	22437.12
600.688	22548.08
601.046	22875.98
601.404	23272.13
601.762	23450.88
602.12	23797.54
602.478	24130.86
602.836	24349.84
603.194	24524.52
603.552	24852.43
603.91	25039.99
604.268	25373.09
604.625	25628.68
604.983	25951.83
605.341	26053.07
605.698	26474.76
606.056	26838.14
606.413	26927.63
606.771	27239.03
607.128	27576.42
607.485	27634.27
607.843	27947.94
608.2	28186.58
608.557	28505.21
608.914	28636.73
609.272	28940.45
609.629	29287.11
609.986	29589.25
610.343	29548.57
610.7	30033.53
611.057	30165.28
611.414	30342
611.771	30625.16
612.127	30873.06
612.484	30921.42
612.841	31398.69
613.198	31307.4
613.554	31530.89
613.911	31815.18
614.267	32006.36
614.624	32135.17
614.98	32392.11
615.337	32619
615.693	32688.6
616.05	32791.43
616.406	33243.84
616.762	33345.54
617.118	33303.5
617.475	33661.46
617.831	33879.08
618.187	33784.62
618.543	33953.2
618.899	34345.96
619.255	34420.54
619.611	34598.84
619.967	34695.1
620.323	34717.7
620.678	34747.76
621.034	34896.68
621.39	34959.73
621.746	34971.48
622.101	35452.37
622.457	35322.43
622.812	35439.27
623.168	35654.4
623.523	35729.43
623.879	35907.05
624.234	35758.81
624.589	36011
624.945	36127.38
625.3	36181.62
625.655	36264.1
626.01	36430.43
626.365	36495.06
626.72	36440.6
627.075	36507.03
627.43	36569.63
627.785	36600.37
628.14	36821.83
628.495	36944.31
628.85	36785.45
629.205	36722.4
629.559	37039.9
629.914	37024.31
630.269	37033.35
630.623	36940.47
630.978	37064.31
631.332	37131.88
631.687	37272.21
632.041	37186.34
632.396	37137.07
632.75	37204.64
633.104	37365.54
633.459	37094.59
633.813	37204.19
634.167	37227.69
634.521	37216.85
634.875	37445.99
635.229	37322.83
635.583	37293.23
635.937	37135.94
636.291	37150.63
636.645	37236.73
636.999	37481.47
637.352	37369.16
637.706	37178.43
638.06	37435.37
638.413	37302.95
638.767	37361.48
639.121	37375.26
639.474	37128.94
639.828	37277.18
640.181	37320.8
640.534	37356.5
640.888	37253.91
641.241	37111.76
641.594	37316.05
641.947	37232.89
642.301	37195.6
642.654	37227.92
643.007	37243.06
643.36	37265.88
643.713	37188.6
644.066	37196.28
644.419	37077.41
644.771	36774.82
645.124	36495.96
645.477	36537.77
645.83	36289.19
646.182	36164.67
646.535	36138.23
646.888	36143.2
647.24	36124.22
647.593	36215.74
647.945	36105.46
648.298	35977.1
648.65	36017.33
649.002	35929.65
649.355	36010.1
649.707	35992.92
650.059	36138.91
650.411	36556.3
650.763	36532.57
651.115	36836.74
651.467	36766.46
651.819	36843.52
652.171	36733.92
652.523	36740.02
652.875	36793.35
653.227	36577.54
653.578	36854.37
653.93	36803.52
654.282	36653.47
654.633	36449.18
654.985	36587.71
655.337	36661.83
655.688	36790.64
656.039	36772.56
656.391	36487.6
656.742	36634.49
657.094	36588.39
657.445	36686.92
657.796	36599.24
658.147	36493.7
658.498	36592
658.849	36577.99
659.2	36502.06
659.551	36425.68
659.902	36514.04
660.253	36474.27
660.604	36522.4
660.955	36411.22
661.306	36387.26
661.656	36327.38
662.007	36353.37
662.358	36306.59
662.708	36416.87
663.059	36338.68
663.409	36141.17
663.76	36452.8
664.11	36367.15
664.461	36406.92
664.811	36297.55
665.161	36253.03
665.511	36298.23
665.862	36338.68
666.212	36482.63
666.562	36512.46
666.912	36280.37
667.262	36307.72
667.612	36344.55
667.962	36405.57
668.312	36322.63
668.662	36389.3
669.011	36241.96
669.361	36288.51
669.711	36289.19
670.06	36291.67
670.41	36292.8
670.76	36220.71
671.109	36183.43
671.459	36214.39
671.808	36209.64
672.157	36158.12
672.507	36067.95
672.856	36078.35
673.205	36104.11
673.554	36146.37
673.904	36178
674.253	36342.52
674.602	36128.74
674.951	35588.64
675.3	35472.71
675.649	36080.38
675.998	36022.98
676.346	35935.75
676.695	36066.37
677.044	35826.15
677.393	35849.65
677.741	35905.02
678.09	35777.34
678.438	35730.78
678.787	35755.19
679.135	35910.67
679.484	35636.77
679.832	35819.14
680.181	35492.82
680.529	35666.6
680.877	35546.83
681.225	35500.28
681.573	35764.68
681.922	35427.51
682.27	35303
682.618	35363.11
682.966	35196.11
683.314	35370.79
683.661	35146.62
684.009	35099.84
684.357	35004.25
684.705	35079.95
685.053	34942.56
685.4	34970.35
685.748	34889.9
686.095	34792.73
686.443	34722.9
686.79	34677.03
687.138	34697.36
687.485	34658.27
687.832	34563.36
688.18	34577.59
688.527	34356.36
688.874	34449.01
689.221	34251.27
689.568	34176.25
689.915	34282.23
690.262	34143.48
690.609	34009.47
690.956	33946.65
691.303	33916.82
691.65	33637.51
691.997	33752.3
692.344	33462.82
692.69	33590.95
693.037	33510.05
693.383	33197.52
693.73	33427.57
694.077	33208.82
694.423	33124.07
694.769	33046.33
695.116	32959.56
695.462	32910.52
695.808	32856.06
696.155	33016.5
696.501	32720.47
696.847	32752.1
697.193	32539.91
697.539	32421.72
697.885	32302.63
698.231	32342.17
698.577	32181.5
698.923	32153.02
699.269	32130.2
699.614	31969.3
699.96	31842.98
700.306	31992.8
700.651	31686.37
700.997	31696.77
701.342	31649.54
701.688	31591.23
702.033	31482.31
702.379	31303.78
702.724	31407.73
703.069	31446.15
703.415	31051.81
703.76	31076.67
704.105	30954.41
704.45	31015.65
704.795	30906.5
705.14	30628.32
705.485	30675.1
705.83	30573.41
706.175	30608.21
706.52	30471.94
706.865	30574.08
707.209	30346.07
707.554	30299.74
707.899	30369.79
708.243	30161.44
708.588	30100.2
708.932	29930.71
709.277	30066.75
709.621	29936.13
709.966	29830.15
710.31	29859.98
710.654	29619.53
710.998	29683.49
711.342	29697.04
711.687	29610.04
712.031	29291.86
712.375	29306.55
712.719	29444.85
713.063	29204.4
713.407	29333.89
713.75	29213.44
714.094	29216.15
714.438	29155.59
714.782	29052.32
715.125	28887.35
715.469	28998.53
715.812	28803.06
716.156	28778.2
716.499	28661.14
716.843	28774.13
717.186	28569.16
717.53	28701.36
717.873	28588.37
718.216	28592.44
718.559	28407.59
718.902	28249.85
719.246	28313.35
719.589	28200.59
719.932	28127.59
720.275	28166.24
720.617	28057.31
720.96	28042.4
721.303	27996.52
721.646	28014.6
721.989	27829.07
722.331	27869.3
722.674	27732.8
723.016	27807.83
723.359	27753.59
723.701	27773.48
724.044	27514.95
724.386	27532.81
724.729	27509.08
725.071	27559.02
725.413	27470.89
725.755	27525.8
726.097	27375.98
726.439	27294.62
726.782	27270.44
727.124	27333.49
727.465	27109.09
727.807	27224.34
728.149	27118.35
728.491	27077
728.833	27113.61
729.175	27085.59
729.516	26890.56
729.858	26868.19
730.199	26897.12
730.541	26885.14
730.882	26860.28
731.224	26878.81
731.565	26599.05
731.906	26722.21
732.248	26736.44
732.589	26537.81
732.93	26408.32
733.271	26455.32
733.612	26613.96
733.953	26562.44
734.294	26412.38
734.635	26331.03
734.976	26395.89
735.317	26158.38
735.658	26275.89
735.999	26232.05
736.339	26166.52
736.68	26319.51
737.021	26088.55
737.361	26065.73
737.702	26221.66
738.042	26185.5
738.383	26055.56
738.723	26014.88
739.063	25863.25
739.404	26036.58
739.744	25837.03
740.084	25761.33
740.424	25815.11
740.764	25840.65
741.104	25808.78
741.444	25791.84
741.784	25682.01
742.124	25668.9
742.464	25667.32
742.804	25546.87
743.143	25468.23
743.483	25529.92
743.823	25434.78
744.162	25298.97
744.502	25422.81
744.841	25359.3
745.181	25303.94
745.52	25207.67
745.86	25294
746.199	25241.12
746.538	25168.12
746.877	25070.05
747.216	25153.89
747.556	25066.21
747.895	25009.48
748.234	25039.31
748.573	24920.9
748.911	24816.27
749.25	24948.47
749.589	24854.69
749.928	24862.82
750.267	24776.27
750.605	24821.92
750.944	24789.83
751.283	24624.86
751.621	24581.25
751.96	24604.52
752.298	24576.05
752.636	24529.5
752.975	24487.46
753.313	24536.95
753.651	24483.85
753.989	24398.65
754.327	24315.04
754.666	24272.33
755.004	24240.46
755.342	24222.61
755.679	24225.55
756.017	23985.56
756.355	24008.61
756.693	24072.11
757.031	23936.74
757.368	23842.06
757.706	23895.39
758.044	23734.26
758.381	23874.82
758.719	23637.32
759.056	23684.09
759.394	23576.75
759.731	23413.14
760.068	23488.39
760.405	23347.15
760.743	23245.69
761.08	23293.82
761.417	23176.09
