Data from hue_260_FLMS001491_00014.txt Node
Date: Tue Feb 07 15:58:38 GMT 2017
User: dcchb
Spectrometer: FLMS00149
Trigger mode: 0
Integration Time (sec): 2.000000E-2
Scans to average: 10
Electric dark correction enabled: true
Nonlinearity correction enabled: false
Boxcar width: 0
XAxis mode: Wavelengths
Number of Pixels in Spectrum: 2048
>>>>>Begin Spectral Data<<<<<
341.393	-17.84
341.776	-17.84
342.16	-17.84
342.543	-54.45
342.927	-80.89
343.31	-67.1
343.693	-67.78
344.077	-40.66
344.46	-50.38
344.843	-52.41
345.226	-37.5
345.61	-44.28
345.993	-7.67
346.376	-9.48
346.759	8.83
347.142	12.44
347.525	46.11
347.908	56.28
348.291	46.79
348.674	90.86
349.057	115.94
349.44	120.69
349.823	150.97
350.206	153.46
350.588	191.42
350.971	190.97
351.354	229.84
351.737	231.65
352.119	240.01
352.502	252.44
352.884	266.45
353.267	256.5
353.65	280.46
354.032	283.85
354.414	302.61
354.797	301.7
355.179	290.63
355.562	312.32
355.944	318.42
356.326	330.17
356.709	332.89
357.091	326.56
357.473	340.57
357.855	324.98
358.238	333.34
358.62	331.08
359.002	342.6
359.384	324.98
359.766	319.33
360.148	322.94
360.53	318.2
360.912	326.56
361.294	344.19
361.676	337.18
362.057	299.89
362.439	324.07
362.821	313.9
363.203	308.03
363.584	310.74
363.966	334.47
364.348	312.55
364.729	315.03
365.111	313.23
365.493	310.74
365.874	297.63
366.256	309.16
366.637	314.81
367.019	298.09
367.4	303.96
367.781	315.03
368.163	331.08
368.544	301.93
368.925	313.45
369.306	310.29
369.688	295.83
370.069	297.18
370.45	309.38
370.831	290.63
371.212	292.44
371.593	306.22
371.974	300.57
372.355	314.58
372.736	300.35
373.117	320.46
373.498	323.85
373.879	294.92
374.26	318.2
374.641	304.86
375.021	327.46
375.402	297.18
375.783	308.25
376.163	320.91
376.544	333.34
376.925	322.72
377.305	300.57
377.686	319.78
378.066	333.56
378.447	322.49
378.827	339.67
379.208	315.49
379.588	315.94
379.968	345.54
380.349	307.58
380.729	315.71
381.109	338.76
381.489	329.27
381.87	325.43
382.25	319.78
382.63	329.72
383.01	332.89
383.39	335.15
383.77	325.43
384.15	337.63
384.53	331.76
384.91	337.41
385.29	350.51
385.67	331.08
386.049	360.91
386.429	346.9
386.809	354.81
387.189	361.81
387.568	357.74
387.948	376.05
388.328	363.62
388.707	354.36
389.087	367.01
389.466	360
389.846	369.04
390.225	392.32
390.605	346.9
390.984	343.28
391.363	368.82
391.743	365.88
392.122	371.08
392.501	354.36
392.881	371.98
393.26	370.63
393.639	371.53
394.018	393.68
394.397	383.05
394.776	391.64
395.155	384.18
395.534	380.8
395.913	383.05
396.292	367.24
396.671	407.01
397.05	403.17
397.429	410.62
397.808	410.62
398.186	389.61
398.565	403.85
398.944	413.79
399.323	406.56
399.701	406.56
400.08	407.91
400.458	415.82
400.837	407.46
401.215	412.66
401.594	404.3
401.972	433.68
402.351	413.34
402.729	433
403.107	435.26
403.486	449.49
403.864	436.84
404.242	463.05
404.62	444.3
404.999	433.22
405.377	432.55
405.755	437.74
406.133	452.21
406.511	474.35
406.889	461.7
407.267	462.15
407.645	471.41
408.023	477.52
408.401	488.81
408.779	485.43
409.156	499.21
409.534	527.01
409.912	498.53
410.29	492.43
410.667	493.56
411.045	518.42
411.422	521.13
411.8	531.3
412.178	538.76
412.555	534.69
412.933	540.56
413.31	573.33
413.687	568.59
414.065	580.79
414.442	584.63
414.819	583.5
415.197	588.25
415.574	602.71
415.951	609.72
416.328	615.82
416.705	635.25
417.082	632.09
417.46	628.02
417.837	656.72
418.214	649.71
418.591	643.39
418.967	644.74
419.344	663.73
419.721	677.06
420.098	692.88
420.475	681.8
420.852	703.05
421.228	686.1
421.605	715.48
421.982	730.62
422.358	714.8
422.735	764.06
423.111	769.94
423.488	775.13
423.864	785.3
424.241	809.26
424.617	814.23
424.994	824.63
425.37	802.25
425.746	825.53
426.123	844.29
426.499	843.61
426.875	864.85
427.251	870.95
427.627	901.46
428.003	892.19
428.379	905.3
428.756	912.31
429.132	920.22
429.507	941.23
429.883	937.39
430.259	965.64
430.635	995.24
431.011	969.03
431.387	1001.8
431.763	1031.4
432.138	1002.25
432.514	1030.27
432.89	1049.03
433.265	1044.73
433.641	1064.84
434.016	1087.22
434.392	1114.56
434.767	1128.57
435.143	1120.66
435.518	1166.76
435.894	1196.59
436.269	1181.45
436.644	1191.62
437.02	1222.81
437.395	1232.75
437.77	1231.62
438.145	1259.64
438.52	1286.76
438.895	1315.69
439.271	1304.61
439.646	1342.13
440.021	1345.29
440.395	1366.76
440.77	1380.99
441.145	1391.39
441.52	1407.66
441.895	1407.89
442.27	1452.18
442.645	1412.41
443.019	1442.46
443.394	1445.63
443.769	1485.17
444.143	1477.49
444.518	1499.64
444.892	1509.8
445.267	1508.9
445.641	1539.86
446.016	1542.12
446.39	1576.47
446.764	1592.29
447.139	1577.6
447.513	1576.92
447.887	1600.42
448.262	1593.19
448.636	1595
449.01	1620.99
449.384	1667.09
449.758	1658.73
450.132	1681.78
450.506	1676.35
450.88	1697.14
451.254	1694.88
451.628	1698.05
452.002	1729.01
452.376	1759.06
452.75	1751.83
453.123	1776.69
453.497	1804.26
453.871	1807.2
454.244	1829.57
454.618	1832.28
454.992	1876.35
455.365	1886.07
455.739	1925.16
456.112	1947.76
456.486	1952.96
456.859	1980.3
457.232	2020.75
457.606	1989.57
457.979	2003.8
458.352	2084.48
458.725	2102.56
459.099	2100.98
459.472	2114.53
459.845	2168.32
460.218	2133.74
460.591	2186.4
460.964	2192.72
461.337	2217.81
461.71	2259.62
462.083	2261.2
462.456	2279.05
462.829	2293.51
463.201	2315.21
463.574	2336
463.947	2363.79
464.32	2430.01
464.692	2417.35
465.065	2477.01
465.438	2499.38
465.81	2472.94
466.183	2531.7
466.555	2580.06
466.928	2570.57
467.3	2557.91
467.672	2600.62
468.045	2692.82
468.417	2680.62
468.789	2689.89
469.161	2758.13
469.534	2747.29
469.906	2823.67
470.278	2865.93
470.65	2867.74
471.022	2947.06
471.394	2964
471.766	2984.12
472.138	3007.39
472.51	3087.62
472.882	3111.57
473.253	3138.91
473.625	3175.07
473.997	3221.85
474.369	3271.57
474.74	3271.34
475.112	3347.5
475.484	3358.34
475.855	3445.35
476.227	3490.54
476.598	3561.95
476.97	3611.67
477.341	3636.08
477.713	3666.81
478.084	3681.5
478.455	3785.23
478.827	3840.37
479.198	3899.8
479.569	3947.25
479.94	3994.03
480.311	4045.11
480.682	4092.56
481.053	4207.14
481.424	4215.72
481.795	4238.09
482.166	4282.61
482.537	4328.49
482.908	4428.15
483.279	4433.57
483.65	4539.78
484.021	4598.54
484.391	4674.69
484.762	4727.57
485.133	4750.85
485.503	4760.79
485.874	4900.9
486.244	4897.06
486.615	4984.06
486.985	5047.79
487.356	5093.44
487.726	5164.17
488.097	5241.68
488.467	5217.05
488.837	5293.43
489.207	5372.08
489.578	5445.29
489.948	5478.06
490.318	5563.03
490.688	5577.72
491.058	5607.1
491.428	5713.99
491.798	5737.26
492.168	5807.55
492.538	5899.52
492.908	5899.97
493.278	5931.38
493.648	5962.34
494.017	6073.53
494.387	6035.11
494.757	6117.14
495.126	6132.51
495.496	6169.34
495.866	6225.39
496.235	6234.65
496.605	6318.04
496.974	6314.2
497.344	6398.94
497.713	6468.32
498.082	6473.52
498.452	6500.18
498.821	6488.21
499.19	6501.54
499.559	6558.71
499.928	6645.49
500.298	6613.63
500.667	6642.1
501.036	6630.12
501.405	6739.05
501.774	6721.42
502.143	6784.24
502.512	6751.48
502.88	6874.86
503.249	6850.46
503.618	6882.32
503.987	6847.29
504.356	6897.23
504.724	6989.89
505.093	6970.23
505.462	6986.95
505.83	6988.76
506.199	6986.95
506.567	7104.23
506.936	7075.31
507.304	7153.95
507.672	7127.96
508.041	7176.55
508.409	7203.67
508.777	7264.91
509.145	7271.01
509.514	7268.98
509.882	7316.43
510.25	7324.79
510.618	7369.31
510.986	7395.07
511.354	7391.01
511.722	7433.49
512.09	7447.28
512.458	7484.56
512.826	7508.29
513.193	7528.63
513.561	7521.17
513.929	7554.62
514.297	7598.23
514.664	7612.02
515.032	7673.94
515.4	7641.4
515.767	7678.91
516.135	7640.27
516.502	7597.33
516.869	7750.09
517.237	7691.79
517.604	7718.23
517.972	7727.95
518.339	7800.26
518.706	7788.51
519.073	7764.1
519.44	7776.98
519.808	7908.73
520.175	7810.88
520.542	7905.12
520.909	7902.63
521.276	7856.3
521.643	7922.74
522.009	7957.77
522.376	7995.06
522.743	7995.06
523.11	8057.88
523.477	8067.6
523.843	8084.55
524.21	8073.02
524.577	8176.52
524.943	8186.47
525.31	8151.44
525.676	8223.98
526.043	8228.27
526.409	8283.86
526.776	8319.34
527.142	8325.9
527.508	8239.8
527.874	8271.66
528.241	8365.44
528.607	8273.24
528.973	8388.04
529.339	8313.92
529.705	8419.45
530.071	8400.92
530.437	8415.39
530.803	8436.18
531.169	8464.88
531.535	8343.3
531.901	8435.27
532.267	8534.48
532.632	8430.3
532.998	8499.23
533.364	8466.23
533.73	8424.43
534.095	8486.57
534.461	8474.14
534.826	8597.98
535.192	8523.41
535.557	8475.72
535.923	8573.8
536.288	8481.15
536.653	8555.04
537.019	8493.8
537.384	8480.02
537.749	8518.66
538.114	8543.07
538.479	8470.75
538.845	8506.68
539.21	8480.7
539.575	8498.77
539.94	8460.13
540.305	8526.57
540.67	8501.94
541.034	8508.72
541.399	8579
541.764	8497.19
542.129	8465.1
542.494	8492.9
542.858	8516.63
543.223	8517.3
543.587	8514.14
543.952	8495.16
544.316	8481.15
544.681	8517.76
545.045	8480.47
545.41	8453.13
545.774	8489.28
546.138	8509.39
546.503	8460.36
546.867	8482.95
547.231	8467.36
547.595	8468.72
547.959	8510.3
548.324	8449.51
548.688	8455.61
549.052	8468.04
549.416	8449.28
549.779	8455.84
550.143	8377.65
550.507	8415.16
550.871	8379.68
551.235	8364.99
551.599	8392.34
551.962	8400.25
552.326	8370.64
552.689	8423.97
553.053	8403.86
553.417	8345.33
553.78	8477.31
554.143	8403.63
554.507	8396.4
554.87	8444.76
555.234	8489.51
555.597	8445.89
555.96	8447.25
556.323	8471.2
556.686	8402.73
557.05	8427.82
557.413	8446.8
557.776	8496.97
558.139	8512.56
558.502	8488.38
558.865	8470.75
559.228	8531.99
559.59	8563.4
559.953	8513.69
560.316	8584.65
560.679	8550.98
561.041	8585.33
561.404	8574.03
561.767	8588.49
562.129	8649.28
562.492	8654.48
562.854	8662.61
563.217	8635.04
563.579	8675.94
563.941	8677.3
564.304	8810.63
564.666	8753.23
565.028	8737.19
565.39	8769.28
565.753	8754.59
566.115	8788.48
566.477	8852.89
566.839	8809.95
567.201	8860.12
567.563	8950.51
567.925	8886.33
568.287	8907.8
568.648	8887.92
569.01	8999.1
569.372	8976.5
569.734	8996.16
570.095	9039.78
570.457	9077.52
570.819	9053.11
571.18	9061.92
571.542	9121.13
571.903	9114.8
572.265	9118.87
572.626	9110.51
572.987	9180.34
573.349	9250.84
573.71	9194.57
574.071	9257.62
574.432	9288.13
574.794	9345.76
575.155	9370.16
575.516	9263.27
575.877	9330.62
576.238	9349.82
576.599	9448.81
576.96	9420.33
577.32	9420.56
577.681	9416.26
578.042	9495.58
578.403	9470.05
578.763	9515.47
579.124	9589.59
579.485	9598.86
579.845	9599.31
580.206	9614.9
580.566	9671.62
580.927	9627.56
581.287	9670.95
581.648	9662.81
582.008	9675.92
582.368	9623.26
582.728	9729.02
583.089	9693.54
583.449	9755.01
583.809	9722.7
584.169	9783.94
584.529	9744.39
584.889	9847.44
585.249	9776.93
585.609	9811.06
585.969	9851.96
586.329	9810.83
586.688	9814.9
587.048	9882.47
587.408	9845.4
587.768	9876.82
588.127	9889.25
588.487	9850.38
588.846	9870.49
589.206	9875.23
589.565	9912.52
589.925	9970.6
590.284	9938.28
590.643	9955.01
591.003	9971.5
591.362	10053.08
591.721	10005.4
592.08	10118.39
592.44	9988
592.799	10132.86
593.158	10061.22
593.517	10053.99
593.876	10039.3
594.235	10081.33
594.593	10059.86
594.952	10117.71
595.311	10068.45
595.67	10119.3
596.029	10206.07
596.387	10173.08
596.746	10196.13
597.104	10166.3
597.463	10157.04
597.822	10150.71
598.18	10152.06
598.538	10126.53
598.897	10238.16
599.255	10145.51
599.613	10309.35
599.972	10285.17
600.33	10250.37
600.688	10171.72
601.046	10311.61
601.404	10287.88
601.762	10299.63
602.12	10275
602.478	10338.5
602.836	10288.11
603.194	10222.57
603.552	10282.23
603.91	10232.06
604.268	10331.49
604.625	10281.55
604.983	10391.83
605.341	10337.37
605.698	10326.52
606.056	10371.27
606.413	10300.31
606.771	10368.56
607.128	10315.68
607.485	10303.92
607.843	10316.81
608.2	10333.08
608.557	10385.28
608.914	10352.28
609.272	10451.49
609.629	10474.09
609.986	10521.55
610.343	10455.56
610.7	10475.67
611.057	10476.35
611.414	10506.4
611.771	10469.12
612.127	10530.13
612.484	10553.86
612.841	10557.02
613.198	10551.83
613.554	10581.88
613.911	10562.9
614.267	10556.8
614.624	10558.15
614.98	10579.85
615.337	10577.59
615.693	10666.85
616.05	10638.83
616.406	10706.85
616.762	10658.72
617.118	10595.22
617.475	10632.5
617.831	10673.63
618.187	10661.2
618.543	10691.26
618.899	10734.87
619.255	10659.62
619.611	10729.22
619.967	10673.41
620.323	10754.76
620.678	10680.86
621.034	10696
621.39	10663.01
621.746	10754.76
622.101	10757.92
622.457	10712.5
622.812	10753.63
623.168	10700.98
623.523	10808.32
623.879	10849.45
624.234	10763.35
624.589	10765.61
624.945	10710.69
625.3	10763.57
625.655	10699.17
626.01	10710.47
626.365	10748.88
626.72	10708.89
627.075	10682.67
627.43	10691.48
627.785	10634.08
628.14	10644.25
628.495	10684.25
628.85	10713.63
629.205	10663.91
629.559	10684.48
629.914	10555.44
630.269	10637.93
630.623	10716.12
630.978	10548.66
631.332	10635.89
631.687	10693.29
632.041	10575.33
632.396	10582.33
632.75	10570.81
633.104	10559.74
633.459	10500.75
633.813	10522.22
634.167	10440.42
634.521	10430.02
634.875	10571.94
635.229	10498.04
635.583	10436.8
635.937	10492.62
636.291	10375.11
636.645	10378.72
636.999	10361.78
637.352	10428.21
637.706	10331.72
638.06	10396.12
638.413	10384.6
638.767	10336.24
639.121	10425.05
639.474	10265.96
639.828	10263.93
640.181	10296.24
640.534	10286.07
640.888	10234.32
641.241	10265.05
641.594	10224.38
641.947	10276.58
642.301	10275.45
642.654	10293.3
643.007	10279.97
643.36	10250.82
643.713	10217.6
644.066	10247.2
644.419	10105.06
644.771	10148.9
645.124	10083.82
645.477	9997.72
645.83	9937.15
646.182	9919.3
646.535	9866.2
646.888	9854.9
647.24	9863.71
647.593	9983.71
647.945	9827.78
648.298	9813.54
648.65	9790.49
649.002	9837.27
649.355	9875.46
649.707	9867.33
650.059	9904.61
650.411	10034.1
650.763	10054.44
651.115	10131.27
651.467	10128.11
651.819	10068.45
652.171	10041.33
652.523	9978.28
652.875	10016.93
653.227	10011.95
653.578	10083.36
653.93	10036.59
654.282	9996.81
654.633	9957.49
654.985	10000.88
655.337	9983.25
655.688	10048.79
656.039	10045.63
656.391	9975.35
656.742	10073.2
657.094	9990.94
657.445	9998.62
657.796	10006.76
658.147	10020.77
658.498	10035.23
658.849	10084.27
659.2	10059.64
659.551	9999.98
659.902	10025.29
660.253	9941.9
660.604	10021.22
660.955	10020.32
661.306	9987.55
661.656	10013.76
662.007	10026.87
662.358	10009.24
662.708	10091.27
663.059	10034.78
663.409	9961.56
663.76	10059.64
664.11	10054.89
664.461	10085.4
664.811	10052.41
665.161	10007.89
665.511	10056.92
665.862	10118.84
666.212	10030.26
666.562	10092.86
666.912	10074.1
667.262	10032.52
667.612	10027.77
667.962	10082.01
668.312	9992.29
668.662	10021.67
669.011	10071.39
669.361	10049.02
669.711	10035
670.06	9979.64
670.41	9936.93
670.76	10002.91
671.109	10038.17
671.459	10023.03
671.808	9945.97
672.157	10060.99
672.507	9985.97
672.856	9929.92
673.205	9873.88
673.554	10029.81
673.904	9894.9
674.253	9886.31
674.602	9928.11
674.951	9731.51
675.3	9759.53
675.649	9881.79
675.998	9887.89
676.346	9865.52
676.695	9862.81
677.044	9779.64
677.393	9790.94
677.741	9840.89
678.09	9792.53
678.438	9777.61
678.787	9846.08
679.135	9819.87
679.484	9700.78
679.832	9755.69
680.181	9694
680.529	9685.18
680.877	9694.9
681.225	9670.95
681.573	9696.93
681.922	9663.04
682.27	9621.68
682.618	9606.09
682.966	9550.05
683.314	9602.93
683.661	9562.93
684.009	9524.28
684.357	9504.62
684.705	9551.4
685.053	9549.82
685.4	9476.38
685.748	9401.8
686.095	9442.03
686.443	9460.56
686.79	9381.46
687.138	9342.82
687.485	9375.81
687.832	9304.63
688.18	9334.91
688.527	9255.36
688.874	9283.16
689.221	9287.23
689.568	9193.44
689.915	9204.97
690.262	9177.4
690.609	9139.43
690.956	9165.87
691.303	9128.36
691.65	9032.77
691.997	8974.69
692.344	8928.14
692.69	8954.35
693.037	8980.12
693.383	8937.41
693.73	8888.82
694.077	8806.34
694.423	8794.59
694.769	8769.5
695.116	8812.89
695.462	8800.46
695.808	8715.27
696.155	8725.21
696.501	8644.31
696.847	8668.26
697.193	8604.31
697.539	8575.83
697.885	8537.42
698.231	8535.83
698.577	8485.67
698.923	8438.66
699.269	8437.53
699.614	8381.04
699.96	8364.77
700.306	8371.77
700.651	8313.69
700.997	8288.61
701.342	8282.96
701.688	8270.98
702.033	8215.17
702.379	8286.12
702.724	8159.8
703.069	8217.43
703.415	8077.32
703.76	8053.36
704.105	8082.97
704.45	8065.56
704.795	8009.3
705.14	7956.87
705.485	7946.02
705.83	7917.09
706.175	8001.61
706.52	7866.02
706.865	7895.85
707.209	7868.73
707.554	7825.35
707.899	7787.38
708.243	7777.21
708.588	7730.43
708.932	7678
709.277	7696.08
709.621	7691.11
709.966	7656.99
710.31	7616.31
710.654	7577.44
710.998	7605.92
711.342	7677.1
711.687	7578.57
712.031	7544.45
712.375	7550.1
712.719	7543.54
713.063	7501.29
713.407	7427.39
713.75	7473.49
714.094	7511.46
714.438	7425.58
714.782	7457.22
715.125	7388.97
715.469	7430.55
715.812	7419.93
716.156	7344.68
716.499	7363.66
716.843	7450.21
717.186	7338.8
717.53	7374.74
717.873	7333.61
718.216	7311.91
718.559	7280.05
718.902	7214.29
719.246	7247.28
719.589	7160.73
719.932	7166.15
720.275	7227.39
720.617	7245.93
720.96	7183.1
721.303	7202.31
721.646	7181.29
721.989	7114.18
722.331	7136.32
722.674	7140.84
723.016	7168.41
723.359	7220.16
723.701	7144.46
724.044	7136.32
724.386	7068.53
724.729	7119.6
725.071	7107.62
725.413	7101.97
725.755	7057
726.097	7039.83
726.439	7057.68
726.782	7019.72
727.124	7034.18
727.465	7054.74
727.807	7034.63
728.149	7029.43
728.491	7044.8
728.833	7055.65
729.175	7053.16
729.516	7060.62
729.858	7022.88
730.199	7017.68
730.541	6987.18
730.882	6979.72
731.224	7031.92
731.565	6924.35
731.906	7044.35
732.248	7039.6
732.589	7005.48
732.93	6997.57
733.271	6962.99
733.612	7020.62
733.953	6958.25
734.294	6961.64
734.635	6937.23
734.976	6998.25
735.317	6923
735.658	6953.96
735.999	6975.42
736.339	6948.08
736.68	6957.12
737.021	6961.86
737.361	6943.56
737.702	6968.87
738.042	6953.05
738.383	6926.39
738.723	6977.46
739.063	6959.61
739.404	7013.84
739.744	7004.35
740.084	6999.6
740.424	7025.82
740.764	7007.74
741.104	7045.7
741.444	7023.33
741.784	6991.24
742.124	6961.64
742.464	7099.49
742.804	7061.52
743.143	7071.24
743.483	7141.97
743.823	7047.51
744.162	7113.73
744.502	7136.78
744.841	7125.93
745.181	7178.36
745.52	7125.7
745.86	7286.83
746.199	7241.63
746.538	7311.91
746.877	7338.58
747.216	7323.21
747.556	7308.3
747.895	7344
748.234	7344.91
748.573	7471.23
748.911	7476.88
749.25	7521.17
749.589	7595.97
749.928	7627.84
750.267	7688.4
750.605	7761.17
750.944	7795.74
751.283	7810.66
751.621	7884.78
751.96	7965.91
752.298	8044.1
752.636	8115.73
752.975	8180.14
753.313	8241.38
753.651	8339.46
753.989	8370.64
754.327	8423.3
754.666	8529.96
755.004	8604.31
755.342	8730.41
755.679	8871.42
756.017	8936.73
756.355	9058.98
756.693	9061.24
757.031	9205.42
757.368	9256.49
757.706	9513.66
758.044	9552.31
758.381	9723.15
758.719	9732.19
759.056	9925.63
759.394	9989.81
759.731	10027.77
760.068	10291.95
760.405	10300.99
760.743	10463.02
761.08	10562.67
761.417	10671.82
761.754	10838.15
762.091	10919.95
762.428	10992.04
762.765	11141.42
763.102	11341.64
763.438	11422.09
763.775	11471.12
764.112	11708.86
764.449	11807.61
764.785	11908.18
765.122	12011.68
765.458	12138.9
765.795	12256.87
