Data from hue_30_FLMS001491_15.txt Node
Date: Mon Feb 06 15:04:49 GMT 2017
User: dcchb
Spectrometer: FLMS00149
Trigger mode: 0
Integration Time (sec): 2.000000E-2
Scans to average: 10
Electric dark correction enabled: true
Nonlinearity correction enabled: false
Boxcar width: 0
XAxis mode: Wavelengths
Number of Pixels in Spectrum: 2048
>>>>>Begin Spectral Data<<<<<
341.393	-13.02
341.776	-13.02
342.16	-13.02
342.543	-62.29
342.927	-74.26
343.31	-54.6
343.693	-70.42
344.077	-57.31
344.46	-52.8
344.843	-49.41
345.226	-55.51
345.61	-23.87
345.993	-22.97
346.376	2.12
346.759	5.06
347.142	30.14
347.525	44.15
347.908	60.65
348.291	67.88
348.674	80.31
349.057	96.58
349.44	138.84
349.823	153.3
350.206	138.84
350.588	207.76
350.971	211.38
351.354	215.45
351.737	234.2
352.119	226.29
352.502	279.85
352.884	247.99
353.267	271.26
353.65	285.5
354.032	297.7
354.414	288.89
354.797	306.97
355.179	295.9
355.562	314.2
355.944	318.49
356.326	327.99
356.709	338.15
357.091	334.77
357.473	319.17
357.855	326.18
358.238	347.19
358.62	355.78
359.002	338.15
359.384	333.64
359.766	330.92
360.148	353.52
360.53	352.84
360.912	330.92
361.294	313.3
361.676	327.31
362.057	329.57
362.439	315.33
362.821	323.01
363.203	331.83
363.584	305.84
363.966	315.78
364.348	309.23
364.729	319.4
365.111	314.88
365.493	320.3
365.874	337.25
366.256	342.67
366.637	315.56
367.019	286.86
367.4	311.94
367.781	325.27
368.163	295.44
368.544	318.95
368.925	297.03
369.306	308.1
369.688	316.69
370.069	299.29
370.45	314.88
370.831	314.2
371.212	278.04
371.593	308.1
371.974	315.78
372.355	281.43
372.736	299.06
373.117	307.65
373.498	304.48
373.879	306.97
374.26	307.87
374.641	317.36
375.021	312.39
375.402	297.48
375.783	309.91
376.163	312.84
376.544	328.89
376.925	325.95
377.305	311.94
377.686	303.13
378.066	311.71
378.447	310.81
378.827	328.89
379.208	304.71
379.588	338.83
379.968	324.37
380.349	343.13
380.729	335.9
381.109	339.28
381.489	328.89
381.87	327.53
382.25	327.31
382.63	327.76
383.01	331.83
383.39	351.94
383.77	336.57
384.15	341.32
384.53	342.45
384.91	351.26
385.29	346.29
385.67	342.45
386.049	328.89
386.429	345.84
386.809	348.55
387.189	348.32
387.568	358.95
387.948	343.8
388.328	356.91
388.707	347.42
389.087	359.85
389.466	366.4
389.846	353.97
390.225	342.67
390.605	355.78
390.984	349.45
391.363	365.72
391.743	353.07
392.122	356.69
392.501	355.56
392.881	368.21
393.26	354.43
393.639	345.61
394.018	367.76
394.397	352.62
394.776	361.43
395.155	378.38
395.534	351.49
395.913	355.1
396.292	387.42
396.671	351.49
397.05	385.61
397.429	394.65
397.808	367.76
398.186	363.47
398.565	383.58
398.944	386.52
399.323	398.04
399.701	397.14
400.08	385.39
400.458	417.93
400.837	395.1
401.215	377.93
401.594	402.56
401.972	407.53
402.351	392.16
402.729	400.3
403.107	388.55
403.486	396.01
403.864	400.98
404.242	407.98
404.62	401.2
404.999	410.7
405.377	412.28
405.755	421.54
406.133	407.98
406.511	405.72
406.889	405.05
407.267	431.26
407.645	421.32
408.023	418.38
408.401	438.04
408.779	423.8
409.156	424.48
409.534	427.64
409.912	450.02
410.29	460.64
410.667	447.53
411.045	457.7
411.422	449.11
411.8	444.37
412.178	442.11
412.555	453.63
412.933	449.79
413.31	443.46
413.687	452.95
414.065	482.11
414.442	469
414.819	483.24
415.197	473.74
415.574	490.47
415.951	485.04
416.328	488.66
416.705	468.55
417.082	494.54
417.46	485.5
417.837	503.35
418.214	489.79
418.591	501.99
418.967	491.6
419.344	499.73
419.721	504.03
420.098	507.87
420.475	504.93
420.852	506.51
421.228	487.08
421.605	513.74
421.982	527.08
422.358	518.04
422.735	529.79
423.111	541.31
423.488	546.96
423.864	539.28
424.241	511.48
424.617	546.29
424.994	529.79
425.37	525.95
425.746	563.91
426.123	556.23
426.499	555.1
426.875	557.81
427.251	579.28
427.627	584.7
428.003	596.68
428.379	574.76
428.756	586.28
429.132	579.96
429.507	614.98
429.883	604.36
430.259	613.85
430.635	593.52
431.011	590.35
431.387	623.8
431.763	627.19
432.138	614.53
432.514	608.2
432.89	636.9
433.265	630.35
433.641	630.35
434.016	650.69
434.392	659.5
434.767	656.34
435.143	643.23
435.518	685.49
435.894	664.47
436.269	673.29
436.644	691.37
437.02	668.99
437.395	689.56
437.77	693.17
438.145	705.83
438.52	697.69
438.895	718.71
439.271	709.44
439.646	716.22
440.021	729.56
440.395	726.39
440.77	707.86
441.145	734.08
441.52	742.44
441.895	756.45
442.27	763.91
442.645	739.05
443.019	741.76
443.394	749.44
443.769	770.23
444.143	735.21
444.518	774.75
444.892	751.93
445.267	770.46
445.641	784.02
446.016	794.87
446.39	785.15
446.764	765.04
447.139	778.37
447.513	798.03
447.887	787.63
448.262	812.94
448.636	804.13
449.01	809.55
449.384	823.34
449.758	828.09
450.132	845.26
450.506	826.05
450.88	847.07
451.254	819.05
451.628	863.11
452.002	888.87
452.376	878.25
452.75	873.51
453.123	857.92
453.497	887.52
453.871	894.98
454.244	922.77
454.618	916.22
454.992	935.88
455.365	933.85
455.739	968.19
456.112	939.04
456.486	940.62
456.859	987.18
457.232	969.1
457.606	988.76
457.979	1010.45
458.352	1039.83
458.725	1031.7
459.099	1009.1
459.472	1044.35
459.845	1040.74
460.218	1033.28
460.591	1054.29
460.964	1075.54
461.337	1079.83
461.71	1121.41
462.083	1134.52
462.456	1130.9
462.829	1135.42
463.201	1116.89
463.574	1144.46
463.947	1170.45
464.32	1185.82
464.692	1217.91
465.065	1196.21
465.438	1220.84
465.81	1221.3
466.183	1271.46
466.555	1245.25
466.928	1277.57
467.3	1273.95
467.672	1319.6
468.045	1323.21
468.417	1340.16
468.789	1338.13
469.161	1358.02
469.534	1353.5
469.906	1437.79
470.278	1398.47
470.65	1439.82
471.022	1460.16
471.394	1495.41
471.766	1532.93
472.138	1512.81
472.51	1553.49
472.882	1552.13
473.253	1618.8
473.625	1616.31
473.997	1627.61
474.369	1672.81
474.74	1701.51
475.112	1738.8
475.484	1739.25
475.855	1780.38
476.227	1818.12
476.598	1883.88
476.97	1905.35
477.341	1942.86
477.713	1969.75
478.084	2000.48
478.455	2077.32
478.827	2090.2
479.198	2127.94
479.569	2156.41
479.94	2206.81
480.311	2225.56
480.682	2293.81
481.053	2381.04
481.424	2392.34
481.795	2389.4
482.166	2463.07
482.537	2505.33
482.908	2594.82
483.279	2609.51
483.65	2650.18
484.021	2704.19
484.391	2818.54
484.762	2841.82
485.133	2842.95
485.503	2918.65
485.874	3013.56
486.244	3028.25
486.615	3080.23
486.985	3138.08
487.356	3231.86
487.726	3247.23
488.097	3324.07
488.467	3371.07
488.837	3435.25
489.207	3472.99
489.578	3565.41
489.948	3626.66
490.318	3661.91
490.688	3678.41
491.058	3763.6
491.428	3805.86
491.798	3846.31
492.168	3972.18
492.538	3999.53
492.908	4048.57
493.278	4119.07
493.648	4140.99
494.017	4204.49
494.387	4266.41
494.757	4317.71
495.126	4354.32
495.496	4430.7
495.866	4435.67
496.235	4530.59
496.605	4570.59
496.974	4591.38
497.344	4620.98
497.713	4689
498.082	4713.63
498.452	4778.49
498.821	4833.18
499.19	4848.54
499.559	4905.72
499.928	4940.97
500.298	5012.38
500.667	5085.15
501.036	5038.14
501.405	5111.59
501.774	5172.6
502.143	5172.6
502.512	5197.01
502.88	5308.65
503.249	5280.4
503.618	5355.42
503.987	5441.52
504.356	5427.96
504.724	5446.27
505.093	5462.09
505.462	5547.74
505.83	5508.87
506.199	5623.89
506.567	5622.54
506.936	5622.31
507.304	5718.8
507.672	5726.49
508.041	5720.16
508.409	5794.28
508.777	5836.54
509.145	5862.3
509.514	5859.82
509.882	5918.57
510.25	5907.27
510.618	6039.93
510.986	5954.96
511.354	6074.05
511.722	6104.33
512.09	6188.17
512.458	6144.56
512.826	6208.06
513.193	6222.29
513.561	6211.67
513.929	6205.12
514.297	6302.97
514.664	6364.21
515.032	6478.33
515.4	6399.69
515.767	6388.84
516.135	6520.59
516.502	6435.4
516.869	6615.96
517.237	6565.34
517.604	6542.06
517.972	6573.47
518.339	6672.45
518.706	6658.89
519.073	6693.24
519.44	6728.27
519.808	6755.16
520.175	6791.09
520.542	6842.62
520.909	6819.79
521.276	6827.02
521.643	6917.42
522.009	6982.5
522.376	6989.73
522.743	7035.83
523.11	7109.95
523.477	7125.1
523.843	7182.27
524.21	7225.66
524.577	7302.72
524.943	7359.89
525.31	7306.79
525.676	7377.29
526.043	7393.11
526.409	7483.96
526.776	7497.74
527.142	7516.5
527.508	7587.68
527.874	7678.3
528.241	7650.96
528.607	7722.14
528.973	7762.82
529.339	7787.45
529.705	7863.38
530.071	7852.76
530.437	7966.2
530.803	7987.45
531.169	8067.44
531.535	8048.69
531.901	8105.41
532.267	8100.89
532.632	8198.51
532.998	8167.33
533.364	8144.96
533.73	8226.54
534.095	8245.74
534.461	8283.03
534.826	8331.62
535.192	8386.53
535.557	8459.98
535.923	8445.96
536.288	8478.96
536.653	8506.98
537.019	8542.46
537.384	8529.8
537.749	8644.38
538.114	8658.61
538.479	8627.65
538.845	8735.22
539.21	8716.01
539.575	8777.26
539.94	8847.08
540.305	8794.66
540.67	8867.2
541.034	8864.71
541.399	8883.92
541.764	8950.13
542.129	9000.07
542.494	9028.1
542.858	9105.38
543.223	9023.12
543.587	9170.47
543.952	9170.24
544.316	9190.35
544.681	9259.28
545.045	9224.25
545.41	9352.61
545.774	9338.82
546.138	9398.48
546.503	9421.31
546.867	9414.3
547.231	9552.15
547.595	9534.98
547.959	9659.49
548.324	9532.26
548.688	9597.35
549.052	9656.55
549.416	9691.58
549.779	9789.66
550.143	9692.03
550.507	9754.18
550.871	9840.28
551.235	9818.81
551.599	9909.65
551.962	9918.92
552.326	10024.45
552.689	9986.26
553.053	9959.14
553.417	10018.13
553.78	10122.98
554.143	10032.82
554.507	10106.26
554.87	10192.59
555.234	10182.19
555.597	10167.05
555.96	10240.72
556.323	10270.78
556.686	10211.12
557.05	10368.63
557.413	10348.74
557.776	10394.39
558.139	10413.82
558.502	10580.6
558.865	10550.54
559.228	10538.11
559.59	10601.16
559.953	10631.9
560.316	10724.1
560.679	10716.64
561.041	10765.68
561.404	10852
561.767	10894.26
562.129	10843.42
562.492	10960.02
562.854	10902.17
563.217	10922.28
563.579	11026.24
563.941	11114.82
564.304	11156.63
564.666	11164.99
565.028	11155.72
565.39	11172.67
565.753	11245.44
566.115	11295.83
566.477	11294.03
566.839	11338.54
567.201	11381.25
567.563	11419.45
567.925	11579.22
568.287	11491.31
568.648	11478.2
569.01	11564.3
569.372	11697.63
569.734	11616.73
570.095	11682.26
570.457	11848.59
570.819	11782.83
571.18	11780.57
571.542	11950.5
571.903	11957.74
572.265	12045.42
572.626	12080.9
572.987	12119.99
573.349	12205.41
573.71	12221.46
574.071	12281.57
574.432	12356.37
574.794	12544.16
575.155	12568.12
575.516	12573.77
575.877	12639.75
576.238	12755.46
576.599	12821.67
576.96	12835.68
577.32	13011.72
577.681	13043.36
578.042	13228.89
578.403	13315.21
578.763	13362.9
579.124	13409
579.485	13559.95
579.845	13699.84
580.206	13736.45
580.566	13892.15
580.927	13977.8
581.287	14149.09
581.648	14340.27
582.008	14492.81
582.368	14637.67
582.728	14799.02
583.089	15028.16
583.449	15048.05
583.809	15198.78
584.169	15499.79
584.529	15527.81
584.889	15891.64
585.249	15887.35
585.609	16099.55
585.969	16396.26
586.329	16518.07
586.688	16803.94
587.048	16959.64
587.408	17138.62
587.768	17278.27
588.127	17588.32
588.487	17783.8
588.846	18047.75
589.206	18197.35
589.565	18396.44
589.925	18613.38
590.284	18822.87
590.643	19126.59
591.003	19381.27
591.362	19638.66
591.721	19891.99
592.08	20216.95
592.44	20430.73
592.799	20691.29
593.158	20894.45
593.517	21156.36
593.876	21483.81
594.235	21672.28
594.593	21918.6
594.952	22090.35
595.311	22391.13
595.67	22673.39
596.029	23071.79
596.387	23213.03
596.746	23504.1
597.104	23773.92
597.463	23953.35
597.822	24328.48
598.18	24446.67
598.538	24684.18
598.897	25009.37
599.255	25040.1
599.613	25665.85
599.972	25754.21
600.33	26132.73
600.688	26152.17
601.046	26369.79
601.404	26725.26
601.762	26886.16
602.12	27246.15
602.478	27344.9
602.836	27701.28
603.194	27713.71
603.552	27939.01
603.91	28076.18
604.268	28416.96
604.625	28587.58
604.983	28840.46
605.341	28877.29
605.698	29297.17
606.056	29608.8
606.413	29722.92
606.771	29915.23
607.128	30139.63
607.485	30119.29
607.843	30329.91
608.2	30739.62
608.557	30987.52
608.914	31025.94
609.272	31324.23
609.629	31514.51
609.986	31750.44
610.343	31780.72
610.7	32159.69
611.057	32288.05
611.414	32283.08
611.771	32486.01
612.127	32672.9
612.484	32821.14
612.841	32862.72
613.198	33039.67
613.554	33196.27
613.911	33478.75
614.267	33549.26
614.624	33719.42
614.98	33936.37
615.337	34075.8
615.693	34171.39
616.05	34254.1
616.406	34451.83
616.762	34550.36
617.118	34559.18
617.475	34604.15
617.831	34932.73
618.187	35045.72
618.543	35157.58
618.899	35377.69
619.255	35440.06
619.611	35430.79
619.967	35665.14
620.323	35779.03
620.678	35758.69
621.034	35663.78
621.39	35881.85
621.746	35957.78
622.101	36273.48
622.457	36137.89
622.812	36194.84
623.168	36478.45
623.523	36554.83
623.879	36616.3
624.234	36483.42
624.589	36640.03
624.945	36713.02
625.3	36883.41
625.655	36931.32
626.01	36980.81
626.365	37210.86
626.72	37003.41
627.075	37096.51
627.43	37250.63
627.785	37190.29
628.14	37158.66
628.495	37316.62
628.85	37295.15
629.205	37175.15
629.559	37552.09
629.914	37321.82
630.269	37404.3
630.623	37410.17
630.978	37347.35
631.332	37609.94
631.687	37621.24
632.041	37419.89
632.396	37694.01
632.75	37386.45
633.104	37657.17
633.459	37289.05
633.813	37526.33
634.167	37510.51
634.521	37580.11
634.875	37417.18
635.229	37455.6
635.583	37453.11
635.937	37397.07
636.291	37369.72
636.645	37425.32
636.999	37412.89
637.352	37476.39
637.706	37244.98
638.06	37554.13
638.413	37414.47
638.767	37344.64
639.121	37488.14
639.474	37229.61
639.828	37342.38
640.181	37394.13
640.534	37517.29
640.888	37270.29
641.241	37256.28
641.594	37350.97
641.947	37408.37
642.301	37385.09
642.654	37395.71
643.007	37317.97
643.36	37264.87
643.713	37122.27
644.066	37302.83
644.419	37153.01
644.771	36868.95
645.124	36642.06
645.477	36430.54
645.83	36438.45
646.182	36189.64
646.535	36233.71
646.888	36275.06
647.24	36009.76
647.593	36223.99
647.945	36106.93
648.298	36060.15
648.65	35949.87
649.002	35939.25
649.355	36024.67
649.707	36047.05
650.059	36223.09
650.411	36553.93
650.763	36608.61
651.115	36971.54
651.467	36820.13
651.819	36869.17
652.171	36749.4
652.523	36666.24
652.875	36718.44
653.227	36596.18
653.578	36906.68
653.93	36804.77
654.282	36612.91
654.633	36488.62
654.985	36590.08
655.337	36576.75
655.688	36578.78
656.039	36628.73
656.391	36452.01
656.742	36457.66
657.094	36574.94
657.445	36609.97
657.796	36565.68
658.147	36422.86
658.498	36627.82
658.849	36620.82
659.2	36443.65
659.551	36396.42
659.902	36588.05
660.253	36386.02
660.604	36562.74
660.955	36256.08
661.306	36474.38
661.656	36342.41
662.007	36378.11
662.358	36405.23
662.708	36350.09
663.059	36447.26
663.409	36220.6
663.76	36399.58
664.11	36454.95
664.461	36426.92
664.811	36510.99
665.161	36384.21
665.511	36342.41
665.862	36380.6
666.212	36504.89
666.562	36504.66
666.912	36430.09
667.262	36367.72
667.612	36296.98
667.962	36210.66
668.312	36136.76
668.662	36439.8
669.011	36174.95
669.361	36192.13
669.711	36220.83
670.06	36036.88
670.41	36209.53
670.76	36215.86
671.109	36292.01
671.459	36236.42
671.808	36122.75
672.157	36115.75
672.507	35968.86
672.856	35984.22
673.205	36014.73
673.554	36213.82
673.904	36060.38
674.253	36198.68
674.602	36028.52
674.951	35642.99
675.3	35367.74
675.649	36115.29
675.998	35998.91
676.346	35924.79
676.695	36111.9
677.044	35799.37
677.393	35811.12
677.741	35818.8
678.09	35757.79
678.438	35701.07
678.787	35701.74
679.135	35864.9
679.484	35591.24
679.832	35664.01
680.181	35504.46
680.529	35621.75
680.877	35488.87
681.225	35532.94
681.573	35697.23
681.922	35452.49
682.27	35348.53
682.618	35322.09
682.966	35260.63
683.314	35275.77
683.661	35216.79
684.009	35018.37
684.357	35009.33
684.705	34776.57
685.053	34940.18
685.4	34970.01
685.748	34800.75
686.095	34796.46
686.443	34644.37
686.79	34717.59
687.138	34558.5
687.485	34598.05
687.832	34445.28
688.18	34642.34
688.527	34344.49
688.874	34318.05
689.221	34251.61
689.568	34179.07
689.915	34120.54
690.262	34002.58
690.609	33957.61
690.956	33961.9
691.303	33961.45
691.65	33704.74
691.997	33718.07
692.344	33537.06
692.69	33432.2
693.037	33559.65
693.383	33328.93
693.73	33377.96
694.077	33226.78
694.423	33197.18
694.769	33144.52
695.116	32986.79
695.462	32949.73
695.808	32834.48
696.155	32922.83
696.501	32768.49
696.847	32686.68
697.193	32422.06
697.539	32689.62
697.885	32266.13
698.231	32223.19
698.577	32358.78
698.923	32207.83
699.269	32174.15
699.614	31959.47
699.96	31874.73
700.306	31918.12
700.651	31790.44
700.997	31579.37
701.342	31538.92
701.688	31560.84
702.033	31465.47
702.379	31411.69
702.724	31270.45
703.069	31325.36
703.415	31018.7
703.76	31084.92
704.105	30991.13
704.45	30953.17
704.795	30824.81
705.14	30651.03
705.485	30650.58
705.83	30491.71
706.175	30560.41
706.52	30496.68
706.865	30342.79
707.209	30458.49
707.554	30336.24
707.899	30298.95
708.243	30140.08
708.588	30158.84
708.932	29918.62
709.277	29893.76
709.621	30025.74
709.966	29749.36
710.31	29879.07
710.654	29576.48
710.998	29621
711.342	29675.69
711.687	29622.81
712.031	29397.96
712.375	29379.2
712.719	29253.1
713.063	29297.39
713.407	29339.65
713.75	29135.14
714.094	29068.7
714.438	28966.55
714.782	29089.94
715.125	28870.51
715.469	29023.28
715.812	28770.4
716.156	28535.38
716.499	28671.87
716.843	28755.71
717.186	28414.7
717.53	28677.3
717.873	28588.71
718.216	28405.44
718.559	28416.74
718.902	28315.05
719.246	28383.97
719.589	28308.04
719.932	28099.01
720.275	28192.11
720.617	28121.83
720.96	27988.95
721.303	28141.94
721.646	27919.12
721.989	27874.61
722.331	28035.73
722.674	27801.84
723.016	27850.65
723.359	27736.98
723.701	27819.01
724.044	27546.03
724.386	27450.21
724.729	27689.98
725.071	27386.26
725.413	27482.3
725.755	27414.51
726.097	27411.79
726.439	27219.26
726.782	27133.83
727.124	27313.72
727.465	27074.4
727.807	27254.51
728.149	27180.61
728.491	27023.55
728.833	27158.01
729.175	26941.75
729.516	26800.06
729.858	26933.84
730.199	26953.95
730.541	26853.39
730.882	26848.87
731.224	26894.52
731.565	26777.01
731.906	26722.09
732.248	26654.75
732.589	26572.04
732.93	26518.03
733.271	26472.61
733.612	26591.93
733.953	26520.29
734.294	26492.72
734.635	26274.87
734.976	26536.79
735.317	26115.33
735.658	26300.86
735.999	26292.73
736.339	26306.29
736.68	26272.39
737.021	26142.67
737.361	26079.17
737.702	26193.52
738.042	26065.16
738.383	25949.91
738.723	26003.47
739.063	25861.78
739.404	25855.22
739.744	25979.97
740.084	25756.7
740.424	25805.06
740.764	25716.24
741.104	25767.77
741.444	25627.66
741.784	25640.99
742.124	25720.54
742.464	25599.86
742.804	25502.01
743.143	25415.01
743.483	25578.85
743.823	25289.36
744.162	25312.64
744.502	25417.5
744.841	25175.47
745.181	25432.18
745.52	25216.6
745.86	25332.98
746.199	25164.17
746.538	25036.49
746.877	25227.44
747.216	25215.01
747.556	25118.52
747.895	25102.93
748.234	24974.8
748.573	24964.4
748.911	24986.55
749.25	24831.52
749.589	24814.35
749.928	24701.81
750.267	24810.73
750.605	24675.37
750.944	24577.97
751.283	24562.6
751.621	24687.35
751.96	24482.83
752.298	24548.82
752.636	24526.45
752.975	24304.98
753.313	24211.43
753.651	24272.67
753.989	24207.81
754.327	24182.95
754.666	24050.53
755.004	24239.9
755.342	24164.42
755.679	24065.89
756.017	23977.08
756.355	24060.02
756.693	23941.38
757.031	24010.07
757.368	23794.94
757.706	23808.05
758.044	23759.01
758.381	23775.5
758.719	23566.7
759.056	23648.28
