Data from hue_150_FLMS001491_00051.txt Node
Date: Tue Feb 07 16:54:13 GMT 2017
User: dcchb
Spectrometer: FLMS00149
Trigger mode: 0
Integration Time (sec): 2.000000E-2
Scans to average: 10
Electric dark correction enabled: true
Nonlinearity correction enabled: false
Boxcar width: 0
XAxis mode: Wavelengths
Number of Pixels in Spectrum: 2048
>>>>>Begin Spectral Data<<<<<
341.393	-32.99
341.776	-32.99
342.16	-32.99
342.543	-68.47
342.927	-54.91
343.31	-63.28
343.693	-63.05
344.077	-54.46
344.46	-64.63
344.843	-55.59
345.226	-48.13
345.61	-28.47
345.993	-23.05
346.376	-7.01
346.759	3.84
347.142	44.29
347.525	29.83
347.908	72.54
348.291	72.54
348.674	84.52
349.057	100.11
349.44	117.29
349.823	150.28
350.206	163.84
350.588	204.29
350.971	181.69
351.354	248.36
351.737	225.3
352.119	257.39
352.502	255.59
352.884	278.64
353.267	268.92
353.65	298.52
354.032	291.74
354.414	296.72
354.797	320.22
355.179	325.87
355.562	318.41
355.944	326.77
356.326	328.35
356.709	320.44
357.091	313.44
357.473	349.14
357.855	336.04
358.238	333.55
358.62	332.87
359.002	345.75
359.384	324.06
359.766	328.8
360.148	303.72
360.53	329.03
360.912	346.43
361.294	326.09
361.676	327.22
362.057	329.71
362.439	342.36
362.821	323.61
363.203	303.95
363.584	328.58
363.966	312.08
364.348	321.8
364.729	311.4
365.111	306.88
365.493	312.76
365.874	332.87
366.256	315.92
366.637	305.53
367.019	296.72
367.4	308.24
367.781	284.96
368.163	290.84
368.544	309.82
368.925	279.09
369.306	306.66
369.688	304.17
370.069	301.69
370.45	313.89
370.831	315.7
371.212	310.27
371.593	314.34
371.974	310.95
372.355	297.39
372.736	323.16
373.117	309.82
373.498	324.96
373.879	305.3
374.26	303.27
374.641	307.11
375.021	317.51
375.402	324.29
375.783	316.15
376.163	314.57
376.544	301.24
376.925	301.01
377.305	331.97
377.686	304.85
378.066	323.61
378.447	311.63
378.827	328.8
379.208	345.75
379.588	326.55
379.968	317.05
380.349	321.8
380.729	335.81
381.109	335.81
381.489	323.61
381.87	314.34
382.25	312.76
382.63	329.03
383.01	313.21
383.39	330.16
383.77	340.78
384.15	340.1
384.53	341.23
384.91	350.5
385.29	353.89
385.67	338.52
386.049	341.01
386.429	331.97
386.809	333.32
387.189	353.21
387.568	349.14
387.948	351.4
388.328	336.94
388.707	361.8
389.087	369.26
389.466	339.43
389.846	339.2
390.225	338.52
390.605	341.91
390.984	353.21
391.363	363.38
391.743	370.16
392.122	327.9
392.501	356.15
392.881	369.26
393.26	378.3
393.639	374.68
394.018	355.47
394.397	368.58
394.776	372.87
395.155	366.54
395.534	374.45
395.913	378.52
396.292	364.51
396.671	373.1
397.05	364.51
397.429	359.31
397.808	361.57
398.186	376.26
398.565	383.94
398.944	374.23
399.323	390.27
399.701	382.14
400.08	385.98
400.458	384.85
400.837	396.6
401.215	398.41
401.594	392.31
401.972	401.57
402.351	398.18
402.729	413.1
403.107	395.24
403.486	399.09
403.864	400.67
404.242	399.54
404.62	397.73
404.999	422.81
405.377	410.61
405.755	395.92
406.133	428.01
406.511	388.46
406.889	407.22
407.267	431.85
407.645	413.77
408.023	457.16
408.401	431.4
408.779	430.05
409.156	449.93
409.534	432.53
409.912	435.69
410.29	443.6
410.667	461.91
411.045	459.42
411.422	428.69
411.8	454.45
412.178	465.52
412.555	455.13
412.933	460.33
413.31	457.62
413.687	458.29
414.065	458.07
414.442	461.46
414.819	465.75
415.197	479.31
415.574	467.78
415.951	478.86
416.328	473.66
416.705	471.63
417.082	506.88
417.46	497.39
417.837	494.9
418.214	489.93
418.591	482.47
418.967	526.31
419.344	484.51
419.721	481.12
420.098	496.71
420.475	508.91
420.852	521.12
421.228	534.45
421.605	531.96
421.982	511.4
422.358	527.67
422.735	545.07
423.111	544.62
423.488	537.61
423.864	543.49
424.241	547.56
424.617	554.56
424.994	550.49
425.37	573.32
425.746	560.89
426.123	556.82
426.499	571.28
426.875	579.65
427.251	559.53
427.627	599.98
428.003	587.78
428.379	580.32
428.756	582.81
429.132	604.28
429.507	610.15
429.883	604.05
430.259	594.79
430.635	615.8
431.011	619.42
431.387	635.01
431.763	640.66
432.138	653.09
432.514	623.71
432.89	652.64
433.265	676.59
433.641	660.1
434.016	656.93
434.392	643.37
434.767	676.59
435.143	681.56
435.518	693.54
435.894	693.77
436.269	701.22
436.644	705.74
437.02	718.85
437.395	709.13
437.77	722.47
438.145	723.37
438.52	706.2
438.895	731.73
439.271	738.29
439.646	743.26
440.021	761.34
440.395	765.18
440.77	781.67
441.145	766.53
441.52	797.95
441.895	782.8
442.27	794.1
442.645	794.1
443.019	842.01
443.394	781
443.769	797.04
444.143	805.63
444.518	813.09
444.892	827.77
445.267	828.9
445.641	814.89
446.016	819.64
446.39	862.58
446.764	836.59
447.139	855.12
447.513	850.37
447.887	846.31
448.262	845.18
448.636	880.43
449.01	889.24
449.384	871.39
449.758	890.37
450.132	887.66
450.506	895.57
450.88	903.48
451.254	913.65
451.628	949.81
452.002	929.24
452.376	932.4
452.75	945.29
453.123	938.96
453.497	947.77
453.871	973.31
454.244	995.91
454.618	994.32
454.992	982.35
455.365	1022.8
455.739	1009.46
456.112	1028.22
456.486	1037.03
456.859	1041.78
457.232	1059.18
457.606	1084.04
457.979	1094.89
458.352	1107.32
458.725	1117.71
459.099	1136.47
459.472	1147.99
459.845	1145.51
460.218	1164.04
460.591	1167.88
460.964	1183.02
461.337	1214.88
461.71	1225.05
462.083	1227.31
462.456	1252.62
462.829	1252.62
463.201	1273.41
463.574	1288.1
463.947	1312.06
464.32	1335.56
464.692	1349.57
465.065	1355.9
465.438	1368.55
465.81	1393.64
466.183	1420.53
466.555	1438.15
466.928	1464.37
467.3	1454.65
467.672	1500.75
468.045	1526.74
468.417	1542.33
468.789	1539.62
469.161	1597.02
469.534	1631.14
469.906	1664.14
470.278	1673.4
470.65	1697.13
471.022	1727.64
471.394	1785.04
471.766	1822.78
472.138	1823.23
472.51	1851.25
472.882	1907.97
473.253	1925.6
473.625	1968.54
473.997	2000.85
474.369	2061.19
474.74	2096.89
475.112	2145.48
475.484	2189.32
475.855	2272.03
476.227	2302.54
476.598	2351.8
476.97	2398.81
477.341	2453.72
477.713	2528.75
478.084	2572.14
478.455	2672.7
478.827	2691.23
479.198	2816.65
479.569	2850.32
479.94	2989.53
480.311	3004.67
480.682	3123.53
481.053	3232.46
481.424	3283.98
481.795	3359.46
482.166	3423.64
482.537	3534.14
482.908	3639.9
483.279	3749.28
483.65	3762.61
484.021	3904.53
484.391	4050.06
484.762	4125.54
485.133	4166.22
485.503	4293.22
485.874	4469.94
486.244	4533.21
486.615	4675.58
486.985	4757.39
487.356	4951.51
487.726	5009.81
488.097	5171.16
488.467	5262.01
488.837	5411.38
489.207	5504.04
489.578	5676.46
489.948	5797.59
490.318	5912.39
490.688	5991.25
491.058	6156.22
491.428	6304.92
491.798	6450.9
492.168	6568.41
492.538	6667.4
492.908	6780.16
493.278	6957.78
493.648	6985.35
494.017	7195.52
494.387	7294.5
494.757	7480.26
495.126	7602.29
495.496	7712.34
495.866	7772.45
496.235	7819.91
496.605	8066
496.974	8097.41
497.344	8256.05
497.713	8351.19
498.082	8435.94
498.452	8595.48
498.821	8712.09
499.19	8703.05
499.559	8836.38
499.928	8928.35
500.298	9029.59
500.667	9221.23
501.036	9150.04
501.405	9301.45
501.774	9408.57
502.143	9468.9
502.512	9557.04
502.88	9682.23
503.249	9708.9
503.618	9788.22
503.987	9932.85
504.356	9899.4
504.724	9978.04
505.093	10080.41
505.462	10165.38
505.83	10239.5
506.199	10372.38
506.567	10451.93
506.936	10454.87
507.304	10588.87
507.672	10638.14
508.041	10676.78
508.409	10759.94
508.777	10835.42
509.145	10951.12
509.514	10908.19
509.882	10997.22
510.25	11011.69
510.618	11106.6
510.986	11167.62
511.354	11298.01
511.722	11366.48
512.09	11380.94
512.458	11337.55
512.826	11476.99
513.193	11462.75
513.561	11519.25
513.929	11584.33
514.297	11600.82
514.664	11673.14
515.032	11711.33
515.4	11754.95
515.767	11874.26
516.135	11730.09
516.502	11764.66
516.869	11874.94
517.237	11935.28
517.604	11862.96
517.972	12028.38
518.339	12007.59
518.706	12031.1
519.073	12085.33
519.44	12164.65
519.808	12141.38
520.175	12136.86
520.542	12167.36
520.909	12253.24
521.276	12266.12
521.643	12302.73
522.009	12407.36
522.376	12486.45
522.743	12451.2
523.11	12494.81
523.477	12588.82
523.843	12510.18
524.21	12619.78
524.577	12711.53
524.943	12692.1
525.31	12697.29
525.676	12761.25
526.043	12809.61
526.409	12728.93
526.776	12791.75
527.142	12861.36
527.508	12893.67
527.874	12931.86
528.241	12883.5
528.607	12909.72
528.973	12944.74
529.339	12925.08
529.705	12963.27
530.071	12972.54
530.437	13013.9
530.803	13050.05
531.169	12961.02
531.535	12947.46
531.901	12933.45
532.267	12942.03
532.632	12925.76
532.998	12927.12
533.364	12860.68
533.73	12934.58
534.095	12968.47
534.461	12972.09
534.826	12960.11
535.192	12892.77
535.557	12969.6
535.923	12932.77
536.288	12894.8
536.653	12874.69
537.019	12752.21
537.384	12847.8
537.749	12814.13
538.114	12744.07
538.479	12765.77
538.845	12772.77
539.21	12617.52
539.575	12613.23
539.94	12630.85
540.305	12671.53
540.67	12557.64
541.034	12564.42
541.399	12494.36
541.764	12519.9
542.129	12444.42
542.494	12430.86
542.858	12504.98
543.223	12373.46
543.587	12373.46
543.952	12431.76
544.316	12306.12
544.681	12320.81
545.045	12336.4
545.41	12220.02
545.774	12253.92
546.138	12205.55
546.503	12157.87
546.867	12069.29
547.231	12111.55
547.595	12143.41
547.959	12058.21
548.324	11970.76
548.688	11937.99
549.052	11936.64
549.416	11970.98
549.779	11885.34
550.143	11834.27
550.507	11868.16
550.871	11818.67
551.235	11785.23
551.599	11842.17
551.962	11749.52
552.326	11724.66
552.689	11793.59
553.053	11662.74
553.417	11623.65
553.78	11758.11
554.143	11615.97
554.507	11673.82
554.87	11657.55
555.234	11661.84
555.597	11589.53
555.96	11504.78
556.323	11531
556.686	11551.33
557.05	11498.68
557.413	11452.35
557.776	11493.03
558.139	11475.4
558.502	11483.09
558.865	11518.79
559.228	11555.4
559.59	11482.64
559.953	11458
560.316	11624.33
560.679	11510.66
561.041	11508.17
561.404	11506.59
561.767	11493.48
562.129	11475.4
562.492	11534.39
562.854	11510.66
563.217	11483.54
563.579	11491.22
563.941	11526.25
564.304	11516.08
564.666	11615.97
565.028	11515.18
565.39	11566.48
565.753	11654.16
566.115	11590.66
566.477	11554.27
566.839	11644.67
567.201	11669.07
567.563	11651.9
567.925	11803.98
568.287	11643.99
568.648	11687.15
569.01	11694.38
569.372	11767.37
569.734	11696.19
570.095	11737.09
570.457	11716.3
570.819	11753.14
571.18	11692.12
571.542	11785
571.903	11717.21
572.265	11782.52
572.626	11822.29
572.987	11747.04
573.349	11827.03
573.71	11883.08
574.071	11891.44
574.432	11878.78
574.794	11966.47
575.155	11835.17
575.516	11833.14
575.877	11941.38
576.238	11897.99
576.599	11890.53
576.96	11912.46
577.32	11860.25
577.681	11928.5
578.042	11967.14
578.403	11848.05
578.763	11944.77
579.124	11904.32
579.485	11991.78
579.845	11945.45
580.206	11856.19
580.566	11915.17
580.927	11904.09
581.287	11959.01
581.648	11878.56
582.008	11917.43
582.368	11899.8
582.728	11985.22
583.089	11954.04
583.449	11914.94
583.809	11970.31
584.169	11936.64
584.529	11858.9
584.889	11968.27
585.249	11848.28
585.609	11781.16
585.969	11945.67
586.329	11826.81
586.688	11862.06
587.048	11799.69
587.408	11758.56
587.768	11797.66
588.127	11805.34
588.487	11769.18
588.846	11919.69
589.206	11681.05
589.565	11753.59
589.925	11837.43
590.284	11824.55
590.643	11741.84
591.003	11750.43
591.362	11809.86
591.721	11763.08
592.08	11752.46
592.44	11785.68
592.799	11711.78
593.158	11677.89
593.517	11717.43
593.876	11687.6
594.235	11649.86
594.593	11655.51
594.952	11681.27
595.311	11654.16
595.67	11756.53
596.029	11714.95
596.387	11733.48
596.746	11667.72
597.104	11645.12
597.463	11641.28
597.822	11655.96
598.18	11610.09
598.538	11648.28
598.897	11705.45
599.255	11647.15
599.613	11747.71
599.972	11715.4
600.33	11696.87
600.688	11652.57
601.046	11581.84
601.404	11663.65
601.762	11648.96
602.12	11708.39
602.478	11749.07
602.836	11706.13
603.194	11683.31
603.552	11673.37
603.91	11624.1
604.268	11695.51
604.625	11678.79
604.983	11709.07
605.341	11522.63
605.698	11646.47
606.056	11623.2
606.413	11674.27
606.771	11657.09
607.128	11655.51
607.485	11639.24
607.843	11662.29
608.2	11674.95
608.557	11735.28
608.914	11644.89
609.272	11736.64
609.629	11772.57
609.986	11768.96
610.343	11723.76
610.7	11808.96
611.057	11808.05
611.414	11839.69
611.771	11785.45
612.127	11856.64
612.484	11764.89
612.841	11800.14
613.198	11794.94
613.554	11765.57
613.911	11852.57
614.267	11867.26
614.624	11875.85
614.98	11901.16
615.337	11975.28
615.693	11912
616.05	11807.37
616.406	11964.43
616.762	11905.68
617.118	11875.85
617.475	11908.84
617.831	11965.34
618.187	11924.66
618.543	11940.48
618.899	12034.94
619.255	11964.88
619.611	11930.31
619.967	12048.04
620.323	11927.82
620.678	12047.14
621.034	11977.99
621.39	11977.09
621.746	11900.93
622.101	12107.48
622.457	11941.15
622.812	12002.4
623.168	11994.94
623.523	12011.21
623.879	12095.5
624.234	12017.99
624.589	12052.79
624.945	11995.62
625.3	11999.46
625.655	12015.28
626.01	12026.12
626.365	11940.25
626.72	12015.73
627.075	11985.9
627.43	11957.2
627.785	12007.59
628.14	11905.45
628.495	11979.35
628.85	11981.83
629.205	11933.92
629.559	12024.99
629.914	11909.74
630.269	11880.82
630.623	11861.83
630.978	11873.36
631.332	11894.15
631.687	11960.59
632.041	11875.62
632.396	11974.6
632.75	11823.64
633.104	11857.99
633.459	11899.12
633.813	11856.86
634.167	11795.17
634.521	11779.8
634.875	11856.64
635.229	11868.61
635.583	11644.67
635.937	11805.57
636.291	11701.16
636.645	11691.22
636.999	11700.71
637.352	11657.32
637.706	11602.86
638.06	11606.93
638.413	11583.2
638.767	11601.95
639.121	11549.53
639.474	11522.41
639.828	11516.76
640.181	11537.1
640.534	11544.78
640.888	11463.88
641.241	11537.55
641.594	11508.4
641.947	11561.5
642.301	11548.85
642.654	11546.36
643.007	11579.81
643.36	11510.43
643.713	11434.5
644.066	11483.54
644.419	11431.79
644.771	11362.64
645.124	11240.16
645.477	11209.65
645.83	11199.71
646.182	11182.76
646.535	11106.83
646.888	11087.84
647.24	11067.73
647.593	11120.16
647.945	11173.49
648.298	11022.54
648.65	10997.9
649.002	10942.76
649.355	11039.26
649.707	11065.7
650.059	11136.2
650.411	11249.65
650.763	11222.76
651.115	11356.31
651.467	11313.15
651.819	11335.52
652.171	11314.73
652.523	11296.65
652.875	11309.08
653.227	11187.05
653.578	11388.63
653.93	11320.15
654.282	11251.68
654.633	11259.82
654.985	11250.78
655.337	11329.42
655.688	11295.07
656.039	11351.34
656.391	11301.4
656.742	11268.4
657.094	11301.17
657.445	11362.64
657.796	11351.79
658.147	11286.03
658.498	11289.65
658.849	11307.95
659.2	11280.16
659.551	11305.01
659.902	11398.34
660.253	11328.97
660.604	11304.11
660.955	11323.54
661.306	11368.74
661.656	11324.9
662.007	11330.1
662.358	11337.78
662.708	11361.96
663.059	11331
663.409	11326.03
663.76	11349.76
664.11	11352.7
664.461	11404.22
664.811	11328.29
665.161	11361.06
665.511	11289.65
665.862	11347.95
666.212	11354.28
666.562	11240.61
666.912	11357.67
667.262	11331.45
667.612	11368.51
667.962	11424.56
668.312	11326.93
668.662	11353.83
669.011	11431.79
669.361	11322.87
669.711	11342.07
670.06	11313.6
670.41	11272.25
670.76	11269.99
671.109	11382.07
671.459	11345.92
671.808	11265.01
672.157	11381.62
672.507	11249.87
672.856	11239.03
673.205	11241.74
673.554	11319.02
673.904	11173.27
674.253	11346.59
674.602	11194.28
674.951	11108.41
675.3	11041.29
675.649	11101.4
675.998	11146.15
676.346	11175.75
676.695	11191.34
677.044	11101.85
677.393	11156.99
677.741	11177.56
678.09	11133.04
678.438	11088.52
678.787	11137.33
679.135	11183.66
679.484	11045.81
679.832	11074.29
680.181	11055.98
680.529	11103.89
680.877	10958.81
681.225	11012.37
681.573	11045.13
681.922	10993.38
682.27	10962.65
682.618	10879.71
682.966	10842.65
683.314	10895.98
683.661	10824.12
684.009	10778.47
684.357	10795.42
684.705	10768.3
685.053	10773.5
685.4	10709.77
685.748	10663
686.095	10744.12
686.443	10628.2
686.79	10634.07
687.138	10636.56
687.485	10619.83
687.832	10529.89
688.18	10552.49
688.527	10490.57
688.874	10481.98
689.221	10423
689.568	10411.93
689.915	10416.68
690.262	10399.05
690.609	10405.6
690.956	10321.54
691.303	10266.62
691.65	10250.8
691.997	10363.57
692.344	10198.15
692.69	10198.83
693.037	10204.48
693.383	10068.66
693.73	10164.93
694.077	10039.51
694.423	10012.17
694.769	9990.47
695.116	10031.83
695.462	10004.26
695.808	9966.07
696.155	9952.51
696.501	9866.18
696.847	9830.7
697.193	9767.65
697.539	9781.89
697.885	9736.47
698.231	9698.95
698.577	9674.32
698.923	9623.48
699.269	9530.14
699.614	9483.37
699.96	9533.31
700.306	9487.43
700.651	9453.54
700.997	9509.35
701.342	9396.59
701.688	9364.95
702.033	9373.54
702.379	9289.93
702.724	9283.6
703.069	9267.1
703.415	9160.21
703.76	9142.36
704.105	9138.74
704.45	9131.51
704.795	9025.07
705.14	9034.34
705.485	9062.81
705.83	9040.89
706.175	8995.7
706.52	8966.77
706.865	8954.79
707.209	8872.54
707.554	8874.79
707.899	8914.57
708.243	8858.75
708.588	8801.8
708.932	8714.12
709.277	8742.59
709.621	8753.67
709.966	8664.4
710.31	8728.13
710.654	8659.66
710.998	8653.56
711.342	8655.59
711.687	8583.05
712.031	8517.74
712.375	8521.81
712.719	8531.98
713.063	8502.6
713.407	8532.43
713.75	8492.43
714.094	8444.98
714.438	8408.37
714.782	8433.68
715.125	8434.13
715.469	8438.87
715.812	8415.15
716.156	8259.67
716.499	8363.62
716.843	8369.72
717.186	8327.92
717.53	8332.21
717.873	8370.63
718.216	8257.18
718.559	8225.09
718.902	8157.53
719.246	8270.07
719.589	8219.9
719.932	8160.01
720.275	8219.67
720.617	8228.48
720.96	8215.38
721.303	8179.67
721.646	8215.38
721.989	8122.27
722.331	8182.16
722.674	8221.03
723.016	8201.37
723.359	8101.26
723.701	8148.71
724.044	8141.71
724.386	8080.69
724.729	8099
725.071	8056.29
725.413	8051.09
725.755	8078.88
726.097	8030.3
726.439	7997.98
726.782	8044.08
727.124	8043.18
727.465	8067.13
727.807	8077.08
728.149	7987.81
728.491	8037.75
728.833	8051.31
729.175	7934.03
729.516	8017.64
729.858	8021.03
730.199	8004.31
730.541	7967.47
730.882	7938.55
731.224	7958.43
731.565	7912.33
731.906	7974.93
732.248	8034.37
732.589	7956.17
732.93	7900.81
733.271	7978.1
733.612	7988.49
733.953	7989.39
734.294	7934.93
734.635	7894.03
734.976	7925.44
735.317	7980.58
735.658	7984.87
735.999	7967.93
736.339	7974.25
736.68	8014.48
737.021	7996.63
737.361	7954.37
737.702	8011.99
738.042	7933.58
738.383	8021.03
738.723	7998.89
739.063	8002.73
739.404	8006.57
739.744	7963.41
740.084	7992.33
740.424	7996.4
740.764	7998.89
741.104	8060.8
741.444	7991.43
741.784	8122.72
742.124	8070.07
742.464	8096.06
742.804	8067.36
743.143	8131.09
743.483	8113.91
743.823	8101.26
744.162	8173.34
744.502	8221.25
744.841	8216.51
745.181	8302.15
745.52	8298.54
745.86	8295.38
746.199	8275.71
746.538	8420.8
746.877	8444.75
747.216	8461.7
747.556	8472.77
747.895	8592.77
748.234	8532.66
748.573	8655.59
748.911	8621.92
749.25	8745.31
749.589	8748.7
749.928	8864.4
750.267	8866.66
750.605	8980.78
750.944	9065.98
751.283	9074.34
751.621	9155.01
751.96	9230.04
752.298	9297.61
752.636	9404.72
752.975	9448.57
753.313	9503.93
753.651	9675.68
753.989	9719.07
754.327	9855.56
754.666	9986.63
755.004	10091.71
755.342	10178.72
755.679	10280.18
756.017	10351.37
756.355	10511.81
756.693	10645.14
757.031	10879.94
757.368	10939.83
757.706	11031.12
758.044	11206.94
758.381	11383.43
758.719	11506.59
759.056	11662.97
759.394	11702.52
759.731	11786.58
760.068	12061.15
