Data from hue_00_FLMS001491_29.txt Node
Date: Mon Feb 06 15:29:29 GMT 2017
User: dcchb
Spectrometer: FLMS00149
Trigger mode: 0
Integration Time (sec): 2.000000E-2
Scans to average: 10
Electric dark correction enabled: true
Nonlinearity correction enabled: false
Boxcar width: 0
XAxis mode: Wavelengths
Number of Pixels in Spectrum: 2048
>>>>>Begin Spectral Data<<<<<
341.393	-14.28
341.776	-14.28
342.16	-14.28
342.543	-63.09
342.927	-64.9
343.31	-60.83
343.693	-64
344.077	-64.9
344.46	-63.32
344.843	-50.21
345.226	-34.62
345.61	-37.78
345.993	-16.99
346.376	2.44
346.759	10.8
347.142	12.39
347.525	55.1
347.908	46.96
348.291	61.88
348.674	86.28
349.057	116.79
349.44	125.83
349.823	144.81
350.206	164.47
350.588	192.72
350.971	192.95
351.354	234.98
351.737	236.34
352.119	249.89
352.502	265.26
352.884	282.66
353.267	288.09
353.65	281.08
354.032	286.73
354.414	298.48
354.797	304.58
355.179	320.63
355.562	323.56
355.944	312.04
356.326	342.55
356.709	340.06
357.091	317.69
357.473	373.51
357.855	340.06
358.238	340.06
358.62	351.81
359.002	359.27
359.384	358.14
359.766	365.6
360.148	345.49
360.53	331.7
360.912	320.4
361.294	337.35
361.676	345.03
362.057	327.63
362.439	314.07
362.821	310.91
363.203	330.8
363.584	314.98
363.966	326.95
364.348	318.82
364.729	288.99
365.111	328.31
365.493	309.33
365.874	326.5
366.256	319.95
366.637	304.36
367.019	318.59
367.4	327.86
367.781	319.95
368.163	306.62
368.544	313.4
368.925	320.18
369.306	307.29
369.688	319.95
370.069	303.45
370.45	305.03
370.831	318.82
371.212	322.89
371.593	319.5
371.974	310.91
372.355	325.6
372.736	304.36
373.117	310.68
373.498	321.76
373.879	295.09
374.26	300.97
374.641	328.31
375.021	312.27
375.402	303.9
375.783	328.31
376.163	333.28
376.544	326.5
376.925	330.8
377.305	330.57
377.686	326.05
378.066	321.53
378.447	327.63
378.827	338.93
379.208	322.89
379.588	340.29
379.968	320.4
380.349	331.47
380.729	329.44
381.109	340.51
381.489	319.72
381.87	351.81
382.25	341.42
382.63	326.95
383.01	336.45
383.39	351.13
383.77	331.47
384.15	351.13
384.53	344.13
384.91	359.72
385.29	310.23
385.67	350.23
386.049	355.2
386.429	343.68
386.809	366.28
387.189	368.54
387.568	348.42
387.948	354.75
388.328	347.97
388.707	364.24
389.087	375.99
389.466	352.72
389.846	363.79
390.225	366.73
390.605	355.65
390.984	367.86
391.363	378.7
391.743	360.4
392.122	366.95
392.501	359.5
392.881	376.22
393.26	385.71
393.639	356.33
394.018	392.04
394.397	370.12
394.776	375.54
395.155	373.06
395.534	399.27
395.913	376.67
396.292	381.64
396.671	383.9
397.05	379.61
397.429	393.17
397.808	392.04
398.186	369.67
398.565	379.38
398.944	387.97
399.323	377.8
399.701	384.81
400.08	391.59
400.458	389.1
400.837	387.97
401.215	397.24
401.594	397.91
401.972	390.91
402.351	386.39
402.729	399.27
403.107	378.48
403.486	406.27
403.864	411.92
404.242	430.45
404.62	399.5
404.999	421.19
405.377	402.88
405.755	416.9
406.133	425.71
406.511	431.58
406.889	423.22
407.267	428.42
407.645	409.89
408.023	414.86
408.401	429.78
408.779	436.1
409.156	444.24
409.534	449.44
409.912	452.15
410.29	441.75
410.667	456.44
411.045	474.97
411.422	447.18
411.8	459.61
412.178	457.35
412.555	489.89
412.933	474.97
413.31	458.48
413.687	473.62
414.065	463.45
414.442	467.74
414.819	472.94
415.197	480.4
415.574	480.85
415.951	496.22
416.328	501.41
416.705	496.67
417.082	491.24
417.46	487.63
417.837	514.07
418.214	524.92
418.591	487.4
418.967	518.14
419.344	510.45
419.721	510.23
420.098	528.76
420.475	529.66
420.852	534.86
421.228	524.24
421.605	515.88
421.982	527.85
422.358	531.7
422.735	550.23
423.111	537.57
423.488	538.47
423.864	557.68
424.241	577.8
424.617	549.32
424.994	551.81
425.37	567.63
425.746	572.82
426.123	586.38
426.499	581.41
426.875	590
427.251	567.17
427.627	579.83
428.003	606.27
428.379	586.38
428.756	616.21
429.132	613.5
429.507	594.74
429.883	612.6
430.259	626.61
430.635	616.21
431.011	628.19
431.387	618.47
431.763	646.27
432.138	643.33
432.514	642.65
432.89	651.24
433.265	662.99
433.641	671.35
434.016	664.35
434.392	684.01
434.767	684.01
435.143	679.71
435.518	701.18
435.894	686.27
436.269	696.44
436.644	694.4
437.02	711.58
437.395	699.15
437.77	725.14
438.145	719.03
438.52	740.28
438.895	747.73
439.271	759.94
439.646	742.54
440.021	754.06
440.395	765.36
440.77	721.07
441.145	757.45
441.52	783.44
441.895	781.18
442.27	758.36
442.645	762.65
443.019	764.23
443.394	779.6
443.769	784.57
444.143	764.23
444.518	797.22
444.892	794.96
445.267	818.47
445.641	816.21
446.016	796.77
446.39	815.53
446.764	826.6
447.139	811.69
447.513	841.29
447.887	830.67
448.262	837
448.636	847.39
449.01	839.48
449.384	825.92
449.758	844.68
450.132	857.79
450.506	845.13
450.88	883.1
451.254	858.92
451.628	865.02
452.002	890.56
452.376	886.26
452.75	892.14
453.123	886.26
453.497	898.01
453.871	910.22
454.244	929.2
454.618	928.07
454.992	937.33
455.365	953.6
455.739	954.06
456.112	952.7
456.486	976.2
456.859	973.72
457.232	983.66
457.606	996.77
457.979	1028.18
458.352	1024.79
458.725	1007.61
459.099	1021.4
459.472	1046.03
459.845	1059.82
460.218	1072.7
460.591	1083.09
460.964	1071.57
461.337	1094.84
461.71	1100.95
462.083	1113.15
462.456	1132.58
462.829	1116.99
463.201	1150.66
463.574	1149.31
463.947	1154.5
464.32	1159.7
464.692	1187.27
465.065	1203.32
465.438	1210.55
465.81	1210.1
466.183	1257.55
466.555	1230.66
466.928	1238.8
467.3	1283.09
467.672	1292.13
468.045	1309.98
468.417	1309.53
468.789	1332.8
469.161	1356.31
469.534	1363.09
469.906	1395.85
470.278	1379.81
470.65	1408.06
471.022	1430.2
471.394	1441.73
471.766	1464.78
472.138	1499.13
472.51	1531.67
472.882	1530.76
473.253	1535.74
473.625	1563.98
473.997	1581.16
474.369	1638.78
474.74	1632.68
475.112	1672.91
475.484	1689.63
475.855	1725.56
476.227	1751.1
476.598	1776.86
476.97	1790.19
477.341	1825.67
477.713	1832.9
478.084	1883.52
478.455	1917.2
478.827	1945.44
479.198	1979.57
479.569	1999.91
479.94	2086.91
480.311	2091.88
480.682	2117.87
481.053	2154.48
481.424	2188.83
481.795	2228.37
482.166	2272.67
482.537	2302.72
482.908	2321.7
483.279	2374.58
483.65	2402.38
484.021	2428.59
484.391	2513.34
484.762	2549.04
485.133	2566.22
485.503	2596.5
485.874	2642.15
486.244	2688.93
486.615	2701.13
486.985	2749.72
487.356	2799.21
487.726	2824.29
488.097	2866.77
488.467	2891.86
488.837	2949.48
489.207	2992.2
489.578	3020.67
489.948	3099.31
490.318	3102.47
490.688	3134.79
491.058	3186.54
491.428	3208.69
491.798	3280.55
492.168	3338.4
492.538	3350.38
492.908	3370.94
493.278	3406.2
493.648	3435.8
494.017	3496.81
494.387	3525.06
494.757	3570.71
495.126	3569.13
495.496	3594.44
495.866	3619.07
496.235	3657.71
496.605	3733.64
496.974	3729.13
497.344	3800.31
497.713	3777.94
498.082	3774.1
498.452	3849.35
498.821	3876.69
499.19	3886.41
499.559	3909.46
499.928	3955.33
500.298	3973.64
500.667	4050.25
501.036	4022.45
501.405	4015.67
501.774	4029.23
502.143	4097.7
502.512	4119.62
502.88	4138.38
503.249	4158.04
503.618	4170.02
503.987	4196.46
504.356	4269.22
504.724	4270.13
505.093	4291.14
505.462	4272.61
505.83	4329.79
506.199	4333.18
506.567	4412.27
506.936	4365.27
507.304	4411.37
507.672	4450.46
508.041	4463.12
508.409	4462.67
508.777	4526.62
509.145	4578.14
509.514	4553.06
509.882	4527.07
510.25	4549.67
510.618	4641.19
510.986	4602.1
511.354	4640.97
511.722	4676.22
512.09	4705.6
512.458	4695.43
512.826	4703.34
513.193	4747.63
513.561	4690.23
513.929	4817.91
514.297	4816.55
514.664	4856.78
515.032	4873.73
515.4	4879.83
515.767	4970.9
516.135	4909.89
516.502	4907.63
516.869	4983.1
517.237	4974.52
517.604	4975.19
517.972	5002.31
518.339	5055.64
518.706	5038.02
519.073	5020.39
519.44	5021.75
519.808	5079.37
520.175	5091.35
520.542	5151.23
520.909	5133.83
521.276	5164.57
521.643	5205.92
522.009	5201.4
522.376	5269.2
522.743	5242.08
523.11	5288.63
523.477	5375.18
523.843	5364.11
524.21	5386.48
524.577	5420.61
524.943	5469.64
525.31	5467.38
525.676	5581.05
526.043	5501.51
526.409	5586.03
526.776	5608.4
527.142	5682.52
527.508	5640.04
527.874	5703.54
528.241	5731.33
528.607	5748.28
528.973	5793.48
529.339	5739.47
529.705	5848.84
530.071	5839.13
530.437	5896.98
530.803	5879.58
531.169	5925.68
531.535	5987.82
531.901	5952.34
532.267	5947.15
532.632	6041.61
532.998	6070.53
533.364	6085.22
533.73	6056.75
534.095	6197.99
534.461	6128.38
534.826	6162.73
535.192	6179
535.557	6218.33
535.923	6248.61
536.288	6226.23
536.653	6294.71
537.019	6285.89
537.384	6376.29
537.749	6390.98
538.114	6399.34
538.479	6431.2
538.845	6470.3
539.21	6454.7
539.575	6468.94
539.94	6525.89
540.305	6570.86
540.67	6552.1
541.034	6534.7
541.399	6619.22
541.764	6596.62
542.129	6687.24
542.494	6724.07
542.858	6699.67
543.223	6767.24
543.587	6817.41
543.952	6806.56
544.316	6848.82
544.681	6849.5
545.045	6857.4
545.41	6887.91
545.774	6920.91
546.138	6924.97
546.503	6955.48
546.867	6964.07
547.231	7087
547.595	7044.07
547.959	7091.75
548.324	7100.34
548.688	7092.65
549.052	7137.17
549.416	7093.1
549.779	7195.47
550.143	7217.17
550.507	7212.42
550.871	7284.29
551.235	7246.32
551.599	7325.19
551.962	7322.93
552.326	7340.1
552.689	7399.99
553.053	7388.92
553.417	7428.24
553.78	7558.18
554.143	7474.79
554.507	7550.72
554.87	7560.21
555.234	7552.08
555.597	7554.56
555.96	7583.26
556.323	7621.68
556.686	7644.28
557.05	7706.65
557.413	7693.77
557.776	7736.03
558.139	7772.41
558.502	7811.73
558.865	7843.59
559.228	7890.6
559.59	7914.1
559.953	7906.42
560.316	7981.44
560.679	7919.07
561.041	8032.29
561.404	8046.75
561.767	8114.55
562.129	8085.62
562.492	8152.51
562.854	8133.76
563.217	8184.6
563.579	8215.56
563.941	8221.21
564.304	8263.7
564.666	8352.51
565.028	8326.07
565.39	8328.1
565.753	8368.1
566.115	8468.21
566.477	8429.11
566.839	8472.5
567.201	8445.61
567.563	8473.63
567.925	8571.94
568.287	8550.69
568.648	8580.97
569.01	8695.55
569.372	8700.97
569.734	8713.63
570.095	8734.19
570.457	8807.86
570.819	8828.88
571.18	8818.26
571.542	8954.07
571.903	8937.8
572.265	8953.39
572.626	8988.65
572.987	9036.56
573.349	9105.93
573.71	9192.26
574.071	9191.81
574.432	9232.48
574.794	9320.84
575.155	9338.92
575.516	9398.81
575.877	9348.41
576.238	9476.54
576.599	9636.09
576.96	9645.13
577.32	9660.95
577.681	9809.64
578.042	9950.2
578.403	9951.56
578.763	10030.43
579.124	10139.35
579.485	10316.3
579.845	10349.52
580.206	10478.78
580.566	10541.83
580.927	10566.23
581.287	10823.4
581.648	10870.86
582.008	11013.23
582.368	11104.75
582.728	11200.79
583.089	11400.11
583.449	11568.47
583.809	11699.99
584.169	11839.87
584.529	12009.13
584.889	12304.04
585.249	12265.4
585.609	12516.69
585.969	12788.77
586.329	12907.19
586.688	13077.81
587.048	13345.37
587.408	13534.52
587.768	13714.4
588.127	14034.39
588.487	14039.36
588.846	14498.33
589.206	14611.32
589.565	14852
589.925	15154.36
590.284	15360.68
590.643	15560.23
591.003	15885.19
591.362	16201.57
591.721	16397.04
592.08	16742.57
592.44	16957.7
592.799	17277.02
593.158	17467.29
593.517	17804.69
593.876	18149.31
594.235	18283.77
594.593	18625.68
594.952	18993.13
595.311	19209.4
595.67	19414.36
596.029	19992.43
596.387	20117.85
596.746	20509.02
597.104	20706.98
597.463	20935.45
597.822	21209.12
598.18	21567.75
598.538	21889.1
598.897	22214.97
599.255	22423.1
599.613	22916.19
599.972	23087.71
600.33	23445.22
600.688	23536.06
601.046	23941.7
601.404	24363.16
601.762	24585.07
602.12	24895.35
602.478	25109.58
602.836	25429.8
603.194	25604.26
603.552	25981.2
603.91	25981.65
604.268	26417.79
604.625	26537.56
604.983	26995.86
605.341	27036.08
605.698	27472.68
606.056	27732.79
606.413	27967.58
606.771	28286.45
607.128	28425.65
607.485	28520.56
607.843	28795.13
608.2	29274.89
608.557	29315.12
608.914	29461.1
609.272	29946.74
609.629	30160.97
609.986	30393.28
610.343	30473.05
610.7	30927.05
611.057	31112.59
611.414	31171.79
611.771	31338.79
612.127	31626.7
612.484	31779.01
612.841	32070.07
613.198	32265.78
613.554	32397.75
613.911	32671.87
614.267	32809.49
614.624	32857.17
614.98	33072.99
615.337	33357.05
615.693	33427.1
616.05	33587.32
616.406	34013.53
616.762	33969.91
617.118	34030.02
617.475	34172.39
617.831	34443.12
618.187	34570.57
618.543	34915.2
618.899	35101.18
619.255	35108.19
619.611	35148.41
619.967	35349.31
620.323	35509.76
620.678	35625.69
621.034	35652.81
621.39	35688.96
621.746	35765.12
622.101	36224.09
622.457	35932.35
622.812	36247.37
623.168	36365.33
623.523	36557.19
623.879	36582.5
624.234	36354.48
624.589	36650.29
624.945	36769.84
625.3	36759.44
625.655	36793.11
626.01	37106.33
626.365	37102.03
626.72	37063.84
627.075	37192.88
627.43	37241.01
627.785	37200.34
628.14	37252.09
628.495	37538.86
628.85	37591.06
629.205	37359.65
629.559	37597.84
629.914	37555.13
630.269	37644.39
630.623	37570.95
630.978	37505.64
631.332	37718.97
631.687	37928.68
632.041	37650.04
632.396	37766.65
632.75	37646.65
633.104	37695.69
633.459	37673.54
633.813	37622.7
634.167	37750.38
634.521	37853.88
634.875	37886.65
635.229	37819.3
635.583	37723.71
635.937	37705.18
636.291	37733.2
636.645	37787.21
636.999	37679.42
637.352	37810.71
637.706	37671.96
638.06	37956.47
638.413	37805.29
638.767	37698.63
639.121	37799.19
639.474	37634.45
639.828	37685.07
640.181	37757.38
640.534	37846.19
640.888	37599.42
641.241	37579.99
641.594	37628.35
641.947	37729.59
642.301	37736.82
642.654	37760.32
643.007	37716.71
643.36	37599.87
643.713	37630.83
644.066	37796.7
644.419	37530.95
644.771	37313.33
645.124	37018.87
645.477	36830.18
645.83	36813
646.182	36685.09
646.535	36702.72
646.888	36551.31
647.24	36522.39
647.593	36657.52
647.945	36620.24
648.298	36510.41
648.65	36572.33
649.002	36368.04
649.355	36549.05
649.707	36470.41
650.059	36511.54
650.411	36959.44
650.763	37131.86
651.115	37309.71
651.467	37184.74
651.819	37320.56
652.171	37250.28
652.523	37077.17
652.875	37101.81
653.227	36962.38
653.578	37248.24
653.93	37279.66
654.282	36958.53
654.633	36978.87
654.985	36999.21
655.337	37029.94
655.688	36978.65
656.039	37164.4
656.391	36791.98
656.742	36957.63
657.094	36972.32
657.445	37153.11
657.796	37073.56
658.147	36884.41
658.498	36798.76
658.849	36968.03
659.2	36986.33
659.551	36851.64
659.902	36947.91
660.253	36803.96
660.604	36995.6
660.955	36747.01
661.306	36981.81
661.656	36791.98
662.007	36876.5
662.358	36814.36
662.708	36858.42
663.059	36783.62
663.409	36603.06
663.76	36843.96
664.11	36926.22
664.461	36903.17
664.811	36894.35
665.161	36883.06
665.511	36826.33
665.862	36799.22
666.212	37061.13
666.562	36853.45
666.912	36786.11
667.262	36754.7
667.612	36850.29
667.962	36814.58
668.312	36760.8
668.662	36864.3
669.011	36804.64
669.361	36586.79
669.711	36706.56
670.06	36807.35
670.41	36643.51
670.76	36597.64
671.109	36766.67
671.459	36719.44
671.808	36714.7
672.157	36755.15
672.507	36472.9
672.856	36472.44
673.205	36526.91
673.554	36633.8
673.904	36440.58
674.253	36814.81
674.602	36482.16
674.951	36131.89
675.3	35908.17
675.649	36396.74
675.998	36283.98
676.346	36266.57
676.695	36498.43
677.044	36226.8
677.393	36400.36
677.741	36330.3
678.09	36252.34
678.438	36233.13
678.787	36306.8
679.135	36181.61
679.484	35948.39
679.832	36039.91
680.181	36015.06
680.529	36099.35
680.877	36050.08
681.225	35966.02
681.573	36119.46
681.922	35757.21
682.27	35814.38
682.618	35774.38
682.966	35684.44
683.314	35748.17
683.661	35625.46
684.009	35551.57
684.357	35430.89
684.705	35393.6
685.053	35522.64
685.4	35291.23
685.748	35328.07
686.095	35262.76
686.443	35160.16
686.79	35081.75
687.138	35175.08
687.485	35241.29
687.832	34995.42
688.18	34881.3
688.527	34784.35
688.874	34828.19
689.221	34825.93
689.568	34679.72
689.915	34642.44
690.262	34597.24
690.609	34449.22
690.956	34284.03
691.303	34315.21
691.65	34088.55
691.997	34073.64
692.344	33934.43
692.69	33968.78
693.037	33952.51
693.383	33727.43
693.73	33786.64
694.077	33589.13
694.423	33542.58
694.769	33344.62
695.116	33258.52
695.462	33343.26
695.808	33361.34
696.155	33239.76
696.501	32967.23
696.847	33035.25
697.193	32810.62
697.539	32930.62
697.885	32771.53
698.231	32600.68
698.577	32672.54
698.923	32568.59
699.269	32443.4
699.614	32333.34
699.96	32212.22
700.306	32303.74
700.651	32128.38
700.997	32056.52
701.342	32048.38
701.688	31940.36
702.033	31873.92
702.379	31785.34
702.724	31726.81
703.069	31793.02
703.415	31365.91
703.76	31534.72
704.105	31432.35
704.45	31409.98
704.795	31207.95
705.14	31063.1
705.485	31135.18
705.83	30920.95
706.175	30997.11
706.52	30900.84
706.865	30782.43
707.209	30680.05
707.554	30671.92
707.899	30591.7
708.243	30585.59
708.588	30465.82
708.932	30363.91
709.277	30290.69
709.621	30291.14
709.966	30118.04
710.31	30150.35
710.654	29909.23
710.998	30021.32
711.342	29895.67
711.687	29888.89
712.031	29772.06
712.375	29686.86
712.719	29706.75
713.063	29534.55
713.407	29660.65
713.75	29490.71
714.094	29484.15
714.438	29264.05
714.782	29439.41
715.125	29311.96
715.469	29318.06
715.812	29174.78
716.156	28975.92
716.499	29019.31
716.843	29118.51
717.186	28892.53
717.53	29021.57
717.873	28955.35
718.216	28838.07
718.559	28784.74
718.902	28560.79
719.246	28632.88
719.589	28609.6
719.932	28480.56
720.275	28539.77
720.617	28398.98
720.96	28383.84
721.303	28370.74
721.646	28463.16
721.989	28176.17
722.331	28384.52
722.674	28179.1
723.016	28246.67
723.359	28157.64
723.701	28117.86
724.044	27953.12
724.386	27749.51
724.729	27957.87
725.071	27822.05
725.413	27791.32
725.755	27859.34
726.097	27666.57
726.439	27521.49
726.782	27601.04
727.124	27652.79
727.465	27533.02
727.807	27603.75
728.149	27413.02
728.491	27335.74
728.833	27474.49
729.175	27418.45
729.516	27241.05
729.858	27233.37
730.199	27400.59
730.541	27093.03
730.882	27196.98
731.224	27185.46
731.565	27104.56
731.906	27138.68
732.248	26910.44
732.589	26876.54
732.93	26804
733.271	26837.22
733.612	26847.61
733.953	26865.24
734.294	26691.91
734.635	26653.04
734.976	26747.05
735.317	26602.65
735.658	26542.31
735.999	26569.88
736.339	26523.55
736.68	26547.96
737.021	26485.81
737.361	26339.83
737.702	26519.71
738.042	26445.59
738.383	26311.36
738.723	26363.56
739.063	26192.94
739.404	26256.44
739.744	26173.51
740.084	25981.42
740.424	26024.81
740.764	25978.48
741.104	26136.22
741.444	25922.21
741.784	25816.91
742.124	25905.04
742.464	25792.5
742.804	25866.17
743.143	25799.05
743.483	25817.58
743.823	25589.34
744.162	25527.65
744.502	25654.88
744.841	25515.9
745.181	25627.08
745.52	25525.61
745.86	25387.31
746.199	25502.34
746.538	25447.88
746.877	25572.39
747.216	25516.8
747.556	25288.33
747.895	25343.25
748.234	25187.32
748.573	25244.27
748.911	25188
749.25	25267.77
749.589	25015.12
749.928	25081.33
750.267	25143.25
750.605	25132.18
750.944	25001.11
751.283	24897.61
751.621	24933.77
751.96	24903.26
752.298	24870.04
752.636	24816.93
752.975	24758.63
753.313	24597.95
753.651	24644.28
753.989	24521.8
754.327	24559.09
754.666	24428.69
755.004	24474.79
755.342	24440.44
755.679	24373.55
756.017	24134.24
756.355	24209.26
756.693	24151.64
757.031	24173.33
757.368	23976.73
757.706	23963.85
758.044	23981.7
758.381	23986.9
758.719	23778.09
759.056	23909.39
759.394	23708.03
759.731	23683.85
760.068	23577.42
760.405	23533.8
760.743	23466.91
761.08	23611.54
