Data from hue_350_FLMS001491_6.txt Node
Date: Mon Feb 06 15:37:29 GMT 2017
User: dcchb
Spectrometer: FLMS00149
Trigger mode: 0
Integration Time (sec): 2.000000E-2
Scans to average: 10
Electric dark correction enabled: true
Nonlinearity correction enabled: false
Boxcar width: 0
XAxis mode: Wavelengths
Number of Pixels in Spectrum: 2048
>>>>>Begin Spectral Data<<<<<
341.393	-27.68
341.776	-27.68
342.16	-27.68
342.543	-62.71
342.927	-62.03
343.31	-77.17
343.693	-77.17
344.077	-62.03
344.46	-52.77
344.843	-55.25
345.226	-53.67
345.61	-29.72
345.993	-16.61
346.376	4.18
346.759	10.96
347.142	24.97
347.525	37.63
347.908	59.55
348.291	69.94
348.674	113.1
349.057	104.07
349.44	122.14
349.823	138.19
350.206	160.79
350.588	182.93
350.971	193.55
351.354	238.98
351.737	223.16
352.119	248.02
352.502	267.9
352.884	267.45
353.267	272.65
353.65	276.72
354.032	282.37
354.414	300.67
354.797	313.1
355.179	325.75
355.562	304.96
355.944	315.81
356.326	330.05
356.709	328.24
357.091	334.79
357.473	328.69
357.855	316.49
358.238	339.54
358.62	324.17
359.002	335.02
359.384	335.92
359.766	340.22
360.148	362.82
360.53	325.08
360.912	334.34
361.294	318.07
361.676	339.99
362.057	316.04
362.439	330.27
362.821	346.54
363.203	317.84
363.584	315.36
363.966	306.55
364.348	314.46
364.729	330.95
365.111	301.57
365.493	304.51
365.874	309.03
366.256	311.74
366.637	312.42
367.019	329.82
367.4	309.03
367.781	289.6
368.163	297.05
368.544	304.74
368.925	322.59
369.306	319.43
369.688	311.74
370.069	304.96
370.45	309.26
370.831	294.57
371.212	299.31
371.593	324.4
371.974	307.22
372.355	319.65
372.736	302.03
373.117	331.4
373.498	304.51
373.879	305.87
374.26	285.3
374.641	305.64
375.021	316.94
375.402	330.27
375.783	325.3
376.163	331.4
376.544	296.6
376.925	315.13
377.305	325.75
377.686	300.67
378.066	308.81
378.447	312.2
378.827	333.21
379.208	335.7
379.588	316.94
379.968	333.21
380.349	326.66
380.729	347.45
381.109	334.12
381.489	306.09
381.87	341.8
382.25	325.53
382.63	334.34
383.01	319.2
383.39	342.25
383.77	340.44
384.15	339.09
384.53	329.82
384.91	355.36
385.29	330.95
385.67	333.66
386.049	356.94
386.429	353.78
386.809	330.27
387.189	332.99
387.568	357.62
387.948	335.47
388.328	337.05
388.707	340.67
389.087	356.26
389.466	338.41
389.846	351.29
390.225	360.33
390.605	361.01
390.984	358.07
391.363	373.66
391.743	356.94
392.122	360.78
392.501	335.25
392.881	362.59
393.26	359.65
393.639	370.95
394.018	365.75
394.397	359.43
394.776	362.14
395.155	360.78
395.534	397.62
395.913	352.65
396.292	387.45
396.671	381.35
397.05	380.22
397.429	371.85
397.808	365.53
398.186	361.69
398.565	385.41
398.944	401.68
399.323	393.1
399.701	383.83
400.08	396.26
400.458	370.95
400.837	391.29
401.215	391.52
401.594	395.13
401.972	389.93
402.351	392.65
402.729	405.98
403.107	397.39
403.486	395.36
403.864	400.55
404.242	408.92
404.62	412.53
404.999	421.57
405.377	414.34
405.755	427.67
406.133	421.12
406.511	412.98
406.889	422.02
407.267	440.1
407.645	436.71
408.023	438.07
408.401	423.83
408.779	453.21
409.156	410.5
409.534	440.33
409.912	446.65
410.29	426.09
410.667	441.23
411.045	465.86
411.422	451.17
411.8	460.44
412.178	456.37
412.555	453.89
412.933	492.53
413.31	461.12
413.687	488.91
414.065	462.02
414.442	480.78
414.819	469.93
415.197	504.51
415.574	498.4
415.951	493.21
416.328	488.24
416.705	471.74
417.082	510.38
417.46	515.13
417.837	510.38
418.214	503.6
418.591	502.7
418.967	507.9
419.344	536.14
419.721	518.07
420.098	518.07
420.475	536.37
420.852	534.56
421.228	527.78
421.605	546.54
421.982	547.9
422.358	551.06
422.735	565.07
423.111	585.18
423.488	565.75
423.864	555.8
424.241	559.65
424.617	569.36
424.994	575.24
425.37	590.15
425.746	576.82
426.123	588.57
426.499	587.89
426.875	593.09
427.251	614.79
427.627	613.66
428.003	582.47
428.379	620.21
428.756	643.26
429.132	616.14
429.507	636.03
429.883	639.19
430.259	656.37
430.635	661.34
431.011	662.92
431.387	659.98
431.763	666.31
432.138	660.43
432.514	670.38
432.89	693.2
433.265	718.06
433.641	696.59
434.016	709.25
434.392	714.22
434.767	717.61
435.143	729.36
435.518	703.15
435.894	718.06
436.269	739.08
436.644	711.73
437.02	738.62
437.395	731.85
437.77	755.57
438.145	749.7
438.52	739.75
438.895	779.08
439.271	763.48
439.646	793.09
440.021	791.73
440.395	786.53
440.77	795.8
441.145	788.79
441.52	818.17
441.895	790.37
442.27	838.06
442.645	828.57
443.019	815.46
443.394	831.73
443.769	835.35
444.143	841.45
444.518	843.93
444.892	847.32
445.267	833.99
445.641	856.36
446.016	845.51
446.39	870.15
446.764	879.64
447.139	863.59
447.513	887.32
447.887	884.84
448.262	875.34
448.636	892.07
449.01	868.56
449.384	899.07
449.758	893.87
450.132	911.5
450.506	911.95
450.88	909.69
451.254	894.1
451.628	960.77
452.002	931.84
452.376	954.21
452.75	942.24
453.123	956.47
453.497	990.37
453.871	969.58
454.244	953.53
454.618	978.39
454.992	997.15
455.365	980.2
455.739	1030.37
456.112	1023.81
456.486	1034.44
456.859	1034.66
457.232	1041.67
457.606	1027.88
457.979	1047.09
458.352	1076.47
458.725	1096.13
459.099	1081.89
459.472	1125.96
459.845	1109.46
460.218	1134.77
460.591	1108.11
460.964	1127.09
461.337	1132.29
461.71	1163.25
462.083	1196.47
462.456	1146.75
462.829	1182.45
463.201	1201.66
463.574	1207.09
463.947	1209.8
464.32	1253.64
464.692	1256.8
465.065	1258.84
465.438	1281.44
465.81	1299.51
466.183	1331.6
466.555	1332.28
466.928	1319.63
467.3	1363.92
467.672	1341.55
468.045	1393.97
468.417	1395.1
468.789	1388.55
469.161	1420.41
469.534	1402.11
469.906	1443.92
470.278	1457.7
470.65	1492.28
471.022	1506.51
471.394	1518.27
471.766	1563.46
472.138	1560.75
472.51	1571.37
472.882	1605.72
473.253	1616.34
473.625	1668.32
473.997	1674.19
474.369	1667.64
474.74	1716.68
475.112	1726.62
475.484	1730.69
475.855	1807.98
476.227	1803
476.598	1844.81
476.97	1886.39
477.341	1902.44
477.713	1959.38
478.084	1955.77
478.455	2004.13
478.827	2018.59
479.198	2078.25
479.569	2085.26
479.94	2146.5
480.311	2154.86
480.682	2205.25
481.053	2256.32
481.424	2263.78
481.795	2293.84
482.166	2301.07
482.537	2381.07
482.908	2399.82
483.279	2454.06
483.65	2463.78
484.021	2561.18
484.391	2597.33
484.762	2603.43
485.133	2597.56
485.503	2678.69
485.874	2706.03
486.244	2750.32
486.615	2780.38
486.985	2819.25
487.356	2894.27
487.726	2927.49
488.097	2952.58
488.467	3004.33
488.837	3068.96
489.207	3090.88
489.578	3102.63
489.948	3128.39
490.318	3224.21
490.688	3205.45
491.058	3224.43
491.428	3287.71
491.798	3345.34
492.168	3399.12
492.538	3434.82
492.908	3471.43
493.278	3514.14
493.648	3477.31
494.017	3556.4
494.387	3658.55
494.757	3669.4
495.126	3671.43
495.496	3673.69
495.866	3739.68
496.235	3772.9
496.605	3787.58
496.974	3808.6
497.344	3865.1
497.713	3926.79
498.082	3920.91
498.452	3930.63
498.821	3934.92
499.19	3984.19
499.559	4005.43
499.928	4055.6
500.298	4065.09
500.667	4071.42
501.036	4058.54
501.405	4157.29
501.774	4192.77
502.143	4167.01
502.512	4238.19
502.88	4225.76
503.249	4248.14
503.618	4297.4
503.987	4260.34
504.356	4307.34
504.724	4368.59
505.093	4374.24
505.462	4377.17
505.83	4384.86
506.199	4430.73
506.567	4492.88
506.936	4503.72
507.304	4517.28
507.672	4541.46
508.041	4545.3
508.409	4573.78
508.777	4605.87
509.145	4654.91
509.514	4595.02
509.882	4692.42
510.25	4674.11
510.618	4700.33
510.986	4730.16
511.354	4738.07
511.722	4750.95
512.09	4841.57
512.458	4828.69
512.826	4845.64
513.193	4849.03
513.561	4885.86
513.929	4911.85
514.297	4948.46
514.664	4935.35
515.032	4964.28
515.4	5001.56
515.767	5014.22
516.135	5024.39
516.502	4961.11
516.869	5108.23
517.237	5090.6
517.604	5071.84
517.972	5146.64
518.339	5124.5
518.706	5133.31
519.073	5192.29
519.44	5195
519.808	5250.37
520.175	5224.83
520.542	5269.13
520.909	5262.8
521.276	5291.73
521.643	5364.94
522.009	5397.49
522.376	5382.34
522.743	5423.25
523.11	5465.51
523.477	5465.73
523.843	5506.86
524.21	5503.47
524.577	5583.69
524.943	5584.82
525.31	5656.46
525.676	5657.59
526.043	5713.18
526.409	5717.25
526.776	5747.98
527.142	5758.38
527.508	5769.68
527.874	5863.69
528.241	5884.03
528.607	5899.39
528.973	5939.84
529.339	5941.88
529.705	5951.82
530.071	6039.95
530.437	6052.84
530.803	6042.21
531.169	6149.1
531.535	6146.84
531.901	6137.13
532.267	6185.04
532.632	6187.29
532.998	6206.5
533.364	6224.58
533.73	6242.21
534.095	6289.89
534.461	6335.77
534.826	6392.49
535.192	6377.12
535.557	6454.86
535.923	6469.32
536.288	6514.07
536.653	6515.87
537.019	6552.71
537.384	6525.82
537.749	6551.58
538.114	6554.97
538.479	6570.34
538.845	6587.74
539.21	6629.54
539.575	6691.69
539.94	6717.9
540.305	6769.2
540.67	6760.16
541.034	6804.45
541.399	6814.4
541.764	6788.64
542.129	6872.25
542.494	6868.41
542.858	6933.72
543.223	6904.56
543.587	7027.27
543.952	7004
544.316	7025.69
544.681	7014.84
545.045	7050.78
545.41	7097.55
545.774	7172.13
546.138	7127.84
546.503	7132.13
546.867	7178
547.231	7258
547.595	7275.4
547.959	7281.96
548.324	7334.38
548.688	7286.25
549.052	7332.35
549.416	7385
549.779	7379.13
550.143	7339.81
550.507	7429.07
550.871	7524.21
551.235	7510.88
551.599	7503.64
551.962	7570.08
552.326	7575.28
552.689	7611.21
553.053	7536.19
553.417	7585.68
553.78	7649.4
554.143	7714.26
554.507	7798.78
554.87	7759.23
555.234	7812.11
555.597	7805.78
555.96	7800.81
556.323	7807.59
556.686	7910.19
557.05	7947.93
557.413	7890.75
557.776	7912.22
558.139	8038.32
558.502	7994.48
558.865	8021.37
559.228	8073.57
559.59	8158.77
559.953	8134.59
560.316	8154.02
560.679	8202.61
561.041	8216.62
561.404	8250.52
561.767	8294.58
562.129	8281.7
562.492	8371.42
562.854	8324.19
563.217	8333
563.579	8415.71
563.941	8367.58
564.304	8478.31
564.666	8510.4
565.028	8591.07
565.39	8517.18
565.753	8596.05
566.115	8621.58
566.477	8641.69
566.839	8712.65
567.201	8692.54
567.563	8770.05
567.925	8721.24
568.287	8772.54
568.648	8812.76
569.01	8844.63
569.372	8943.15
569.734	8921.46
570.095	8995.36
570.457	9058.41
570.819	9076.94
571.18	9046.65
571.542	9089.37
571.903	9150.83
572.265	9186.31
572.626	9285.29
572.987	9286.2
573.349	9325.29
573.71	9409.58
574.071	9490.94
574.432	9446.19
574.794	9621.33
575.155	9654.77
575.516	9623.14
575.877	9689.12
576.238	9713.53
576.599	9864.26
576.96	9911.49
577.32	9915.78
577.681	10034.2
578.042	10073.52
578.403	10224.25
578.763	10271.71
579.124	10339.73
579.485	10473.51
579.845	10608.2
580.206	10629.66
580.566	10756.89
580.927	10817.46
581.287	10918.7
581.648	11087.51
582.008	11264.68
582.368	11335.41
582.728	11508.96
583.089	11626.93
583.449	11739.47
583.809	11921.38
584.169	12119.34
584.529	12265.1
584.889	12544.19
585.249	12628.48
585.609	12730.4
585.969	13015.82
586.329	13185.75
586.688	13418.07
587.048	13553.88
587.408	13707.78
587.768	13874.55
588.127	14157.93
588.487	14427.53
588.846	14673.85
589.206	14779.84
589.565	15079.94
589.925	15357.45
590.284	15553.38
590.643	15851.9
591.003	16033.59
591.362	16412.56
591.721	16542.5
592.08	16830.4
592.44	17100
592.799	17380.22
593.158	17657.05
593.517	17943.14
593.876	18242.35
594.235	18443.24
594.593	18774.76
594.952	19071.25
595.311	19301.07
595.67	19670.33
596.029	19942.64
596.387	20147.83
596.746	20535.17
597.104	20601.38
597.463	20976.74
597.822	21383.51
598.18	21508.25
598.538	21784.17
598.897	22139.42
599.255	22229.81
599.613	22835.44
599.972	22933.07
600.33	23370.12
600.688	23467.07
601.046	23843.33
601.404	24182.53
601.762	24440.15
602.12	24714.94
602.478	24989.96
602.836	25212.78
603.194	25326.23
603.552	25578.2
603.91	25834.69
604.268	26189.25
604.625	26349.7
604.983	26757.83
605.341	26797.37
605.698	27096.58
606.056	27414.08
606.413	27666.73
606.771	27867.4
607.128	28291.35
607.485	28184.46
607.843	28536.99
608.2	28914.38
608.557	29188.05
608.914	29327.93
609.272	29592.56
609.629	29876.62
609.986	30006.56
610.343	30256.04
610.7	30663.71
611.057	30670.49
611.414	30865.74
611.771	30950.49
612.127	31255.34
612.484	31425.95
612.841	31676.57
613.198	31783.68
613.554	31824.81
613.911	32115.2
614.267	32308.42
614.624	32368.08
614.98	32556.77
615.337	32950.66
615.693	32902.75
616.05	33083.54
616.406	33426.13
616.762	33342.29
617.118	33470.87
617.475	33618.66
617.831	33751.54
618.187	34095.26
618.543	34198.54
618.899	34469.94
619.255	34556.72
619.611	34624.74
619.967	34780.44
620.323	34987.22
620.678	35028.34
621.034	34888.46
621.39	35066.31
621.746	35268.34
622.101	35644.6
622.457	35326.87
622.812	35564.6
623.168	35777.48
623.523	35814.99
623.879	35959.85
624.234	35852.5
624.589	36039.84
624.945	36239.39
625.3	36253.85
625.655	36203
626.01	36338.59
626.365	36530.45
626.72	36332.72
627.075	36540.4
627.43	36656.55
627.785	36616.33
628.14	36773.84
628.495	36784
628.85	36813.38
629.205	36661.52
629.559	37104.9
629.914	36917.33
630.269	37024.68
630.623	36906.26
630.978	36937.67
631.332	37122.07
631.687	37214.95
632.041	37030.78
632.396	37143.54
632.75	37118.69
633.104	37184.45
633.459	36987.84
633.813	37103.77
634.167	37187.16
634.521	37156.42
634.875	37313.03
635.229	37273.48
635.583	37123.2
635.937	37134.96
636.291	37144.67
636.645	37202.52
636.999	37144.9
637.352	37400.49
637.706	37044.79
638.06	37281.39
638.413	37308.51
638.767	37171.79
639.121	37181.51
639.474	37110.32
639.828	37107.16
640.181	37227.61
640.534	37206.59
640.888	37109.42
641.241	36875.08
641.594	37135.18
641.947	37229.19
642.301	37071
642.654	37162.3
643.007	37104.45
643.36	36961.85
643.713	36969.76
644.066	37109.87
644.419	36964.11
644.771	36679.15
645.124	36396.67
645.477	36475.76
645.83	36153.51
646.182	36032.61
646.535	35947.87
646.888	35945.61
647.24	35792.17
647.593	36153.06
647.945	35881.43
648.298	35950.58
648.65	35711.49
649.002	35574.54
649.355	35909.9
649.707	35810.02
650.059	35952.16
650.411	36354.19
650.763	36531.81
651.115	36938.35
651.467	36748.3
651.819	36675.98
652.171	36542.2
652.523	36563.45
652.875	36522.32
653.227	36405.03
653.578	36679.15
653.93	36705.59
654.282	36359.16
654.633	36459.95
654.985	36465.37
655.337	36581.52
655.688	36486.16
656.039	36576.33
656.391	36349.67
656.742	36419.27
657.094	36396.67
657.445	36453.17
657.796	36391.92
658.147	36325.26
658.498	36298.59
658.849	36499.72
659.2	36299.5
659.551	36339.72
659.902	36539.72
660.253	36339.27
660.604	36510.57
660.955	36204.36
661.306	36354.64
661.656	36168.65
662.007	36348.99
662.358	36276.9
662.708	36254.07
663.059	36266.05
663.409	36019.73
663.76	36276.67
664.11	36225.83
664.461	36223.57
664.811	36311.02
665.161	36208.65
665.511	36116.68
665.862	36179.73
666.212	36183.79
666.562	36293.85
666.912	36140.86
667.262	36148.54
667.612	36129.78
667.962	36331.59
668.312	36194.19
668.662	36301.31
669.011	36216.34
669.361	36147.86
669.711	36127.75
670.06	36215.43
670.41	35940.64
670.76	36045.72
671.109	36021.99
671.459	36092.05
671.808	36009.79
672.157	36037.81
672.507	35934.76
672.856	35891.37
673.205	35895.67
673.554	36021.31
673.904	35981.31
674.253	36110.58
674.602	35915.33
674.951	35474.21
675.3	35360.31
675.649	35843.92
675.998	35739.06
676.346	35830.13
676.695	35725.05
677.044	35746.52
677.393	35711.04
677.741	35749.46
678.09	35761.88
678.438	35682.79
678.787	35650.02
679.135	35790.58
679.484	35408
679.832	35659.51
680.181	35401.44
680.529	35550.59
680.877	35441.44
681.225	35401.22
681.573	35512.17
681.922	35243.93
682.27	35177.49
682.618	35264.04
682.966	35108.57
683.314	35161
683.661	35017.27
684.009	34832.19
684.357	34871.29
684.705	34762.59
685.053	34924.39
685.4	34727.56
685.748	34703.16
686.095	34512.2
686.443	34572.99
686.79	34591.75
687.138	34555.36
687.485	34702.25
687.832	34458.19
688.18	34352.2
688.527	34331.41
688.874	34189.95
689.221	34157.63
689.568	34027.01
689.915	34008.48
690.262	33989.05
690.609	33893.91
690.956	33811.65
691.303	33715.61
691.65	33589.74
691.997	33416.41
692.344	33391.33
692.69	33345.45
693.037	33338.67
693.383	33108.85
693.73	33269.52
694.077	32967.16
694.423	32971.45
694.769	32935.74
695.116	32931.45
695.462	32825.46
695.808	32897.33
696.155	32773.94
696.501	32495.08
696.847	32447.17
697.193	32213.5
697.539	32420.5
697.885	32160.4
698.231	32173.73
698.577	31999.27
698.923	31948.88
699.269	31889.67
699.614	31656.23
699.96	31691.48
700.306	31652.61
700.651	31526.29
700.997	31454.43
701.342	31476.12
701.688	31302.11
702.033	31329.68
702.379	31134.21
702.724	31078.39
703.069	31208.11
703.415	30862.35
703.76	30890.15
704.105	30866.42
704.45	30757.04
704.795	30610.16
705.14	30497.62
705.485	30486.99
705.83	30351.63
706.175	30457.84
706.52	30416.71
706.865	30218.53
707.209	30122.94
707.554	30118.64
707.899	30163.84
708.243	29978.53
708.588	29867.8
708.932	29768.82
709.277	29792.1
709.621	29811.53
709.966	29572.67
710.31	29616.28
710.654	29266.91
710.998	29469.62
711.342	29484.08
711.687	29325.22
712.031	29074.83
712.375	29008.16
712.719	29197.31
713.063	29192.11
713.407	29149.86
713.75	29014.72
714.094	29008.16
714.438	28895.17
714.782	28960.03
715.125	28780.37
715.469	28696.08
715.812	28679.58
716.156	28595.75
716.499	28664.9
716.843	28551.68
717.186	28337.45
717.53	28513.49
717.873	28549.64
718.216	28348.97
718.559	28281.63
718.902	28145.81
719.246	28255.42
719.589	28213.16
719.932	27985.14
720.275	27992.82
720.617	27997.12
720.96	27948.76
721.303	27926.84
721.646	27904.69
721.989	27650.46
722.331	27806.16
722.674	27681.87
723.016	27691.59
723.359	27534.3
723.701	27586.73
724.044	27377.25
724.386	27278.72
724.729	27427.64
725.071	27210.92
725.413	27289.34
725.755	27348.09
726.097	27125.05
726.439	27192.17
726.782	27027.42
727.124	27159.17
727.465	27074.2
727.807	27120.53
728.149	26935.68
728.491	26918.73
728.833	26929.35
729.175	26914.66
729.516	26774.32
729.858	26785.17
730.199	26735.91
730.541	26721.44
730.882	26663.37
731.224	26688.22
731.565	26589.24
731.906	26503.37
732.248	26499.53
732.589	26328.69
732.93	26454.11
733.271	26374.79
733.612	26495.01
733.953	26450.26
734.294	26286.43
734.635	26151.29
734.976	26275.81
735.317	26099.54
735.658	26084.4
735.999	26046.66
736.339	26051.18
736.68	26152.65
737.021	25993.55
737.361	25817.51
737.702	26025.64
738.042	25889.38
738.383	25890.05
738.723	26021.12
739.063	25740.91
739.404	25816.61
739.744	25726.89
740.084	25686.67
740.424	25657.07
740.764	25645.31
741.104	25746.55
741.444	25565.09
741.784	25525.77
742.124	25524.87
742.464	25519.67
742.804	25310.18
743.143	25366.45
743.483	25402.16
743.823	25219.56
744.162	25306.79
744.502	25311.09
744.841	25176.17
745.181	25275.15
745.52	25116.29
745.86	25079.68
746.199	25112.45
746.538	25068.83
746.877	25034.03
747.216	25035.16
747.556	25041.04
747.895	25104.31
748.234	24919.23
748.573	24781.83
748.911	24875.84
749.25	24686.47
749.589	24688.28
749.928	24768.28
750.267	24671.78
750.605	24698.67
750.944	24659.13
751.283	24570.77
751.621	24502.75
751.96	24342.52
752.298	24315.63
752.636	24321.06
752.975	24288.97
753.313	24179.36
753.651	24221.62
753.989	24232.02
754.327	24118.57
754.666	23962.65
755.004	24005.36
755.342	23994.06
755.679	23996.32
756.017	23878.36
756.355	23923.55
756.693	23857.34
757.031	23878.58
757.368	23627.74
757.706	23645.59
758.044	23554.07
758.381	23592.26
758.719	23509.55
759.056	23568.76
759.394	23415.99
759.731	23335.54
760.068	23246.73
760.405	23129
