Data from hue_130_FLMS001491_00096.txt Node
Date: Tue Feb 07 16:58:21 GMT 2017
User: dcchb
Spectrometer: FLMS00149
Trigger mode: 0
Integration Time (sec): 2.000000E-2
Scans to average: 10
Electric dark correction enabled: true
Nonlinearity correction enabled: false
Boxcar width: 0
XAxis mode: Wavelengths
Number of Pixels in Spectrum: 2048
>>>>>Begin Spectral Data<<<<<
341.393	-21.55
341.776	-21.55
342.16	-21.55
342.543	-59.74
342.927	-82.79
343.31	-70.14
343.693	-70.59
344.077	-60.2
344.46	-59.07
344.843	-54.77
345.226	-41.21
345.61	-24.26
345.993	-25.62
346.376	-31.04
346.759	-15
347.142	23.64
347.525	67.26
347.908	66.13
348.291	73.13
348.674	105.9
349.057	115.84
349.44	120.36
349.823	138.44
350.206	163.98
350.588	180.48
350.971	198.55
351.354	227.71
351.737	225.9
352.119	238.1
352.502	252.11
352.884	274.03
353.267	303.18
353.65	295.95
354.032	280.59
354.414	292.11
354.797	313.35
355.179	340.02
355.562	310.42
355.944	335.05
356.326	325.56
356.709	316.52
357.091	345.89
357.473	354.71
357.855	346.8
358.238	342.05
358.62	336.86
359.002	331.21
359.384	339.79
359.766	338.44
360.148	325.56
360.53	332.34
360.912	341.15
361.294	316.07
361.676	329.85
362.057	319.45
362.439	334.6
362.821	303.41
363.203	316.97
363.584	354.48
363.966	335.05
364.348	314.94
364.729	324.88
365.111	304.77
365.493	308.61
365.874	333.69
366.256	306.35
366.637	321.04
367.019	317.42
367.4	313.35
367.781	305.9
368.163	289.85
368.544	304.31
368.925	306.57
369.306	333.01
369.688	334.37
370.069	330.08
370.45	309.51
370.831	300.02
371.212	293.01
371.593	302.05
371.974	309.96
372.355	287.82
372.736	327.82
373.117	297.99
373.498	309.51
373.879	289.17
374.26	332.79
374.641	307.48
375.021	315.16
375.402	319.45
375.783	321.94
376.163	322.84
376.544	322.62
376.925	316.74
377.305	317.87
377.686	331.43
378.066	324.2
378.447	326.69
378.827	323.97
379.208	294.6
379.588	320.36
379.968	323.75
380.349	313.13
380.729	346.8
381.109	315.84
381.489	340.47
381.87	340.7
382.25	335.05
382.63	333.01
383.01	319.68
383.39	332.79
383.77	342.73
384.15	326.69
384.53	331.66
384.91	347.48
385.29	353.13
385.67	333.01
386.049	319.68
386.429	370.3
386.809	330.53
387.189	353.58
387.568	335.05
387.948	352.45
388.328	346.8
388.707	331.66
389.087	356.29
389.466	345.89
389.846	366.23
390.225	348.61
390.605	343.64
390.984	372.56
391.363	374.82
391.743	357.42
392.122	375.27
392.501	372.11
392.881	382.5
393.26	379.34
393.639	373.01
394.018	353.35
394.397	368.95
394.776	375.95
395.155	372.11
395.534	362.84
395.913	359.23
396.292	392.45
396.671	388.61
397.05	382.05
397.429	375.27
397.808	379.11
398.186	387.02
398.565	373.24
398.944	365.1
399.323	390.41
399.701	393.13
400.08	373.92
400.458	385.44
400.837	398.1
401.215	381.6
401.594	368.27
401.972	397.19
402.351	403.29
402.729	409.85
403.107	400.13
403.486	405.55
403.864	387.48
404.242	410.75
404.62	401.26
404.999	402.16
405.377	390.64
405.755	411.66
406.133	407.14
406.511	422.5
406.889	424.08
407.267	413.01
407.645	423.63
408.023	436.51
408.401	429.51
408.779	431.99
409.156	434.25
409.534	452.78
409.912	425.21
410.29	451.88
410.667	441.03
411.045	437.42
411.422	434.93
411.8	457.76
412.178	429.51
412.555	453.01
412.933	467.47
413.31	468.83
413.687	452.11
414.065	487.59
414.442	462.73
414.819	458.43
415.197	479.22
415.574	478.09
415.951	487.36
416.328	471.54
416.705	487.36
417.082	458.89
417.46	481.71
417.837	493.69
418.214	523.29
418.591	477.19
418.967	477.64
419.344	497.08
419.721	509.05
420.098	503.86
420.475	511.31
420.852	499.34
421.228	500.02
421.605	515.16
421.982	535.95
422.358	492.33
422.735	530.3
423.111	533.69
423.488	519
423.864	545.89
424.241	535.95
424.617	540.92
424.994	546.57
425.37	532.33
425.746	545.21
426.123	540.01
426.499	569.62
426.875	540.92
427.251	591.76
427.627	563.52
428.003	562.84
428.379	574.82
428.756	576.85
429.132	574.14
429.507	606.68
429.883	598.09
430.259	606.9
430.635	611.88
431.011	593.12
431.387	581.59
431.763	624.08
432.138	641.93
432.514	629.96
432.89	625.21
433.265	633.8
433.641	648.94
434.016	641.48
434.392	669.05
434.767	649.16
435.143	649.16
435.518	651.42
435.894	664.53
436.269	671.31
436.644	659.56
437.02	693
437.395	705.89
437.77	701.14
438.145	700.91
438.52	697.52
438.895	709.28
439.271	686
439.646	698.65
440.021	733.91
440.395	693.23
440.77	738.88
441.145	744.53
441.52	760.12
441.895	752.89
442.27	753.34
442.645	748.37
443.019	763.96
443.394	771.87
443.769	764.19
444.143	751.53
444.518	777.75
444.892	770.06
445.267	746.56
445.641	785.21
446.016	805.77
446.39	786.11
446.764	794.24
447.139	798.09
447.513	811.65
447.887	801.02
448.262	796.5
448.636	806.67
449.01	845.54
449.384	832.66
449.758	846.9
450.132	873.11
450.506	852.55
450.88	844.64
451.254	841.25
451.628	859.55
452.002	892.1
452.376	904.07
452.75	902.49
453.123	887.12
453.497	909.27
453.871	892.32
454.244	947.69
454.618	926.22
454.992	939.55
455.365	939.1
455.739	956.5
456.112	982.04
456.486	969.16
456.859	989.72
457.232	992.21
457.606	1009.61
457.979	1029.49
458.352	1051.64
458.725	1036.72
459.099	1040.79
459.472	1062.26
459.845	1078.53
460.218	1080.56
460.591	1093.22
460.964	1089.15
461.337	1119.89
461.71	1146.33
462.083	1190.17
462.456	1169.6
462.829	1154.91
463.201	1188.36
463.574	1181.35
463.947	1212.09
464.32	1233.33
464.692	1270.16
465.065	1287.34
465.438	1290.5
465.81	1279.66
466.183	1296.6
466.555	1376.83
466.928	1348.13
467.3	1352.65
467.672	1383.61
468.045	1437.39
468.417	1464.28
468.789	1441.91
469.161	1453.66
469.534	1493.66
469.906	1527.33
470.278	1555.81
470.65	1576.82
471.022	1615.24
471.394	1648.23
471.766	1695.69
472.138	1704.05
472.51	1729.36
472.882	1782.69
473.253	1830.15
473.625	1824.73
473.997	1930.26
474.369	1909.7
474.74	1961.9
475.112	1992.41
475.484	2044.16
475.855	2093.42
476.227	2136.13
476.598	2222.68
476.97	2271.95
477.341	2347.88
477.713	2353.3
478.084	2432.39
478.455	2483.92
478.827	2530.02
479.198	2632.84
479.569	2663.12
479.94	2789.45
480.311	2801.88
480.682	2937.47
481.053	2995.77
481.424	3076.44
481.795	3144.24
482.166	3210.45
482.537	3315.08
482.908	3417.9
483.279	3524.12
483.65	3578.8
484.021	3729.08
484.391	3817.22
484.762	3879.59
485.133	3987.16
485.503	4054.27
485.874	4202.74
486.244	4332.46
486.615	4465.33
486.985	4545.78
487.356	4715.05
487.726	4797.3
488.097	4930.41
488.467	4974.7
488.837	5153.23
489.207	5305.31
489.578	5411.52
489.948	5538.53
490.318	5635.47
490.688	5748.01
491.058	5889.7
491.428	6066.2
491.798	6154.56
492.168	6351.16
492.538	6412.63
492.908	6509.8
493.278	6779.4
493.648	6799.96
494.017	6986.85
494.387	7051.03
494.757	7183.68
495.126	7313.17
495.496	7437.69
495.866	7507.74
496.235	7699.6
496.605	7842.19
496.974	7926.26
497.344	8020.27
497.713	8123.77
498.082	8229.53
498.452	8418
498.821	8467.26
499.19	8525.34
499.559	8768.5
499.928	8791.77
500.298	8917.65
500.667	9024.54
501.036	9067.7
501.405	9202.61
501.774	9255.27
502.143	9357.18
502.512	9450.06
502.88	9544.07
503.249	9610.51
503.618	9684.41
503.987	9717.17
504.356	9823.84
504.724	9900.67
505.093	9971.18
505.462	10121.91
505.83	10185.86
506.199	10243.71
506.567	10373.88
506.936	10438.51
507.304	10593.31
507.672	10599.18
508.041	10613.42
508.409	10710.14
508.777	10843.7
509.145	10890.7
509.514	10905.17
509.882	10945.84
510.25	11051.6
510.618	11146.06
510.986	11131.37
511.354	11255.89
511.722	11286.62
512.09	11406.17
512.458	11400.75
512.826	11400.07
513.193	11505.15
513.561	11501.31
513.929	11604.58
514.297	11601.42
514.664	11719.16
515.032	11741.53
515.4	11771.13
515.767	11818.14
516.135	11896.55
516.502	11818.14
516.869	12024.01
517.237	11945.59
517.604	11880.51
517.972	12051.58
518.339	12073.27
518.706	12033.5
519.073	12139.48
519.44	12107.62
519.808	12249.08
520.175	12197.11
520.542	12333.83
520.909	12353.49
521.276	12300.61
521.643	12366.37
522.009	12398.91
522.376	12443.88
522.743	12443.43
523.11	12534.73
523.477	12610.43
523.843	12665.8
524.21	12683.88
524.577	12680.71
524.943	12691.33
525.31	12706.7
525.676	12807.26
526.043	12927.03
526.409	12862.63
526.776	12901.95
527.142	12807.94
527.508	12886.81
527.874	12980.36
528.241	12964.77
528.607	12916.86
528.973	13014.26
529.339	12991.21
529.705	13037.31
530.071	13075.96
530.437	13073.02
530.803	13081.38
531.169	12991.44
531.535	12952.12
531.901	12928.39
532.267	12958.67
532.632	12993.7
532.998	13008.61
533.364	12974.26
533.73	12963.19
534.095	12944.89
534.461	12952.8
534.826	12986.01
535.192	12945.79
535.557	12942.17
535.923	12931.78
536.288	12877.77
536.653	12994.6
537.019	12769.75
537.384	12799.8
537.749	12804.32
538.114	12789.41
538.479	12791.9
538.845	12723.87
539.21	12636.87
539.575	12636.19
539.94	12701.28
540.305	12718.45
540.67	12637.78
541.034	12592.35
541.399	12558.91
541.764	12517.33
542.129	12504.9
542.494	12486.59
542.858	12549.87
543.223	12433.03
543.587	12522.75
543.952	12395.52
544.316	12357.33
544.681	12297.9
545.045	12332.92
545.41	12294.51
545.774	12305.58
546.138	12182.42
546.503	12108.75
546.867	12200.72
547.231	12158.01
547.595	12114.62
547.959	12060.62
548.324	12038.24
548.688	12089.31
549.052	11954.86
549.416	12023.1
549.779	11955.53
550.143	11889.55
550.507	11905.59
550.871	11905.14
551.235	11847.74
551.599	11898.81
551.962	11868.3
552.326	11770.68
552.689	11770.23
553.053	11624.69
553.417	11725.26
553.78	11789.44
554.143	11670.12
554.507	11695.43
554.87	11675.54
555.234	11661.98
555.597	11551.25
555.96	11576.56
556.323	11557.13
556.686	11484.81
557.05	11580.18
557.413	11572.27
557.776	11516
558.139	11516.67
558.502	11576.11
558.865	11461.99
559.228	11551.48
559.59	11522.32
559.953	11510.35
560.316	11626.05
560.679	11533.4
561.041	11485.71
561.404	11535.21
561.767	11569.1
562.129	11474.19
562.492	11613.17
562.854	11544.02
563.217	11548.54
563.579	11513.74
563.941	11601.87
564.304	11552.61
564.666	11616.33
565.028	11511.93
565.39	11574.98
565.753	11631.7
566.115	11670.79
566.477	11668.53
566.839	11596.67
567.201	11640.74
567.563	11581.98
567.925	11678.25
568.287	11677.35
568.648	11632.83
569.01	11652.72
569.372	11781.75
569.734	11630.8
570.095	11768.42
570.457	11765.71
570.819	11809.1
571.18	11780.62
571.542	11743.34
571.903	11748.31
572.265	11820.17
572.626	11808.42
572.987	11766.39
573.349	11815.88
573.71	11769.1
574.071	11848.87
574.432	11818.36
574.794	11862.43
575.155	11856.55
575.516	11845.71
575.877	11883.67
576.238	11895.2
576.599	11866.5
576.96	11969.54
577.32	11864.46
577.681	11947.4
578.042	11873.95
578.403	11935.65
578.763	11906.27
579.124	11896.1
579.485	12014.74
579.845	11925.25
580.206	11893.16
580.566	12010.9
580.927	11925.48
581.287	11932.03
581.648	11948.53
582.008	11959.15
582.368	11966.83
582.728	11915.76
583.089	11830.56
583.449	11959.6
583.809	11892.48
584.169	11855.2
584.529	11831.02
584.889	11937.68
585.249	11926.83
585.609	11803.9
585.969	11906.72
586.329	11818.59
586.688	11862.65
587.048	11787.63
587.408	11701.75
587.768	11783.56
588.127	11737.69
588.487	11767.06
588.846	11833.5
589.206	11701.3
589.565	11708.99
589.925	11769.32
590.284	11765.03
590.643	11691.59
591.003	11702.43
591.362	11731.58
591.721	11725.03
592.08	11756.67
592.44	11720.96
592.799	11683.22
593.158	11783.79
593.517	11745.6
593.876	11712.38
594.235	11667.63
594.593	11679.16
594.952	11674.86
595.311	11589.89
595.67	11646.16
596.029	11738.14
596.387	11641.87
596.746	11615.66
597.104	11562.78
597.463	11617.01
597.822	11746.95
598.18	11614.98
598.538	11622.43
598.897	11762.77
599.255	11524.13
599.613	11725.26
599.972	11629.44
600.33	11678.93
600.688	11592.6
601.046	11689.55
601.404	11700.17
601.762	11603.45
602.12	11683.22
602.478	11681.87
602.836	11685.48
603.194	11576.11
603.552	11621.76
603.91	11557.13
604.268	11607.75
604.625	11583.57
604.983	11697.23
605.341	11576.11
605.698	11578.59
606.056	11705.6
606.413	11598.71
606.771	11666.95
607.128	11607.75
607.485	11618.82
607.843	11657.46
608.2	11706.05
608.557	11729.55
608.914	11627.18
609.272	11746.95
609.629	11706.73
609.986	11789.89
610.343	11660.4
610.7	11737.23
611.057	11708.08
611.414	11817.01
611.771	11809.32
612.127	11790.79
612.484	11772.49
612.841	11831.47
613.198	11756.44
613.554	11802.99
613.911	11804.58
614.267	11813.84
614.624	11812.71
614.98	11739.95
615.337	11809.55
615.693	11961.18
616.05	11874.18
616.406	11961.18
616.762	11866.27
617.118	11818.59
617.475	11891.81
617.831	11933.16
618.187	11882.77
618.543	11974.06
618.899	11919.15
619.255	11927.51
619.611	11917.12
619.967	12042.99
620.323	11983.1
620.678	11931.35
621.034	11934.97
621.39	11842.99
621.746	11837.12
622.101	12030.79
622.457	11940.62
622.812	11991.46
623.168	12003.44
623.523	12036.43
623.879	12001.86
624.234	11890.45
624.589	11980.62
624.945	11990.56
625.3	11990.79
625.655	11954.86
626.01	11919.15
626.365	11935.87
626.72	11915.99
627.075	11933.61
627.43	11960.73
627.785	11891.13
628.14	11981.52
628.495	11922.09
628.85	11940.84
629.205	11877.12
629.559	11957.34
629.914	11906.95
630.269	11850
630.623	11898.59
630.978	11839.38
631.332	11892.94
631.687	11912.37
632.041	11795.76
632.396	11847.51
632.75	11746.5
633.104	11788.53
633.459	11762.32
633.813	11725.26
634.167	11742.66
634.521	11741.08
634.875	11776.78
635.229	11770.45
635.583	11689.1
635.937	11702.21
636.291	11706.05
636.645	11727.06
636.999	11641.64
637.352	11679.61
637.706	11615.88
638.06	11682.77
638.413	11647.07
638.767	11612.94
639.121	11544.92
639.474	11508.09
639.828	11500.4
640.181	11586.73
640.534	11560.74
640.888	11471.25
641.241	11442.1
641.594	11421.99
641.947	11569.55
642.301	11478.94
642.654	11488.88
643.007	11494.98
643.36	11487.52
643.713	11435.09
644.066	11478.71
644.419	11458.15
644.771	11285.49
645.124	11320.07
645.477	11243.01
645.83	11255.21
646.182	11091.6
646.535	11121.66
646.888	11136.8
647.24	11098.61
647.593	11172.95
647.945	11113.97
648.298	11066.97
648.65	11069.23
649.002	11040.53
649.355	11056.35
649.707	11094.54
650.059	11162.33
650.411	11188.32
650.763	11263.35
651.115	11343.8
651.467	11320.3
651.819	11313.97
652.171	11328.43
652.523	11328.88
652.875	11255.66
653.227	11200.52
653.578	11344.7
653.93	11306.51
654.282	11280.75
654.633	11326.17
654.985	11360.29
655.337	11279.84
655.688	11324.14
656.039	11351.03
656.391	11221.54
656.742	11336.34
657.094	11299.73
657.445	11327.98
657.796	11262.22
658.147	11300.86
658.498	11266.74
658.849	11305.15
659.2	11314.42
659.551	11383.57
659.902	11330.69
660.253	11318.49
660.604	11249.34
660.955	11334.76
661.306	11370.92
661.656	11285.72
662.007	11306.96
662.358	11313.97
662.708	11312.16
663.059	11294.99
663.409	11304.25
663.76	11332.27
664.11	11330.24
664.461	11377.24
664.811	11376.11
665.161	11391.03
665.511	11298.15
665.862	11336.34
666.212	11335.89
666.562	11428.77
666.912	11366.4
667.262	11361.2
667.612	11341.31
667.962	11411.59
668.312	11355.55
668.662	11427.86
669.011	11359.62
669.361	11304.25
669.711	11301.99
670.06	11307.64
670.41	11298.83
670.76	11330.01
671.109	11339.96
671.459	11315.55
671.808	11306.74
672.157	11304.7
672.507	11276.45
672.856	11316.45
673.205	11254.76
673.554	11279.17
673.904	11249.34
674.253	11380.86
674.602	11261.77
674.951	11108.78
675.3	11072.84
675.649	11266.96
675.998	11193.07
676.346	11273.97
676.695	11220.41
677.044	11188.1
677.393	11213.41
677.741	11156.68
678.09	11125.05
678.438	11159.85
678.787	11131.6
679.135	11189.68
679.484	11052.51
679.832	11035.11
680.181	10985.62
680.529	11085.95
680.877	11033.52
681.225	11003.02
681.573	11155.1
681.922	10992.62
682.27	10955.79
682.618	11003.47
682.966	10944.49
683.314	10985.16
683.661	10948.55
684.009	10828.56
684.357	10827.65
684.705	10869.69
685.053	10799.18
685.4	10788.78
685.748	10787.65
686.095	10695.45
686.443	10660.65
686.79	10769.35
687.138	10676.92
687.485	10757.82
687.832	10642.57
688.18	10690.26
688.527	10623.14
688.874	10525.97
689.221	10556.02
689.568	10524.61
689.915	10459.08
690.262	10430.6
690.609	10412.07
690.956	10393.77
691.303	10334.78
691.65	10300.89
691.997	10292.75
692.344	10219.99
692.69	10162.81
693.037	10126.65
693.383	10104.28
693.73	10079.42
694.077	10051.4
694.423	9991.74
694.769	9970.27
695.116	10014.57
695.462	9988.58
695.808	9913.1
696.155	10011.4
696.501	9865.87
696.847	9822.93
697.193	9836.04
697.539	9806.21
697.885	9715.14
698.231	9621.36
698.577	9725.08
698.923	9659.77
699.269	9603.73
699.614	9582.71
699.96	9535.94
700.306	9523.51
700.651	9421.81
700.997	9428.82
701.342	9489.16
701.688	9394.24
702.033	9336.17
702.379	9392.44
702.724	9260.91
703.069	9312.66
703.415	9215.27
703.76	9201.03
704.105	9197.64
704.45	9102.73
704.795	9070.41
705.14	9008.04
705.485	9126.68
705.83	8964.65
706.175	9013.69
706.52	9034.93
706.865	8956.52
707.209	8960.13
707.554	8947.02
707.899	8937.76
708.243	8892.34
708.588	8842.17
708.932	8693.47
709.277	8757.2
709.621	8768.5
709.966	8669.07
710.31	8702.06
710.654	8654.6
710.998	8628.39
711.342	8715.84
711.687	8648.5
712.031	8554.27
712.375	8589.07
712.719	8521.05
713.063	8539.35
713.407	8534.38
713.75	8535.51
714.094	8569.18
714.438	8428.62
714.782	8403.99
715.125	8410.77
715.469	8392.24
715.812	8346.81
716.156	8349.98
716.499	8347.49
716.843	8305.23
717.186	8312.92
717.53	8273.6
717.873	8314.72
718.216	8296.19
718.559	8283.54
718.902	8304.56
719.246	8241.28
719.589	8201.73
719.932	8218.68
720.275	8185.91
720.617	8188.17
720.96	8199.47
721.303	8262.3
721.646	8182.3
721.989	8130.77
722.331	8207.61
722.674	8130.55
723.016	8129.19
723.359	8115.63
723.701	8143.66
724.044	8161.06
724.386	8085.58
724.729	8111.79
725.071	8119.25
725.413	8127.61
725.755	8125.35
726.097	8045.81
726.439	8005.35
726.782	8022.08
727.124	8039.48
727.465	8005.58
727.807	8068.18
728.149	8072.47
728.491	8007.61
728.833	8031.34
729.175	8013.26
729.516	8038.12
729.858	7964.9
730.199	8098.46
730.541	8014.39
730.882	8019.37
731.224	8019.14
731.565	7946.6
731.906	8011.23
732.248	8010.78
732.589	7968.75
732.93	7960.84
733.271	7960.84
733.612	7987.28
733.953	7976.88
734.294	7984.11
734.635	7961.29
734.976	8024.79
735.317	7988.41
735.658	7959.93
735.999	8032.92
736.339	7992.7
736.68	7983.43
737.021	7947.95
737.361	7959.03
737.702	8022.53
738.042	7975.07
738.383	8004.9
738.723	7989.54
739.063	8047.16
739.404	8032.7
739.744	8022.08
740.084	8066.14
740.424	8051.45
740.764	8043.32
741.104	8088.29
741.444	8083.54
741.784	8084.45
742.124	8062.75
742.464	8178.68
742.804	8187.95
743.143	8120.83
743.483	8138.91
743.823	8128.74
744.162	8194.95
744.502	8239.7
744.841	8270.66
745.181	8280.6
745.52	8279.47
745.86	8305.46
746.199	8381.62
746.538	8447.38
746.877	8546.36
747.216	8578.22
747.556	8541.16
747.895	8565.79
748.234	8646.02
748.573	8716.52
748.911	8737.76
749.25	8731.89
749.589	8839.68
749.928	8912.45
750.267	8980.92
750.605	8992.45
750.944	9094.37
751.283	9155.83
751.621	9297.3
751.96	9304.53
752.298	9395.83
752.636	9491.42
752.975	9519.21
753.313	9630.85
753.651	9797.4
753.989	9813.67
754.327	9941.8
754.666	10007.79
755.004	10139.99
755.342	10338.17
755.679	10482.8
756.017	10533.88
756.355	10736.13
756.693	10783.81
757.031	10938.61
757.368	10997.82
757.706	11191.03
758.044	11270.13
758.381	11527.07
758.719	11558.48
759.056	11768.87
759.394	11942.65
759.731	11913.73
760.068	12176.54
