Data from hue_100_FLMS001491_00084.txt Node
Date: Tue Feb 07 17:03:46 GMT 2017
User: dcchb
Spectrometer: FLMS00149
Trigger mode: 0
Integration Time (sec): 2.000000E-2
Scans to average: 10
Electric dark correction enabled: true
Nonlinearity correction enabled: false
Boxcar width: 0
XAxis mode: Wavelengths
Number of Pixels in Spectrum: 2048
>>>>>Begin Spectral Data<<<<<
341.393	9.7
341.776	9.7
342.16	9.7
342.543	-56.06
342.927	-58.32
343.31	-74.81
343.693	-70.52
344.077	-79.79
344.46	-50.63
344.843	-70.07
345.226	-42.95
345.61	-14.48
345.993	-15.38
346.376	2.7
346.759	1.12
347.142	25.07
347.525	64.16
347.908	61.23
348.291	80.89
348.674	79.08
349.057	104.39
349.44	122.47
349.823	160.66
350.206	143.26
350.588	186.2
350.971	216.03
351.354	225.29
351.737	243.37
352.119	260.54
352.502	289.24
352.884	283.82
353.267	299.41
353.65	280.2
354.032	298.06
354.414	320.2
354.797	324.27
355.179	302.35
355.562	323.59
355.944	335.57
356.326	345.06
356.709	348.45
357.091	333.31
357.473	345.29
357.855	355.91
358.238	347.1
358.62	358.62
359.002	331.95
359.384	327.66
359.766	335.34
360.148	335.8
360.53	337.6
360.912	334.44
361.294	346.64
361.676	341.9
362.057	326.98
362.439	336.7
362.821	328.79
363.203	339.41
363.584	343.03
363.966	329.92
364.348	353.65
364.729	327.21
365.111	318.4
365.493	329.24
365.874	329.92
366.256	307.77
366.637	305.06
367.019	311.84
367.4	324.72
367.781	313.42
368.163	309.13
368.544	344.38
368.925	320.2
369.306	312.52
369.688	335.57
370.069	297.83
370.45	310.03
370.831	308.9
371.212	337.83
371.593	316.36
371.974	325.63
372.355	326.3
372.736	323.59
373.117	321.11
373.498	309.58
373.879	326.98
374.26	327.43
374.641	324.95
375.021	326.76
375.402	341.45
375.783	305.51
376.163	331.73
376.544	341.45
376.925	345.74
377.305	350.49
377.686	335.8
378.066	315.01
378.447	332.63
378.827	334.44
379.208	323.82
379.588	342.12
379.968	345.97
380.349	342.35
380.729	344.84
381.109	343.25
381.489	351.39
381.87	348.23
382.25	351.16
382.63	353.65
383.01	369.47
383.39	356.13
383.77	347.77
384.15	374.89
384.53	359.52
384.91	355.46
385.29	376.7
385.67	368.79
386.049	373.31
386.429	358.62
386.809	367.43
387.189	363.59
387.568	368.79
387.948	364.5
388.328	352.97
388.707	378.96
389.087	353.2
389.466	383.93
389.846	371.28
390.225	384.16
390.605	377.83
390.984	373.54
391.363	362.24
391.743	369.92
392.122	390.71
392.501	400.2
392.881	401.78
393.26	382.12
393.639	409.69
394.018	400.43
394.397	371.5
394.776	411.95
395.155	420.99
395.534	395.46
395.913	418.51
396.292	411.27
396.671	402.24
397.05	419.41
397.429	404.27
397.808	405.4
398.186	393.87
398.565	404.95
398.944	413.08
399.323	412.4
399.701	429.35
400.08	402.69
400.458	423.7
400.837	409.69
401.215	429.35
401.594	425.96
401.972	420.99
402.351	438.17
402.729	453.31
403.107	432.74
403.486	445.17
403.864	445.4
404.242	446.98
404.62	429.35
404.999	450.82
405.377	469.35
405.755	473.65
406.133	450.37
406.511	434.32
406.889	462.35
407.267	454.89
407.645	476.58
408.023	470.26
408.401	478.39
408.779	457.15
409.156	480.88
409.534	487.43
409.912	493.76
410.29	469.8
410.667	508.9
411.045	510.25
411.422	513.19
411.8	536.02
412.178	522.01
412.555	532.85
412.933	522.68
413.31	523.14
413.687	520.65
414.065	543.47
414.442	535.79
414.819	532.85
415.197	570.59
415.574	548.9
415.951	558.62
416.328	540.54
416.705	576.47
417.082	552.97
417.46	551.84
417.837	562.91
418.214	540.76
418.591	576.24
418.967	567.65
419.344	581.67
419.721	591.83
420.098	598.16
420.475	599.97
420.852	586.19
421.228	586.64
421.605	629.12
421.982	603.13
422.358	627.54
422.735	633.42
423.111	621.21
423.488	642.91
423.864	611.27
424.241	642.91
424.617	635
424.994	662.79
425.37	649.91
425.746	643.36
426.123	669.12
426.499	642.91
426.875	642.45
427.251	673.41
427.627	688.33
428.003	673.87
428.379	693.75
428.756	686.52
429.132	714.09
429.507	715.45
429.883	708.67
430.259	714.09
430.635	727.65
431.011	728.1
431.387	736.46
431.763	751.38
432.138	759.97
432.514	754.54
432.89	753.86
433.265	764.94
433.641	778.27
434.016	797.71
434.392	799.29
434.767	809
435.143	795.22
435.518	809.91
435.894	823.47
436.269	850.58
436.644	843.13
437.02	852.62
437.395	871.15
437.77	849.46
438.145	844.03
438.52	871.6
438.895	902.79
439.271	897.82
439.646	913.86
440.021	907.08
440.395	912.5
440.77	923.13
441.145	945.05
441.52	918.15
441.895	926.97
442.27	948.89
442.645	937.59
443.019	975.1
443.394	949.57
443.769	947.76
444.143	966.97
444.518	1003.8
444.892	992.5
445.267	982.11
445.641	1005.61
446.016	989.11
446.39	1017.59
446.764	972.39
447.139	1024.37
447.513	1015.33
447.887	1018.72
448.262	1028.66
448.636	1039.05
449.01	1044.03
449.384	1037.47
449.758	1059.85
450.132	1077.02
450.506	1056.23
450.88	1109.34
451.254	1084.25
451.628	1108.21
452.002	1091.93
452.376	1129.67
452.75	1143.68
453.123	1148.66
453.497	1171.93
453.871	1138.26
454.244	1193.63
454.618	1190.01
454.992	1215.32
455.365	1223.23
455.739	1253.06
456.112	1266.85
456.486	1246.51
456.859	1270.01
457.232	1276.11
457.606	1310.23
457.979	1307.3
458.352	1319.95
458.725	1346.84
459.099	1369.44
459.472	1380.06
459.845	1395.43
460.218	1409.67
460.591	1454.86
460.964	1426.39
461.337	1466.16
461.71	1492.83
462.083	1531.02
462.456	1515.43
462.829	1545.93
463.201	1570.57
463.574	1574.18
463.947	1601.3
464.32	1607.4
464.692	1635.65
465.065	1663.67
465.438	1698.47
465.81	1714.97
466.183	1744.12
466.555	1782.76
466.928	1805.36
467.3	1792.93
467.672	1841.52
468.045	1898.24
468.417	1893.04
468.789	1924.91
469.161	1956.54
469.534	1984.34
469.906	2054.85
470.278	2041.97
470.65	2102.3
471.022	2147.73
471.394	2195.18
471.766	2232.47
472.138	2232.24
472.51	2326.7
472.882	2371.22
473.253	2394.73
473.625	2440.15
473.997	2506.13
474.369	2542.07
474.74	2591.56
475.112	2652.8
475.484	2714.26
475.855	2749.97
476.227	2787.71
476.598	2905.67
476.97	2964.88
477.341	3061.83
477.713	3154.93
478.084	3166.46
478.455	3316.28
478.827	3354.25
479.198	3495.94
479.569	3509.27
479.94	3650.74
480.311	3702.71
480.682	3784.07
481.053	3935.48
481.424	4034.23
481.795	4122.14
482.166	4207.78
482.537	4333.21
482.908	4442.58
483.279	4559.87
483.65	4702.01
484.021	4842.34
484.391	4927.77
484.762	4993.75
485.133	5146.52
485.503	5323.69
485.874	5490.01
486.244	5564.36
486.615	5693.17
486.985	5827.4
487.356	6011.35
487.726	6118.92
488.097	6365.69
488.467	6381.74
488.837	6558.68
489.207	6741.73
489.578	6892.91
489.948	7096.52
490.318	7249.96
490.688	7276.18
491.058	7457.19
491.428	7692.21
491.798	7835.49
492.168	8005.2
492.538	8100.34
492.908	8241.13
493.278	8466.88
493.648	8559.99
494.017	8703.71
494.387	8870.71
494.757	9009.92
495.126	9144.15
495.496	9242.91
495.866	9415.56
496.235	9601.77
496.605	9754.31
496.974	9860.74
497.344	10030.23
497.713	10146.39
498.082	10252.15
498.452	10344.12
498.821	10487.62
499.19	10578.01
499.559	10759.93
499.928	10901.85
500.298	10986.82
500.667	11136.19
501.036	11165.34
501.405	11345.22
501.774	11387.48
502.143	11526.01
502.512	11622.73
502.88	11700.47
503.249	11794.48
503.618	11992.89
503.987	12044.87
504.356	12086.45
504.724	12274.92
505.093	12265.2
505.462	12410.28
505.83	12524.4
506.199	12634.91
506.567	12838.52
506.936	12855.02
507.304	12950.83
507.672	13010.94
508.041	13116.93
508.409	13179.3
508.777	13276.92
509.145	13428.11
509.514	13363.93
509.882	13481.89
510.25	13568.22
510.618	13631.49
510.986	13648.44
511.354	13772.51
511.722	13950.58
512.09	13941.54
512.458	13970.01
512.826	14104.7
513.193	14170.46
513.561	14107.64
513.929	14271.02
514.297	14398.48
514.664	14380.62
515.032	14540.62
515.4	14649.32
515.767	14623.78
516.135	14697.45
516.502	14544.69
516.869	14766.15
517.237	14871.01
517.604	14774.74
517.972	14934.28
518.339	14985.13
518.706	14927.28
519.073	14946.03
519.44	15025.81
519.808	15213.82
520.175	15094.73
520.542	15291.11
520.909	15427.15
521.276	15371.79
521.643	15449.07
522.009	15549.63
522.376	15530.88
522.743	15603.42
523.11	15601.38
523.477	15738.1
523.843	15790.08
524.21	15888.16
524.577	15916.4
524.943	16036.85
525.31	15960.02
525.676	16115.49
526.043	16158.88
526.409	16139.22
526.776	16176.74
527.142	16286.34
527.508	16233.91
527.874	16346.9
528.241	16375.83
528.607	16335.15
528.973	16524.98
529.339	16411.08
529.705	16436.16
530.071	16520
530.437	16562.49
530.803	16544.18
531.169	16642.26
531.535	16616.95
531.901	16537.18
532.267	16666.21
532.632	16657.63
532.998	16664.63
533.364	16648.81
533.73	16671.19
534.095	16593.22
534.461	16661.24
534.826	16711.86
535.192	16581.47
535.557	16749.38
535.923	16544.64
536.288	16570.62
536.653	16690.39
537.019	16554.8
537.384	16501.47
537.749	16491.3
538.114	16547.57
538.479	16508.25
538.845	16601.81
539.21	16390.97
539.575	16420.35
539.94	16391.87
540.305	16459.44
540.67	16391.65
541.034	16321.59
541.399	16361.59
541.764	16378.09
542.129	16380.35
542.494	16352.1
542.858	16322.04
543.223	16268.71
543.587	16334.7
543.952	16297.64
544.316	16186.45
544.681	16066
545.045	16147.36
545.41	16210.41
545.774	16075.5
546.138	15981.71
546.503	16061.71
546.867	15988.72
547.231	16079.56
547.595	16060.58
547.959	16026.68
548.324	15931.77
548.688	15886.12
549.052	15871.21
549.416	15910.53
549.779	15805.9
550.143	15799.12
550.507	15781.49
550.871	15796.41
551.235	15729.06
551.599	15905.56
551.962	15796.41
552.326	15743.07
552.689	15763.19
553.053	15647.94
553.417	15644.55
553.78	15744.43
554.143	15580.59
554.507	15642.74
554.87	15593.02
555.234	15744.2
555.597	15648.39
555.96	15668.5
556.323	15671.21
556.686	15579.46
557.05	15559.12
557.413	15630.54
557.776	15559.8
558.139	15591.44
558.502	15563.42
558.865	15546.02
559.228	15657.2
559.59	15655.62
559.953	15611.1
560.316	15690.19
560.679	15635.51
561.041	15679.12
561.404	15749.4
561.767	15680.48
562.129	15637.31
562.492	15821.26
562.854	15642.74
563.217	15621.04
563.579	15701.72
563.941	15826.24
564.304	15816.52
564.666	15891.55
565.028	15800.02
565.39	15814.94
565.753	15832.34
566.115	15882.05
566.477	15892.9
566.839	15925.89
567.201	15939.45
567.563	15950.98
567.925	16050.41
568.287	16056.29
568.648	16045.67
569.01	16135.15
569.372	16105.1
569.734	16127.47
570.095	16219.67
570.457	16234.36
570.819	16137.41
571.18	16128.6
571.542	16179.9
571.903	16187.36
572.265	16270.29
572.626	16266.45
572.987	16276.39
573.349	16288.37
573.71	16253.8
574.071	16297.86
574.432	16374.7
574.794	16437.29
575.155	16399.33
575.516	16329.95
575.877	16386
576.238	16410.4
576.599	16392.78
576.96	16426.67
577.32	16413.79
577.681	16595.93
578.042	16491.53
578.403	16399.78
578.763	16545.31
579.124	16354.81
579.485	16493.11
579.845	16509.83
580.206	16521.13
580.566	16505.77
580.927	16571.53
581.287	16571.08
581.648	16516.84
582.008	16556.39
582.368	16448.14
582.728	16514.13
583.089	16500.34
583.449	16430.06
583.809	16443.4
584.169	16388.71
584.529	16504.64
584.889	16451.3
585.249	16497.63
585.609	16415.83
585.969	16507.12
586.329	16389.39
586.688	16444.53
587.048	16469.16
587.408	16277.07
587.768	16357.07
588.127	16350.52
588.487	16293.57
588.846	16409.95
589.206	16254.02
589.565	16286.11
589.925	16404.98
590.284	16353.68
590.643	16380.35
591.003	16288.15
591.362	16455.82
591.721	16304.19
592.08	16331.99
592.44	16422.83
592.799	16414.02
593.158	16246.11
593.517	16288.82
593.876	16281.59
594.235	16316.39
594.593	16282.95
594.952	16253.34
595.311	16174.48
595.67	16260.8
596.029	16270.74
596.387	16264.42
596.746	16231.65
597.104	16191.65
597.463	16227.81
597.822	16310.74
598.18	16245.89
598.538	16136.51
598.897	16221.03
599.255	16112.78
599.613	16333.12
599.972	16252.89
600.33	16214.93
600.688	16193.68
601.046	16243.85
601.404	16247.24
601.762	16269.61
602.12	16285.21
602.478	16289.05
602.836	16314.13
603.194	16221.25
603.552	16260.12
603.91	16178.54
604.268	16181.03
604.625	16150.97
604.983	16193.68
605.341	16197.75
605.698	16218.54
606.056	16354.13
606.413	16181.03
606.771	16372.44
607.128	16257.19
607.485	16241.14
607.843	16225.1
608.2	16298.99
608.557	16332.66
608.914	16239.33
609.272	16433
609.629	16392.1
609.986	16502.6
610.343	16371.08
610.7	16500.79
611.057	16364.75
611.414	16300.8
611.771	16420.57
612.127	16456.73
612.484	16517.97
612.841	16498.54
613.198	16402.04
613.554	16424.86
613.911	16585.09
614.267	16441.81
614.624	16558.65
614.98	16450.63
615.337	16599.1
615.693	16588.7
616.05	16643.62
616.406	16695.59
616.762	16547.35
617.118	16554.13
617.475	16559.55
617.831	16707.34
618.187	16698.53
618.543	16631.41
618.899	16743.73
619.255	16591.19
619.611	16730.85
619.967	16765.65
620.323	16744.4
620.678	16697.85
621.034	16671.86
621.39	16701.24
621.746	16651.3
622.101	16869.37
622.457	16663.73
622.812	16759.32
623.168	16778.08
623.523	16684.29
623.879	16819.2
624.234	16682.49
624.589	16769.71
624.945	16776.72
625.3	16784.4
625.655	16758.19
626.01	16800.45
626.365	16724.29
626.72	16603.84
627.075	16805.87
627.43	16672.32
627.785	16743.05
628.14	16771.3
628.495	16790.28
628.85	16793.22
629.205	16691.98
629.559	16775.82
629.914	16629.83
630.269	16604.52
630.623	16781.69
630.978	16654.69
631.332	16675.71
631.687	16675.25
632.041	16564.07
632.396	16606.78
632.75	16511.42
633.104	16705.08
633.459	16507.57
633.813	16496.28
634.167	16543.05
634.521	16526.56
634.875	16476.16
635.229	16433.23
635.583	16355.04
635.937	16371.98
636.291	16314.81
636.645	16430.97
636.999	16328.6
637.352	16366.79
637.706	16306.45
638.06	16367.92
638.413	16289.95
638.767	16171.99
639.121	16237.75
639.474	16202.5
639.828	16136.51
640.181	16161.82
640.534	16232.78
640.888	16162.95
641.241	16153.23
641.594	16172.22
641.947	16121.14
642.301	16130.41
642.654	16089.05
643.007	16089.28
643.36	16065.1
643.713	16057.42
644.066	16070.3
644.419	15992.11
644.771	15936.52
645.124	15774.26
645.477	15710.76
645.83	15720.48
646.182	15603.42
646.535	15586.02
646.888	15569.07
647.24	15469.86
647.593	15519.13
647.945	15485.45
648.298	15470.54
648.65	15392.12
649.002	15389.19
649.355	15505.79
649.707	15458.11
650.059	15550.31
650.411	15771.55
650.763	15783.98
651.115	15899.23
651.467	15831.21
651.819	15882.73
652.171	15801.6
652.523	15756.41
652.875	15822.62
653.227	15723.87
653.578	15863.75
653.93	15785.11
654.282	15739.46
654.633	15762.51
654.985	15724.32
655.337	15760.7
655.688	15816.29
656.039	15847.25
656.391	15740.81
656.742	15785.56
657.094	15776.97
657.445	15860.59
657.796	15802.06
658.147	15775.16
658.498	15759.8
658.849	15798.21
659.2	15745.79
659.551	15808.84
659.902	15853.81
660.253	15830.08
660.604	15891.77
660.955	15785.56
661.306	15792.56
661.656	15705.11
662.007	15814.71
662.358	15880.92
662.708	15874.37
663.059	15837.99
663.409	15724.54
663.76	15876.86
664.11	15855.61
664.461	15824.88
664.811	15834.6
665.161	15884.54
665.511	15817.88
665.862	15840.25
666.212	15939.68
666.562	15932.67
666.912	15864.2
667.262	15867.14
667.612	15865.56
667.962	15892.45
668.312	15831.89
668.662	15898.1
669.011	15787.82
669.361	15901.26
669.711	15826.01
670.06	15806.58
670.41	15753.7
670.76	15775.39
671.109	15814.03
671.459	15747.82
671.808	15783.3
672.157	15791.44
672.507	15719.8
672.856	15660.82
673.205	15671.44
673.554	15738.33
673.904	15659.91
674.253	15773.36
674.602	15724.54
674.951	15495.17
675.3	15365.91
675.649	15675.51
675.998	15603.87
676.346	15623.3
676.695	15661.49
677.044	15555.28
677.393	15626.69
677.741	15599.58
678.09	15628.05
678.438	15519.8
678.787	15535.4
679.135	15560.03
679.484	15320.71
679.832	15386.47
680.181	15377.43
680.529	15455.17
680.877	15366.81
681.225	15383.31
681.573	15419.92
681.922	15323.88
682.27	15267.38
682.618	15209.98
682.966	15288.17
683.314	15260.15
683.661	15212.24
684.009	15046.82
684.357	15100.83
684.705	15020.16
685.053	15010.21
685.4	15048.86
685.748	14948.52
686.095	14997.11
686.443	14870.33
686.79	14870.56
687.138	14792.82
687.485	14850.67
687.832	14809.77
688.18	14777
688.527	14749.43
688.874	14647.06
689.221	14611.81
689.568	14550.79
689.915	14562.77
690.262	14574.97
690.609	14487.06
690.956	14394.86
691.303	14423.34
691.65	14370
691.997	14337.69
692.344	14158.94
692.69	14244.36
693.037	14258.82
693.383	14079.62
693.73	14053.18
694.077	14019.28
694.423	14080.07
694.769	13932.5
695.116	13938.15
695.462	13914.2
695.808	13823.58
696.155	13880.98
696.501	13744.48
696.847	13699.06
697.193	13586.07
697.539	13638.95
697.885	13605.5
698.231	13522.57
698.577	13626.75
698.923	13466.3
699.269	13388.79
699.614	13331.61
699.96	13236.47
700.306	13255.91
700.651	13163.93
700.997	13159.87
701.342	13102.24
701.688	13038.51
702.033	12883.49
702.379	12979.76
702.724	12923.04
703.069	12974.33
703.415	12809.82
703.76	12867.44
704.105	12790.61
704.45	12754
704.795	12645.53
705.14	12586.77
705.485	12608.24
705.83	12589.94
706.175	12592.88
706.52	12552.2
706.865	12532.31
707.209	12396.27
707.554	12393.33
707.899	12410.73
708.243	12323.05
708.588	12310.62
708.932	12261.58
709.277	12189.5
709.621	12193.56
709.966	12118.31
710.31	12087.8
710.654	12005.32
710.998	12071.31
711.342	12018.43
711.687	12008.26
712.031	11898.43
712.375	11876.51
712.719	11919.9
713.063	11871.31
713.407	11866.57
713.75	11833.8
714.094	11815.95
714.438	11760.58
714.782	11774.37
715.125	11726.68
715.469	11825.44
715.812	11688.04
716.156	11572.79
716.499	11658.66
716.843	11661.15
717.186	11551.55
717.53	11639.23
717.873	11680.81
718.216	11598.78
718.559	11504.09
718.902	11417.54
719.246	11566.69
719.589	11487.59
719.932	11461.61
720.275	11369.18
720.617	11340.48
720.96	11425.9
721.303	11359.24
721.646	11314.94
721.989	11251.22
722.331	11376.41
722.674	11286.47
723.016	11282.85
723.359	11323.3
723.701	11299.58
724.044	11273.59
724.386	11166.25
724.729	11300.25
725.071	11264.1
725.413	11233.59
725.755	11170.77
726.097	11188.17
726.439	11043.31
726.782	11134.83
727.124	11179.35
727.465	11146.81
727.807	11112.24
728.149	11104.78
728.491	11062.07
728.833	11138.45
729.175	11055.51
729.516	11108.85
729.858	11055.74
730.199	11034.95
730.541	11048.06
730.882	11050.09
731.224	11063.42
731.565	11011.22
731.906	11041.96
732.248	11074.04
732.589	11011.45
732.93	10966.25
733.271	11032.01
733.612	11032.24
733.953	11008.74
734.294	10993.14
734.635	11045.12
734.976	11058
735.317	11015.06
735.658	10976.65
735.999	10994.95
736.339	11007.38
736.68	10982.07
737.021	10990.88
737.361	11019.13
737.702	11027.49
738.042	10977.32
738.383	10990.43
738.723	10987.95
739.063	11053.25
739.404	11064.33
739.744	11074.5
740.084	11040.15
740.424	11074.04
740.764	11060.71
741.104	11166.92
741.444	11128.05
741.784	11075.17
742.124	11081.28
742.464	11183.65
742.804	11190.2
743.143	11180.71
743.483	11193.82
743.823	11129.41
744.162	11218
744.502	11303.87
744.841	11277.66
745.181	11329.86
745.52	11347.71
745.86	11397.2
746.199	11404.43
746.538	11382.96
746.877	11498.44
747.216	11639
747.556	11598.1
747.895	11594.71
748.234	11683.75
748.573	11768.72
748.911	11787.7
749.25	11853.01
749.589	11953.57
749.928	11984.08
750.267	12150.17
750.605	12177.52
750.944	12281.24
751.283	12311.53
751.621	12488.25
751.96	12439.43
752.298	12577.51
752.636	12732.76
752.975	12734.34
753.313	12876.48
753.651	13032.19
753.989	13043.03
754.327	13179.53
754.666	13239.64
755.004	13431.27
755.342	13593.98
755.679	13664.03
756.017	13755.56
756.355	13977.7
