Data from hue_260_FLMS001491_00045.txt Node
Date: Tue Feb 07 15:59:03 GMT 2017
User: dcchb
Spectrometer: FLMS00149
Trigger mode: 0
Integration Time (sec): 2.000000E-2
Scans to average: 10
Electric dark correction enabled: true
Nonlinearity correction enabled: false
Boxcar width: 0
XAxis mode: Wavelengths
Number of Pixels in Spectrum: 2048
>>>>>Begin Spectral Data<<<<<
341.393	-21.06
341.776	-21.06
342.16	-21.06
342.543	-46.59
342.927	-80.94
343.31	-50.66
343.693	-65.8
344.077	-86.82
344.46	-56.31
344.843	-62.87
345.226	-60.83
345.61	-9.31
345.993	-22.87
346.376	5.16
346.759	0.41
347.142	25.72
347.525	50.58
347.908	51.71
348.291	83.57
348.674	102.33
349.057	96
349.44	101.2
349.823	146.62
350.206	136.45
350.588	184.81
350.971	201.53
351.354	208.31
351.737	222.1
352.119	233.17
352.502	246.96
352.884	239.95
353.267	248.54
353.65	293.28
354.032	288.99
354.414	300.06
354.797	287.18
355.179	307.75
355.562	310.01
355.944	307.29
356.326	310.01
356.709	343.23
357.091	325.37
357.473	338.71
357.855	329.21
358.238	351.36
358.62	321.31
359.002	330.12
359.384	330.34
359.766	324.24
360.148	322.21
360.53	321.53
360.912	314.53
361.294	323.11
361.676	317.01
362.057	333.96
362.439	329.44
362.821	341.87
363.203	325.37
363.584	309.1
363.966	309.78
364.348	330.8
364.729	317.92
365.111	330.34
365.493	298.48
365.874	310.91
366.256	323.34
366.637	318.59
367.019	278.37
367.4	297.12
367.781	297.35
368.163	296.9
368.544	292.38
368.925	299.16
369.306	284.24
369.688	288.99
370.069	310.68
370.45	297.12
370.831	307.97
371.212	297.58
371.593	307.97
371.974	314.75
372.355	313.4
372.736	298.03
373.117	320.4
373.498	299.16
373.879	302.77
374.26	291.93
374.641	320.85
375.021	305.94
375.402	326.95
375.783	309.78
376.163	321.98
376.544	280.85
376.925	300.06
377.305	327.86
377.686	310.68
378.066	313.17
378.447	308.65
378.827	327.18
379.208	311.59
379.588	330.12
379.968	322.44
380.349	314.3
380.729	349.55
381.109	321.53
381.489	333.51
381.87	319.95
382.25	328.54
382.63	323.34
383.01	337.8
383.39	348.2
383.77	337.12
384.15	312.72
384.53	324.02
384.91	337.8
385.29	347.07
385.67	336.45
386.049	319.27
386.429	342.77
386.809	343
387.189	339.38
387.568	336.67
387.948	345.26
388.328	345.26
388.707	357.24
389.087	347.29
389.466	357.24
389.846	360.63
390.225	359.27
390.605	361.53
390.984	350.68
391.363	366.05
391.743	372.38
392.122	387.74
392.501	348.42
392.881	371.47
393.26	363.79
393.639	368.08
394.018	352.04
394.397	374.41
394.776	384.13
395.155	373.28
395.534	365.6
395.913	381.42
396.292	366.73
396.671	392.49
397.05	380.06
397.429	376.9
397.808	378.7
398.186	389.55
398.565	385.94
398.944	383.68
399.323	393.85
399.701	395.65
400.08	409.66
400.458	402.88
400.837	405.6
401.215	410.12
401.594	423.68
401.972	410.34
402.351	416.44
402.729	420.29
403.107	423.45
403.486	430
403.864	438.82
404.242	417.35
404.62	437.01
404.999	430.68
405.377	431.36
405.755	441.08
406.133	432.49
406.511	457.12
406.889	450.79
407.267	448.08
407.645	461.41
408.023	455.99
408.401	449.66
408.779	484.24
409.156	482.88
409.534	486.05
409.912	493.28
410.29	517.91
410.667	503.22
411.045	502.09
411.422	524.92
411.8	511.81
412.178	532.6
412.555	518.36
412.933	547.74
413.31	536.67
413.687	542.99
414.065	593.61
414.442	555.65
414.819	564.69
415.197	571.24
415.574	570.34
415.951	605.59
416.328	598.36
416.705	618.7
417.082	610.56
417.46	638.58
417.837	606.5
418.214	617.57
418.591	644.91
418.967	638.36
419.344	644.91
419.721	679.71
420.098	681.3
420.475	672.03
420.852	692.82
421.228	706.83
421.605	721.52
421.982	712.26
422.358	738.02
422.735	745.02
423.111	737.79
423.488	728.98
423.864	754.29
424.241	767.85
424.617	755.42
424.994	788.41
425.37	788.86
425.746	812.82
426.123	837.68
426.499	847.39
426.875	825.02
427.251	856.88
427.627	891.69
428.003	859.37
428.379	866.15
428.756	889.65
429.132	915.41
429.507	893.49
429.883	913.38
430.259	945.7
430.635	918.58
431.011	937.56
431.387	986.15
431.763	974.17
432.138	984.34
432.514	1001.97
432.89	1011.91
433.265	1024.56
433.641	1049.87
434.016	1042.87
434.392	1075.41
434.767	1108.18
435.143	1106.14
435.518	1129.42
435.894	1161.28
436.269	1158.12
436.644	1180.94
437.02	1201.28
437.395	1170.77
437.77	1231.56
438.145	1219.36
438.52	1265.69
438.895	1286.7
439.271	1264.56
439.646	1307.95
440.021	1334.39
440.395	1313.82
440.77	1316.31
441.145	1354.05
441.52	1391.33
441.895	1395.4
442.27	1401.05
442.645	1413.71
443.019	1432.46
443.394	1444.67
443.769	1412.35
444.143	1454.38
444.518	1477.21
444.892	1439.69
445.267	1478.79
445.641	1486.7
446.016	1508.39
446.39	1531.44
446.764	1551.33
447.139	1532.35
447.513	1554.04
447.887	1575.51
448.262	1548.84
448.636	1584.32
449.01	1617.09
449.384	1646.02
449.758	1663.19
450.132	1634.94
450.506	1659.35
450.88	1615.28
451.254	1648.95
451.628	1685.79
452.002	1707.26
452.376	1683.98
452.75	1709.52
453.123	1711.55
453.497	1768.72
453.871	1792.23
454.244	1830.64
454.618	1827.25
454.992	1865.45
455.365	1865.9
455.739	1841.04
456.112	1900.92
456.486	1880.13
456.859	1900.7
457.232	1952.22
457.606	1977.98
457.979	1972.34
458.352	2023.41
458.725	1992.22
459.099	2029.06
459.472	2080.58
459.845	2097.08
460.218	2111.99
460.591	2117.87
460.964	2146.79
461.337	2155.83
461.71	2197.41
462.083	2249.62
462.456	2202.39
462.829	2239.45
463.201	2271.31
463.574	2288.94
463.947	2309.5
464.32	2308.6
464.692	2386.34
465.065	2378.88
465.438	2422.49
465.81	2457.75
466.183	2438.31
466.555	2544.52
466.928	2515.6
467.3	2535.03
467.672	2540
468.045	2628.36
468.417	2606.44
468.789	2665.65
469.161	2688.47
469.534	2731.86
469.906	2777.51
470.278	2774.12
470.65	2796.04
471.022	2862.48
471.394	2878.75
471.766	2906.55
472.138	2946.55
472.51	3035.36
472.882	3046.21
473.253	3102.7
473.625	3097.05
473.997	3153.55
474.369	3183.15
474.74	3227.22
475.112	3318.97
475.484	3288.23
475.855	3328.91
476.227	3368.91
476.598	3437.83
476.97	3501.56
477.341	3553.54
477.713	3584.5
478.084	3605.29
478.455	3688.9
478.827	3725.74
479.198	3842.34
479.569	3763.93
479.94	3890.02
480.311	3924.6
480.682	4029.68
481.053	4029.91
481.424	4159.85
481.795	4140.87
482.166	4167.53
482.537	4190.81
482.908	4323.23
483.279	4382.44
483.65	4417.47
484.021	4485.49
484.391	4539.5
484.762	4552.38
485.133	4597.58
485.503	4602.77
485.874	4699.04
486.244	4794.41
486.615	4873.5
486.985	4893.84
487.356	4967.96
487.726	5012.93
488.097	5119.82
488.467	5104.68
488.837	5228.52
489.207	5214.28
489.578	5271.23
489.948	5322.53
490.318	5391.45
490.688	5376.09
491.058	5423.54
491.428	5541.51
491.798	5578.57
492.168	5689.07
492.538	5700.6
492.908	5707.83
493.278	5778.56
493.648	5783.99
494.017	5852.91
494.387	5917.54
494.757	5955.28
495.126	5957.54
495.496	5966.13
495.866	6039.12
496.235	6094.94
496.605	6117.76
496.974	6119.8
497.344	6162.73
497.713	6219.46
498.082	6250.41
498.452	6302.84
498.821	6347.59
499.19	6326.57
499.559	6367.02
499.928	6415.38
500.298	6411.54
500.667	6463.29
501.036	6442.5
501.405	6529.73
501.774	6508.26
502.143	6556.85
502.512	6566.11
502.88	6664.87
503.249	6613.12
503.618	6661.48
503.987	6694.92
504.356	6705.54
504.724	6735.15
505.093	6741.02
505.462	6752.55
505.83	6789.16
506.199	6818.99
506.567	6872.77
506.936	6846.33
507.304	6915.48
507.672	7002.94
508.041	6892.21
508.409	6927.91
508.777	7001.13
509.145	7030.06
509.514	6986.89
509.882	7056.5
510.25	6996.16
510.618	7095.82
510.986	7102.6
511.354	7102.6
511.722	7206.32
512.09	7219.65
512.458	7190.73
512.826	7227.11
513.193	7232.54
513.561	7264.63
513.929	7309.14
514.297	7329.48
514.664	7351.85
515.032	7262.59
515.4	7352.98
515.767	7400.67
516.135	7335.81
516.502	7319.99
516.869	7453.09
517.237	7467.11
517.604	7422.14
517.972	7461
518.339	7471.17
518.706	7498.29
519.073	7413.32
519.44	7484.96
519.808	7531.51
520.175	7498.74
520.542	7591.4
520.909	7663.26
521.276	7583.94
521.643	7647.67
522.009	7687.89
522.376	7662.58
522.743	7713.43
523.11	7724.27
523.477	7778.06
523.843	7783.93
524.21	7799.3
524.577	7800.66
524.943	7771.73
525.31	7770.6
525.676	7853.99
526.043	7795.01
526.409	7861.22
526.776	7920.2
527.142	7941.9
527.508	7922.01
527.874	7930.6
528.241	7967.43
528.607	7987.09
528.973	8039.07
529.339	7990.71
529.705	8042.68
530.071	8043.14
530.437	8052.85
530.803	8044.04
531.169	8099.63
531.535	8013.76
531.901	8060.08
532.267	8010.37
532.632	8097.6
532.998	8024.83
533.364	8101.89
533.73	8079.97
534.095	8098.73
534.461	8093.3
534.826	8124.94
535.192	8055.11
535.557	8094.21
535.923	8110.7
536.288	8082.46
536.653	8112.06
537.019	8055.57
537.384	8005.62
537.749	8061.44
538.114	8029.8
538.479	7988.9
538.845	8046.07
539.21	7951.16
539.575	8048.11
539.94	8009.69
540.305	7988.9
540.67	7968.11
541.034	7977.83
541.399	7975.34
541.764	7929.92
542.129	8002.01
542.494	8009.46
542.858	8000.65
543.223	8017.83
543.587	8032.97
543.952	7956.81
544.316	7940.54
544.681	7931.95
545.045	7948.9
545.41	7926.3
545.774	7915.91
546.138	7963.82
546.503	7895.57
546.867	7891.05
547.231	7949.81
547.595	7853.08
547.959	7883.59
548.324	7852.86
548.688	7857.15
549.052	7805.85
549.416	7864.84
549.779	7842.92
550.143	7817.15
550.507	7872.29
550.871	7809.92
551.235	7796.59
551.599	7809.24
551.962	7762.24
552.326	7779.87
552.689	7822.12
553.053	7677.95
553.417	7715.01
553.78	7837.94
554.143	7818.28
554.507	7798.4
554.87	7763.6
555.234	7829.58
555.597	7740.55
555.96	7767.44
556.323	7801.79
556.686	7788
557.05	7804.27
557.413	7867.32
557.776	7783.26
558.139	7835.46
558.502	7821.67
558.865	7792.52
559.228	7765.18
559.59	7869.13
559.953	7816.25
560.316	7870.71
560.679	7899.86
561.041	7882.24
561.404	7895.34
561.767	7961.1
562.129	7892.63
562.492	7930.6
562.854	7981.22
563.217	7914.1
563.579	7939.41
563.941	8006.53
564.304	7916.13
564.666	8019.41
565.028	7993.87
565.39	7979.18
565.753	8030.93
566.115	8014.89
566.477	8081.33
566.839	8111.83
567.201	8141.66
567.563	8117.48
567.925	8159.29
568.287	8152.96
568.648	8201.55
569.01	8256.24
569.372	8227.09
569.734	8161.1
570.095	8290.14
570.457	8290.14
570.819	8301.66
571.18	8227.09
571.542	8377.14
571.903	8325.39
572.265	8325.61
572.626	8318.61
572.987	8353.86
573.349	8362.68
573.71	8433.18
574.071	8395.22
574.432	8448.32
574.794	8463.69
575.155	8442.22
575.516	8483.58
575.877	8519.28
576.238	8503.46
576.599	8532.39
576.96	8600.41
577.32	8601.54
577.681	8586.85
578.042	8637.7
578.403	8586.4
578.763	8714.53
579.124	8649.22
579.485	8700.29
579.845	8724.7
580.206	8691.03
580.566	8691.25
580.927	8709.11
581.287	8778.71
581.648	8842.21
582.008	8847.18
582.368	8772.16
582.728	8823.68
583.089	8860.06
583.449	8903.45
583.809	8891.25
584.169	8916.33
584.529	8929.67
584.889	8993.62
585.249	8960.85
585.609	8909.55
585.969	8991.81
586.329	8912.72
586.688	9040.17
587.048	9024.81
587.408	8983
587.768	8947.97
588.127	9061.41
588.487	9018.25
588.846	9054.63
589.206	9047.18
589.565	9066.61
589.925	9166.27
590.284	9092.6
590.643	9075.65
591.003	9125.14
591.362	9242.2
591.721	9241.3
592.08	9114.29
592.44	9235.2
592.799	9171.69
593.158	9216.89
593.517	9230
593.876	9247.85
594.235	9203.33
594.593	9209.43
594.952	9316.55
595.311	9196.55
595.67	9273.16
596.029	9315.64
596.387	9285.82
596.746	9331.01
597.104	9338.02
597.463	9303.44
597.822	9351.35
598.18	9342.08
598.538	9341.41
598.897	9399.26
599.255	9259.15
599.613	9392.25
599.972	9312.93
600.33	9399.94
600.688	9398.81
601.046	9359.03
601.404	9456.88
601.762	9416.21
602.12	9463.89
602.478	9403.1
602.836	9414.63
603.194	9391.58
603.552	9372.59
603.91	9348.19
604.268	9415.3
604.625	9449.88
604.983	9411.24
605.341	9424.57
605.698	9489.65
606.056	9529.88
606.413	9491.01
606.771	9516.32
607.128	9547.73
607.485	9458.69
607.843	9490.1
608.2	9564.9
608.557	9570.33
608.914	9487.39
609.272	9599.93
609.629	9549.09
609.986	9575.07
610.343	9612.59
610.7	9632.7
611.057	9662.3
611.414	9608.74
611.771	9657.33
612.127	9702.3
612.484	9627.95
612.841	9705.47
613.198	9628.18
613.554	9619.37
613.911	9733.04
614.267	9642.42
614.624	9671.34
614.98	9611
615.337	9735.75
615.693	9690.32
616.05	9692.13
616.406	9756.76
616.762	9742.75
617.118	9727.61
617.475	9745.01
617.831	9780.27
618.187	9801.06
618.543	9759.02
618.899	9823.65
619.255	9792.24
619.611	9811.68
619.967	9806.71
620.323	9887.16
620.678	9806.25
621.034	9718.8
621.39	9773.03
621.746	9834.5
622.101	9933.26
622.457	9829.53
622.812	9826.82
623.168	9848.29
623.523	9798.34
623.879	9928.74
624.234	9757.44
624.589	9837.67
624.945	9830.66
625.3	9836.76
625.655	9757.22
626.01	9841.96
626.365	9811.45
626.72	9815.07
627.075	9847.83
627.43	9742.07
627.785	9737.1
628.14	9807.84
628.495	9861.17
628.85	9823.43
629.205	9803.54
629.559	9806.25
629.914	9749.31
630.269	9722.41
630.623	9731.45
630.978	9753.6
631.332	9758.12
631.687	9775.97
632.041	9698.46
632.396	9775.75
632.75	9681.28
633.104	9749.31
633.459	9663.21
633.813	9679.48
634.167	9674.51
634.521	9631.12
634.875	9643.32
635.229	9672.02
635.583	9602.42
635.937	9606.48
636.291	9589.31
636.645	9595.86
636.999	9579.82
637.352	9577.11
637.706	9615.3
638.06	9557.22
638.413	9564.45
638.767	9469.54
639.121	9505.02
639.474	9473.15
639.828	9466.6
640.181	9497.34
640.534	9548.63
640.888	9435.19
641.241	9409.65
641.594	9416.43
641.947	9515.64
642.301	9457.11
642.654	9485.13
643.007	9427.05
643.36	9385.47
643.713	9395.42
644.066	9400.61
644.419	9373.72
644.771	9335.08
645.124	9222.99
645.477	9209.43
645.83	9171.92
646.182	9091.92
646.535	9077.23
646.888	9082.66
647.24	9087.4
647.593	9178.47
647.945	9091.47
648.298	9049.89
648.65	9083.11
649.002	9054.86
649.355	9099.38
649.707	9031.81
650.059	9086.05
650.411	9233.39
650.763	9252.37
651.115	9308.64
651.467	9295.08
651.819	9247.62
652.171	9270.9
652.523	9174.41
652.875	9157.46
653.227	9201.98
653.578	9260.05
653.93	9249.21
654.282	9218.7
654.633	9190.68
654.985	9241.07
655.337	9265.02
655.688	9206.5
656.039	9331.92
656.391	9191.81
656.742	9204.01
657.094	9178.47
657.445	9326.27
657.796	9200.39
658.147	9249.88
658.498	9232.94
658.849	9307.28
659.2	9200.62
659.551	9297.79
659.902	9255.31
660.253	9247.85
660.604	9230
660.955	9265.7
661.306	9273.39
661.656	9263.22
662.007	9309.32
662.358	9245.36
662.708	9196.33
663.059	9220.51
663.409	9168.76
663.76	9274.52
664.11	9258.7
664.461	9296.89
664.811	9215.53
665.161	9300.96
665.511	9263.22
665.862	9244.69
666.212	9196.55
666.562	9254.86
666.912	9218.47
667.262	9255.76
667.612	9265.93
667.962	9256.21
668.312	9222.99
668.662	9239.71
669.011	9279.71
669.361	9210.11
669.711	9218.7
670.06	9245.59
670.41	9165.14
670.76	9235.42
671.109	9245.82
671.459	9313.84
671.808	9230
672.157	9232.26
672.507	9148.64
672.856	9206.95
673.205	9179.83
673.554	9179.38
673.904	9186.83
674.253	9200.62
674.602	9213.05
674.951	9008.76
675.3	8986.84
675.649	9075.43
675.998	9114.75
676.346	9124.46
676.695	9177.34
677.044	9107.06
677.393	9067.29
677.741	9084.46
678.09	9099.83
678.438	9051.7
678.787	9024.35
679.135	9122.2
679.484	8968.99
679.832	9041.75
680.181	8934.41
680.529	9044.01
680.877	8980.29
681.225	8932.38
681.573	8993.17
681.922	8914.75
682.27	8869.78
682.618	8845.15
682.966	8899.38
683.314	8919.95
683.661	8838.14
684.009	8807.41
684.357	8733.29
684.705	8763.79
685.053	8789.78
685.4	8794.3
685.748	8736.68
686.095	8734.64
686.443	8640.41
686.79	8729.67
687.138	8638.6
687.485	8676.34
687.832	8707.53
688.18	8649.45
688.527	8608.32
688.874	8531.71
689.221	8529
689.568	8489.9
689.915	8527.19
690.262	8511.37
690.609	8490.81
690.956	8445.16
691.303	8423.69
691.65	8362.68
691.997	8379.17
692.344	8314.32
692.69	8343.02
693.037	8303.24
693.383	8213.75
693.73	8215.11
694.077	8199.06
694.423	8221.66
694.769	8172.4
695.116	8105.96
695.462	8085.85
695.808	8113.87
696.155	8077.49
696.501	7984.61
696.847	8065.28
697.193	7898.73
697.539	7978.73
697.885	7893.31
698.231	7825.97
698.577	7879.98
698.923	7838.62
699.269	7772.41
699.614	7733.31
699.96	7683.15
700.306	7741.22
700.651	7677.72
700.997	7660.77
701.342	7642.92
701.688	7678.4
702.033	7599.76
702.379	7576.26
702.724	7549.82
703.069	7541.45
703.415	7437.5
703.76	7472.98
704.105	7504.62
704.45	7468.24
704.795	7350.27
705.14	7401.57
705.485	7418.97
705.83	7325.19
706.175	7329.03
706.52	7270.5
706.865	7270.27
707.209	7289.71
707.554	7218.07
707.899	7247.45
708.243	7204.97
708.588	7157.74
708.932	7169.49
709.277	7145.98
709.621	7140.33
709.966	7032.54
710.31	7060.56
710.654	7072.99
710.998	6998.87
711.342	7016.95
711.687	6953
712.031	6966.33
712.375	6900.57
712.719	6954.13
713.063	6958.19
713.407	6956.16
713.75	7000.9
714.094	6882.49
714.438	6866.67
714.782	6926.56
715.125	6885.88
715.469	6841.81
715.812	6896.5
716.156	6802.49
716.499	6846.78
716.843	6839.55
717.186	6760.01
717.53	6798.2
717.873	6783.28
718.216	6770.18
718.559	6784.41
718.902	6718.43
719.246	6758.2
719.589	6748.93
719.932	6680.91
720.275	6723.85
720.617	6688.37
720.96	6732.21
721.303	6655.15
721.646	6667.8
721.989	6691.08
722.331	6681.82
722.674	6650.18
723.016	6674.81
723.359	6629.39
723.701	6643.4
724.044	6602.5
724.386	6594.36
724.729	6593.91
725.071	6550.29
725.413	6623.06
725.755	6560.24
726.097	6594.59
726.439	6515.49
726.782	6578.77
727.124	6618.09
727.465	6514.36
727.807	6537.41
728.149	6506.23
728.491	6540.8
728.833	6534.7
729.175	6544.87
729.516	6489.96
729.858	6488.6
730.199	6545.55
730.541	6485.44
730.882	6472.78
731.224	6536.96
731.565	6416.29
731.906	6499.22
732.248	6482.5
732.589	6463.97
732.93	6474.36
733.271	6521.37
733.612	6471.43
733.953	6497.19
734.294	6480.92
734.635	6459.22
734.976	6486.11
735.317	6492.44
735.658	6463.52
735.999	6435.95
736.339	6479.56
736.68	6551.2
737.021	6456.29
737.361	6470.52
737.702	6500.58
738.042	6474.14
738.383	6478.66
738.723	6498.54
739.063	6526.57
739.404	6440.92
739.744	6508.26
740.084	6489.73
740.424	6570.41
740.764	6550.07
741.104	6572.44
741.444	6544.87
741.784	6555.72
742.124	6621.48
742.464	6594.13
742.804	6572.89
743.143	6592.33
743.483	6586.23
743.823	6622.61
744.162	6635.94
744.502	6628.26
744.841	6633.68
745.181	6698.31
745.52	6708.93
745.86	6757.07
746.199	6740.57
746.538	6748.48
746.877	6866.67
747.216	6825.54
747.556	6880.23
747.895	6938.98
748.234	6975.59
748.573	7010.62
748.911	7067.79
749.25	7084.97
749.589	7165.42
749.928	7161.58
750.267	7237.96
750.605	7265.76
750.944	7344.4
751.283	7388.92
751.621	7460.1
751.96	7447.67
752.298	7607.89
752.636	7639.3
752.975	7715.46
753.313	7778.06
753.651	7837.04
753.989	7911.61
754.327	8005.17
754.666	8112.96
755.004	8220.76
755.342	8283.36
755.679	8430.24
756.017	8448.55
756.355	8571.71
756.693	8692.84
757.031	8843.57
757.368	8892.38
757.706	8981.87
758.044	9072.94
758.381	9190.22
758.719	9337.34
759.056	9392.03
759.394	9545.02
759.731	9691.91
760.068	9749.31
760.405	9892.58
760.743	9996.08
761.08	10126.25
761.417	10282.85
761.754	10390.64
762.091	10510.42
762.428	10593.8
762.765	10759.9
763.102	10932.78
763.438	10966.22
763.775	11061.14
764.112	11171.42
764.449	11387
764.785	11412.54
765.122	11508.36
765.458	11615.47
765.795	11795.13
766.131	11833.32
766.467	12013.88
766.804	12124.16
767.14	12154.21
767.476	12261.33
767.812	12346.53
768.148	12513.75
768.485	12573.41
768.821	12635.11
769.157	12798.04
769.492	12887.53
