Data from hue_22_FLMS001491_00032.txt Node
Date: Tue Feb 07 17:10:01 GMT 2017
User: dcchb
Spectrometer: FLMS00149
Trigger mode: 0
Integration Time (sec): 2.000000E-2
Scans to average: 10
Electric dark correction enabled: true
Nonlinearity correction enabled: false
Boxcar width: 0
XAxis mode: Wavelengths
Number of Pixels in Spectrum: 2048
>>>>>Begin Spectral Data<<<<<
341.393	-3.56
341.776	-3.56
342.16	-3.56
342.543	-92.37
342.927	-60.51
343.31	-71.81
343.693	-56.21
344.077	-76.33
344.46	-49.66
344.843	-64.57
345.226	-36.55
345.61	-28.19
345.993	-21.64
346.376	-19.38
346.759	-2.43
347.142	25.59
347.525	44.12
347.908	64.24
348.291	61.3
348.674	93.16
349.057	138.36
349.44	117.34
349.823	139.04
350.206	160.05
350.588	192.14
350.971	184.68
351.354	215.87
351.737	235.53
352.119	253.16
352.502	252.71
352.884	282.08
353.267	268.3
353.65	293.38
354.032	312.59
354.414	296.09
354.797	307.39
355.179	301.07
355.562	312.59
355.944	309.88
356.326	347.84
356.709	341.74
357.091	338.35
357.473	333.61
357.855	329.99
358.238	320.27
358.62	351.23
359.002	337.9
359.384	329.99
359.766	344.23
360.148	334.06
360.53	348.75
360.912	345.13
361.294	321.86
361.676	334.28
362.057	337.22
362.439	309.88
362.821	313.49
363.203	311.46
363.584	308.07
363.966	334.28
364.348	309.43
364.729	314.4
365.111	320.73
365.493	330.9
365.874	313.95
366.256	296.09
366.637	319.14
367.019	305.59
367.4	308.97
367.781	293.61
368.163	324.34
368.544	303.55
368.925	301.29
369.306	319.14
369.688	301.52
370.069	306.94
370.45	304.46
370.831	307.62
371.212	319.6
371.593	300.61
371.974	324.57
372.355	323.21
372.736	314.4
373.117	346.71
373.498	306.94
373.879	294.96
374.26	324.12
374.641	329.77
375.021	315.98
375.402	323.89
375.783	321.63
376.163	345.13
376.544	355.08
376.925	335.87
377.305	311.91
377.686	338.35
378.066	327.51
378.447	330.67
378.827	328.41
379.208	330.22
379.588	335.41
379.968	336.09
380.349	314.85
380.729	351.23
381.109	346.49
381.489	323.66
381.87	324.12
382.25	358.47
382.63	343.1
383.01	349.2
383.39	338.8
383.77	320.27
384.15	318.24
384.53	355.98
384.91	340.84
385.29	354.62
385.67	335.64
386.049	326.38
386.429	378.58
386.809	355.53
387.189	346.26
387.568	354.85
387.948	356.43
388.328	366.15
388.707	380.61
389.087	372.93
389.466	346.71
389.846	369.54
390.225	372.48
390.605	362.76
390.984	377
391.363	382.65
391.743	360.5
392.122	382.19
392.501	367.28
392.881	377.45
393.26	370.89
393.639	380.84
394.018	384.23
394.397	366.6
394.776	367.05
395.155	401.85
395.534	374.28
395.913	390.78
396.292	395.53
396.671	395.98
397.05	390.55
397.429	394.4
397.808	390.1
398.186	410.67
398.565	399.59
398.944	394.85
399.323	402.08
399.701	407.96
400.08	421.29
400.458	392.59
400.837	407.73
401.215	393.04
401.594	405.02
401.972	409.99
402.351	412.25
402.729	425.13
403.107	425.13
403.486	414.96
403.864	411.8
404.242	446.37
404.62	424.9
404.999	417.22
405.377	433.72
405.755	415.19
406.133	434.85
406.511	424.68
406.889	448.63
407.267	443.21
407.645	437.11
408.023	426.03
408.401	426.49
408.779	434.85
409.156	443.66
409.534	450.89
409.912	444.11
410.29	448.41
410.667	459.93
411.045	456.32
411.422	464.45
411.8	442.98
412.178	470.33
412.555	449.76
412.933	476.88
413.31	495.41
413.687	489.99
414.065	471.68
414.442	485.92
414.819	475.98
415.197	493.15
415.574	510.1
415.951	497.44
416.328	517.11
416.705	518.46
417.082	513.94
417.46	507.61
417.837	537.9
418.214	514.62
418.591	523.66
418.967	522.53
419.344	526.14
419.721	504.68
420.098	534.51
420.475	538.35
420.852	520.04
421.228	546.48
421.605	523.21
421.982	552.36
422.358	553.49
422.735	558.23
423.111	568.18
423.488	565.69
423.864	572.47
424.241	581.06
424.617	577.22
424.994	565.69
425.37	581.96
425.746	584.45
426.123	569.08
426.499	587.39
426.875	590.55
427.251	599.36
427.627	610.44
428.003	617.44
428.379	624.9
428.756	611.57
429.132	646.37
429.507	635.75
429.883	632.13
430.259	641.62
430.635	643.88
431.011	638.91
431.387	664.45
431.763	647.27
432.138	661.51
432.514	671
432.89	648.85
433.265	672.13
433.641	678.91
434.016	668.51
434.392	660.6
434.767	720.49
435.143	712.13
435.518	701.51
435.894	738.57
436.269	723.43
436.644	734.73
437.02	723.88
437.395	764.78
437.77	755.74
438.145	730.21
438.52	751.45
438.895	771.11
439.271	753.03
439.646	793.93
440.021	792.58
440.395	786.48
440.77	785.35
441.145	771.79
441.52	797.55
441.895	804.33
442.27	788.96
442.645	811.56
443.019	812.24
443.394	809.3
443.769	846.81
444.143	806.81
444.518	815.4
444.892	842.29
445.267	838.23
445.641	856.31
446.016	844.55
446.39	858.79
446.764	857.66
447.139	852.01
447.513	859.02
447.887	874.61
448.262	860.37
448.636	863.31
449.01	870.09
449.384	878.68
449.758	901.05
450.132	893.14
450.506	895.4
450.88	910.77
451.254	924.55
451.628	918
452.002	918.45
452.376	966.36
452.75	948.51
453.123	918.9
453.497	965.23
453.871	945.79
454.244	1005.68
454.618	1012.23
454.992	1011.56
455.365	1018.56
455.739	1032.57
456.112	1050.2
456.486	1041.16
456.859	1050.2
457.232	1076.19
457.606	1061.5
457.979	1077.77
458.352	1098.78
458.725	1114.6
459.099	1123.42
459.472	1129.74
459.845	1137.2
460.218	1149.4
460.591	1143.76
460.964	1152.79
461.337	1187.82
461.71	1188.5
462.083	1219.46
462.456	1208.61
462.829	1213.13
463.201	1235.05
463.574	1258.1
463.947	1261.49
464.32	1314.6
464.692	1286.8
465.065	1311.21
465.438	1315.5
465.81	1347.82
466.183	1333.81
466.555	1367.25
466.928	1402.28
467.3	1372.22
467.672	1393.24
468.045	1444.54
468.417	1436.18
468.789	1465.33
469.161	1466.01
469.534	1506.91
469.906	1502.39
470.278	1533.35
470.65	1596.85
471.022	1615.61
471.394	1600.24
471.766	1630.97
472.138	1637.53
472.51	1685.89
472.882	1706.45
473.253	1729.73
473.625	1743.29
473.997	1807.47
474.369	1810.18
474.74	1816.73
475.112	1856.5
475.484	1899.67
475.855	1903.51
476.227	1903.51
476.598	1973.11
476.97	2020.12
477.341	2048.14
477.713	2081.58
478.084	2088.59
478.455	2148.25
478.827	2196.16
479.198	2232.54
479.569	2252.2
479.94	2302.14
480.311	2321.13
480.682	2409.26
481.053	2438.41
481.424	2464.62
481.795	2513.89
482.166	2526.77
482.537	2596.15
482.908	2660.55
483.279	2703.94
483.65	2726.31
484.021	2800.43
484.391	2822.13
484.762	2864.84
485.133	2913.43
485.503	2954.56
485.874	2993.42
486.244	3039.3
486.615	3107.55
486.985	3150.93
487.356	3194.77
487.726	3257.82
488.097	3294.21
488.467	3323.81
488.837	3430.25
489.207	3454.2
489.578	3491.72
489.948	3535.56
490.318	3626.85
490.688	3637.02
491.058	3662.11
491.428	3749.56
491.798	3800.18
492.168	3876.79
492.538	3893.06
492.908	3938.26
493.278	3953.85
493.648	4021.65
494.017	4072.49
494.387	4109.1
494.757	4151.13
495.126	4179.16
495.496	4204.24
495.866	4233.84
496.235	4277.01
496.605	4358.13
496.974	4341.41
497.344	4435.19
497.713	4441.3
498.082	4470.45
498.452	4498.02
498.821	4542.99
499.19	4573.04
499.559	4605.36
499.928	4625.02
500.298	4684.68
500.667	4713.83
501.036	4709.31
501.405	4716.54
501.774	4759.48
502.143	4851
502.512	4840.38
502.88	4871.11
503.249	4890.32
503.618	4900.49
503.987	4975.29
504.356	4955.63
504.724	4996.76
505.093	5037.66
505.462	5063.43
505.83	5045.35
506.199	5126.93
506.567	5185.46
506.936	5169.19
507.304	5241.05
507.672	5222.74
508.041	5302.74
508.409	5288.96
508.777	5335.51
509.145	5372.34
509.514	5374.6
509.882	5400.59
510.25	5408.95
510.618	5459.8
510.986	5470.65
511.354	5474.26
511.722	5545.22
512.09	5576.63
512.458	5580.7
512.826	5649.17
513.193	5647.82
513.561	5678.33
513.929	5748.83
514.297	5706.35
514.664	5822.28
515.032	5758.1
515.4	5836.06
515.767	5858.21
516.135	5905.21
516.502	5784.76
516.869	5948.6
517.237	5921.26
517.604	5935.95
517.972	5976.85
518.339	6000.8
518.706	5963.97
519.073	6042.38
519.44	6095.04
519.808	6130.97
520.175	6124.42
520.542	6204.87
520.909	6243.51
521.276	6194.92
521.643	6291.42
522.009	6304.75
522.376	6370.28
522.743	6358.08
523.11	6398.31
523.477	6464.07
523.843	6531.18
524.21	6559.21
524.577	6579.09
524.943	6617.28
525.31	6636.94
525.676	6710.16
526.043	6728.24
526.409	6766.43
526.776	6798.07
527.142	6787.67
527.508	6857.5
527.874	6931.17
528.241	6921.23
528.607	6971.17
528.973	7085.52
529.339	7018.63
529.705	7124.61
530.071	7106.08
530.437	7153.31
530.803	7210.49
531.169	7243.71
531.535	7276.02
531.901	7313.76
532.267	7326.42
532.632	7310.37
532.998	7411.16
533.364	7443.93
533.73	7496.81
534.095	7498.84
534.461	7525.51
534.826	7594.66
535.192	7605.05
535.557	7675.11
535.923	7626.75
536.288	7707.65
536.653	7711.27
537.019	7696.8
537.384	7725.28
537.749	7769.57
538.114	7810.7
538.479	7774.32
538.845	7897.25
539.21	7887.53
539.575	7930.47
539.94	7962.11
540.305	8013.41
540.67	8031.94
541.034	8016.79
541.399	8056.34
541.764	8145.15
542.129	8178.37
542.494	8198.94
542.858	8137.92
543.223	8183.34
543.587	8271.48
543.952	8272.83
544.316	8299.05
544.681	8330.23
545.045	8358.25
545.41	8490.23
545.774	8456.78
546.138	8490.23
546.503	8515.31
546.867	8490
547.231	8619.04
547.595	8628.76
547.959	8587.18
548.324	8664.91
548.688	8681.18
549.052	8706.27
549.416	8766.38
549.779	8691.58
550.143	8804.57
550.507	8783.78
550.871	8865.81
551.235	8906.04
551.599	8970.44
551.962	8945.13
552.326	8968.86
552.689	9044.79
553.053	9015.41
553.417	9019.03
553.78	9191.68
554.143	9111.68
554.507	9196.88
554.87	9185.13
555.234	9234.16
555.597	9240.04
555.96	9245.92
556.323	9319.81
556.686	9257.21
557.05	9389.41
557.413	9391.22
557.776	9377.89
558.139	9406.14
558.502	9457.21
558.865	9435.97
559.228	9562.97
559.59	9595.28
559.953	9598.22
560.316	9719.57
560.679	9680.48
561.041	9790.76
561.404	9771.55
561.767	9819.91
562.129	9820.36
562.492	9932.68
562.854	9928.16
563.217	9924.32
563.579	9987.36
563.941	10033.46
564.304	10070.53
564.666	10127.25
565.028	10152.78
565.39	10125.44
565.753	10203.63
566.115	10242.5
566.477	10279.11
566.839	10301.03
567.201	10317.98
567.563	10414.47
567.925	10452.21
568.287	10438.88
568.648	10486.79
569.01	10564.3
569.372	10693.56
569.734	10573.56
570.095	10693.79
570.457	10657.63
570.819	10663.05
571.18	10770.39
571.542	10849.94
571.903	10854.46
572.265	10941.01
572.626	10978.07
572.987	10973.33
573.349	11132.19
573.71	11109.37
574.071	11222.13
574.432	11249.03
574.794	11344.62
575.155	11405.86
575.516	11431.39
575.877	11481.11
576.238	11546.19
576.599	11669.81
576.96	11696.92
577.32	11670.94
577.681	11832.06
578.042	11859.86
578.403	11982.79
578.763	12080.19
579.124	12122
579.485	12225.95
579.845	12344.82
580.206	12378.71
580.566	12508.88
580.927	12679.05
581.287	12824.13
581.648	12907.06
582.008	13057.57
582.368	13151.58
582.728	13293.94
583.089	13379.82
583.449	13613.48
583.809	13741.62
584.169	13878.34
584.529	13961.5
584.889	14237.65
585.249	14298.44
585.609	14496.85
585.969	14751.08
586.329	14959.21
586.688	15087.57
587.048	15357.84
587.408	15419.31
587.768	15818.17
588.127	15923.25
588.487	16197.14
588.846	16485.27
589.206	16654.31
589.565	16939.27
589.925	17328.19
590.284	17454.29
590.643	17782.19
591.003	18083.2
591.362	18341.72
591.721	18619
592.08	18880.92
592.44	19156.16
592.799	19481.8
593.158	19639.09
593.517	19959.08
593.876	20338.5
594.235	20578.05
594.593	20870.02
594.952	21195.21
595.311	21438.59
595.67	21840.16
596.029	22286.02
596.387	22583.42
596.746	22789.51
597.104	23059.11
597.463	23255.94
597.822	23652.77
598.18	23854.8
598.538	24161.68
598.897	24612.97
599.255	24707.43
599.613	25439.16
599.972	25484.13
600.33	25932.03
600.688	26196.43
601.046	26441.62
601.404	26803.65
601.762	27153.47
602.12	27341.03
602.478	27762.26
602.836	28125.19
603.194	28195.47
603.552	28540.55
603.91	28845.63
604.268	29206.07
604.625	29458.49
604.983	29855.32
605.341	29960.85
605.698	30293.05
606.056	30646.71
606.413	30917.21
606.771	31250.08
607.128	31476.52
607.485	31604.42
607.843	31916.73
608.2	32270.17
608.557	32644.85
608.914	32617.28
609.272	33084.16
609.629	33359.86
609.986	33766.4
610.343	33746.97
610.7	34204.35
611.057	34158.93
611.414	34465.59
611.771	34742.65
612.127	35026.03
612.484	35153.93
612.841	35521.83
613.198	35643.41
613.554	35672.11
613.911	36188.48
614.267	36434.35
614.624	36482.04
614.98	36759.77
615.337	37079.08
615.693	37223.94
616.05	37169.7
616.406	37599.07
616.762	37656.47
617.118	37759.52
617.475	37888.33
617.831	38275.43
618.187	38329.22
618.543	38487.41
618.899	38836.32
619.255	39062.98
619.611	39026.83
619.967	39349.3
620.323	39445.8
620.678	39415.97
621.034	39490.54
621.39	39607.38
621.746	39691.67
622.101	40377.3
622.457	39976.86
622.812	40181.15
623.168	40365.32
623.523	40598.54
623.879	40756.05
624.234	40557.41
624.589	40699.1
624.945	40880.34
625.3	40956.72
625.655	41071.74
626.01	41086.66
626.365	41206.88
626.72	41249.59
627.075	41240.78
627.43	41356.03
627.785	41423.15
628.14	41478.74
628.495	41606.65
628.85	41720.32
629.205	41601.9
629.559	41772.07
629.914	41673.54
630.269	41750.15
630.623	41881.89
630.978	41902.01
631.332	41972.96
631.687	42133.19
632.041	42026.52
632.396	42105.39
632.75	42046.41
633.104	42240.53
633.459	42147.87
633.813	41954.43
634.167	42157.82
634.521	42133.41
634.875	42257.48
635.229	42057.26
635.583	42016.58
635.937	42035.79
636.291	42206.63
636.645	42208.89
636.999	42106.75
637.352	42431.94
637.706	42145.16
638.06	42245.27
638.413	42129.57
638.767	42090.93
639.121	42240.3
639.474	41975.9
639.828	42035.34
640.181	42252.5
640.534	42200.08
640.888	42244.6
641.241	42089.8
641.594	42134.77
641.947	42254.31
642.301	42124.6
642.654	42231.94
643.007	42214.31
643.36	42146.52
643.713	42075.11
644.066	42119.85
644.419	42002.79
644.771	41805.51
645.124	41441
645.477	41396.03
645.83	41224.96
646.182	40969.37
646.535	41027.23
646.888	41034.01
647.24	40775.48
647.593	41025.42
647.945	40947.68
648.298	40760.57
648.65	40788.14
649.002	40580.23
649.355	40986.78
649.707	40835.37
650.059	40998.3
650.411	41513.54
650.763	41533.2
651.115	41767.77
651.467	41642.35
651.819	41871.5
652.171	41645.06
652.523	41497.04
652.875	41593.54
653.227	41531.85
653.578	41851.39
653.93	41645.74
654.282	41476.03
654.633	41387.22
654.985	41558.74
655.337	41520.32
655.688	41575.01
656.039	41779.75
656.391	41364.39
656.742	41276.26
657.094	41460.89
657.445	41504.28
657.796	41458.4
658.147	41558.06
658.498	41424.96
658.849	41594.67
659.2	41493.65
659.551	41264.73
659.902	41467.67
660.253	41366.88
660.604	41464.28
660.955	41309.48
661.306	41490.49
661.656	41457.72
662.007	41464.05
662.358	41452.98
662.708	41329.82
663.059	41325.52
663.409	41162.14
663.76	41354.45
664.11	41425.41
664.461	41429.02
664.811	41217.28
665.161	41410.72
665.511	41182.7
665.862	41261.8
666.212	41450.94
666.562	41500.21
666.912	41297.73
667.262	41191.06
667.612	41302.93
667.962	41233.55
668.312	41140.9
668.662	41260.44
669.011	41263.38
669.361	41064.51
669.711	41211.18
670.06	41124.4
670.41	41123.95
670.76	41119.2
671.109	41234
671.459	41167.56
671.808	41050.28
672.157	41220.89
672.507	40977.74
672.856	40964.63
673.205	41087.79
673.554	41124.62
673.904	41046.21
674.253	41210.5
674.602	41099.31
674.951	40485.77
675.3	40380.24
675.649	40921.01
675.998	40937.29
676.346	40888.02
676.695	40991.07
677.044	40649.38
677.393	40854.12
677.741	40887.79
678.09	40950.62
678.438	40739.55
678.787	40829.04
679.135	40757.18
679.484	40560.57
679.832	40671.08
680.181	40478.54
680.529	40498.2
680.877	40434.93
681.225	40383.18
681.573	40576.84
681.922	40295.72
682.27	40156.29
682.618	40306.34
682.966	40137.31
683.314	40234.25
683.661	39986.35
684.009	39853.7
684.357	39980.02
684.705	39958.33
685.053	39795.62
685.4	39967.59
685.748	39593.82
686.095	39512.01
686.443	39558.34
686.79	39567.38
687.138	39568.73
687.485	39557.21
687.832	39455.52
688.18	39470.21
688.527	39189.76
688.874	39174.17
689.221	39177.33
689.568	39022.31
689.915	38835.19
690.262	38976.43
690.609	38750
690.956	38753.16
691.303	38670.23
691.65	38531.25
691.997	38499.16
692.344	38385.94
692.69	38359.95
693.037	38302.1
693.383	37909.34
693.73	38115.89
694.077	37922.45
694.423	38020.53
694.769	37804.94
695.116	37694.66
695.462	37642.68
695.808	37575.57
696.155	37580.54
696.501	37304.16
696.847	37416.47
697.193	37131.06
697.539	37192.3
697.885	36894.68
698.231	36842.7
698.577	36897.84
698.923	36860.33
699.269	36595.25
699.614	36530.62
699.96	36503.96
700.306	36416.73
700.651	36207.92
700.997	36055.83
701.342	36237.75
701.688	36028.94
702.033	35995.95
702.379	35955.72
702.724	35897.42
703.069	35835.05
703.415	35508.95
703.76	35497.65
704.105	35509.63
704.45	35453.59
704.795	35201.62
705.14	35127.49
705.485	35096.31
705.83	35037.78
706.175	35098.57
706.52	35009.76
706.865	34878.46
707.209	34814.28
707.554	34682.76
707.899	34559.6
708.243	34610.22
708.588	34356.89
708.932	34265.37
709.277	34249.55
709.621	34334.75
709.966	34011.37
710.31	34109.44
710.654	33849.11
710.998	33791.94
711.342	33855.21
711.687	33765.04
712.031	33672.62
712.375	33646.18
712.719	33470.59
713.063	33558.27
713.407	33626.06
713.75	33469.91
714.094	33440.76
714.438	33170.94
714.782	33186.98
715.125	33192.18
715.469	33150.6
715.812	32997.38
716.156	32844.84
716.499	32896.37
716.843	32924.39
717.186	32782.47
717.53	32801.45
717.873	32727.78
718.216	32896.14
718.559	32535.47
718.902	32466.32
719.246	32582.7
719.589	32377.51
719.932	32191.98
720.275	32227.23
720.617	32184.97
720.96	32088.48
721.303	32120.12
721.646	32184.52
721.989	31917.41
722.331	32039.89
722.674	31824.3
723.016	31977.07
723.359	31809.16
723.701	31905.88
724.044	31636.96
724.386	31537.08
724.729	31685.1
725.071	31502.05
725.413	31559
725.755	31524.43
726.097	31248.27
726.439	31115.4
726.782	31159.69
727.124	31400.59
727.465	31216.86
727.807	31117.2
728.149	31024.33
728.491	31048.28
728.833	31017.09
729.175	30947.04
729.516	30964.89
729.858	30867.72
730.199	30839.47
730.541	30862.07
730.882	30673.37
731.224	30904.78
731.565	30690.1
731.906	30700.72
732.248	30651.23
732.589	30356.55
732.93	30347.51
733.271	30399.03
733.612	30320.39
733.953	30509.31
734.294	30393.38
734.635	30278.58
734.976	30261.63
735.317	30046.27
735.658	30216.89
735.999	30143.44
736.339	30029.32
736.68	30122.2
737.021	30004.92
737.361	29895.54
737.702	30105.48
738.042	29902.32
738.383	29842.89
738.723	29818.71
739.063	29716.56
739.404	29845.37
739.744	29681.54
740.084	29728.54
740.424	29617.13
740.764	29607.87
741.104	29661.65
741.444	29425.72
741.784	29459.39
742.124	29521.31
742.464	29471.37
742.804	29345.27
743.143	29328.32
743.483	29359.96
743.823	29237.93
744.162	29183.24
744.502	29214.88
744.841	29009.46
745.181	29197.03
745.52	29046.52
745.86	29001.55
746.199	28955.45
746.538	28997.71
746.877	29087.43
747.216	28951.39
747.556	28823.93
747.895	28891.5
748.234	28646.99
748.573	28726.53
748.911	28779.19
749.25	28849.69
749.589	28515.24
749.928	28649.25
750.267	28602.47
750.605	28482.02
750.944	28471.85
751.283	28287.45
751.621	28410.16
751.96	28269.6
752.298	28258.97
752.636	28199.32
752.975	28124.29
753.313	28071.86
753.651	28094.01
753.989	28069.83
754.327	27910.74
754.666	27776.05
755.004	27949.83
755.342	27886.1
755.679	27731.98
756.017	27596.84
756.355	27728.37
756.693	27547.13
757.031	27609.5
757.368	27330.19
757.706	27419
758.044	27419.67
758.381	27387.13
758.719	27228.72
759.056	27355.27
759.394	27172.45
759.731	27039.8
