Data from hue_22_FLMS001491_00091.txt Node
Date: Tue Feb 07 17:10:57 GMT 2017
User: dcchb
Spectrometer: FLMS00149
Trigger mode: 0
Integration Time (sec): 2.000000E-2
Scans to average: 10
Electric dark correction enabled: true
Nonlinearity correction enabled: false
Boxcar width: 0
XAxis mode: Wavelengths
Number of Pixels in Spectrum: 2048
>>>>>Begin Spectral Data<<<<<
341.393	-11.71
341.776	-11.71
342.16	-11.71
342.543	-74.53
342.927	-56.91
343.31	-84.02
343.693	-81.31
344.077	-61.65
344.46	-61.65
344.843	-36.57
345.226	-55.1
345.61	-22.56
345.993	-40.18
346.376	-0.64
346.759	10.21
347.142	49.08
347.525	30.55
347.908	66.71
348.291	82.75
348.674	91.34
349.057	113.03
349.44	122.3
349.823	139.7
350.206	157.33
350.588	199.81
350.971	221.51
351.354	232.8
351.737	240.71
352.119	246.36
352.502	251.56
352.884	261.5
353.267	289.3
353.65	313.48
354.032	289.53
354.414	311.45
354.797	322.97
355.179	319.81
355.562	335.17
355.944	325.91
356.326	325.46
356.709	327.49
357.091	325.23
357.473	336.08
357.855	337.89
358.238	344.44
358.62	345.8
359.002	341.5
359.384	335.4
359.766	323.65
360.148	336.53
360.53	330.88
360.912	336.53
361.294	326.36
361.676	336.76
362.057	322.29
362.439	344.89
362.821	320.94
363.203	318.68
363.584	329.07
363.966	322.07
364.348	322.07
364.729	319.81
365.111	320.49
365.493	322.97
365.874	325.68
366.256	315.06
366.637	316.64
367.019	319.81
367.4	307.38
367.781	337.21
368.163	302.86
368.544	334.95
368.925	321.84
369.306	326.14
369.688	290.88
370.069	309.19
370.45	313.03
370.831	308.73
371.212	320.94
371.593	319.13
371.974	310.99
372.355	302.18
372.736	289.53
373.117	303.09
373.498	321.16
373.879	316.87
374.26	289.75
374.641	316.87
375.021	309.64
375.402	305.12
375.783	320.03
376.163	306.7
376.544	333.82
376.925	319.58
377.305	330.88
377.686	310.77
378.066	311.22
378.447	337.66
378.827	331.33
379.208	329.3
379.588	343.08
379.968	340.6
380.349	325.91
380.729	329.75
381.109	328.4
381.489	340.15
381.87	329.07
382.25	355.51
382.63	327.94
383.01	357.77
383.39	339.02
383.77	344.44
384.15	350.32
384.53	350.09
384.91	340.15
385.29	334.5
385.67	343.76
386.049	331.79
386.429	352.8
386.809	354.38
387.189	342.41
387.568	351.22
387.948	338.11
388.328	350.99
388.707	354.16
389.087	355.51
389.466	367.49
389.846	352.35
390.225	350.09
390.605	349.86
390.984	350.77
391.363	365.46
391.743	358.68
392.122	349.64
392.501	346.02
392.881	378.11
393.26	358.68
393.639	373.82
394.018	366.13
394.397	371.78
394.776	355.51
395.155	384.89
395.534	355.97
395.913	355.06
396.292	364.33
396.671	370.65
397.05	369.98
397.429	398
397.808	396.19
398.186	386.92
398.565	381.95
398.944	373.37
399.323	365
399.701	386.92
400.08	386.7
400.458	368.17
400.837	379.69
401.215	377.89
401.594	411.33
401.972	392.12
402.351	415.62
402.729	419.47
403.107	379.92
403.486	395.29
403.864	384.67
404.242	395.96
404.62	381.73
404.999	398
405.377	408.62
405.755	402.97
406.133	400.71
406.511	401.16
406.889	421.5
407.267	412.46
407.645	401.16
408.023	409.52
408.401	424.66
408.779	431.22
409.156	417.66
409.534	447.26
409.912	442.29
410.29	425.12
410.667	432.8
411.045	427.6
411.422	449.3
411.8	450.65
412.178	456.08
412.555	440.03
412.933	452.91
413.31	455.85
413.687	465.57
414.065	487.26
414.442	461.5
414.819	455.85
415.197	483.65
415.574	462.4
415.951	475.51
416.328	460.82
416.705	478.67
417.082	470.31
417.46	480.03
417.837	476.87
418.214	473.02
418.591	501.95
418.967	501.72
419.344	496.98
419.721	499.24
420.098	502.4
420.475	489.07
420.852	497.43
421.228	507.6
421.605	523.19
421.982	497.88
422.358	506.24
422.735	526.36
423.111	521.38
423.488	530.65
423.864	536.53
424.241	525
424.617	551.21
424.994	537.88
425.37	539.46
425.746	557.09
426.123	562.74
426.499	563.19
426.875	567.49
427.251	534.27
427.627	549.63
428.003	556.86
428.379	582.4
428.756	567.94
429.132	554.6
429.507	574.72
429.883	569.29
430.259	593.93
430.635	603.42
431.011	587.15
431.387	614.72
431.763	581.27
432.138	603.64
432.514	599.35
432.89	598.67
433.265	619.24
433.641	633.25
434.016	626.92
434.392	646.35
434.767	648.84
435.143	638.67
435.518	625.56
435.894	637.31
436.269	666.01
436.644	656.07
437.02	677.76
437.395	683.87
437.77	697.43
438.145	687.48
438.52	677.09
438.895	710.76
439.271	699.46
439.646	707.37
440.021	706.46
440.395	698.1
440.77	714.15
441.145	723.87
441.52	717.54
441.895	709.18
442.27	732.45
442.645	718.67
443.019	723.41
443.394	743.07
443.769	741.27
444.143	749.18
444.518	733.81
444.892	750.98
445.267	717.09
445.641	733.81
446.016	769.51
446.39	771.77
446.764	797.31
447.139	760.47
447.513	775.84
447.887	776.07
448.262	781.26
448.636	788.72
449.01	776.97
449.384	785.33
449.758	798.67
450.132	788.27
450.506	805.44
450.88	807.48
451.254	826.01
451.628	834.14
452.002	821.72
452.376	806.8
452.75	841.83
453.123	829.17
453.497	842.05
453.871	867.82
454.244	881.38
454.618	875.95
454.992	875.27
455.365	888.61
455.739	919.34
456.112	895.39
456.486	917.53
456.859	926.35
457.232	939.23
457.606	952.79
457.979	936.97
458.352	963.63
458.725	980.13
459.099	981.03
459.472	979.68
459.845	977.42
460.218	1001.82
460.591	998.66
460.964	1027.81
461.337	1027.59
461.71	1059.45
462.083	1047.92
462.456	1053.35
462.829	1071.2
463.201	1058.32
463.574	1075.72
463.947	1091.54
464.32	1109.39
464.692	1152.55
465.065	1123.4
465.438	1153.91
465.81	1168.83
466.183	1175.83
466.555	1195.49
466.928	1203.4
467.3	1220.58
467.672	1207.02
468.045	1251.99
468.417	1242.95
468.789	1260.57
469.161	1280.23
469.534	1298.54
469.906	1313.23
470.278	1340.35
470.65	1349.16
471.022	1398.42
471.394	1405.2
471.766	1395.03
472.138	1430.97
472.51	1441.36
472.882	1479.33
473.253	1465.54
473.625	1528.36
473.997	1555.26
474.369	1535.82
474.74	1578.31
475.112	1623.73
475.484	1641.13
475.855	1629.6
476.227	1668.02
476.598	1698.3
476.97	1759.32
477.341	1777.4
477.713	1833.21
478.084	1828.47
478.455	1866.21
478.827	1877.96
479.198	1962.7
479.569	1938.75
479.94	2018.29
480.311	2028.92
480.682	2088.12
481.053	2133.55
481.424	2138.97
481.795	2180.1
482.166	2242.7
482.537	2268.68
482.908	2310.72
483.279	2353.2
483.65	2409.02
484.021	2456.7
484.391	2506.19
484.762	2516.36
485.133	2566.75
485.503	2603.82
485.874	2661.89
486.244	2674.32
486.615	2765.39
486.985	2785.51
487.356	2856.01
487.726	2919.51
488.097	2980.08
488.467	2988.21
488.837	3036.57
489.207	3077.93
489.578	3145.04
489.948	3169.45
490.318	3228.66
490.688	3222.56
491.058	3293.52
491.428	3392.27
491.798	3395.43
492.168	3488.76
492.538	3481.31
492.908	3586.61
493.278	3597.46
493.648	3591.81
494.017	3665.93
494.387	3727.4
494.757	3725.82
495.126	3802.65
495.496	3789.77
495.866	3830.9
496.235	3899.83
496.605	3923.33
496.974	3945.25
497.344	3947.74
497.713	4021.63
498.082	4047.39
498.452	4103.21
498.821	4105.02
499.19	4140.27
499.559	4208.75
499.928	4204.45
500.298	4268.86
500.667	4267.5
501.036	4286.48
501.405	4345.92
501.774	4353.15
502.143	4423.65
502.512	4406.93
502.88	4480.6
503.249	4476.53
503.618	4482.64
503.987	4552.92
504.356	4564.89
504.724	4589.07
505.093	4581.62
505.462	4621.84
505.83	4620.26
506.199	4726.7
506.567	4738
506.936	4721.95
507.304	4772.57
507.672	4804.66
508.041	4803.08
508.409	4853.02
508.777	4889.41
509.145	4908.16
509.514	4889.18
509.882	4907.71
510.25	4957.88
510.618	4955.84
510.986	4985.22
511.354	5000.59
511.722	5091.66
512.09	5060.25
512.458	5092.11
512.826	5153.13
513.193	5188.38
513.561	5189.06
513.929	5187.7
514.297	5251.43
514.664	5272.67
515.032	5270.86
515.4	5307.7
515.767	5320.81
516.135	5312.67
516.502	5279.9
516.869	5387.25
517.237	5366.91
517.604	5357.19
517.972	5420.24
518.339	5426.34
518.706	5436.06
519.073	5503.4
519.44	5502.5
519.808	5549.95
520.175	5482.38
520.542	5572.1
520.909	5584.98
521.276	5601.03
521.643	5730.29
522.009	5681.47
522.376	5742.49
522.743	5655.94
523.11	5768.03
523.477	5767.8
523.843	5804.41
524.21	5847.8
524.577	5891.64
524.943	5880.57
525.31	5932.54
525.676	5996.27
526.043	6022.48
526.409	6027.23
526.776	6095.48
527.142	6081.69
527.508	6138.41
527.874	6170.73
528.241	6213.89
528.607	6223.61
528.973	6261.8
529.339	6263.61
529.705	6328.92
530.071	6393.77
530.437	6378.18
530.803	6367.56
531.169	6423.6
531.535	6427.44
531.901	6444.39
532.267	6462.92
532.632	6511.51
532.998	6588.57
533.364	6663.14
533.73	6647.78
534.095	6686.87
534.461	6675.35
534.826	6712.41
535.192	6766.42
535.557	6786.3
535.923	6815.91
536.288	6838.05
536.653	6891.84
537.019	6819.07
537.384	6908.34
537.749	6906.53
538.114	6899.3
538.479	6959.18
538.845	6974.1
539.21	6982.91
539.575	7070.59
539.94	7047.54
540.305	7088.67
540.67	7097.26
541.034	7125.73
541.399	7137.93
541.764	7114.21
542.129	7184.26
542.494	7265.39
542.858	7297.03
543.223	7330.92
543.587	7302.22
543.952	7334.09
544.316	7438.72
544.681	7344.71
545.045	7465.16
545.41	7480.3
545.774	7499.28
546.138	7521.88
546.503	7583.35
546.867	7604.59
547.231	7611.14
547.595	7634.42
547.959	7678.26
548.324	7695.66
548.688	7632.84
549.052	7721.87
549.416	7751.7
549.779	7844.58
550.143	7848.2
550.507	7788.76
550.871	7881.64
551.235	7881.19
551.599	7953.51
551.962	7922.09
552.326	7980.17
552.689	8045.93
553.053	7986.27
553.417	8007.97
553.78	8162.99
554.143	8113.95
554.507	8160.28
554.87	8169.77
555.234	8266.72
555.597	8196.44
555.96	8201.41
556.323	8263.78
556.686	8287.06
557.05	8393.27
557.413	8407.96
557.776	8392.36
558.139	8416.32
558.502	8429.2
558.865	8445.02
559.228	8465.81
559.59	8539.25
559.953	8546.03
560.316	8606.82
560.679	8614.28
561.041	8657.89
561.404	8698.8
561.767	8720.72
562.129	8662.19
562.492	8765.91
562.854	8772.69
563.217	8779.92
563.579	8855.4
563.941	8890.66
564.304	8877.78
564.666	8996.64
565.028	8953.25
565.39	9023.08
565.753	9029.41
566.115	9103.08
566.477	9094.94
566.839	9159.35
567.201	9182.85
567.563	9245.22
567.925	9234.38
568.287	9365.67
568.648	9345.33
569.01	9353.69
569.372	9403.41
569.734	9369.97
570.095	9486.57
570.457	9494.26
570.819	9527.48
571.18	9555.72
571.542	9636.4
571.903	9625.55
572.265	9677.3
572.626	9730.63
572.987	9807.47
573.349	9811.99
573.71	9909.61
574.071	9876.62
574.432	9926.11
574.794	10148.7
575.155	10143.73
575.516	10134.69
575.877	10252.88
576.238	10329.04
576.599	10371.07
576.96	10442.71
577.32	10563.61
577.681	10583.94
578.042	10750.49
578.403	10817.84
578.763	10914.78
579.124	10978.28
579.485	11178.28
579.845	11250.82
580.206	11324.49
580.566	11426.86
580.927	11529.91
581.287	11717.7
581.648	11808.09
582.008	12064.36
582.368	12163.56
582.728	12360.85
583.089	12518.58
583.449	12564.46
583.809	12779.14
584.169	12989.98
584.529	13157.21
584.889	13398.56
585.249	13487.6
585.609	13707.25
585.969	14069.28
586.329	14243.06
586.688	14431.3
587.048	14707.9
587.408	14972.08
587.768	15179.98
588.127	15445.06
588.487	15679.18
588.846	16091.6
589.206	16161.88
589.565	16567.97
589.925	16834.18
590.284	17033.94
590.643	17321.17
591.003	17780.82
591.362	18119.34
591.721	18306.23
592.08	18648.59
592.44	19053.78
592.799	19309.14
593.158	19696.25
593.517	19900.99
593.876	20356.12
594.235	20650.57
594.593	20909.32
594.952	21406.49
595.311	21724.22
595.67	21969.41
596.029	22515.61
596.387	22912.21
596.746	23104.97
597.104	23443.04
597.463	23682.81
597.822	24149.46
598.18	24305.62
598.538	24774.76
598.897	25212.26
599.255	25350.56
599.613	26113.93
599.972	26269.18
600.33	26648.61
600.688	26915.49
601.046	27338.98
601.404	27695.36
601.762	27915.47
602.12	28442.91
602.478	28786.63
602.836	29007.19
603.194	29251.93
603.552	29602.2
603.91	29827.05
604.268	30188.4
604.625	30586.13
604.983	30806.46
605.341	31090.3
605.698	31490.29
606.056	31736.38
606.413	32067
606.771	32469.92
607.128	32858.39
607.485	32917.14
607.843	33300.64
608.2	33591.93
608.557	33828.08
608.914	33962.09
609.272	34481.85
609.629	34657.89
609.986	35046.58
610.343	35178.1
610.7	35607.47
611.057	35776.28
611.414	35953.22
611.771	36243.61
612.127	36447.45
612.484	36879.07
612.841	37048.11
613.198	37261.21
613.554	37325.39
613.911	37808.99
614.267	37879.27
614.624	37978.03
614.98	38312.48
615.337	38511.12
615.693	38714.96
616.05	38845.57
616.406	39253.47
616.762	39299.12
617.118	39355.39
617.475	39773.01
617.831	39831.09
618.187	39984.3
618.543	40203.73
618.899	40519.88
619.255	40637.17
619.611	40704.73
619.967	40895.69
620.323	41229.01
620.678	41119.41
621.034	41069.92
621.39	41352.85
621.746	41399.41
622.101	41964.36
622.457	41730.92
622.812	41869.22
623.168	42226.73
623.523	42334.97
623.879	42385.59
624.234	42340.85
624.589	42517.57
624.945	42621.75
625.3	42584.91
625.655	42774.06
626.01	42860.16
626.365	42881.17
626.72	42932.25
627.075	43037.33
627.43	43083.43
627.785	43127.27
628.14	43268.28
628.495	43347.83
628.85	43226.7
629.205	43357.55
629.559	43559.8
629.914	43543.3
630.269	43515.51
630.623	43477.54
630.978	43501.5
631.332	43670.08
631.687	43897.42
632.041	43712.11
632.396	43803.18
632.75	43614.04
633.104	43776.07
633.459	43747.82
633.813	43702.17
634.167	43775.84
634.521	43818.55
634.875	44031.88
635.229	43906.46
635.583	43624.43
635.937	43780.59
636.291	43813.13
636.645	43852
636.999	43727.93
637.352	43811.77
637.706	43818.78
638.06	43967.47
638.413	43872.34
638.767	43669.63
639.121	43830.75
639.474	43635.96
639.828	43731.77
640.181	43657.88
640.534	43762.51
640.888	43656.07
641.241	43522.29
641.594	43596.18
641.947	43698.55
642.301	43606.35
642.654	43690.42
643.007	43652.23
643.36	43731.55
643.713	43535.62
644.066	43756.41
644.419	43519.12
644.771	43260.6
645.124	42954.85
645.477	42958.69
645.83	42730.22
646.182	42582.88
646.535	42444.58
646.888	42559.6
647.24	42321.64
647.593	42619.71
647.945	42497.68
648.298	42370
648.65	42391.47
649.002	42126.39
649.355	42352.38
649.707	42311.25
650.059	42637.11
650.411	42928.41
650.763	43110.55
651.115	43454.72
651.467	43265.12
651.819	43336.53
652.171	43151.45
652.523	43082.98
652.875	43009.76
653.227	42987.84
653.578	43234.84
653.93	43112.58
654.282	42902.64
654.633	42886.82
654.985	43035.75
655.337	42953.26
655.688	42946.71
656.039	43165.46
656.391	42806.15
656.742	42832.14
657.094	42944.45
657.445	43006.6
657.796	42905.13
658.147	42810.44
658.498	42855.64
658.849	42896.09
659.2	43016.76
659.551	42725.7
659.902	42924.11
660.253	42921.4
660.604	42981.96
660.955	42868.52
661.306	42876.66
661.656	42762.99
662.007	42809.99
662.358	42854.96
662.708	42912.36
663.059	42906.48
663.409	42704.68
663.76	42874.85
664.11	42772.93
664.461	42814.51
664.811	42819.26
665.161	42747.17
665.511	42589.88
665.862	42642.76
666.212	42794.85
666.562	42876.2
666.912	42664.91
667.262	42610.22
667.612	42591.01
667.962	42699.03
668.312	42750.56
668.662	42900.16
669.011	42711.24
669.361	42604.35
669.711	42653.61
670.06	42522.31
670.41	42494.52
670.76	42392.83
671.109	42637.34
671.459	42541.75
671.808	42445.25
672.157	42614.52
672.507	42348.76
672.856	42354.63
673.205	42328.42
673.554	42491.81
673.904	42381.98
674.253	42470.56
674.602	42445.48
674.951	41891.6
675.3	41650.02
675.649	42334.52
675.998	42361.64
676.346	42387.18
676.695	42381.75
677.044	42161.42
677.393	42260.4
677.741	42311.25
678.09	42155.77
678.438	42135.88
678.787	42230.57
679.135	42209.33
679.484	41754.42
679.832	42052.04
680.181	41643.69
680.529	41874.87
680.877	41731.37
681.225	41726.63
681.573	41854.08
681.922	41563.92
682.27	41638.95
682.618	41738.15
682.966	41481.21
683.314	41622.68
683.661	41387.88
684.009	41242.35
684.357	41155.8
684.705	41102.69
685.053	41177.04
685.4	41142.46
685.748	41042.81
686.095	40937.5
686.443	40955.12
686.79	40893.66
687.138	40953.54
687.485	40919.64
687.832	40764.85
688.18	40768.46
688.527	40534.8
688.874	40467.9
689.221	40394.46
689.568	40299.32
689.915	40290.96
690.262	40287.12
690.609	40279.66
690.956	40126.9
691.303	39955.6
691.65	39770.97
691.997	39892.78
692.344	39720.58
692.69	39539.12
693.037	39554.48
693.383	39309.52
693.73	39414.6
694.077	39100.71
694.423	39049.86
694.769	39042.41
695.116	38768.51
695.462	38756.54
695.808	38589.99
696.155	38889.19
696.501	38511.57
696.847	38612.13
697.193	38231.81
697.539	38488.3
697.885	38282.2
698.231	38114.52
698.577	38060.51
698.923	37986.16
699.269	37874.07
699.614	37626.17
699.96	37592.73
700.306	37682.22
700.651	37457.81
700.997	37409.45
701.342	37239.06
701.688	37315.67
702.033	37105.73
702.379	37111.16
702.724	36861.45
703.069	37177.82
703.415	36642.24
703.76	36783.71
704.105	36663.03
704.45	36589.36
704.795	36431.85
705.14	36214.91
705.485	36455.13
705.83	36151.18
706.175	36270.05
706.52	36034.8
706.865	35920
707.209	36002.71
707.554	35734.47
707.899	35927.91
708.243	35530.18
708.588	35643.62
708.932	35417.19
709.277	35285.22
709.621	35467.13
709.966	35166.12
710.31	35323.41
710.654	34847.26
710.998	35044.77
711.342	35103.75
711.687	34834.83
712.031	34814.04
712.375	34677.77
712.719	34783.99
713.063	34640.94
713.407	34820.37
713.75	34598
714.094	34450.21
714.438	34271.01
714.782	34288.18
715.125	34280.5
715.469	34201.4
715.812	33957.79
716.156	33878.47
716.499	33859.04
716.843	33884.8
717.186	33561.87
717.53	33951.01
717.873	33979.04
718.216	33664.92
718.559	33555.54
718.902	33603.68
719.246	33396.9
719.589	33217.02
719.932	33183.12
720.275	33246.85
720.617	33139.51
720.96	33200.3
721.303	33163.69
721.646	33183.8
721.989	32920.08
722.331	33026.29
722.674	32875.79
723.016	33055.9
723.359	32993.98
723.701	32917.82
724.044	32717.6
724.386	32601.45
724.729	32617.72
725.071	32553.99
725.413	32564.84
725.755	32518.96
726.097	32241.91
726.439	32214.11
726.782	32182.25
727.124	32197.61
727.465	32190.16
727.807	32109.48
728.149	31956.04
728.491	31901.58
728.833	32095.92
729.175	31883.05
729.516	31956.72
729.858	31983.83
730.199	31912.65
730.541	31692.54
730.882	31824.06
731.224	31839.21
731.565	31635.14
731.906	31660.45
732.248	31596.05
732.589	31474.47
732.93	31372.78
733.271	31262.27
733.612	31396.05
733.953	31387.24
734.294	31155.83
734.635	31167.58
734.976	31184.31
735.317	31048.72
735.658	31032.67
735.999	31004.65
736.339	30853.92
736.68	31017.31
737.021	30941.6
737.361	30724.66
737.702	30883.07
738.042	30938.66
738.383	30697.31
738.723	30759.69
739.063	30598.11
739.404	30782.96
739.744	30563.31
740.084	30424.33
740.424	30534.61
740.764	30414.84
741.104	30504.78
741.444	30336.42
741.784	30319.02
742.124	30265.69
742.464	30342.3
742.804	30260.04
743.143	30159.48
743.483	30185.69
743.823	30117.67
744.162	30073.38
744.502	30063.21
744.841	29837.45
745.181	30092.81
745.52	29959.71
745.86	29969.2
746.199	29999.25
746.538	29934.4
746.877	29898.69
747.216	29839.94
747.556	29717.91
747.895	29701.18
748.234	29487.4
748.573	29459.61
748.911	29657.34
749.25	29484.46
749.589	29362.89
749.928	29352.49
750.267	29352.72
750.605	29312.27
750.944	29152.95
751.283	29132.84
751.621	29241.08
751.96	29020.3
752.298	29026.17
752.636	29037.47
752.975	28886.51
753.313	28812.62
753.651	28930.36
753.989	28801.09
754.327	28614.88
754.666	28542.34
755.004	28545.28
755.342	28649.68
755.679	28457.15
756.017	28431.16
756.355	28353.65
756.693	28300.54
757.031	28438.62
757.368	28165.4
757.706	28129.25
758.044	28074.78
758.381	28013.54
758.719	28015.35
759.056	27950.72
759.394	27835.92
759.731	27585.31
760.068	27645.64
760.405	27591.63
760.743	27443.16
