Data from hue_26_FLMS001491_00059.txt Node
Date: Tue Feb 07 17:14:13 GMT 2017
User: dcchb
Spectrometer: FLMS00149
Trigger mode: 0
Integration Time (sec): 2.000000E-2
Scans to average: 10
Electric dark correction enabled: true
Nonlinearity correction enabled: false
Boxcar width: 0
XAxis mode: Wavelengths
Number of Pixels in Spectrum: 2048
>>>>>Begin Spectral Data<<<<<
341.393	-2.54
341.776	-2.54
342.16	-2.54
342.543	-64.01
342.927	-66.72
343.31	-69.43
343.693	-70.34
344.077	-73.05
344.46	-38.25
344.843	-54.07
345.226	-33.28
345.61	-27.63
345.993	-11.58
346.376	-16.1
346.759	16.67
347.142	17.8
347.525	39.72
347.908	60.28
348.291	78.81
348.674	81.75
349.057	98.7
349.44	121.97
349.823	120.62
350.206	143.22
350.588	190
350.971	206.72
351.354	212.14
351.737	203.1
352.119	237.45
352.502	259.15
352.884	271.8
353.267	276.77
353.65	290.78
354.032	297.34
354.414	325.13
354.797	330.56
355.179	321.97
355.562	328.75
355.944	321.29
356.326	330.33
356.709	347.28
357.091	323.32
357.473	337.34
357.855	362.87
358.238	360.84
358.62	340.27
359.002	350.67
359.384	328.97
359.766	338.01
360.148	369.88
360.53	321.07
360.912	341.4
361.294	337.34
361.676	311.57
362.057	330.56
362.439	337.11
362.821	359.93
363.203	339.6
363.584	326.71
363.966	318.35
364.348	315.87
364.729	318.58
365.111	323.78
365.493	310.44
365.874	327.17
366.256	315.87
366.637	304.79
367.019	326.71
367.4	327.39
367.781	350.67
368.163	321.07
368.544	287.39
368.925	314.51
369.306	300.95
369.688	309.31
370.069	313.83
370.45	315.64
370.831	315.42
371.212	311.12
371.593	311.12
371.974	314.74
372.355	332.36
372.736	313.61
373.117	303.89
373.498	300.27
373.879	321.52
374.26	318.35
374.641	298.69
375.021	322.65
375.402	339.14
375.783	306.38
376.163	338.47
376.544	329.88
376.925	289.65
377.305	322.87
377.686	322.65
378.066	328.07
378.447	340.27
378.827	337.11
379.208	337.56
379.588	310.22
379.968	323.32
380.349	338.01
380.729	336.43
381.109	309.99
381.489	328.3
381.87	344.57
382.25	355.64
382.63	369.43
383.01	343.44
383.39	328.07
383.77	334.17
384.15	339.6
384.53	340.95
384.91	337.11
385.29	344.12
385.67	359.26
386.049	362.19
386.429	366.71
386.809	344.79
387.189	355.87
387.568	361.29
387.948	331.69
388.328	360.61
388.707	344.57
389.087	349.09
389.466	369.65
389.846	360.61
390.225	342.76
390.605	364.45
390.984	372.59
391.363	361.97
391.743	368.52
392.122	376.66
392.501	388.18
392.881	395.87
393.26	367.39
393.639	385.7
394.018	385.02
394.397	365.13
394.776	383.89
395.155	388.41
395.534	404.23
395.913	387.05
396.292	385.7
396.671	383.66
397.05	389.76
397.429	388.63
397.808	402.42
398.186	370.1
398.565	391.12
398.944	390.44
399.323	409.88
399.701	400.84
400.08	386.6
400.458	386.6
400.837	398.8
401.215	427.95
401.594	374.17
401.972	401.29
402.351	413.27
402.729	393.83
403.107	413.27
403.486	411.23
403.864	427.5
404.242	392.02
404.62	418.24
404.999	432.93
405.377	403.77
405.755	418.01
406.133	419.37
406.511	413.94
406.889	418.92
407.267	425.24
407.645	411.01
408.023	447.84
408.401	453.26
408.779	468.63
409.156	441.06
409.534	462.3
409.912	456.43
410.29	466.37
410.667	462.76
411.045	481.74
411.422	456.43
411.8	475.86
412.178	469.99
412.555	471.57
412.933	479.03
413.31	475.19
413.687	471.57
414.065	480.83
414.442	482.87
414.819	502.53
415.197	493.26
415.574	478.8
415.951	504.34
416.328	501.85
416.705	473.83
417.082	498.01
417.46	518.12
417.837	527.61
418.214	517.67
418.591	521.29
418.967	513.15
419.344	507.27
419.721	518.12
420.098	525.81
420.475	538.91
420.852	528.29
421.228	536.65
421.605	550.44
421.982	556.09
422.358	551.57
422.735	556.09
423.111	542.75
423.488	544.56
423.864	549.76
424.241	570.1
424.617	567.39
424.994	569.65
425.37	575.07
425.746	557.44
426.123	559.7
426.499	590.66
426.875	576.43
427.251	602.19
427.627	585.46
428.003	599.48
428.379	603.54
428.756	583.21
429.132	605.13
429.507	613.49
429.883	623.66
430.259	612.36
430.635	631.11
431.011	632.24
431.387	629.08
431.763	637.21
432.138	667.27
432.514	658.91
432.89	644.9
433.265	673.15
433.641	627.5
434.016	672.24
434.392	705.69
434.767	691.9
435.143	683.09
435.518	688.96
435.894	717.21
436.269	712.92
436.644	726.93
437.02	729.64
437.395	745.69
437.77	745.46
438.145	736.65
438.52	742.75
438.895	736.42
439.271	756.31
439.646	763.09
440.021	760.6
440.395	767.38
440.77	754.5
441.145	778.45
441.52	794.72
441.895	771.9
442.27	789.08
442.645	766.7
443.019	819.81
443.394	809.64
443.769	817.78
444.143	784.78
444.518	809.64
444.892	801.96
445.267	813.93
445.641	813.93
446.016	819.13
446.39	822.52
446.764	823.42
447.139	819.13
447.513	839.7
447.887	847.6
448.262	854.61
448.636	862.75
449.01	858.9
449.384	876.76
449.758	883.08
450.132	927.83
450.506	897.1
450.88	903.65
451.254	895.51
451.628	892.12
452.002	921.73
452.376	885.34
452.75	905
453.123	933.48
453.497	915.63
453.871	919.24
454.244	951.1
454.618	987.71
454.992	982.74
455.365	956.53
455.739	986.81
456.112	974.38
456.486	1026.36
456.859	1015.28
457.232	1027.49
457.606	1029.29
457.979	1043.31
458.352	1077.43
458.725	1045.57
459.099	1076.53
459.472	1077.88
459.845	1118.78
460.218	1101.61
460.591	1109.52
460.964	1110.87
461.337	1141.38
461.71	1182.96
462.083	1188.16
462.456	1173.02
462.829	1152.46
463.201	1192.23
463.574	1196.07
463.947	1224.09
464.32	1247.82
464.692	1245.11
465.065	1273.36
465.438	1280.81
465.81	1267.71
466.183	1300.47
466.555	1341.38
466.928	1314.49
467.3	1345.9
467.672	1373.69
468.045	1389.06
468.417	1411.88
468.789	1404.88
469.161	1400.13
469.534	1453.69
469.906	1471.09
470.278	1504.31
470.65	1499.79
471.022	1529.85
471.394	1559
471.766	1583.4
472.138	1585.44
472.51	1623.18
472.882	1680.8
473.253	1639.45
473.625	1664.31
473.997	1716.28
474.369	1711.76
474.74	1774.59
475.112	1806.9
475.484	1779.33
475.855	1851.65
476.227	1863.62
476.598	1948.59
476.97	1956.28
477.341	1962.38
477.713	2013.45
478.084	2003.05
478.455	2085.31
478.827	2123.5
479.198	2174.12
479.569	2190.39
479.94	2221.58
480.311	2266.32
480.682	2340.9
481.053	2351.52
481.424	2415.7
481.795	2471.06
482.166	2477.17
482.537	2504.96
482.908	2603.94
483.279	2633.09
483.65	2693.66
484.021	2738.4
484.391	2789.93
484.762	2842.81
485.133	2866.31
485.503	2902.47
485.874	2953.99
486.244	2986.53
486.615	3094.78
486.985	3101.78
487.356	3143.82
487.726	3194.89
488.097	3297.71
488.467	3312.62
488.837	3392.62
489.207	3462.9
489.578	3485.05
489.948	3529.12
490.318	3605.95
490.688	3617.02
491.058	3659.28
491.428	3747.87
491.798	3793.29
492.168	3853.85
492.538	3845.49
492.908	3950.8
493.278	4024.47
493.648	4015.43
494.017	4034.87
494.387	4108.99
494.757	4143.56
495.126	4217.01
495.496	4215.65
495.866	4280.96
496.235	4307.63
496.605	4355.08
496.974	4382.65
497.344	4411.13
497.713	4484.35
498.082	4456.1
498.452	4629.88
498.821	4624.23
499.19	4592.59
499.559	4691.12
499.928	4680.72
500.298	4746.49
500.667	4785.58
501.036	4774.51
501.405	4847.27
501.774	4857.89
502.143	4870.1
502.512	4932.92
502.88	4937.67
503.249	4987.16
503.618	4996.2
503.987	5010.21
504.356	5038.46
504.724	5094.05
505.093	5093.37
505.462	5136.76
505.83	5183.76
506.199	5207.04
506.567	5278.22
506.936	5265.34
507.304	5343.76
507.672	5288.84
508.041	5388.05
508.409	5396.86
508.777	5444.09
509.145	5416.75
509.514	5461.27
509.882	5525.9
510.25	5539.23
510.618	5597.08
510.986	5560.02
511.354	5615.39
511.722	5689.96
512.09	5716.86
512.458	5738.1
512.826	5752.11
513.193	5751.88
513.561	5764.76
513.929	5774.25
514.297	5899.45
514.664	5865.33
515.032	5941.48
515.4	5969.96
515.767	5946.45
516.135	5930.64
516.502	5959.11
516.869	6046.34
517.237	6061.71
517.604	6053.57
517.972	6110.74
518.339	6084.08
518.706	6119.56
519.073	6126.34
519.44	6159.33
519.808	6238.88
520.175	6220.12
520.542	6248.82
520.909	6331.98
521.276	6324.75
521.643	6398.65
522.009	6461.47
522.376	6418.31
522.743	6475.25
523.11	6565.42
523.477	6614.68
523.843	6609.49
524.21	6696.04
524.577	6677.51
524.943	6675.25
525.31	6784.62
525.676	6829.82
526.043	6816.04
526.409	6833.66
526.776	6917.95
527.142	6916.82
527.508	6952.98
527.874	6983.49
528.241	7080.89
528.607	7133.09
528.973	7158.4
529.339	7207.44
529.705	7244.05
530.071	7245.4
530.437	7253.31
530.803	7304.16
531.169	7350.48
531.535	7371.95
531.901	7361.78
532.267	7434.1
532.632	7479.75
532.998	7505.28
533.364	7524.94
533.73	7598.16
534.095	7641.78
534.461	7625.96
534.826	7724.26
535.192	7738.27
535.557	7726.97
535.923	7768.55
536.288	7737.37
536.653	7858.27
537.019	7858.95
537.384	7907.31
537.749	7904.37
538.114	7977.13
538.479	8008.32
538.845	8048.77
539.21	8022.33
539.575	8088.77
539.94	8121.76
540.305	8150.46
540.67	8096.45
541.034	8180.97
541.399	8178.49
541.764	8264.81
542.129	8234.53
542.494	8349.1
542.858	8338.93
543.223	8374.86
543.587	8391.59
543.952	8413.06
544.316	8465.94
544.681	8461.19
545.045	8611.02
545.41	8592.03
545.774	8595.65
546.138	8634.29
546.503	8698.47
546.867	8709.77
547.231	8724.91
547.595	8773.72
547.959	8750.9
548.324	8843.55
548.688	8827.06
549.052	8898.47
549.416	8896.66
549.779	8952.02
550.143	8872.93
550.507	9014.85
550.871	9045.81
551.235	9013.04
551.599	9143.88
551.962	9181.4
552.326	9127.84
552.689	9221.17
553.053	9203.09
553.417	9150.66
553.78	9295.97
554.143	9298.23
554.507	9365.57
554.87	9371
555.234	9464.55
555.597	9337.55
555.96	9371.22
556.323	9523.76
556.686	9519.47
557.05	9566.25
557.413	9595.62
557.776	9616.41
558.139	9701.84
558.502	9637.2
558.865	9682.4
559.228	9805.56
559.59	9729.41
559.953	9801.95
560.316	9841.27
560.679	9884.66
561.041	9964.65
561.404	10001.49
561.767	10016.4
562.129	9998.78
562.492	10076.06
562.854	10074.93
563.217	10082.62
563.579	10135.5
563.941	10208.04
564.304	10239
564.666	10290.75
565.028	10215.72
565.39	10353.34
565.753	10356.73
566.115	10389.05
566.477	10413
566.839	10468.14
567.201	10561.47
567.563	10618.65
567.925	10635.6
568.287	10650.28
568.648	10693
569.01	10706.33
569.372	10755.37
569.734	10787
570.095	10895.93
570.457	10917.85
570.819	10975.02
571.18	11002.14
571.542	11051.86
571.903	11160.78
572.265	11063.38
572.626	11159.88
572.987	11238.29
573.349	11277.61
573.71	11279.42
574.071	11398.06
574.432	11552.86
574.794	11523.71
575.155	11591.05
575.516	11592.18
575.877	11678.73
576.238	11813.42
576.599	11843.7
576.96	11901.1
577.32	11964.37
577.681	12017.48
578.042	12178.61
578.403	12216.12
578.763	12378.6
579.124	12472.16
579.485	12598.03
579.845	12671.02
580.206	12786.5
580.566	12915.08
580.927	12979.94
581.287	13222.87
581.648	13239.82
582.008	13443.21
582.368	13520.27
582.728	13729.75
583.089	13843.42
583.449	14052.68
583.809	14222.62
584.169	14334.71
584.529	14555.04
584.889	14879.33
585.249	14946.22
585.609	15069.83
585.969	15282.48
586.329	15503.49
586.688	15740.77
587.048	15949.35
587.408	16089.69
587.768	16356.35
588.127	16578.04
588.487	16844.25
588.846	17163.33
589.206	17341.86
589.565	17623.89
589.925	17899.36
590.284	18079.24
590.643	18370.31
591.003	18664.31
591.362	18920.8
591.721	19279.89
592.08	19466.32
592.44	19823.6
592.799	20105.4
593.158	20320.09
593.517	20654.54
593.876	20989
594.235	21226.28
594.593	21517.57
594.952	21992.59
595.311	22064.22
595.67	22424.89
596.029	22910.75
596.387	23203.4
596.746	23445.65
597.104	23750.05
597.463	23971.97
597.822	24250.15
598.18	24570.14
598.538	24777.15
598.897	25340.75
599.255	25289.45
599.613	25984.35
599.972	26216.2
600.33	26395.63
600.688	26652.35
601.046	26940.93
601.404	27407.13
601.762	27641.48
602.12	27950.62
602.478	28239.65
602.836	28576.37
603.194	28654.78
603.552	28833.54
603.91	29015.23
604.268	29551.26
604.625	29727.07
604.983	30093.39
605.341	30160.05
605.698	30666.93
606.056	30955.97
606.413	31101.5
606.771	31421.72
607.128	31667.36
607.485	31852.44
607.843	32099.66
608.2	32433.44
608.557	32700.78
608.914	32690.16
609.272	33130.15
609.629	33356.81
609.986	33665.72
610.343	33723.12
610.7	34300.96
611.057	34129.89
611.414	34409.21
611.771	34576.44
612.127	34973.04
612.484	35176.65
612.841	35345
613.198	35507.48
613.554	35450.76
613.911	35767.14
614.267	36139.33
614.624	36036.28
614.98	36338.2
615.337	36837.39
615.693	36826.77
616.05	36796.94
616.406	37256.59
616.762	37211.62
617.118	37362.12
617.475	37625.17
617.831	37830.36
618.187	37821.1
618.543	38154.19
618.899	38418.59
619.255	38283
619.611	38542.21
619.967	38718.47
620.323	38940.61
620.678	38761.41
621.034	38836.44
621.39	38994.17
621.746	39003.44
622.101	39609.52
622.457	39423.54
622.812	39558.23
623.168	39697.43
623.523	39732.01
623.879	39878.44
624.234	39773.81
624.589	40070.75
624.945	40187.36
625.3	40227.13
625.655	40226
626.01	40351.88
626.365	40361.82
626.72	40378.99
627.075	40550.52
627.43	40488.82
627.785	40558.88
628.14	40681.13
628.495	40736.73
628.85	40798.64
629.205	40742.38
629.559	41061.91
629.914	40848.59
630.269	40842.03
630.623	40981.92
630.978	40907.79
631.332	41231.85
631.687	41211.97
632.041	41016.94
632.396	41243.6
632.75	41051.52
633.104	41155.7
633.459	41014.01
633.813	41091.07
634.167	41273.66
634.521	41188.47
634.875	41181.69
635.229	41234.79
635.583	41063.5
635.937	41123.16
636.291	41072.31
636.645	41150.05
636.999	41073.21
637.352	41204.74
637.706	40980.56
638.06	41089.94
638.413	41039.99
638.767	40960.9
639.121	41155.47
639.474	41038.19
639.828	40974.23
640.181	41041.8
640.534	40953.22
640.888	40976.27
641.241	40936.49
641.594	40945.76
641.947	41222.14
642.301	41057.17
642.654	41104.85
643.007	41014.23
643.36	41026.21
643.713	40977.85
644.066	41271.17
644.419	40848.59
644.771	40707.12
645.124	40417.64
645.477	40210.64
645.83	40039.79
646.182	39847.94
646.535	39789.63
646.888	39912.79
647.24	39792.57
647.593	39926.58
647.945	39919.35
648.298	39676.41
648.65	39596.19
649.002	39562.52
649.355	39649.52
649.707	39606.36
650.059	39967.48
650.411	40302.39
650.763	40508.48
651.115	40706.67
651.467	40616.5
651.819	40634.81
652.171	40670.74
652.523	40433
652.875	40635.71
653.227	40360.01
653.578	40590.06
653.93	40509.61
654.282	40233.46
654.633	40230.52
654.985	40355.04
655.337	40397.3
655.688	40402.95
656.039	40566.79
656.391	40128.38
656.742	40254.25
657.094	40243.41
657.445	40467.13
657.796	40347.58
658.147	40327.92
658.498	40244.54
658.849	40263.29
659.2	40248.15
659.551	40135.84
659.902	40352.78
660.253	40257.19
660.604	40296.51
660.955	40025.56
661.306	40285.44
661.656	40239.11
662.007	40221.03
662.358	40084.31
662.708	40192.11
663.059	40173.8
663.409	40107.82
663.76	40299.45
664.11	40166.8
664.461	40184.88
664.811	40292.22
665.161	40274.14
665.511	40074.82
665.862	40068.72
666.212	40280.01
666.562	40292.22
666.912	40096.06
667.262	40064.43
667.612	40106.23
667.962	40122.5
668.312	40030.98
668.662	40163.63
669.011	40137.19
669.361	40032.56
669.711	40036.86
670.06	40006.35
670.41	39836.41
670.76	39940.59
671.109	40146.01
671.459	39985.78
671.808	39871.89
672.157	39988.95
672.507	39734.27
672.856	39936.52
673.205	39957.76
673.554	39993.47
673.904	39747.82
674.253	40108.04
674.602	39927.03
674.951	39246.6
675.3	39267.61
675.649	39624.66
675.998	39736.98
676.346	39693.59
676.695	39851.1
677.044	39532.92
677.393	39737.66
677.741	39823.53
678.09	39648.84
678.438	39619.47
678.787	39502.41
679.135	39594.83
679.484	39335.18
679.832	39565
680.181	39267.16
680.529	39445.01
680.877	39208.63
681.225	39277.1
681.573	39477.32
681.922	39110.33
682.27	39125.47
682.618	38983.1
682.966	38865.81
683.314	39017.45
683.661	38911.24
684.009	38741.98
684.357	38694.75
684.705	38590.12
685.053	38691.81
685.4	38681.19
685.748	38445.94
686.095	38390.8
686.443	38420.18
686.79	38260.63
687.138	38452.49
687.485	38380.86
687.832	38259.95
688.18	38175.89
688.527	38005.72
688.874	37993.75
689.221	37848.89
689.568	37822.68
689.915	37881.43
690.262	37735
690.609	37731.15
690.956	37525.06
691.303	37478.05
691.65	37347.44
691.997	37325.74
692.344	37007.33
692.69	37053.21
693.037	36986.32
693.383	36771.18
693.73	37036.03
694.077	36810.73
694.423	36655.02
694.769	36633.1
695.116	36571.86
695.462	36569.38
695.808	36342.72
696.155	36443.51
696.501	36179.11
696.847	36164.42
697.193	35817.98
697.539	36086.68
697.885	35720.81
698.231	35687.59
698.577	35742.28
698.923	35624.32
699.269	35502.06
699.614	35267.49
699.96	35425.9
700.306	35232.69
700.651	35028.85
700.997	34936.43
701.342	35059.59
701.688	34976.65
702.033	34796.99
702.379	34776.88
702.724	34716.77
703.069	34821.63
703.415	34260.74
703.76	34331.92
704.105	34361.53
704.45	34272.04
704.795	34021.87
705.14	33980.97
705.485	34070.91
705.83	33948.88
706.175	33889
706.52	33709.79
706.865	33577.37
707.209	33660.98
707.554	33485.84
707.899	33679.74
708.243	33394.09
708.588	33426.18
708.932	33166.76
709.277	33178.28
709.621	33198.62
709.966	32944.16
710.31	33081.79
710.654	32774.22
710.998	32774.45
711.342	32884.5
711.687	32635.7
712.031	32653.32
712.375	32482.03
712.719	32423.27
713.063	32491.97
713.407	32533.78
713.75	32445.19
714.094	32251.98
714.438	32168.36
714.782	32240.9
715.125	32038.42
715.469	32093.11
715.812	31918.2
716.156	31808.15
716.499	31842.95
716.843	31844.08
717.186	31691.77
717.53	31691.31
717.873	31816.51
718.216	31724.08
718.559	31572.9
718.902	31378.1
719.246	31333.81
719.589	31320.93
719.932	31181.95
720.275	31163.64
720.617	31092.23
720.96	31077.09
721.303	31004.78
721.646	31186.24
721.989	30901.28
722.331	30885.69
722.674	30805.01
723.016	30883.2
723.359	30865.35
723.701	30868.74
724.044	30590.33
724.386	30547.16
724.729	30745.8
725.071	30602.08
725.413	30570.21
725.755	30501.29
726.097	30392.59
726.439	30192.37
726.782	30239.6
727.124	30386.04
727.465	30144.46
727.807	30221.97
728.149	30138.59
728.491	30020.17
728.833	30092.26
729.175	29950.12
729.516	29942.43
729.858	29810.23
730.199	29900.63
730.541	29815.88
730.882	29762.55
731.224	29874.64
731.565	29581.31
731.906	29690.69
732.248	29749.44
732.589	29480.52
732.93	29436.68
733.271	29398.72
733.612	29480.3
733.953	29439.4
734.294	29279.85
734.635	29307.65
734.976	29405.05
735.317	29174.54
735.658	29061.33
735.999	29061.1
736.339	29193.98
736.68	29197.14
737.021	29022.68
737.361	28962.57
737.702	29186.97
738.042	28975.23
738.383	28898.17
738.723	28896.36
739.063	28789.02
739.404	28811.62
739.744	28756.02
740.084	28717.15
740.424	28763.71
740.764	28701.79
741.104	28731.39
741.444	28508.8
741.784	28561.68
742.124	28532.3
742.464	28474
742.804	28432.42
743.143	28311.29
743.483	28411.63
743.823	28198.3
744.162	28179.09
744.502	28284.62
744.841	28082.59
745.181	28269.48
745.52	28076.72
745.86	28246.88
746.199	27986.33
746.538	28067.23
746.877	28086.89
747.216	28062.03
747.556	27884.18
747.895	28004.4
748.234	27868.82
748.573	27756.5
748.911	27721.02
749.25	27684.41
749.589	27725.77
749.928	27730.51
750.267	27700.23
750.605	27537.52
750.944	27516.73
751.283	27425.44
751.621	27507.02
751.96	27376.62
752.298	27395.16
752.636	27328.26
752.975	27276.29
753.313	27213.24
753.651	27211.43
753.989	27093.24
754.327	27134.82
754.666	26974.15
755.004	27059.8
755.342	26996.3
755.679	26950.2
756.017	26799.24
756.355	26817.09
756.693	26719.01
757.031	26774.61
757.368	26656.64
757.706	26714.95
758.044	26488.74
758.381	26515.18
758.719	26386.82
759.056	26440.83
759.394	26443.77
759.731	26182.53
760.068	26146.15
