Data from hue_350_FLMS001491_33.txt Node
Date: Mon Feb 06 15:37:56 GMT 2017
User: dcchb
Spectrometer: FLMS00149
Trigger mode: 0
Integration Time (sec): 2.000000E-2
Scans to average: 10
Electric dark correction enabled: true
Nonlinearity correction enabled: false
Boxcar width: 0
XAxis mode: Wavelengths
Number of Pixels in Spectrum: 2048
>>>>>Begin Spectral Data<<<<<
341.393	-11.34
341.776	-11.34
342.16	-11.34
342.543	-48.4
342.927	-70.1
343.31	-70.55
343.693	-63.32
344.077	-47.27
344.46	-55.63
344.843	-44.56
345.226	-50.21
345.61	-36.43
345.993	-31.23
346.376	-2.3
346.759	25.49
347.142	25.27
347.525	23.91
347.908	47.19
348.291	70.46
348.674	83.35
349.057	125.83
349.44	103.91
349.823	147.07
350.206	144.13
350.588	190.01
350.971	214.42
351.354	230.69
351.737	236.56
352.119	235.66
352.502	263.91
352.884	273.17
353.267	279.72
353.65	285.15
354.032	293.74
354.414	310.91
354.797	302.55
355.179	305.71
355.562	321.98
355.944	328.31
356.326	308.42
356.709	327.41
357.091	316.33
357.473	320.63
357.855	333.73
358.238	350
358.62	337.58
359.002	333.96
359.384	358.14
359.766	330.34
360.148	326.95
360.53	324.24
360.912	335.77
361.294	342.77
361.676	337.58
362.057	331.02
362.439	339.84
362.821	335.09
363.203	327.18
363.584	305.49
363.966	321.31
364.348	348.2
364.729	321.98
365.111	318.37
365.493	325.37
365.874	300.74
366.256	301.64
366.637	328.08
367.019	305.03
367.4	281.53
367.781	301.19
368.163	306.16
368.544	299.61
368.925	311.59
369.306	328.76
369.688	298.93
370.069	305.49
370.45	313.62
370.831	324.92
371.212	318.14
371.593	306.39
371.974	316.11
372.355	300.51
372.736	317.24
373.117	315.43
373.498	300.97
373.879	314.98
374.26	296.67
374.641	289.89
375.021	323.79
375.402	309.55
375.783	307.75
376.163	327.18
376.544	319.05
376.925	345.03
377.305	318.82
377.686	304.36
378.066	326.28
378.447	319.05
378.827	338.93
379.208	321.76
379.588	317.92
379.968	307.52
380.349	328.99
380.729	329.67
381.109	330.57
381.489	322.66
381.87	326.05
382.25	349.1
382.63	320.4
383.01	338.03
383.39	336.22
383.77	293.74
384.15	348.88
384.53	332.15
384.91	333.28
385.29	332.15
385.67	330.8
386.049	347.07
386.429	331.7
386.809	340.29
387.189	351.59
387.568	345.94
387.948	347.07
388.328	327.18
388.707	328.76
389.087	332.38
389.466	334.64
389.846	348.2
390.225	354.07
390.605	335.54
390.984	344.13
391.363	341.19
391.743	351.59
392.122	365.37
392.501	350.46
392.881	367.63
393.26	361.08
393.639	369.44
394.018	362.21
394.397	353.85
394.776	348.2
395.155	359.04
395.534	376.67
395.913	365.15
396.292	354.52
396.671	362.21
397.05	370.8
397.429	355.2
397.808	372.38
398.186	387.07
398.565	361.3
398.944	376.22
399.323	364.47
399.701	369.21
400.08	375.54
400.458	384.35
400.837	396.78
401.215	392.72
401.594	376.44
401.972	376.22
402.351	384.81
402.729	379.83
403.107	392.94
403.486	363.11
403.864	377.35
404.242	393.62
404.62	401.98
404.999	390.23
405.377	391.36
405.755	380.96
406.133	399.04
406.511	412.38
406.889	411.7
407.267	402.21
407.645	400.63
408.023	400.4
408.401	402.66
408.779	404.69
409.156	413.28
409.534	428.19
409.912	419.83
410.29	415.77
410.667	432.49
411.045	441.08
411.422	428.19
411.8	425.03
412.178	437.91
412.555	460.51
412.933	451.7
413.31	438.36
413.687	453.96
414.065	448.31
414.442	442.88
414.819	451.02
415.197	456.67
415.574	459.38
415.951	463
416.328	453.05
416.705	469.78
417.082	472.49
417.46	474.52
417.837	496.67
418.214	484.46
418.591	502.54
418.967	511.58
419.344	504.58
419.721	466.84
420.098	517.01
420.475	511.36
420.852	507.06
421.228	514.52
421.605	496.89
421.982	501.64
422.358	505.71
422.735	521.3
423.111	525.59
423.488	543.22
423.864	533.28
424.241	509.32
424.617	542.99
424.994	537.57
425.37	540.73
425.746	553.16
426.123	535.08
426.499	545.48
426.875	541.19
427.251	569.21
427.627	564.91
428.003	557.46
428.379	597.68
428.756	560.62
429.132	586.38
429.507	589.32
429.883	578.7
430.259	583.22
430.635	577.57
431.011	604.91
431.387	605.82
431.763	625.7
432.138	611.92
432.514	632.03
432.89	634.07
433.265	636.78
433.641	618.7
434.016	650.79
434.392	636.33
434.767	626.38
435.143	638.13
435.518	652.6
435.894	669.54
436.269	670.45
436.644	662.31
437.02	660.73
437.395	670.9
437.77	684.23
438.145	681.75
438.52	688.98
438.895	684.46
439.271	709.77
439.646	709.32
440.021	687.85
440.395	707.28
440.77	712.93
441.145	719.03
441.52	723.33
441.895	725.81
442.27	737.34
442.645	733.72
443.019	740.05
443.394	756.32
443.769	744.12
444.143	733.5
444.518	766.49
444.892	771.01
445.267	749.77
445.641	757.68
446.016	756.1
446.39	794.96
446.764	766.72
447.139	778.69
447.513	786.6
447.887	802.87
448.262	786.83
448.636	777.34
449.01	778.02
449.384	802.42
449.758	788.19
450.132	816.66
450.506	783.67
450.88	786.6
451.254	827.05
451.628	811.91
452.002	829.54
452.376	837.9
452.75	819.82
453.123	798.58
453.497	844.91
453.871	863.66
454.244	857.11
454.618	871.57
454.992	877.9
455.365	867.05
455.739	876.77
456.112	901.4
456.486	907.28
456.859	890.33
457.232	938.92
457.606	912.48
457.979	919.03
458.352	949.54
458.725	933.72
459.099	942.31
459.472	962.42
459.845	952.7
460.218	963.32
460.591	999.93
460.964	984.34
461.337	987.5
461.71	1013.72
462.083	1023.43
462.456	1007.84
462.829	999.93
463.201	1050.33
463.574	1031.57
463.947	1072.92
464.32	1075.41
464.692	1077.67
465.065	1081.29
465.438	1096.65
465.81	1103.21
466.183	1112.7
466.555	1154.73
466.928	1124.22
467.3	1145.69
467.672	1152.92
468.045	1179.81
468.417	1201.73
468.789	1191.56
469.161	1208.74
469.534	1226.14
469.906	1242.86
470.278	1282.64
470.65	1242.18
471.022	1267.72
471.394	1301.17
471.766	1313.37
472.138	1329.19
472.51	1359.92
472.882	1392.24
473.253	1370.32
473.625	1402.18
473.997	1425
474.369	1430.43
474.74	1485.12
475.112	1469.3
475.484	1504.78
475.855	1539.58
476.227	1527.83
476.598	1585.23
476.97	1606.7
477.341	1598.79
477.713	1661.16
478.084	1643.3
478.455	1708.84
478.827	1706.13
479.198	1733.47
479.569	1794.94
479.94	1824.54
480.311	1842.85
480.682	1858.67
481.053	1930.3
481.424	1940.02
481.795	1937.08
482.166	2026.57
482.537	2029.96
482.908	2068.6
483.279	2091.88
483.65	2099.34
484.021	2170.3
484.391	2186.11
484.762	2237.86
485.133	2219.56
485.503	2304.3
485.874	2323.74
486.244	2341.36
486.615	2398.99
486.985	2451.87
487.356	2439.67
487.726	2482.15
488.097	2533.45
488.467	2573.68
488.837	2589.04
489.207	2604.86
489.578	2647.8
489.948	2697.74
490.318	2728.25
490.688	2734.12
491.058	2781.58
491.428	2849.6
491.798	2887.57
492.168	2886.44
492.538	2949.03
492.908	2964.4
493.278	3012.08
493.648	3016.83
494.017	3079.42
494.387	3071.52
494.757	3104.96
495.126	3190.83
495.496	3121.23
495.866	3168.46
496.235	3181.34
496.605	3246.43
496.974	3274.9
497.344	3293.2
497.713	3337.5
498.082	3357.61
498.452	3413.43
498.821	3386.76
499.19	3377.5
499.559	3415.91
499.928	3449.36
500.298	3491.17
500.667	3498.4
501.036	3544.95
501.405	3525.06
501.774	3537.72
502.143	3598.96
502.512	3603.93
502.88	3620.88
503.249	3631.5
503.618	3688.67
503.987	3677.15
504.356	3718.96
504.724	3706.75
505.093	3750.82
505.462	3773.42
505.83	3747.66
506.199	3780.42
506.567	3826.98
506.936	3824.26
507.304	3864.94
507.672	3836.24
508.041	3886.86
508.409	3906.75
508.777	3913.08
509.145	4007.54
509.514	3946.75
509.882	3966.63
510.25	3960.53
510.618	4003.92
510.986	4019.96
511.354	4053.86
511.722	4087.08
512.09	4076.23
512.458	4083.92
512.826	4087.76
513.193	4145.61
513.561	4164.37
513.929	4140.41
514.297	4156.68
514.664	4200.07
515.032	4172.05
515.4	4246.4
515.767	4223.12
516.135	4274.2
516.502	4210.92
516.869	4279.85
517.237	4320.97
517.604	4268.77
517.972	4329.79
518.339	4365.72
518.706	4332.95
519.073	4345.83
519.44	4391.25
519.808	4373.4
520.175	4402.1
520.542	4462.21
520.909	4459.95
521.276	4436.9
521.643	4482.33
522.009	4517.8
522.376	4504.25
522.743	4531.59
523.11	4580.85
523.477	4591.93
523.843	4627.86
524.21	4716.44
524.577	4622.66
524.943	4679.61
525.31	4679.16
525.676	4759.83
526.043	4793.5
526.409	4762.09
526.776	4799.61
527.142	4798.93
527.508	4828.76
527.874	4920.96
528.241	4926.38
528.607	4903.11
528.973	4941.3
529.339	4914.86
529.705	5007.74
530.071	4976.32
530.437	5053.61
530.803	5057.68
531.169	5091.8
531.535	5033.27
531.901	5136.77
532.267	5128.64
532.632	5076.21
532.998	5151.01
533.364	5181.29
533.73	5226.03
534.095	5238.01
534.461	5259.03
534.826	5285.92
535.192	5289.08
535.557	5356.65
535.923	5349.87
536.288	5388.97
536.653	5426.71
537.019	5364.56
537.384	5452.92
537.749	5456.99
538.114	5455.18
538.479	5472.13
538.845	5466.48
539.21	5479.14
539.575	5541.73
539.94	5517.78
540.305	5643.2
540.67	5618.57
541.034	5651.79
541.399	5630.09
541.764	5694.27
542.129	5674.84
542.494	5681.39
542.858	5710.09
543.223	5767.72
543.587	5814.72
543.952	5833.48
544.316	5826.02
544.681	5854.49
545.045	5878.22
545.41	5964.55
545.774	5986.47
546.138	5915.73
546.503	5937.88
546.867	5978.33
547.231	6028.95
547.595	6062.4
547.959	6073.47
548.324	6059.69
548.688	6093.58
549.052	6115.96
549.416	6141.49
549.779	6129.97
550.143	6134.26
550.507	6175.61
550.871	6217.42
551.235	6217.65
551.599	6301.49
551.962	6242.73
552.326	6235.5
552.689	6313.24
553.053	6334.03
553.417	6338.32
553.78	6436.17
554.143	6398.21
554.507	6409.96
554.87	6422.61
555.234	6470.3
555.597	6463.52
555.96	6451.31
556.323	6496.74
556.686	6513.91
557.05	6511.2
557.413	6583.97
557.776	6669.61
558.139	6606.79
558.502	6675.04
558.865	6641.59
559.228	6760.46
559.59	6679.56
559.953	6672.1
560.316	6809.72
560.679	6792.32
561.041	6875.03
561.404	6873.9
561.767	6850.17
562.129	6809.5
562.492	6865.77
562.854	6861.92
563.217	6942.6
563.579	6988.25
563.941	7004.97
564.304	7004.52
564.666	7020.79
565.028	7014.46
565.39	7037.29
565.753	7082.26
566.115	7145.53
566.477	7122.93
566.839	7157.96
567.201	7232.54
567.563	7227.11
567.925	7330.84
568.287	7266.43
568.648	7260.33
569.01	7339.2
569.372	7420.1
569.734	7361.35
570.095	7423.27
570.457	7419.65
570.819	7515.47
571.18	7551.4
571.542	7527.22
571.903	7630.94
572.265	7613.99
572.626	7676.37
572.987	7664.16
573.349	7756.59
573.71	7824.16
574.071	7858.96
574.432	7900.31
574.794	7939.64
575.155	8014.21
575.516	8036.36
575.877	8179.63
576.238	8134.66
576.599	8200.42
576.96	8274.54
577.32	8366.07
577.681	8363.13
578.042	8475.89
578.403	8513.86
578.763	8615.1
579.124	8682.67
579.485	8826.17
579.845	8866.62
580.206	9044.69
580.566	9081.98
580.927	9170.79
581.287	9310.45
581.648	9387.51
582.008	9615.3
582.368	9679.03
582.728	9774.16
583.089	9901.62
583.449	10083.08
583.809	10189.75
584.169	10371.66
584.529	10517.42
584.889	10733.91
585.249	10863.63
585.609	11036.73
585.969	11214.13
586.329	11436.72
586.688	11629.48
587.048	11810.27
587.408	12016.14
587.768	12203.03
588.127	12445.51
588.487	12661.55
588.846	12929.56
589.206	13165.04
589.565	13352.15
589.925	13510.56
590.284	13847.28
590.643	14076.88
591.003	14355.29
591.362	14615.39
591.721	14894.48
592.08	15143.29
592.44	15431.19
592.799	15690.17
593.158	15895.13
593.517	16123.15
593.876	16534.66
594.235	16731.5
594.593	17049
594.952	17381.42
595.311	17613.73
595.67	17900.73
596.029	18232.25
596.387	18610.77
596.746	18814.83
597.104	19073.58
597.463	19282.84
597.822	19678.99
598.18	19844.41
598.538	20105.64
598.897	20535.69
599.255	20720.32
599.613	21162.57
599.972	21479.62
600.33	21609.11
600.688	21866.5
601.046	22274.63
601.404	22559.59
601.762	22845.01
602.12	23171.78
602.478	23406.8
602.836	23743.51
603.194	23850.86
603.552	24219.43
603.91	24214.91
604.268	24717.27
604.625	24833.65
604.983	25242.23
605.341	25285.39
605.698	25763.12
606.056	26034.98
606.413	26224.8
606.771	26537.11
607.128	26724.9
607.485	26904.11
607.843	27085.8
608.2	27411.67
608.557	27644.88
608.914	27842.62
609.272	28184.75
609.629	28427.91
609.986	28607.79
610.343	28678.53
610.7	29051.17
611.057	29318.96
611.414	29358.51
611.771	29666.3
612.127	29902.67
612.484	30085.27
612.841	30316.22
613.198	30410.23
613.554	30575.88
613.911	30972.48
614.267	30993.49
614.624	31226.71
614.98	31381.28
615.337	31486.81
615.693	31650.88
616.05	31776.3
616.406	32256.96
616.762	32072.79
617.118	32304.64
617.475	32395.94
617.831	32624.41
618.187	32678.42
618.543	32867.12
618.899	33163.83
619.255	33272.3
619.611	33383.26
619.967	33710.26
620.323	33824.83
620.678	33687.89
621.034	33741.22
621.39	33851.27
621.746	33890.82
622.101	34374.2
622.457	34272.73
622.812	34410.8
623.168	34593.85
623.523	34612.83
623.879	34708.88
624.234	34674.53
624.589	34999.26
624.945	34933.95
625.3	35146.15
625.655	35162.87
626.01	35331.23
626.365	35416.88
626.72	35340.5
627.075	35432.02
627.43	35513.37
627.785	35493.04
628.14	35662.75
628.495	35617.78
628.85	35812.8
629.205	35615.74
629.559	35957.2
629.914	35878.34
630.269	35886.92
630.623	35850.77
630.978	35839.69
631.332	36049.63
631.687	36297.31
632.041	36114.26
632.396	36164.2
632.75	35990.65
633.104	36159.01
633.459	36124.43
633.813	36183.19
634.167	36126.24
634.521	36128.95
634.875	36132.57
635.229	36071.78
635.583	35947.04
635.937	35942.52
636.291	36079.69
636.645	36121.49
636.999	36104.09
637.352	36321.94
637.706	36029.97
638.06	36153.81
638.413	36183.86
638.767	36106.58
639.121	36189.97
639.474	36013.25
639.828	36047.37
640.181	36099.35
640.534	36084.43
640.888	36100.48
641.241	35950.88
641.594	35949.97
641.947	36152.68
642.301	35974.83
642.654	36048.95
643.007	36043.3
643.36	36097.54
643.713	35957.43
644.066	36191.1
644.419	35906.13
644.771	35655.52
645.124	35381.85
645.477	35366.71
645.83	35057.79
646.182	34992.94
646.535	34991.58
646.888	34914.07
647.24	34776.9
647.593	35054.18
647.945	35081.07
648.298	34918.81
648.65	34901.64
649.002	34808.08
649.355	34838.82
649.707	34849.21
650.059	34950.23
650.411	35298.24
650.763	35400.83
651.115	35789.3
651.467	35660.49
651.819	35481.74
652.171	35630.66
652.523	35576.65
652.875	35651
653.227	35373.49
653.578	35726.48
653.93	35547.5
654.282	35500.72
654.633	35438.35
654.985	35382.76
655.337	35462.98
655.688	35430.44
656.039	35604.67
656.391	35367.62
656.742	35218.69
657.094	35304.57
657.445	35559.47
657.796	35383.89
658.147	35283.55
658.498	35240.16
658.849	35395.19
659.2	35415.52
659.551	35272.02
659.902	35408.52
660.253	35392.47
660.604	35418.69
660.955	35273.38
661.306	35320.16
661.656	35222.76
662.007	35206.26
662.358	35231.12
662.708	35166.04
663.059	35269.99
663.409	35001.07
663.76	35265.25
664.11	35316.32
664.461	35254.17
664.811	35204.23
665.161	35229.77
665.511	35124.91
665.862	35168.3
666.212	35174.17
666.562	35250.33
666.912	35193.83
667.262	35110.9
667.612	35222.08
667.962	35161.74
668.312	35127.17
668.662	35147.73
669.011	35193.83
669.361	35020.51
669.711	35040.84
670.06	34927.17
670.41	34907.97
670.76	34998.13
671.109	35130.11
671.459	35111.35
671.808	35026.83
672.157	35075.42
672.507	34816.44
672.856	34951.81
673.205	34867.06
673.554	34951.36
673.904	34813.73
674.253	35038.58
674.602	34986.61
674.951	34443.12
675.3	34214.2
675.649	34860.28
675.998	34892.83
676.346	34831.13
676.695	34984.12
677.044	34653.28
677.393	34846.95
677.741	34799.72
678.09	34694.41
678.438	34620.97
678.787	34698.93
679.135	34853.96
679.484	34411.71
679.832	34611.25
680.181	34421.65
680.529	34502.78
680.877	34350.92
681.225	34437.02
681.573	34574.42
681.922	34443.8
682.27	34211.26
682.618	34298.04
682.966	34138.04
683.314	34285.16
683.661	34158.83
684.009	33881.33
684.357	33983.02
684.705	33916.13
685.053	33871.38
685.4	33770.14
685.748	33617.83
686.095	33693.31
686.443	33627.77
686.79	33506.65
687.138	33612.86
687.485	33735.34
687.832	33538.51
688.18	33552.07
688.527	33273.43
688.874	33275.69
689.221	33187.33
689.568	33087.45
689.915	32980.33
690.262	32892.2
690.609	32953.22
690.956	32860.56
691.303	32793.45
691.65	32548.93
691.997	32656.27
692.344	32435.94
692.69	32411.53
693.037	32501.02
693.383	32132.22
693.73	32399.78
694.077	32103.29
694.423	32184.65
694.769	32126.8
695.116	32030.08
695.462	32007.7
695.808	31765
696.155	31964.99
696.501	31639.35
696.847	31732.68
697.193	31536.76
697.539	31553.03
697.885	31183.09
698.231	31276.2
698.577	31218.35
698.923	31184.22
699.269	30922.99
699.614	30970.22
699.96	30827.4
700.306	30872.59
700.651	30747.17
700.997	30621.75
701.342	30569.78
701.688	30602.32
702.033	30447.29
702.379	30400.74
702.724	30297.69
703.069	30325.04
703.415	30016.8
703.76	29990.36
704.105	30174.31
704.45	30012.73
704.795	29928.66
705.14	29745.84
705.485	29796.01
705.83	29813.86
706.175	29622.68
706.52	29638.5
706.865	29452.74
707.209	29467.88
707.554	29234.44
707.899	29479.86
708.243	29217.72
708.588	29216.59
708.932	28949.48
709.277	28983.15
709.621	29024.96
709.966	28784.06
710.31	28947.22
710.654	28612.09
710.998	28673.55
711.342	28712.2
711.687	28513.56
712.031	28498.87
712.375	28325.99
712.719	28393.56
713.063	28270.4
713.407	28359.66
713.75	28245.99
714.094	28212.55
714.438	28046.45
714.782	28235.15
715.125	28006.23
715.469	27959.22
715.812	27850.52
716.156	27689.63
716.499	27669.74
716.843	27883.29
717.186	27561.04
717.53	27743.63
717.873	27718.55
718.216	27581.61
718.559	27557.65
718.902	27393.36
719.246	27480.14
719.589	27274.72
719.932	27338.45
720.275	27244.89
720.617	27277.88
720.96	27106.59
721.303	27186.14
721.646	27200.82
721.989	26866.37
722.331	26996.54
722.674	26934.39
723.016	26923.77
723.359	26954.96
723.701	26940.72
724.044	26661.86
724.386	26571.91
724.729	26722.42
725.071	26619.82
725.413	26666.83
725.755	26489.66
726.097	26491.01
726.439	26277.68
726.782	26470.67
727.124	26494.85
727.465	26397
727.807	26318.36
728.149	26332.15
728.491	26232.71
728.833	26286.05
729.175	26174.64
729.516	26082.89
729.858	26074.75
730.199	26113.17
730.541	26069.1
730.882	25944.36
731.224	26128.31
731.565	25737.13
731.906	25840.63
732.248	25845.83
732.589	25714.31
732.93	25651.03
733.271	25699.39
733.612	25704.37
733.953	25764.93
734.294	25547.08
734.635	25595.22
734.976	25551.15
735.317	25332.85
735.658	25388.89
735.999	25395.45
736.339	25388.22
736.68	25273.87
737.021	25296.02
737.361	25171.27
737.702	25248.79
738.042	25220.99
738.383	25159.07
738.723	25179.41
739.063	25054.67
739.404	25163.14
739.744	24974.89
740.084	24979.19
740.424	24877.95
740.764	24864.61
741.104	24909.36
741.444	24831.62
741.784	24758.85
742.124	24856.25
742.464	24814.45
742.804	24670.27
743.143	24723.38
743.483	24609.93
743.823	24501.01
744.162	24534.45
744.502	24489.03
744.841	24548.24
745.181	24540.33
745.52	24349.37
745.86	24501.23
746.199	24383.5
746.538	24353.44
746.877	24422.14
747.216	24376.72
747.556	24258.08
747.895	24265.76
748.234	24183.05
748.573	24073.45
748.911	24140.34
749.25	24219.66
749.589	24051.3
749.928	24123.39
750.267	24043.39
750.605	23902.83
750.944	23924.75
751.283	23955.49
751.621	23950.29
751.96	23680.24
752.298	23795.04
752.636	23687.7
752.975	23623.97
753.313	23539
753.651	23727.02
753.989	23448.15
754.327	23466.69
754.666	23354.15
755.004	23347.37
755.342	23323.41
755.679	23351.66
756.017	23153.25
756.355	23127.03
756.693	23173.81
757.031	23189.63
757.368	23092.68
757.706	22961.39
758.044	22907.83
758.381	22958.45
758.719	22799.36
759.056	22782.41
759.394	22766.59
759.731	22597.56
760.068	22548.29
760.405	22485.24
760.743	22369.99
761.08	22438.46
