Data from hue_230_FLMS001491_00054.txt Node
Date: Tue Feb 07 16:37:26 GMT 2017
User: dcchb
Spectrometer: FLMS00149
Trigger mode: 0
Integration Time (sec): 2.000000E-2
Scans to average: 10
Electric dark correction enabled: true
Nonlinearity correction enabled: false
Boxcar width: 0
XAxis mode: Wavelengths
Number of Pixels in Spectrum: 2048
>>>>>Begin Spectral Data<<<<<
341.393	-2.78
341.776	-2.78
342.16	-2.78
342.543	-52.27
342.927	-50.01
343.31	-79.84
343.693	-72.84
344.077	-80.29
344.46	-54.31
344.843	-23.57
345.226	-62.67
345.61	-39.62
345.993	-36.45
346.376	-7.98
346.759	-3.46
347.142	44.9
347.525	57.55
347.908	49.65
348.291	85.35
348.674	105.46
349.057	118.12
349.44	131.9
349.823	161.96
350.206	161.06
350.588	193.14
350.971	199.7
351.354	221.62
351.737	245.12
352.119	240.38
352.502	247.83
352.884	273.82
353.267	263.2
353.65	285.35
354.032	303.65
354.414	300.03
354.797	301.16
355.179	331.45
355.562	316.98
355.944	322.86
356.326	325.8
356.709	325.8
357.091	340.94
357.473	338.45
357.855	331.45
358.238	345.01
358.62	324.67
359.002	330.77
359.384	342.52
359.766	326.93
360.148	328.28
360.53	352.24
360.912	325.12
361.294	321.73
361.676	317.21
362.057	343.2
362.439	321.05
362.821	307.72
363.203	318.79
363.584	313.59
363.966	320.82
364.348	327.38
364.729	322.18
365.111	345.68
365.493	313.82
365.874	300.71
366.256	293.26
366.637	319.69
367.019	319.47
367.4	306.36
367.781	287.83
368.163	323.31
368.544	296.87
368.925	316.31
369.306	317.44
369.688	309.53
370.069	303.65
370.45	311.11
370.831	302.29
371.212	318.34
371.593	304.78
371.974	302.29
372.355	305.68
372.736	295.74
373.117	316.53
373.498	312.92
373.879	298.9
374.26	318.11
374.641	332.35
375.021	290.77
375.402	323.99
375.783	321.95
376.163	307.27
376.544	336.64
376.925	326.47
377.305	325.12
377.686	324.21
378.066	312.46
378.447	319.69
378.827	313.37
379.208	323.31
379.588	311.33
379.968	342.29
380.349	337.32
380.729	322.86
381.109	312.01
381.489	325.8
381.87	311.11
382.25	313.37
382.63	352.91
383.01	344.1
383.39	307.49
383.77	345.46
384.15	325.57
384.53	342.07
384.91	344.1
385.29	350.88
385.67	355.63
386.049	347.94
386.429	323.76
386.809	349.52
387.189	343.65
387.568	346.81
387.948	350.65
388.328	367.6
388.707	350.88
389.087	353.82
389.466	358.11
389.846	375.06
390.225	367.6
390.605	362.18
390.984	343.65
391.363	370.32
391.743	363.99
392.122	374.61
392.501	361.28
392.881	356.53
393.26	387.94
393.639	374.38
394.018	363.08
394.397	372.8
394.776	366.25
395.155	375.06
395.534	380.94
395.913	377.55
396.292	374.16
396.671	366.7
397.05	370.77
397.429	380.71
397.808	392.46
398.186	384.55
398.565	381.39
398.944	392.46
399.323	382.74
399.701	390.2
400.08	427.71
400.458	394.95
400.837	404.66
401.215	398.11
401.594	407.6
401.972	395.17
402.351	407.15
402.729	426.58
403.107	424.55
403.486	414.38
403.864	414.61
404.242	425
404.62	451.22
404.999	457.32
405.377	453.93
405.755	417.09
406.133	444.89
406.511	463.19
406.889	450.99
407.267	447.6
407.645	458
408.023	440.6
408.401	468.39
408.779	483.31
409.156	476.53
409.534	459.13
409.912	477.43
410.29	487.83
410.667	498.67
411.045	491.89
411.422	512.23
411.8	504.55
412.178	516.07
412.555	524.89
412.933	557.65
413.31	527.83
413.687	545.23
414.065	549.52
414.442	586.13
414.819	574.83
415.197	576.86
415.574	600.37
415.951	583.87
416.328	586.81
416.705	602.63
417.082	611.66
417.46	630.87
417.837	632.68
418.214	619.8
418.591	641.95
418.967	646.69
419.344	627.94
419.721	649.18
420.098	654.6
420.475	661.61
420.852	676.75
421.228	690.08
421.605	710.19
421.982	697.09
422.358	723.3
422.735	728.27
423.111	716.75
423.488	713.58
423.864	751.1
424.241	766.69
424.617	788.84
424.994	755.84
425.37	773.24
425.746	783.19
426.123	805.78
426.499	827.25
426.875	849.17
427.251	836.29
427.627	856.63
428.003	875.61
428.379	886.23
428.756	895.73
429.132	872
429.507	907.93
429.883	896.63
430.259	926.68
430.635	920.58
431.011	927.14
431.387	959.9
431.763	966.68
432.138	971.2
432.514	980.69
432.89	978.89
433.265	1013.24
433.641	1020.47
434.016	1049.39
434.392	1072.9
434.767	1098.66
435.143	1078.09
435.518	1094.14
435.894	1160.35
436.269	1152.44
436.644	1163.74
437.02	1171.88
437.395	1189.28
437.77	1207.81
438.145	1209.62
438.52	1225.43
438.895	1262.04
439.271	1288.03
439.646	1289.84
440.021	1294.58
440.395	1334.13
440.77	1312.66
441.145	1331.65
441.52	1380.01
441.895	1357.86
442.27	1367.8
442.645	1384.53
443.019	1406.67
443.394	1436.28
443.769	1458.2
444.143	1416.39
444.518	1458.87
444.892	1457.29
445.267	1457.52
445.641	1469.72
446.016	1506.33
446.39	1490.51
446.764	1535.48
447.139	1544.07
447.513	1555.14
447.887	1551.98
448.262	1554.01
448.636	1582.49
449.01	1591.75
449.384	1611.41
449.758	1608.93
450.132	1612.77
450.506	1614.12
450.88	1624.07
451.254	1641.24
451.628	1678.53
452.002	1676.5
452.376	1700.22
452.75	1690.51
453.123	1688.7
453.497	1731.64
453.871	1761.46
454.244	1782.48
454.618	1792.2
454.992	1819.09
455.365	1828.58
455.739	1884.85
456.112	1885.08
456.486	1877.62
456.859	1880.56
457.232	1937.28
457.606	1921.01
457.979	1967.34
458.352	2006.2
458.725	2012.76
459.099	1984.96
459.472	2066.09
459.845	2102.02
460.218	2065.64
460.591	2130.49
460.964	2127.78
461.337	2170.49
461.71	2178.86
462.083	2216.14
462.456	2217.72
462.829	2236.93
463.201	2244.39
463.574	2283.03
463.947	2306.99
464.32	2372.07
464.692	2353.31
465.065	2331.62
465.438	2417.94
465.81	2458.85
466.183	2476.93
466.555	2523.7
466.928	2530.71
467.3	2518.06
467.672	2556.7
468.045	2608.67
468.417	2620.43
468.789	2639.41
469.161	2659.07
469.534	2730.93
469.906	2756.24
470.278	2762.79
470.65	2831.95
471.022	2833.75
471.394	2904.26
471.766	2895.22
472.138	2916.69
472.51	3029.45
472.882	3035.78
473.253	3070.58
473.625	3094.09
473.997	3179.05
474.369	3202.11
474.74	3219.05
475.112	3276.45
475.484	3306.28
475.855	3342.44
476.227	3390.12
476.598	3465.15
476.97	3472.15
477.341	3549.21
477.713	3607.07
478.084	3606.16
478.455	3677.57
478.827	3720.06
479.198	3826.27
479.569	3818.81
479.94	3880.28
480.311	3953.27
480.682	4054.74
481.053	4055.64
481.424	4136.32
481.795	4161.4
482.166	4213.38
482.537	4249.54
482.908	4351.45
483.279	4387.61
483.65	4435.97
484.021	4500.83
484.391	4555.74
484.762	4606.81
485.133	4654.95
485.503	4680.26
485.874	4790.09
486.244	4802.97
486.615	4902.17
486.985	4966.8
487.356	5005.22
487.726	5039.8
488.097	5117.08
488.467	5187.36
488.837	5240.7
489.207	5278.66
489.578	5315.72
489.948	5358.66
490.318	5470.75
490.688	5447.47
491.058	5509.39
491.428	5607.47
491.798	5600.23
492.168	5720
492.538	5784.86
492.908	5820.12
493.278	5844.07
493.648	5869.61
494.017	5934.69
494.387	6015.59
494.757	6011.75
495.126	6100.33
495.496	6066.66
495.866	6183.27
496.235	6161.12
496.605	6225.53
496.974	6232.53
497.344	6281.35
497.713	6303.72
498.082	6315.02
498.452	6406.77
498.821	6426.88
499.19	6446.31
499.559	6494.67
499.928	6472.3
500.298	6489.48
500.667	6570.15
501.036	6558.4
501.405	6619.42
501.774	6611.28
502.143	6637.95
502.512	6571.96
502.88	6684.05
503.249	6707.55
503.618	6669.36
503.987	6789.81
504.356	6816.02
504.724	6793.88
505.093	6828.45
505.462	6856.92
505.83	6881.33
506.199	6953.42
506.567	6992.74
506.936	6951.61
507.304	7037.94
507.672	7066.41
508.041	7016.69
508.409	7085.39
508.777	7139.85
509.145	7197.03
509.514	7158.16
509.882	7174.66
510.25	7150.7
510.618	7191.83
510.986	7199.51
511.354	7312.51
511.722	7285.16
512.09	7347.31
512.458	7316.57
512.826	7314.54
513.193	7358.38
513.561	7289.23
513.929	7437.93
514.297	7374.65
514.664	7456.46
515.032	7443.8
515.4	7494.2
515.767	7486.51
516.135	7514.99
516.502	7379.85
516.869	7627.3
517.237	7641.08
517.604	7524.48
517.972	7580.97
518.339	7620.07
518.706	7605.15
519.073	7554.31
519.44	7626.62
519.808	7660.29
520.175	7650.58
520.542	7745.94
520.909	7764.02
521.276	7687.41
521.643	7741.19
522.009	7796.11
522.376	7706.62
522.743	7801.98
523.11	7806.05
523.477	7922.88
523.843	7875.88
524.21	7924.69
524.577	7962.88
524.943	7949.55
525.31	7935.77
525.676	8031.13
526.043	8044.01
526.409	8030.45
526.776	8067.51
527.142	8016.22
527.508	8037.68
527.874	8099.38
528.241	8086.27
528.607	8116.55
528.973	8147.96
529.339	8138.92
529.705	8110.9
530.071	8192.48
530.437	8183.67
530.803	8176.89
531.169	8159.49
531.535	8161.52
531.901	8159.71
532.267	8150.22
532.632	8199.04
532.998	8166.72
533.364	8154.74
533.73	8157.68
534.095	8159.04
534.461	8157.46
534.826	8170.56
535.192	8154.74
535.557	8169.43
535.923	8044.01
536.288	8134.18
536.653	8134.4
537.019	8088.3
537.384	8109.55
537.749	8175.99
538.114	8072.94
538.479	8103.9
538.845	8125.14
539.21	8033.84
539.575	8061.86
539.94	8008.53
540.305	8053.95
540.67	8018.48
541.034	8057.57
541.399	8034.29
541.764	8030.45
542.129	7989.55
542.494	7980.06
542.858	8019.61
543.223	7987.97
543.587	8022.77
543.952	8004.01
544.316	7918.82
544.681	7940.96
545.045	7946.16
545.41	7923.34
545.774	7912.26
546.138	7939.83
546.503	7949.1
546.867	7896.67
547.231	7884.92
547.595	7910
547.959	7839.95
548.324	7815.77
548.688	7819.61
549.052	7808.99
549.416	7840.18
549.779	7769.67
550.143	7723.12
550.507	7785.71
550.871	7785.71
551.235	7713.17
551.599	7771.48
551.962	7688.77
552.326	7716.56
552.689	7809.67
553.053	7662.78
553.417	7742.78
553.78	7774.64
554.143	7684.47
554.507	7682.67
554.87	7653.51
555.234	7725.38
555.597	7656.68
555.96	7693.74
556.323	7748.2
556.686	7717.92
557.05	7742.1
557.413	7623.91
557.776	7687.86
558.139	7743.68
558.502	7718.6
558.865	7710.01
559.228	7717.47
559.59	7730.35
559.953	7731.25
560.316	7771.48
560.679	7752.04
561.041	7725.38
561.404	7750.01
561.767	7780.52
562.129	7777.58
562.492	7768.09
562.854	7830.01
563.217	7762.89
563.579	7848.31
563.941	7826.84
564.304	7869.1
564.666	7879.95
565.028	7825.03
565.39	7870.23
565.753	7912.94
566.115	7882.21
566.477	7952.26
566.839	7944.35
567.201	7953.84
567.563	8027.06
567.925	7973.28
568.287	8004.69
568.648	7994.97
569.01	8008.53
569.372	8017.35
569.734	8041.07
570.095	8074.75
570.457	8092.15
570.819	8072.49
571.18	8136.66
571.542	8122.2
571.903	8150
572.265	8157.23
572.626	8156.78
572.987	8145.93
573.349	8213.05
573.71	8211.01
574.071	8253.27
574.432	8290.78
574.794	8331.46
575.155	8342.31
575.516	8286.27
575.877	8305.02
576.238	8397
576.599	8424.79
576.96	8380.95
577.32	8362.42
577.681	8437.45
578.042	8443.55
578.403	8480.61
578.763	8462.53
579.124	8424.34
579.485	8507.73
579.845	8571.91
580.206	8575.52
580.566	8493.72
580.927	8528.29
581.287	8560.16
581.648	8462.76
582.008	8606.26
582.368	8600.61
582.728	8612.58
583.089	8593.83
583.449	8620.04
583.809	8631.57
584.169	8632.7
584.529	8621.62
584.889	8733.94
585.249	8684.45
585.609	8669.31
585.969	8733.26
586.329	8715.63
586.688	8739.13
587.048	8735.52
587.408	8710.43
587.768	8740.72
588.127	8732.81
588.487	8776.87
588.846	8816.87
589.206	8733.03
589.565	8776.2
589.925	8842.63
590.284	8829.53
590.643	8826.36
591.003	8847.15
591.362	8868.17
591.721	8836.08
592.08	8818.91
592.44	8818.23
592.799	8837.66
593.158	8883.31
593.517	8914.05
593.876	8904.1
594.235	8901.16
594.593	8898.23
594.952	8906.14
595.311	8829.08
595.67	8901.84
596.029	9000.14
596.387	9020.94
596.746	9027.04
597.104	8981.84
597.463	8999.01
597.822	8986.13
598.18	8975.51
598.538	8987.04
598.897	8977.09
599.255	8944.78
599.613	9061.84
599.972	8999.47
600.33	9066.81
600.688	9020.26
601.046	9036.53
601.404	9098.67
601.762	9064.78
602.12	9083.08
602.478	9062.97
602.836	9081.27
603.194	9043.31
603.552	9072.01
603.91	9044.89
604.268	9058.22
604.625	9074.72
604.983	9085.34
605.341	9077.66
605.698	9046.92
606.056	9143.87
606.413	9145.45
606.771	9159.24
607.128	9121.72
607.485	9056.41
607.843	9089.41
608.2	9206.69
608.557	9153.81
608.914	9154.26
609.272	9210.08
609.629	9200.59
609.986	9252.79
610.343	9204.89
610.7	9238.1
611.057	9193.59
611.414	9165.56
611.771	9212.79
612.127	9236.97
612.484	9262.28
612.841	9290.53
613.198	9290.31
613.554	9243.08
613.911	9342.51
614.267	9339.12
614.624	9290.08
614.98	9329.18
615.337	9359.46
615.693	9331.66
616.05	9281.72
616.406	9393.13
616.762	9351.55
617.118	9327.59
617.475	9316.29
617.831	9365.33
618.187	9354.71
618.543	9428.61
618.899	9401.49
619.255	9379.8
619.611	9444.43
619.967	9453.47
620.323	9478.32
620.678	9437.65
621.034	9420.92
621.39	9448.72
621.746	9374.37
622.101	9438.55
622.457	9434.03
622.812	9384.09
623.168	9420.47
623.523	9476.97
623.879	9517.19
624.234	9419.34
624.589	9474.26
624.945	9405.33
625.3	9437.2
625.655	9417.99
626.01	9451.66
626.365	9446.46
626.72	9467.03
627.075	9421.6
627.43	9372.56
627.785	9392.9
628.14	9375.73
628.495	9414.6
628.85	9402.85
629.205	9399
629.559	9426.8
629.914	9368.5
630.269	9387.25
630.623	9326.69
630.978	9292.11
631.332	9388.84
631.687	9378.67
632.041	9300.48
632.396	9299.8
632.75	9346.12
633.104	9263.87
633.459	9297.31
633.813	9324.43
634.167	9232.68
634.521	9249.4
634.875	9333.92
635.229	9247.6
635.583	9236.97
635.937	9128.28
636.291	9236.52
636.645	9189.97
636.999	9195.62
637.352	9155.62
637.706	9176.41
638.06	9177.77
638.413	9175.73
638.767	9136.19
639.121	9092.57
639.474	9067.04
639.828	9094.83
640.181	9124.44
640.534	9110.88
640.888	9109.97
641.241	8994.5
641.594	9072.01
641.947	8993.82
642.301	9074.27
642.654	9003.76
643.007	9057.09
643.36	9010.77
643.713	9007.38
644.066	9083.08
644.419	8964.89
644.771	8942.75
645.124	8845.12
645.477	8888.51
645.83	8832.69
646.182	8753.15
646.535	8759.7
646.888	8737.78
647.24	8691.68
647.593	8669.08
647.945	8696.2
648.298	8736.2
648.65	8684.45
649.002	8646.93
649.355	8709.98
649.707	8685.12
650.059	8748.63
650.411	8869.98
650.763	8836.53
651.115	8910.88
651.467	8902.07
651.819	8860.26
652.171	8922.63
652.523	8911.11
652.875	8847.15
653.227	8797.66
653.578	8868.4
653.93	8905.91
654.282	8851.9
654.633	8801.73
654.985	8862.75
655.337	8905.01
655.688	8846.02
656.039	8813.71
656.391	8820.71
656.742	8809.42
657.094	8873.14
657.445	8915.4
657.796	8906.14
658.147	8863.2
658.498	8822.07
658.849	8843.31
659.2	8886.25
659.551	8863.88
659.902	8899.36
660.253	8880.83
660.604	8868.17
660.955	8886.93
661.306	8936.19
661.656	8898
662.007	8886.25
662.358	8825.01
662.708	8788.85
663.059	8920.82
663.409	8808.96
663.76	8914.95
664.11	8901.39
664.461	8906.14
664.811	8872.92
665.161	8889.64
665.511	8853.26
665.862	8902.52
666.212	8938
666.562	8935.06
666.912	8827.04
667.262	8864.78
667.612	8847.38
667.962	8920.15
668.312	8859.81
668.662	8890.54
669.011	8862.07
669.361	8869.53
669.711	8899.58
670.06	8884.44
670.41	8854.84
670.76	8824.56
671.109	8871.11
671.459	8877.66
671.808	8829.3
672.157	8877.21
672.507	8773.26
672.856	8828.4
673.205	8777.33
673.554	8817.78
673.904	8826.14
674.253	8880.83
674.602	8822.52
674.951	8697.33
675.3	8635.86
675.649	8794.95
675.998	8766.03
676.346	8742.75
676.695	8808.74
677.044	8737.78
677.393	8734.84
677.741	8725.58
678.09	8748.63
678.438	8688.74
678.787	8709.3
679.135	8701.17
679.484	8671.79
679.832	8647.39
680.181	8615.97
680.529	8615.97
680.877	8662.53
681.225	8630.21
681.573	8616.88
681.922	8522.42
682.27	8580.95
682.618	8508.41
682.966	8529.2
683.314	8571.68
683.661	8565.35
684.009	8429.09
684.357	8435.41
684.705	8424.11
685.053	8426.37
685.4	8404.45
685.748	8356.09
686.095	8355.64
686.443	8324
686.79	8339.82
687.138	8316.55
687.485	8289.65
687.832	8270.45
688.18	8238.36
688.527	8192.26
688.874	8268.64
689.221	8226.38
689.568	8185.7
689.915	8146.83
690.262	8145.03
690.609	8133.73
690.956	8086.5
691.303	8066.84
691.65	8035.42
691.997	8030.9
692.344	8058.02
692.69	7924.92
693.037	7943.68
693.383	7875.43
693.73	7947.29
694.077	7863.9
694.423	7858.48
694.769	7803.11
695.116	7782.55
695.462	7814.41
695.808	7731.48
696.155	7793.17
696.501	7696.68
696.847	7666.17
697.193	7588.88
697.539	7631.82
697.885	7640.18
698.231	7513.18
698.577	7498.94
698.923	7532.16
699.269	7531.03
699.614	7447.64
699.96	7418.04
700.306	7413.97
700.651	7467.08
700.997	7325.61
701.342	7360.64
701.688	7273.41
702.033	7276.57
702.379	7289.46
702.724	7268.21
703.069	7214.65
703.415	7149.57
703.76	7161.77
704.105	7198.38
704.45	7180.76
704.795	7122.23
705.14	7070.48
705.485	7067.77
705.83	7033.42
706.175	7044.49
706.52	7006.52
706.865	6951.16
707.209	6948.45
707.554	6976.92
707.899	6921.1
708.243	6882.69
708.588	6827.77
708.932	6812.63
709.277	6838.62
709.621	6887.43
709.966	6850.37
710.31	6816.47
710.654	6765.63
710.998	6716.59
711.342	6738.74
711.687	6767.44
712.031	6683.37
712.375	6697.15
712.719	6674.78
713.063	6668.91
713.407	6661.45
713.75	6639.75
714.094	6588.23
714.438	6628.23
714.782	6575.12
715.125	6578.29
715.469	6555.69
715.812	6594.11
716.156	6506.2
716.499	6514.79
716.843	6543.94
717.186	6477.27
717.53	6530.83
717.873	6577.16
718.216	6473.43
718.559	6457.39
718.902	6409.93
719.246	6496.26
719.589	6443.15
719.932	6448.35
720.275	6436.6
720.617	6395.02
720.96	6425.75
721.303	6436.82
721.646	6395.24
721.989	6372.19
722.331	6409.03
722.674	6314.57
723.016	6369.48
723.359	6339.42
723.701	6356.37
724.044	6343.72
724.386	6344.85
724.729	6302.81
725.071	6373.1
725.413	6336.94
725.755	6278.18
726.097	6303.04
726.439	6264.4
726.782	6285.87
727.124	6322.48
727.465	6207
727.807	6306.88
728.149	6276.37
728.491	6241.35
728.833	6251.97
729.175	6235.7
729.516	6256.49
729.858	6256.49
730.199	6230.73
730.541	6268.01
730.882	6230.5
731.224	6206.77
731.565	6233.66
731.906	6237.28
732.248	6268.24
732.589	6178.07
732.93	6152.54
733.271	6203.16
733.612	6219.65
733.953	6272.31
734.294	6248.58
734.635	6177.17
734.976	6253.1
735.317	6240.67
735.658	6216.04
735.999	6270.72
736.339	6223.04
736.68	6294.68
737.021	6207.68
737.361	6273.44
737.702	6303.72
738.042	6234.79
738.383	6169.71
738.723	6216.49
739.063	6221.46
739.404	6260.33
739.744	6298.75
740.084	6250.39
740.424	6306.66
740.764	6347.56
741.104	6336.26
741.444	6305.98
741.784	6284.51
742.124	6266.21
742.464	6254.23
742.804	6357.28
743.143	6287.45
743.483	6347.11
743.823	6373.77
744.162	6362.93
744.502	6386.65
744.841	6364.51
745.181	6444.73
745.52	6396.82
745.86	6471.62
746.199	6463.71
746.538	6513.2
746.877	6607.67
747.216	6574.45
747.556	6609.25
747.895	6657.38
748.234	6678.4
748.573	6720.88
748.911	6734.22
749.25	6772.18
749.589	6882.69
749.928	6897.38
750.267	6865.51
750.605	6975.34
750.944	7063.7
751.283	7103.47
751.621	7190.02
751.96	7169.01
752.298	7206.97
752.636	7327.42
752.975	7300.98
753.313	7387.98
753.651	7524.48
753.989	7577.13
754.327	7629.79
754.666	7728.77
755.004	7812.61
755.342	7876.11
755.679	7960.62
756.017	8049.21
756.355	8178.02
756.693	8208.08
757.031	8370.56
757.368	8453.27
757.706	8520.38
758.044	8608.74
758.381	8692.36
758.719	8836.76
759.056	8988.39
759.394	9114.04
759.731	9144.77
760.068	9279.46
760.405	9407.82
760.743	9548.6
761.08	9653.23
761.417	9672.22
761.754	9825.89
762.091	9929.39
762.428	9982.27
762.765	10144.52
763.102	10277.4
763.438	10308.81
763.775	10424.29
764.112	10563.27
764.449	10815.69
764.785	10770.49
765.122	10914.67
765.458	10928.68
765.795	11129.81
766.131	11209.35
766.467	11249.13
766.804	11380.65
767.14	11488.89
767.476	11637.36
767.812	11633.3
768.148	11740.19
768.485	11860.63
768.821	11856.11
769.157	11991.48
