Data from hue_310_FLMS001491_23.txt Node
Date: Mon Feb 06 15:49:19 GMT 2017
User: dcchb
Spectrometer: FLMS00149
Trigger mode: 0
Integration Time (sec): 2.000000E-2
Scans to average: 10
Electric dark correction enabled: true
Nonlinearity correction enabled: false
Boxcar width: 0
XAxis mode: Wavelengths
Number of Pixels in Spectrum: 2048
>>>>>Begin Spectral Data<<<<<
341.393	-29.56
341.776	-29.56
342.16	-29.56
342.543	-59.17
342.927	-83.57
343.31	-76.34
343.693	-73.4
344.077	-84.02
344.46	-65.27
344.843	-33.4
345.226	-48.77
345.61	-48.77
345.993	-15.78
346.376	11.12
346.759	7.73
347.142	55.86
347.525	35.3
347.908	57.89
348.291	74.62
348.674	92.92
349.057	110.32
349.44	121.62
349.823	124.11
350.206	152.81
350.588	212.47
350.971	196.2
351.354	225.12
351.737	248.62
352.119	241.39
352.502	247.49
352.884	252.24
353.267	273.03
353.65	283.65
354.032	282.52
354.414	298.57
354.797	313.71
355.179	318
355.562	314.61
355.944	314.16
356.326	312.58
356.709	318.23
357.091	342.18
357.473	326.14
357.855	357.77
358.238	322.52
358.62	341.5
359.002	328.4
359.384	337.66
359.766	333.82
360.148	323.88
360.53	325.23
360.912	340.37
361.294	336.98
361.676	329.3
362.057	333.82
362.439	340.15
362.821	334.04
363.203	331.79
363.584	300.6
363.966	331.79
364.348	321.16
364.729	336.53
365.111	322.97
365.493	326.59
365.874	318.9
366.256	307.83
366.637	310.09
367.019	305.35
367.4	330.66
367.781	306.93
368.163	298.57
368.544	303.99
368.925	293.37
369.306	316.87
369.688	304.89
370.069	306.25
370.45	300.6
370.831	311.22
371.212	306.47
371.593	310.09
371.974	310.54
372.355	299.02
372.736	312.8
373.117	305.12
373.498	312.35
373.879	300.37
374.26	310.32
374.641	329.53
375.021	322.29
375.402	318
375.783	309.19
376.163	332.01
376.544	298.57
376.925	332.46
377.305	322.97
377.686	331.79
378.066	312.58
378.447	311.9
378.827	323.42
379.208	322.07
379.588	321.39
379.968	303.99
380.349	310.54
380.729	323.65
381.109	332.46
381.489	339.24
381.87	325.91
382.25	346.25
382.63	338.11
383.01	338.79
383.39	324.55
383.77	346.93
384.15	338.79
384.53	351.67
384.91	352.8
385.29	338.11
385.67	345.57
386.049	362.52
386.429	354.61
386.809	358.45
387.189	344.44
387.568	340.6
387.948	357.77
388.328	335.63
388.707	350.77
389.087	341.05
389.466	371.78
389.846	361.16
390.225	362.29
390.605	353.93
390.984	357.1
391.363	356.19
391.743	352.35
392.122	366.13
392.501	354.16
392.881	373.59
393.26	361.84
393.639	385.57
394.018	376.98
394.397	368.85
394.776	369.75
395.155	388.28
395.534	366.36
395.913	380.37
396.292	381.05
396.671	383.31
397.05	375.63
397.429	364.55
397.808	393.93
398.186	373.14
398.565	387.6
398.944	392.8
399.323	406.13
399.701	412.69
400.08	401.84
400.458	369.98
400.837	426.7
401.215	397.55
401.594	414.04
401.972	402.29
402.351	410.43
402.729	404.55
403.107	404.33
403.486	406.59
403.864	407.26
404.242	425.79
404.62	415.62
404.999	430.77
405.377	408.62
405.755	437.09
406.133	449.3
406.511	453.82
406.889	439.13
407.267	432.12
407.645	431.9
408.023	467.37
408.401	467.15
408.779	478
409.156	468.96
409.534	491.78
409.912	491.78
410.29	483.87
410.667	479.13
411.045	493.36
411.422	478.67
411.8	504.89
412.178	512.35
412.555	521.16
412.933	525.45
413.31	535.85
413.687	515.96
414.065	531.55
414.442	553.47
414.819	550.76
415.197	563.64
415.574	582.4
415.951	565
416.328	564.55
416.705	588.95
417.082	581.5
417.46	585.79
417.837	624.21
418.214	626.01
418.591	624.43
418.967	636.18
419.344	642.29
419.721	630.53
420.098	642.06
420.475	656.97
420.852	661.04
421.228	680.7
421.605	707.59
421.982	685.67
422.358	695.62
422.735	701.27
423.111	721.61
423.488	731.55
423.864	710.31
424.241	732.68
424.617	746.92
424.994	763.41
425.37	746.69
425.746	746.46
426.123	802.96
426.499	795.5
426.875	797.31
427.251	811.77
427.627	831.88
428.003	814.03
428.379	834.14
428.756	812.68
429.132	849.29
429.507	858.78
429.883	882.96
430.259	879.57
430.635	874.37
431.011	900.58
431.387	882.28
431.763	905.33
432.138	927.25
432.514	913.01
432.89	933.13
433.265	941.49
433.641	940.81
434.016	994.14
434.392	1012.9
434.767	979.68
435.143	972.67
435.518	1023.74
435.894	1019.22
436.269	1056.96
436.644	1068.94
437.02	1083.86
437.395	1086.34
437.77	1077.53
438.145	1084.76
438.52	1101.71
438.895	1094.7
439.271	1091.77
439.646	1116.62
440.021	1136.28
440.395	1135.15
440.77	1151.42
441.145	1139.9
441.52	1180.12
441.895	1171.09
442.27	1170.41
442.645	1175.83
443.019	1210.18
443.394	1181.48
443.769	1202.04
444.143	1183.74
444.518	1209.95
444.892	1212.89
445.267	1188.03
445.641	1212.89
446.016	1198.43
446.39	1230.07
446.764	1244.08
447.139	1219.67
447.513	1243.4
447.887	1228.71
448.262	1230.07
448.636	1280.23
449.01	1254.47
449.384	1268.03
449.758	1281.36
450.132	1251.99
450.506	1262.83
450.88	1280.46
451.254	1298.09
451.628	1266.9
452.002	1307.35
452.376	1303.96
452.75	1331.31
453.123	1321.36
453.497	1363.17
453.871	1343.74
454.244	1338.09
454.618	1365.66
454.992	1401.81
455.365	1385.99
455.739	1423.73
456.112	1389.16
456.486	1407.69
456.859	1431.42
457.232	1438.42
457.606	1463.73
457.979	1444.98
458.352	1472.09
458.725	1475.26
459.099	1488.14
459.472	1482.72
459.845	1505.31
460.218	1510.06
460.591	1529.27
460.964	1551.19
461.337	1537.4
461.71	1563.62
462.083	1585.09
462.456	1589.83
462.829	1592.77
463.201	1611.3
463.574	1621.92
463.947	1611.75
464.32	1669.38
464.692	1657.17
465.065	1677.51
465.438	1690.62
465.81	1726.32
466.183	1705.99
466.555	1723.84
466.928	1746.44
467.3	1749.15
467.672	1765.87
468.045	1768.58
468.417	1798.41
468.789	1794.57
469.161	1799.77
469.534	1847.23
469.906	1889.48
470.278	1866.43
470.65	1906.21
471.022	1911.86
471.394	1928.81
471.766	1925.19
472.138	1964.96
472.51	1991.4
472.882	2002.02
473.253	2012.64
473.625	2042.25
473.997	2074.79
474.369	2072.53
474.74	2091.29
475.112	2089.03
475.484	2144.17
475.855	2176.48
476.227	2198.63
476.598	2221.23
476.97	2232.3
477.341	2251.96
477.713	2297.61
478.084	2297.61
478.455	2309.13
478.827	2338.06
479.198	2424.84
479.569	2401.56
479.94	2447.66
480.311	2494.44
480.682	2507.1
481.053	2537.15
481.424	2555
481.795	2570.82
482.166	2602.69
482.537	2611.95
482.908	2711.84
483.279	2688.33
483.65	2736.24
484.021	2758.84
484.391	2790.48
484.762	2790.03
485.133	2804.94
485.503	2820.99
485.874	2878.38
486.244	2856.46
486.615	2919.29
486.985	3007.87
487.356	2983.47
487.726	2997.93
488.097	3056.23
488.467	3064.59
488.837	3113.63
489.207	3135.1
489.578	3154.54
489.948	3190.69
490.318	3211.94
490.688	3218.26
491.058	3319.5
491.428	3303.91
491.798	3284.7
492.168	3349.78
492.538	3403.12
492.908	3403.12
493.278	3409.44
493.648	3455.32
494.017	3487.86
494.387	3455.54
494.757	3488.76
495.126	3509.55
495.496	3554.98
495.866	3555.88
496.235	3640.4
496.605	3599.95
496.974	3624.58
497.344	3620.29
497.713	3655.77
498.082	3710.23
498.452	3705.93
498.821	3696.89
499.19	3757.46
499.559	3780.73
499.928	3751.58
500.298	3802.2
500.667	3826.38
501.036	3824.35
501.405	3867.29
501.774	3895.08
502.143	3886.49
502.512	3874.06
502.88	3950.45
503.249	3911.13
503.618	3917
503.987	3901.41
504.356	3993.16
504.724	3994.06
505.093	3981.18
505.462	4004.46
505.83	3991.8
506.199	4037
506.567	4074.96
506.936	4018.24
507.304	4101.18
507.672	4080.39
508.041	4107.73
508.409	4112.25
508.777	4157
509.145	4165.13
509.514	4181.85
509.882	4158.35
510.25	4187.5
510.618	4236.54
510.986	4223.66
511.354	4239.48
511.722	4253.26
512.09	4293.26
512.458	4272.47
512.826	4306.82
513.193	4349.31
513.561	4307.95
513.929	4289.42
514.297	4365.58
514.664	4345.92
515.032	4358.35
515.4	4416.42
515.767	4414.62
516.135	4411
516.502	4403.99
516.869	4482.18
517.237	4473.82
517.604	4415.52
517.972	4500.04
518.339	4522.41
518.706	4483.31
519.073	4519.7
519.44	4481.51
519.808	4609.41
520.175	4543.88
520.542	4587.27
520.909	4587.94
521.276	4605.35
521.643	4612.35
522.009	4631.78
522.376	4637.89
522.743	4672.24
523.11	4708.17
523.477	4746.13
523.843	4747.71
524.21	4747.94
524.577	4778.22
524.943	4841.05
525.31	4819.58
525.676	4830.2
526.043	4832.91
526.409	4911.1
526.776	4910.42
527.142	4930.08
527.508	4922.85
527.874	4960.59
528.241	4988.84
528.607	5013.47
528.973	4992.91
529.339	5070.42
529.705	5115.84
530.071	5132.79
530.437	5126.01
530.803	5141.15
531.169	5147.25
531.535	5166.46
531.901	5171.21
532.267	5247.14
532.632	5268.38
532.998	5292.11
533.364	5305.67
533.73	5305.44
534.095	5336.63
534.461	5398.32
534.826	5416.85
535.192	5443.29
535.557	5482.16
535.923	5388.6
536.288	5461.37
536.653	5439
537.019	5504.53
537.384	5512.67
537.749	5551.08
538.114	5581.36
538.479	5551.76
538.845	5629.05
539.21	5595.6
539.575	5627.92
539.94	5592.21
540.305	5691.42
540.67	5681.7
541.034	5779.33
541.399	5760.79
541.764	5779.55
542.129	5817.29
542.494	5836.5
542.858	5878.76
543.223	5855.93
543.587	5935.25
543.952	5942.03
544.316	5985.65
544.681	5945.65
545.045	6019.32
545.41	5984.52
545.774	6053.44
546.138	6054.35
546.503	6067.68
546.867	6051.86
547.231	6175.25
547.595	6149.49
547.959	6178.86
548.324	6157.85
548.688	6246.43
549.052	6257.73
549.416	6224.96
549.779	6282.82
550.143	6271.29
550.507	6314
550.871	6336.15
551.235	6375.47
551.599	6383.6
551.962	6372.98
552.326	6459.31
552.689	6442.58
553.053	6406.88
553.417	6447.33
553.78	6552.64
554.143	6482.58
554.507	6509.93
554.87	6544.5
555.234	6602.35
555.597	6551.51
555.96	6599.42
556.323	6618.63
556.686	6644.39
557.05	6690.49
557.413	6635.8
557.776	6650.26
558.139	6721.45
558.502	6718.28
558.865	6755.8
559.228	6781.33
559.59	6867.43
559.953	6823.82
560.316	6858.62
560.679	6901.56
561.041	6915.34
561.404	6934.1
561.767	6949.01
562.129	6953.08
562.492	7010.03
562.854	6990.82
563.217	7024.72
563.579	7031.95
563.941	7053.87
564.304	7076.24
564.666	7139.74
565.028	7085.51
565.39	7176.58
565.753	7155.79
566.115	7196.69
566.477	7194.88
566.839	7243.24
567.201	7259.96
567.563	7309.91
567.925	7330.92
568.287	7327.08
568.648	7395.1
569.01	7469.68
569.372	7448.21
569.734	7417.93
570.095	7506.29
570.457	7592.84
570.819	7602.55
571.18	7592.61
571.542	7664.93
571.903	7646.85
572.265	7700.4
572.626	7779.72
572.987	7793.96
573.349	7856.78
573.71	7871.02
574.071	7965.71
574.432	7982.21
574.794	8068.08
575.155	8152.37
575.516	8149.88
575.877	8210.67
576.238	8280.95
576.599	8282.31
576.96	8384.68
577.32	8475.53
577.681	8532.25
578.042	8588.52
578.403	8699.25
578.763	8758.68
579.124	8902.18
579.485	8921.39
579.845	9174.26
580.206	9173.59
580.566	9294.04
580.927	9478.66
581.287	9602.28
581.648	9676.85
582.008	9777.64
582.368	9959.55
582.728	10032.09
583.089	10227.8
583.449	10359.77
583.809	10534
584.169	10826.42
584.529	10905.74
584.889	11192.74
585.249	11253.98
585.609	11460.31
585.969	11720.64
586.329	11843.57
586.688	12131.47
587.048	12407.63
587.408	12547.06
587.768	12736.43
588.127	12920.38
588.487	13243.08
588.846	13543.64
589.206	13634.49
589.565	13894.14
589.925	14172.33
590.284	14431.3
590.643	14655.25
591.003	14970.72
591.362	15310.83
591.721	15506.98
592.08	15798.05
592.44	16086.63
592.799	16311.48
593.158	16552.6
593.517	16980.16
593.876	17340.38
594.235	17406.14
594.593	17697.43
594.952	18105.56
595.311	18279.79
595.67	18701.47
596.029	18972.2
596.387	19272.08
596.746	19650.37
597.104	19830.26
597.463	20179.85
597.822	20461.65
598.18	20626.17
598.538	20909.1
598.897	21394.73
599.255	21509.76
599.613	21961.5
599.972	22180.7
600.33	22431.09
600.688	22656.4
601.046	23086.89
601.404	23337.06
601.762	23553.32
602.12	23977.27
602.478	24285.28
602.836	24585.38
603.194	24647.3
603.552	24892.5
603.91	25133.84
604.268	25436.66
604.625	25748.97
604.983	25962.3
605.341	26091.56
605.698	26433.92
606.056	26682.5
606.413	27019.44
606.771	27207.46
607.128	27449.49
607.485	27492.2
607.843	27803.83
608.2	28183.71
608.557	28550.25
608.914	28580.31
609.272	28986.85
609.629	29150.91
609.986	29387.97
610.343	29505.48
610.7	29771.01
611.057	29984.34
611.414	30177.33
611.771	30359.02
612.127	30595.4
612.484	30866.35
612.841	30954.03
613.198	31144.76
613.554	31359.67
613.911	31558.99
614.267	31823.61
614.624	31950.84
614.98	32185.18
615.337	32460.43
615.693	32391.06
616.05	32483.71
616.406	32788.11
616.762	32759.18
617.118	33029.91
617.475	33157.36
617.831	33392.84
618.187	33483.91
618.543	33691.13
618.899	34076.89
619.255	33968.41
619.611	34051.8
619.967	34351
620.323	34446.59
620.678	34378.35
621.034	34415.41
621.39	34749.86
621.746	34702.86
622.101	35146.46
622.457	35063.3
622.812	35206.8
623.168	35281.6
623.523	35349.4
623.879	35465.32
624.234	35353.92
624.589	35610.86
624.945	35660.12
625.3	35729.95
625.655	35846.56
626.01	36000.45
626.365	36109.15
626.72	36037.96
627.075	36142.59
627.43	36215.81
627.785	36056.95
628.14	36322.03
628.495	36368.35
628.85	36568.12
629.205	36284.96
629.559	36626.65
629.914	36562.24
630.269	36596.59
630.623	36547.1
630.978	36362.25
631.332	36797.04
631.687	36753.2
632.041	36675.01
632.396	36642.69
632.75	36689.47
633.104	36829.58
633.459	36723.14
633.813	36746.87
634.167	36807.89
634.521	36792.3
634.875	36944.16
635.229	36844.95
635.583	36703.48
635.937	36735.57
636.291	36725.4
636.645	36918.62
636.999	36714.33
637.352	36836.14
637.706	36878.39
638.06	37009.69
638.413	36854.44
638.767	36801.33
639.121	36987.09
639.474	36738.29
639.828	36739.19
640.181	36982.12
640.534	36824.16
640.888	36703.03
641.241	36748.23
641.594	36807.44
641.947	36853.08
642.301	36705.74
642.654	36882.24
643.007	36805.18
643.36	36692.41
643.713	36757.04
644.066	36812.63
644.419	36630.27
644.771	36486.54
645.124	36115.02
645.477	35970.85
645.83	35809.72
646.182	35829.61
646.535	35645.21
646.888	35854.69
647.24	35466
647.593	35775.82
647.945	35708.26
648.298	35571.31
648.65	35407.25
649.002	35367.7
649.355	35632.78
649.707	35671.65
650.059	35663.96
650.411	36072.77
650.763	36105.99
651.115	36518.4
651.467	36312.08
651.819	36376.04
652.171	36376.04
652.523	36373.32
652.875	36374.23
653.227	36266.43
653.578	36462.36
653.93	36311.4
654.282	36211.97
654.633	36192.54
654.985	36297.39
655.337	36134.91
655.688	36251.52
656.039	36238.41
656.391	36077.29
656.742	36178.98
657.094	36072.09
657.445	36298.52
657.796	36172.65
658.147	36180.33
658.498	36208.13
658.849	36140.11
659.2	36066.44
659.551	35900.57
659.902	36223.5
660.253	36178.98
660.604	36151.18
660.955	36078.64
661.306	36061.24
661.656	36014.69
662.007	35989.15
662.358	35972.2
662.708	36001.13
663.059	36023.5
663.409	35803.39
663.76	36187.11
664.11	36032.99
664.461	36126.55
664.811	36084.29
665.161	35992.32
665.511	35950.51
665.862	35929.95
666.212	36159.77
666.562	36059.43
666.912	35934.69
667.262	35913.67
667.612	35892.43
667.962	35949.15
668.312	35920
668.662	36044.74
669.011	35932.2
669.361	35887.23
669.711	35849.27
670.06	35764.75
670.41	35734.92
670.76	35770.63
671.109	35913.22
671.459	35907.8
671.808	35770.18
672.157	35822.6
672.507	35579.22
672.856	35735.83
673.205	35829.61
673.554	35866.67
673.904	35617.64
674.253	35878.65
674.602	35759.1
674.951	35189.17
675.3	35118.22
675.649	35829.38
675.998	35694.25
676.346	35591.65
676.695	35678.65
677.044	35695.37
677.393	35601.37
677.741	35728.82
678.09	35595.26
678.438	35451.54
678.787	35501.03
679.135	35481.6
679.484	35354.37
679.832	35434.14
680.181	35147.82
680.529	35345.33
680.877	35282.73
681.225	35129.29
681.573	35446.34
681.922	35154.37
682.27	35098.1
682.618	35088.61
682.966	34937.43
683.314	35064.88
683.661	34981.72
684.009	34789.64
684.357	34672.13
684.705	34492.24
685.053	34775.17
685.4	34506.93
685.748	34561.39
686.095	34377.9
686.443	34353.26
686.79	34189.43
687.138	34433.26
687.485	34283.66
687.832	34258.12
688.18	34370.44
688.527	34035.53
688.874	33996.21
689.221	34132.93
689.568	33946.49
689.915	33739.04
690.262	33949.43
690.609	33837.57
690.956	33754.18
691.303	33620.85
691.65	33450.24
691.997	33565.04
692.344	33322.78
692.69	33298.83
693.037	33370.46
693.383	33016.8
693.73	33272.16
694.077	33055.22
694.423	33131.6
694.769	32990.36
695.116	32894.77
695.462	32847.31
695.808	32651.16
696.155	32714.44
696.501	32515.8
696.847	32462.01
697.193	32320.32
697.539	32495.69
697.885	32097.96
698.231	32041.01
698.577	32064.74
698.923	32007.56
699.269	31838.53
699.614	31684.63
699.96	31589.72
700.306	31626.1
700.651	31536.39
700.997	31528.48
701.342	31401.93
701.688	31359.22
702.033	31270.41
702.379	31289.62
702.724	31114.48
703.069	31270.41
703.415	30829.51
703.76	30838.33
704.105	30865.22
704.45	30796.52
704.795	30624.55
705.14	30602.18
705.485	30582.29
705.83	30523.76
706.175	30495.96
706.52	30287.83
706.865	30314.5
707.209	30263.43
707.554	30092.81
707.899	30096.2
708.243	29961.06
708.588	29940.05
708.932	29754.97
709.277	29825.47
709.621	29722.42
709.966	29597.91
710.31	29644.91
710.654	29334.64
710.998	29468.87
711.342	29482.88
711.687	29406.27
712.031	29301.64
712.375	29123.12
712.719	29204.92
713.063	29075.21
713.407	29169.67
713.75	28879.51
714.094	29070.92
714.438	28894.42
714.782	28991.82
715.125	28787.53
715.469	28836.57
715.812	28777.82
716.156	28546.86
716.499	28653.53
716.843	28653.07
717.186	28446.75
717.53	28510.93
717.873	28609.01
718.216	28456.47
718.559	28260.09
718.902	28151.17
719.246	28288.56
719.589	28202.92
719.932	28073.65
720.275	27908.01
720.617	27950.27
720.96	27960.21
721.303	27784.4
721.646	27782.81
721.989	27764.51
722.331	27858.29
722.674	27702.59
723.016	27805.19
723.359	27718.18
723.701	27647.68
724.044	27514.12
724.386	27393.9
724.729	27478.19
725.071	27367.91
725.413	27437.51
725.755	27459.21
726.097	27247.46
726.439	27075.26
726.782	27085.43
727.124	27195.26
727.465	27014.02
727.807	27045.43
728.149	27039.11
728.491	26959.56
728.833	27067.81
729.175	26945.77
729.516	26774.25
729.858	26775.38
730.199	26840.92
730.541	26785.55
730.882	26630.08
731.224	26773.12
731.565	26657.19
731.906	26597.31
732.248	26562.73
732.589	26368.61
732.93	26402.96
733.271	26410.87
733.612	26418.78
733.953	26434.6
734.294	26340.82
734.635	26227.6
734.976	26409.74
735.317	26187.38
735.658	26190.09
735.999	26198.22
736.339	26126.81
736.68	26207.26
737.021	25940.38
737.361	25960.26
737.702	26061.96
738.042	25972.92
738.383	25867.84
738.723	25994.16
739.063	25902.41
739.404	25902.64
739.744	25747.61
740.084	25711.91
740.424	25715.3
740.764	25605.02
741.104	25788.52
741.444	25494.74
741.784	25519.6
742.124	25490.67
742.464	25443.22
742.804	25348.08
743.143	25217.23
743.483	25415.65
743.823	25213.62
744.162	25247.97
744.502	25207.97
744.841	25157.8
745.181	25310.11
745.52	25040.06
745.86	25014.53
746.199	25078.03
746.538	24986.73
746.877	25040.51
747.216	24984.24
747.556	24979.27
747.895	24972.49
748.234	24872.61
748.573	24799.39
748.911	24750.8
749.25	24830.35
749.589	24660.41
749.928	24623.35
750.267	24626.29
750.605	24568.21
750.944	24538.38
751.283	24435.56
751.621	24574.54
751.96	24424.71
752.298	24407.08
752.636	24239.86
752.975	24211.38
753.313	24095
753.651	24217.26
753.989	24198.05
754.327	24103.36
754.666	23967.32
755.004	24003.48
755.342	24000.32
755.679	23873.09
756.017	23731.17
756.355	23902.69
756.693	23708.8
757.031	23876.02
757.368	23572.08
757.706	23571.85
758.044	23538.63
758.381	23505.19
758.719	23383.16
759.056	23401.23
759.394	23391.52
759.731	23041.92
760.068	23147
