Data from hue_310_FLMS001491_87.txt Node
Date: Mon Feb 06 15:50:20 GMT 2017
User: dcchb
Spectrometer: FLMS00149
Trigger mode: 0
Integration Time (sec): 2.000000E-2
Scans to average: 10
Electric dark correction enabled: true
Nonlinearity correction enabled: false
Boxcar width: 0
XAxis mode: Wavelengths
Number of Pixels in Spectrum: 2048
>>>>>Begin Spectral Data<<<<<
341.393	-26.55
341.776	-26.55
342.16	-26.55
342.543	-56.61
342.927	-69.04
343.31	-63.61
343.693	-81.01
344.077	-53.22
344.46	-65.65
344.843	-52.54
345.226	-34.24
345.61	-41.24
345.993	-23.39
346.376	-18.87
346.759	8.93
347.142	22.49
347.525	36.95
347.908	79.21
348.291	76.27
348.674	98.64
349.057	111.3
349.44	121.47
349.823	144.52
350.206	133.22
350.588	204.85
350.971	225.64
351.354	227.23
351.737	224.74
352.119	233.1
352.502	259.77
352.884	294.79
353.267	280.11
353.65	299.54
354.032	310.39
354.414	296.6
354.797	320.78
355.179	335.25
355.562	292.99
355.944	325.53
356.326	335.02
356.709	346.54
357.091	342.25
357.473	353.78
357.855	347.45
358.238	350.39
358.62	334.57
359.002	321.91
359.384	339.99
359.766	347.45
360.148	347.9
360.53	342.25
360.912	337.51
361.294	316.26
361.676	333.89
362.057	346.54
362.439	348.58
362.821	339.54
363.203	336.6
363.584	325.3
363.966	314.46
364.348	323.72
364.729	336.83
365.111	324.17
365.493	328.01
365.874	329.14
366.256	321.23
366.637	312.65
367.019	296.15
367.4	316.49
367.781	303.61
368.163	325.53
368.544	335.02
368.925	315.36
369.306	324.85
369.688	300.9
370.069	321.01
370.45	288.24
370.831	321.46
371.212	317.39
371.593	333.44
371.974	321.46
372.355	311.07
372.736	298.41
373.117	328.24
373.498	329.6
373.879	344.96
374.26	320.78
374.641	311.52
375.021	321.23
375.402	332.53
375.783	331.86
376.163	332.99
376.544	331.63
376.925	323.95
377.305	328.47
377.686	330.05
378.066	332.76
378.447	333.21
378.827	340.22
379.208	335.92
379.588	340.22
379.968	343.38
380.349	344.74
380.729	332.08
381.109	350.39
381.489	349.26
381.87	340.67
382.25	329.82
382.63	325.98
383.01	338.86
383.39	372.08
383.77	337.51
384.15	350.16
384.53	361.01
384.91	365.98
385.29	335.92
385.67	355.58
386.049	360.78
386.429	343.15
386.809	363.95
387.189	345.41
387.568	353.78
387.948	373.89
388.328	365.53
388.707	366.66
389.087	375.02
389.466	382.02
389.846	366.88
390.225	357.84
390.605	353.55
390.984	368.01
391.363	386.77
391.743	402.81
392.122	378.41
392.501	385.41
392.881	382.93
393.26	392.19
393.639	372.53
394.018	391.74
394.397	399.2
394.776	392.19
395.155	387.45
395.534	400.33
395.913	386.54
396.292	399.42
396.671	390.61
397.05	380.22
397.429	423.6
397.808	406.43
398.186	423.6
398.565	404.4
398.944	406.2
399.323	406.88
399.701	393.1
400.08	394.9
400.458	408.92
400.837	421.12
401.215	424.28
401.594	429.03
401.972	409.59
402.351	437.16
402.729	459.31
403.107	431.29
403.486	437.62
403.864	434.9
404.242	454.34
404.62	417.73
404.999	439.42
405.377	461.34
405.755	464.73
406.133	475.35
406.511	457.28
406.889	460.67
407.267	477.84
407.645	469.93
408.023	475.35
408.401	492.53
408.779	475.13
409.156	505.18
409.534	490.72
409.912	506.31
410.29	528.01
410.667	531.17
411.045	510.61
411.422	531.4
411.8	549.48
412.178	530.95
412.555	581.11
412.933	545.86
413.31	568.91
413.687	575.47
414.065	595.13
414.442	592.64
414.819	609.59
415.197	596.48
415.574	585.86
415.951	624.96
416.328	648.68
416.705	638.74
417.082	632.86
417.46	656.59
417.837	669.25
418.214	663.82
418.591	688.46
418.967	701.56
419.344	706.08
419.721	691.62
420.098	700.66
420.475	753.31
420.852	719.87
421.228	737.49
421.605	733.88
421.982	724.61
422.358	763.26
422.735	768.91
423.111	763.03
423.488	786.76
423.864	772.3
424.241	778.62
424.617	812.75
424.994	823.37
425.37	813.65
425.746	840.32
426.123	861.56
426.499	844.84
426.875	841.67
427.251	862.01
427.627	891.39
428.003	896.59
428.379	897.04
428.756	912.18
429.132	916.7
429.507	906.76
429.883	925.51
430.259	959.64
430.635	940.88
431.011	979.97
431.387	986.08
431.763	1021.33
432.138	981.78
432.514	998.96
432.89	1043.7
433.265	1056.13
433.641	1052.29
434.016	1053.42
434.392	1064.04
434.767	1111.27
435.143	1109.46
435.518	1103.13
435.894	1149.69
436.269	1131.83
436.644	1125.51
437.02	1128.44
437.395	1204.15
437.77	1157.6
438.145	1176.13
438.52	1175.9
438.895	1218.61
439.271	1212.74
439.646	1248.89
440.021	1258.16
440.395	1261.32
440.77	1247.09
441.145	1238.05
441.52	1276.92
441.895	1249.57
442.27	1269.23
442.645	1282.34
443.019	1303.13
443.394	1301.1
443.769	1290.93
444.143	1307.42
444.518	1321.66
444.892	1327.99
445.267	1341.77
445.641	1365.27
446.016	1345.84
446.39	1351.04
446.764	1370.02
447.139	1351.26
447.513	1377.48
447.887	1353.75
448.262	1374.99
448.636	1374.54
449.01	1415.44
449.384	1383.58
449.758	1403.47
450.132	1416.57
450.506	1384.71
450.88	1436.23
451.254	1390.36
451.628	1448.66
452.002	1429
452.376	1470.81
452.75	1487.98
453.123	1488.66
453.497	1496.34
453.871	1491.6
454.244	1524.14
454.618	1485.27
454.992	1489.34
455.365	1521.2
455.739	1553.07
456.112	1546.96
456.486	1564.82
456.859	1565.72
457.232	1612.27
457.606	1607.53
457.979	1582.22
458.352	1661.09
458.725	1630.35
459.099	1627.19
459.472	1679.39
459.845	1666.96
460.218	1700.18
460.591	1693.4
460.964	1711.48
461.337	1744.02
461.71	1752.84
462.083	1771.14
462.456	1790.35
462.829	1789.44
463.201	1794.64
463.574	1817.01
463.947	1829.44
464.32	1851.82
464.692	1861.76
465.065	1860.18
465.438	1899.27
465.81	1927.29
466.183	1967.52
466.555	1914.86
466.928	1936.79
467.3	1939.05
467.672	1975.2
468.045	1990.8
468.417	2011.36
468.789	2025.6
469.161	2025.82
469.534	2045.48
469.906	2119.38
470.278	2132.71
470.65	2099.04
471.022	2130.9
471.394	2154.86
471.766	2191.02
472.138	2212.94
472.51	2229.21
472.882	2272.37
473.253	2290.9
473.625	2287.28
473.997	2351.01
474.369	2344.01
474.74	2377.9
475.112	2396.66
475.484	2418.35
475.855	2441.63
476.227	2451.57
476.598	2513.27
476.97	2541.06
477.341	2558.69
477.713	2583.55
478.084	2598.91
478.455	2650.89
478.827	2640.95
479.198	2734.5
479.569	2744.22
479.94	2815.41
480.311	2778.8
480.682	2829.87
481.053	2866.7
481.424	2937.89
481.795	2925.23
482.166	2931.79
482.537	2955.52
482.908	3026.02
483.279	3056.53
483.65	3142.63
484.021	3140.14
484.391	3153.48
484.762	3171.33
485.133	3182.63
485.503	3192.12
485.874	3274.6
486.244	3277.99
486.615	3331.32
486.985	3379.69
487.356	3454.26
487.726	3442.73
488.097	3462.39
488.467	3488.61
488.837	3547.14
489.207	3579.23
489.578	3641.83
489.948	3655.84
490.318	3680.24
490.688	3712.78
491.058	3745.33
491.428	3805.89
491.798	3791.43
492.168	3891.54
492.538	3871.2
492.908	3878.43
493.278	3945.55
493.648	3962.49
494.017	3944.42
494.387	4002.04
494.757	4025.09
495.126	4010.85
495.496	4072.1
495.866	4065.99
496.235	4153.45
496.605	4120.46
496.974	4182.38
497.344	4190.29
497.713	4205.43
498.082	4238.19
498.452	4267.12
498.821	4302.6
499.19	4324.75
499.559	4344.63
499.928	4368.13
500.298	4326.78
500.667	4400.45
501.036	4394.12
501.405	4397.29
501.774	4436.38
502.143	4443.16
502.512	4478.87
502.88	4538.75
503.249	4480.22
503.618	4534.01
503.987	4547.34
504.356	4534.68
504.724	4596.38
505.093	4529.26
505.462	4607.9
505.83	4623.95
506.199	4639.09
506.567	4699.88
506.936	4703.04
507.304	4717.28
507.672	4769.71
508.041	4805.64
508.409	4758.86
508.777	4815.81
509.145	4845.64
509.514	4819.2
509.882	4826.2
510.25	4851.51
510.618	4907.1
510.986	4888.12
511.354	4902.81
511.722	4957.95
512.09	4968.8
512.458	4956.37
512.826	4942.58
513.193	5047.89
513.561	4999.53
513.929	5032.52
514.297	5072.3
514.664	5082.92
515.032	5072.75
515.4	5075.01
515.767	5089.7
516.135	5155.01
516.502	5120.2
516.869	5157.72
517.237	5199.07
517.604	5164.27
517.972	5225.96
518.339	5246.3
518.706	5218.05
519.073	5244.49
519.44	5268.68
519.808	5314.78
520.175	5248.34
520.542	5353.64
520.909	5375.11
521.276	5336.7
521.643	5385.73
522.009	5443.81
522.376	5448.78
522.743	5450.82
523.11	5499.86
523.477	5521.1
523.843	5550.48
524.21	5504.83
524.577	5587.54
524.943	5576.46
525.31	5660.08
525.676	5643.35
526.043	5671.15
526.409	5698.49
526.776	5815.78
527.142	5771.94
527.508	5840.86
527.874	5858.26
528.241	5884.25
528.607	5858.72
528.973	5921.31
529.339	5956.11
529.705	6013.74
530.071	5999.28
530.437	6072.04
530.803	6082.44
531.169	6108.2
531.535	6118.14
531.901	6136
532.267	6239.72
532.632	6176
532.998	6191.59
533.364	6253.96
533.73	6274.75
534.095	6325.82
534.461	6318.82
534.826	6413.05
535.192	6396.55
535.557	6483.78
535.923	6420.06
536.288	6424.35
536.653	6476.33
537.019	6456.44
537.384	6531.69
537.749	6611.24
538.114	6576.21
538.479	6578.02
538.845	6655.53
539.21	6604.91
539.575	6673.16
539.94	6761.97
540.305	6747.73
540.67	6686.72
541.034	6751.8
541.399	6789.09
541.764	6844.68
542.129	6869.76
542.494	6857.33
542.858	6895.07
543.223	6917.45
543.587	6998.57
543.952	7036.31
544.316	7015.52
544.681	7001.96
545.045	7101.85
545.41	7156.53
545.774	7082.41
546.138	7152.24
546.503	7198.57
546.867	7179.36
547.231	7227.49
547.595	7307.04
547.959	7264.55
548.324	7257.55
548.688	7328.96
549.052	7300.26
549.416	7307.94
549.779	7373.48
550.143	7436.08
550.507	7471.33
550.871	7472.46
551.235	7476.53
551.599	7509.07
551.962	7541.16
552.326	7579.8
552.689	7586.81
553.053	7646.69
553.417	7570.31
553.78	7739.8
554.143	7587.71
554.507	7677.88
554.87	7707.03
555.234	7769.85
555.597	7754.71
555.96	7768.5
556.323	7856.63
556.686	7800.13
557.05	7843.75
557.413	7910.41
557.776	7883.3
558.139	7982.73
558.502	7938.44
558.865	8012.33
559.228	8031.54
559.59	7975.04
559.953	8075.61
560.316	8149.96
560.679	8086
561.041	8225.89
561.404	8185.89
561.767	8210.07
562.129	8154.47
562.492	8282.16
562.854	8279.67
563.217	8316.96
563.579	8326
563.941	8344.53
564.304	8396.95
564.666	8436.05
565.028	8475.37
565.39	8468.82
565.753	8472.88
566.115	8503.84
566.477	8537.06
566.839	8540.45
567.201	8647.34
567.563	8552.88
567.925	8621.13
568.287	8655.48
568.648	8677.85
569.01	8751.07
569.372	8789.49
569.734	8768.7
570.095	8873.33
570.457	8910.39
570.819	8868.81
571.18	8995.13
571.542	9015.7
571.903	9023.15
572.265	9097.95
572.626	9117.61
572.987	9136.14
573.349	9250.72
573.71	9313.31
574.071	9316.25
574.432	9399.87
574.794	9526.64
575.155	9522.12
575.516	9559.86
575.877	9674.43
576.238	9704.04
576.599	9792.4
576.96	9855.67
577.32	9904.94
577.681	10042.56
578.042	10126.4
578.403	10177.47
578.763	10318.49
579.124	10403.91
579.485	10579.04
579.845	10696.78
580.206	10779.04
580.566	10839.6
580.927	11015.19
581.287	11070.78
581.648	11237.11
582.008	11502.18
582.368	11478.46
582.728	11693.14
583.089	11919.8
583.449	12078.21
583.809	12179.91
584.169	12316.63
584.529	12567.47
584.889	12776.05
585.249	12978.75
585.609	13076.83
585.969	13469.82
586.329	13583.71
586.688	13770.15
587.048	13960.2
587.408	14257.37
587.768	14507.08
588.127	14829.33
588.487	14965.6
588.846	15312.7
589.206	15544.56
589.565	15757.44
589.925	16141.61
590.284	16328.95
590.643	16590.64
591.003	16946.79
591.362	17277.62
591.721	17500.9
592.08	17800.55
592.44	18072.86
592.799	18489.34
593.158	18763.69
593.517	18958.03
593.876	19377
594.235	19515.53
594.593	19902.64
594.952	20270.54
595.311	20513.02
595.67	20924.31
596.029	21246.79
596.387	21554.12
596.746	22009.03
597.104	22095.8
597.463	22450.82
597.822	22882.9
598.18	22935.56
598.538	23333.74
598.897	23743.22
599.255	23959.48
599.613	24567.83
599.972	24657.77
600.33	25064.76
600.688	25176.63
601.046	25533.68
601.404	25998.07
601.762	26216.15
602.12	26586.08
602.478	26763.03
602.836	27093.41
603.194	27253.41
603.552	27594.42
603.91	27809.33
604.268	28219.94
604.625	28435.75
604.983	28730.21
605.341	28957.77
605.698	29244.09
606.056	29522.73
606.413	29735.83
606.771	30079.77
607.128	30456.71
607.485	30458.52
607.843	30761.34
608.2	31182.57
608.557	31370.81
608.914	31556.57
609.272	31952.49
609.629	32127.86
609.986	32388.87
610.343	32488.75
610.7	32951.79
611.057	32953.37
611.414	33239.46
611.771	33388.84
612.127	33757.87
612.484	33882.16
612.841	34180.01
613.198	34150.18
613.554	34383.39
613.911	34677.17
614.267	34874.22
614.624	34936.37
614.98	35139.53
615.337	35512.63
615.693	35692.96
616.05	35721.89
616.406	36072.84
616.762	36024.48
617.118	36271.25
617.475	36332.94
617.831	36640.96
618.187	36749.43
618.543	36998.24
618.899	37223.32
619.255	37327.27
619.611	37318.23
619.967	37579.46
620.323	37747.6
620.678	37745.11
621.034	37729.52
621.39	37872.79
621.746	37944.65
622.101	38522.26
622.457	38168.15
622.812	38527.69
623.168	38682.03
623.523	38735.59
623.879	38775.59
624.234	38652.2
624.589	38936.04
624.945	39128.58
625.3	39181.46
625.655	39172.19
626.01	39208.35
626.365	39436.59
626.72	39612.63
627.075	39434.1
627.43	39552.29
627.785	39545.51
628.14	39691.5
628.495	39803.81
628.85	39878.16
629.205	39765.17
629.559	40071.83
629.914	39943.24
630.269	40093.07
630.623	39970.36
630.978	39880.65
631.332	40252.16
631.687	40275.21
632.041	40141.2
632.396	40256.68
632.75	40239.73
633.104	40262.78
633.459	40168.55
633.813	40187.53
634.167	40205.16
634.521	40243.12
634.875	40480.86
635.229	40393.4
635.583	40215.55
635.937	40260.3
636.291	40238.15
636.645	40275.89
636.999	40163.8
637.352	40454.42
637.706	40113.63
638.06	40316.79
638.413	40293.74
638.767	40145.05
639.121	40239.28
639.474	40154.54
639.828	40158.61
640.181	40251.03
640.534	40192.95
640.888	40089.23
641.241	40024.6
641.594	40159.96
641.947	40096.23
642.301	40198.15
642.654	40264.14
643.007	40228.21
643.36	40084.71
643.713	40019.17
644.066	40301.43
644.419	39905.96
644.771	39728.33
645.124	39412.41
645.477	39508.9
645.83	39151.17
646.182	38963.61
646.535	38814.01
646.888	39031.4
647.24	38799.77
647.593	39157.73
647.945	38817.4
648.298	38801.58
648.65	38728.13
649.002	38643.84
649.355	38787.57
649.707	38640.9
650.059	38924.51
650.411	39263.71
650.763	39255.8
651.115	39779.63
651.467	39565.4
651.819	39741.67
652.171	39595
652.523	39563.37
652.875	39638.17
653.227	39552.52
653.578	39690.14
653.93	39594.33
654.282	39369.47
654.633	39303.26
654.985	39441.34
655.337	39449.92
655.688	39478.85
656.039	39604.27
656.391	39237.95
656.742	39388.23
657.094	39352.98
657.445	39464.61
657.796	39335.8
658.147	39264.62
658.498	39459.87
658.849	39395.01
659.2	39361.34
659.551	39126.09
659.902	39406.99
660.253	39300.32
660.604	39352.52
660.955	39057.84
661.306	39293.09
661.656	39137.39
662.007	39239.99
662.358	39341.68
662.708	39148.91
663.059	39167.67
663.409	39097.39
663.76	39371.73
664.11	39228.69
664.461	39349.13
664.811	39274.79
665.161	39216.71
665.511	39188.01
665.862	39007
666.212	39374.9
666.562	39229.59
666.912	39096.71
667.262	39049.03
667.612	39063.49
667.962	39128.8
668.312	39168.12
668.662	39340.55
669.011	39094.45
669.361	39059.2
669.711	39075.47
670.06	39074.34
670.41	38992.53
670.76	38957.96
671.109	39129.93
671.459	39028.47
671.808	38966.55
672.157	38930.39
672.507	38659.89
672.856	38836.15
673.205	38829.37
673.554	38942.37
673.904	38938.07
674.253	39018.52
674.602	38828.92
674.951	38279.11
675.3	38184.87
675.649	38699.89
675.998	38713.67
676.346	38814.23
676.695	38783.05
677.044	38546.22
677.393	38562.71
677.741	38706.44
678.09	38578.53
678.438	38518.65
678.787	38642.03
679.135	38555.94
679.484	38441.81
679.832	38404.53
680.181	38228.71
680.529	38437.52
680.877	38286.56
681.225	38324.76
681.573	38527.01
681.922	38141.03
682.27	38207.7
682.618	37993.46
682.966	37968.38
683.314	38123.4
683.661	37912.34
684.009	37794.83
684.357	37738.1
684.705	37590.99
685.053	37831.89
685.4	37605
685.748	37558
686.095	37446.81
686.443	37439.58
686.79	37306.93
687.138	37503.53
687.485	37421.05
687.832	37292.47
688.18	37319.81
688.527	37163.2
688.874	36973.6
689.221	37086.37
689.568	36881.18
689.915	36819.71
690.262	36821.29
690.609	36918.24
690.956	36626.49
691.303	36556.44
691.65	36356.45
691.997	36325.49
692.344	36335.65
692.69	36203.68
693.037	36187.64
693.383	35911.71
693.73	36115.55
694.077	35798.27
694.423	35985.16
694.769	35790.36
695.116	35730.92
695.462	35711.94
695.808	35491.16
696.155	35609.12
696.501	35243.48
696.847	35281.45
697.193	35087.33
697.539	35106.99
697.885	34818.18
698.231	34669.26
698.577	34774.34
698.923	34726.21
699.269	34623.16
699.614	34492.09
699.96	34354.46
700.306	34461.81
700.651	34302.26
700.997	34311.3
701.342	34134.58
701.688	34283.96
702.033	33995.6
702.379	33982.95
702.724	33951.08
703.069	33958.09
703.415	33544.77
703.76	33694.59
704.105	33699.11
704.45	33621.15
704.795	33396.3
705.14	33180.03
705.485	33235.17
705.83	33193.59
706.175	33193.14
706.52	32966.03
706.865	32926.03
707.209	32801.96
707.554	32886.48
707.899	32813.94
708.243	32594.74
708.588	32605.36
708.932	32339.38
709.277	32370.34
709.621	32416.44
709.966	32328.3
710.31	32296.21
710.654	32107.52
710.998	32132.6
711.342	32115.88
711.687	31981.42
712.031	31791.14
712.375	31789.79
712.719	31812.16
713.063	31598.15
713.407	31658.04
713.75	31511.83
714.094	31509.34
714.438	31474.77
714.782	31467.76
715.125	31319.74
715.469	31336.92
715.812	31202.46
716.156	31029.58
716.499	30990.71
716.843	31028.9
717.186	30844.27
717.53	31018.51
717.873	31037.26
718.216	30964.72
718.559	30759.76
718.902	30583.04
719.246	30650.83
719.589	30454.45
719.932	30439.99
720.275	30407.9
720.617	30470.95
720.96	30461.68
721.303	30431.4
721.646	30415.58
721.989	30144.41
722.331	30253.33
722.674	30155.7
723.016	30196.61
723.359	30047.91
723.701	30106.67
724.044	29891.98
724.386	29750.07
724.729	29868.48
725.071	29843.85
725.413	29665.77
725.755	29868.71
726.097	29502.16
726.439	29363.63
726.782	29479.56
727.124	29664.42
727.465	29424.42
727.807	29316.86
728.149	29100.82
728.491	29172.45
728.833	29318.44
729.175	29172.23
729.516	29061.72
729.858	29035.51
730.199	29111.44
730.541	28964.32
730.882	28991.44
731.224	29129.74
731.565	28960.48
731.906	28936.53
732.248	28945.11
732.589	28736.08
732.93	28631.22
733.271	28684.1
733.612	28768.4
733.953	28703.99
734.294	28633.26
734.635	28528.85
734.976	28435.98
735.317	28374.73
735.658	28400.5
735.999	28357.79
736.339	28377.67
736.68	28325.92
737.021	28278.92
737.361	28205.7
737.702	28387.16
738.042	28190.56
738.383	28092.93
738.723	28192.82
739.063	28049.54
739.404	28062.2
739.744	28016.1
740.084	27843.9
740.424	27931.13
740.764	27813.62
741.104	27849.78
741.444	27706.28
741.784	27617.92
742.124	27737.01
742.464	27658.37
742.804	27556.22
743.143	27509.67
743.483	27723.9
743.823	27412.27
744.162	27417.47
744.502	27523.01
744.841	27306.06
745.181	27359.85
745.52	27382.9
745.86	27291.15
746.199	27220.87
746.538	27128.67
746.877	27133.18
747.216	27194.2
747.556	27049.57
747.895	27115.56
748.234	26915.34
748.573	26791.5
748.911	26939.97
749.25	26852.51
749.589	26607.77
749.928	26758.96
750.267	26760.54
750.605	26626.98
750.944	26610.71
751.283	26478.06
751.621	26513.09
751.96	26404.39
752.298	26415.46
752.636	26331.62
752.975	26288.46
753.313	26140.67
753.651	26147.67
753.989	26073.55
754.327	26084.4
754.666	25810.28
755.004	25990.62
755.342	25945.87
755.679	25897.51
756.017	25662.94
756.355	25816.38
756.693	25615.94
757.031	25626.11
757.368	25620.68
757.706	25533.9
758.044	25421.82
758.381	25422.5
758.719	25269.73
759.056	25360.58
759.394	25259.11
