Data from hue_200_FLMS001491_00048.txt Node
Date: Tue Feb 07 16:43:21 GMT 2017
User: dcchb
Spectrometer: FLMS00149
Trigger mode: 0
Integration Time (sec): 2.000000E-2
Scans to average: 10
Electric dark correction enabled: true
Nonlinearity correction enabled: false
Boxcar width: 0
XAxis mode: Wavelengths
Number of Pixels in Spectrum: 2048
>>>>>Begin Spectral Data<<<<<
341.393	1.41
341.776	1.41
342.16	1.41
342.543	-68.42
342.927	-71.35
343.31	-57.8
343.693	-64.8
344.077	-71.13
344.46	-72.94
344.843	-52.15
345.226	-35.2
345.61	-33.39
345.993	-21.19
346.376	-1.98
346.759	18.36
347.142	40.28
347.525	36.44
347.908	40.73
348.291	73.5
348.674	92.71
349.057	108.53
349.44	133.61
349.823	131.58
350.206	171.13
350.588	173.16
350.971	214.74
351.354	215.64
351.737	238.69
352.119	225.36
352.502	250.9
352.884	261.74
353.267	273.72
353.65	299.26
354.032	286.6
354.414	291.12
354.797	317.34
355.179	313.72
355.562	326.6
355.944	326.6
356.326	331.35
356.709	339.03
357.091	328.18
357.473	310.33
357.855	339.26
358.238	324.34
358.62	337.22
359.002	340.84
359.384	354.17
359.766	342.19
360.148	344.68
360.53	356.21
360.912	339.26
361.294	334.28
361.676	328.41
362.057	335.19
362.439	327.96
362.821	339.48
363.203	331.12
363.584	316.21
363.966	315.53
364.348	310.1
364.729	327.51
365.111	300.16
365.493	319.6
365.874	299.71
366.256	306.49
366.637	311.01
367.019	300.61
367.4	316.43
367.781	319.82
368.163	307.17
368.544	281.63
368.925	317.34
369.306	302.42
369.688	318.92
370.069	301.97
370.45	297.22
370.831	305.36
371.212	305.13
371.593	307.62
371.974	310.33
372.355	313.95
372.736	325.92
373.117	311.69
373.498	306.26
373.879	316.21
374.26	312.36
374.641	317.11
375.021	320.73
375.402	297.68
375.783	316.66
376.163	310.56
376.544	308.3
376.925	328.41
377.305	310.56
377.686	320.95
378.066	330.9
378.447	339.26
378.827	339.48
379.208	300.39
379.588	352.36
379.968	318.01
380.349	333.38
380.729	336.32
381.109	334.06
381.489	319.82
381.87	352.82
382.25	326.83
382.63	325.47
383.01	314.4
383.39	327.96
383.77	338.58
384.15	359.14
384.53	344
384.91	337.22
385.29	363.21
385.67	341.06
386.049	355.08
386.429	366.15
386.809	346.26
387.189	343.32
387.568	358.92
387.948	350.1
388.328	351.23
388.707	345.13
389.087	368.86
389.466	370.22
389.846	357.79
390.225	366.15
390.605	358.69
390.984	363.89
391.363	370.89
391.743	359.37
392.122	351.01
392.501	371.8
392.881	381.06
393.26	350.1
393.639	369.99
394.018	371.12
394.397	367.96
394.776	366.6
395.155	364.79
395.534	394.85
395.913	384.91
396.292	399.59
396.671	402.76
397.05	388.29
397.429	377.45
397.808	407.96
398.186	403.44
398.565	397.56
398.944	405.92
399.323	410.44
399.701	400.5
400.08	417.22
400.458	412.7
400.837	399.37
401.215	418.35
401.594	425.58
401.972	438.69
402.351	418.8
402.729	416.32
403.107	452.93
403.486	445.02
403.864	442.08
404.242	459.71
404.62	454.06
404.999	471
405.377	452.47
405.755	454.51
406.133	464.23
406.511	487.73
406.889	489.08
407.267	478.24
407.645	485.47
408.023	480.95
408.401	485.24
408.779	514.62
409.156	524.34
409.534	520.72
409.912	508.07
410.29	549.42
410.667	542.19
411.045	550.1
411.422	541.51
411.8	580.15
412.178	586.93
412.555	598.68
412.933	632.13
413.31	608.63
413.687	618.12
414.065	619.02
414.442	631.68
414.819	638.91
415.197	656.31
415.574	662.86
415.951	702.18
416.328	694.05
416.705	692.47
417.082	695.63
417.46	683.65
417.837	730.88
418.214	705.12
418.591	745.8
418.967	748.96
419.344	774.05
419.721	791.45
420.098	783.99
420.475	796.87
420.852	793.26
421.228	818.79
421.605	814.72
421.982	844.55
422.358	847.72
422.735	872.58
423.111	881.62
423.488	909.41
423.864	918.22
424.241	943.99
424.617	948.73
424.994	999.35
425.37	956.87
425.746	992.35
426.123	1030.31
426.499	1040.26
426.875	1027.37
427.251	1080.93
427.627	1104.66
428.003	1100.37
428.379	1133.13
428.756	1102.85
429.132	1150.99
429.507	1155.96
429.883	1171.1
430.259	1166.58
430.635	1176.75
431.011	1191.66
431.387	1223.3
431.763	1263.75
432.138	1269.85
432.514	1266.69
432.89	1266.24
433.265	1314.37
433.641	1352.34
434.016	1355.05
434.392	1375.39
434.767	1457.19
435.143	1475.27
435.518	1479.57
435.894	1479.34
436.269	1534.03
436.644	1571.99
437.02	1568.6
437.395	1605.66
437.77	1626.68
438.145	1680.24
438.52	1690.86
438.895	1744.42
439.271	1759.56
439.646	1771.76
440.021	1816.96
440.395	1835.71
440.77	1834.81
441.145	1873
441.52	1877.52
441.895	1942.6
442.27	1943.06
442.645	1955.49
443.019	1966.33
443.394	1960.91
443.769	1982.38
444.143	2031.87
444.518	2051.75
444.892	2076.84
445.267	2103.5
445.641	2084.52
446.016	2125.42
446.39	2167.91
446.764	2186.67
447.139	2167.23
447.513	2254.01
447.887	2221.24
448.262	2230.51
448.636	2234.57
449.01	2274.35
449.384	2283.61
449.758	2326.32
450.132	2359.77
450.506	2379.43
450.88	2377.4
451.254	2377.85
451.628	2420.33
452.002	2432.99
452.376	2459.88
452.75	2489.26
453.123	2509.6
453.497	2574.9
453.871	2605.19
454.244	2598.86
454.618	2649.03
454.992	2745.07
455.365	2705.52
455.739	2705.97
456.112	2760.21
456.486	2788.91
456.859	2855.35
457.232	2874.11
457.606	2850.6
457.979	2892.41
458.352	2966.98
458.725	2991.39
459.099	3015.34
459.472	3097.6
459.845	3088.79
460.218	3121.1
460.591	3183.7
460.964	3128.56
461.337	3246.98
461.71	3347.77
462.083	3292.17
462.456	3327.43
462.829	3380.08
463.201	3395.67
463.574	3412.62
463.947	3495.33
464.32	3558.38
464.692	3593.18
465.065	3630.7
465.438	3644.93
465.81	3684.93
466.183	3768.32
466.555	3827.3
466.928	3860.75
467.3	3846.96
467.672	3917.92
468.045	4027.07
468.417	4006.96
468.789	4030.23
469.161	4097.8
469.534	4166.27
469.906	4276.33
470.278	4259.15
470.65	4340.96
471.022	4401.75
471.394	4436.32
471.766	4493.95
472.138	4598.58
472.51	4664.57
472.882	4722.64
473.253	4761.97
473.625	4822.08
473.997	4847.61
474.369	4972.13
474.74	5019.13
475.112	5099.81
475.484	5129.64
475.855	5229.75
476.227	5290.09
476.598	5370.54
476.97	5433.13
477.341	5553.81
477.713	5619.34
478.084	5656.86
478.455	5827.93
478.827	5846.68
479.198	5990.86
479.569	6002.38
479.94	6131.42
480.311	6175.71
480.682	6280.34
481.053	6431.3
481.424	6505.65
481.795	6619.09
482.166	6697.73
482.537	6790.61
482.908	6901.34
483.279	6903.6
483.65	7018.63
484.021	7155.8
484.391	7253.88
484.762	7310.37
485.133	7362.8
485.503	7449.35
485.874	7612.51
486.244	7659.29
486.615	7799.63
486.985	7854.54
487.356	8051.6
487.726	8102.67
488.097	8198.94
488.467	8235.09
488.837	8448.42
489.207	8420.63
489.578	8576.33
489.948	8582.43
490.318	8714.86
490.688	8753.72
491.058	8935.87
491.428	8970.67
491.798	9002.31
492.168	9232.13
492.538	9191.45
492.908	9273.94
493.278	9448.17
493.648	9423.09
494.017	9472.35
494.387	9619.46
494.757	9617.2
495.126	9725.45
495.496	9779.91
495.866	9798.22
496.235	9910.98
496.605	9982.84
496.974	9931.77
497.344	10042.73
497.713	10130.64
498.082	10167.92
498.452	10189.85
498.821	10236.62
499.19	10245.44
499.559	10280.69
499.928	10306.9
500.298	10435.49
500.667	10414.7
501.036	10461.48
501.405	10646.33
501.774	10534.02
502.143	10565.88
502.512	10641.36
502.88	10733.33
503.249	10726.33
503.618	10759.32
503.987	10735.59
504.356	10753.22
504.724	10843.39
505.093	10924.97
505.462	10890.17
505.83	10831.18
506.199	11004.51
506.567	11059.65
506.936	10999.54
507.304	11207.9
507.672	11170.61
508.041	11135.58
508.409	11180.33
508.777	11283.38
509.145	11295.35
509.514	11250.38
509.882	11298.52
510.25	11308.01
510.618	11366.31
510.986	11289.03
511.354	11488.79
511.722	11566.08
512.09	11499.19
512.458	11531.96
512.826	11506.87
513.193	11551.17
513.561	11561.56
513.929	11526.31
514.297	11594.55
514.664	11692.18
515.032	11672.07
515.4	11643.82
515.767	11692.86
516.135	11684.95
516.502	11600.43
516.869	11795.9
517.237	11799.97
517.604	11657.83
517.972	11745.28
518.339	11858.05
518.706	11784.15
519.073	11765.85
519.44	11824.6
519.808	11844.49
520.175	11850.82
520.542	11948.67
520.909	11906.86
521.276	11840.88
521.643	11875.45
522.009	11898.73
522.376	12015.33
522.743	11992.74
523.11	12032.73
523.477	12050.59
523.843	12035.45
524.21	12166.52
524.577	12213.29
524.943	12090.36
525.31	12245.16
525.676	12209.23
526.043	12225.95
526.409	12124.03
526.776	12246.06
527.142	12157.93
527.508	12171.26
527.874	12281.32
528.241	12250.81
528.607	12268.21
528.973	12217.36
529.339	12136.01
529.705	12281.09
530.071	12249
530.437	12173.07
530.803	12187.31
531.169	12180.53
531.535	12201.54
531.901	12083.81
532.267	12076.35
532.632	12092.17
532.998	12051.72
533.364	12139.62
533.73	12087.2
534.095	12078.16
534.461	11999.97
534.826	11945.05
535.192	11949.57
535.557	11986.18
535.923	11907.77
536.288	11903.92
536.653	11887.65
537.019	11759.75
537.384	11830.03
537.749	11735.79
538.114	11693.08
538.479	11663.25
538.845	11657.6
539.21	11575.8
539.575	11500.09
539.94	11530.37
540.305	11533.31
540.67	11436.82
541.034	11393.43
541.399	11359.08
541.764	11322.92
542.129	11314.11
542.494	11316.14
542.858	11204.28
543.223	11173.55
543.587	11181.68
543.952	11084.96
544.316	11095.58
544.681	11038.64
545.045	10997.28
545.41	10968.81
545.774	10919.32
546.138	10880.67
546.503	10789.15
546.867	10705.99
547.231	10824.18
547.595	10677.97
547.959	10694.01
548.324	10567.24
548.688	10597.97
549.052	10486.33
549.416	10487.46
549.779	10433.45
550.143	10374.92
550.507	10425.77
550.871	10349.16
551.235	10298.32
551.599	10289.96
551.962	10259
552.326	10249.73
552.689	10245.66
553.053	10138.32
553.417	10117.3
553.78	10256.28
554.143	10130.64
554.507	10098.32
554.87	10066.46
555.234	10072.33
555.597	9977.87
555.96	9946.91
556.323	9918.89
556.686	9844.54
557.05	9895.39
557.413	9910.76
557.776	9854.49
558.139	9864.66
558.502	9809.06
558.865	9753.92
559.228	9788.27
559.59	9695.17
559.953	9704.21
560.316	9771.1
560.679	9789.86
561.041	9706.69
561.404	9688.16
561.767	9726.81
562.129	9645.23
562.492	9715.73
562.854	9609.52
563.217	9650.2
563.579	9664.89
563.941	9693.81
564.304	9698.33
564.666	9692.23
565.028	9606.36
565.39	9602.29
565.753	9660.14
566.115	9751.44
566.477	9630.76
566.839	9663.53
567.201	9721.16
567.563	9624.44
567.925	9689.07
568.287	9683.64
568.648	9698.78
569.01	9662.18
569.372	9737.65
569.734	9612.91
570.095	9650.65
570.457	9708.95
570.819	9654.49
571.18	9681.84
571.542	9663.98
571.903	9636.41
572.265	9706.02
572.626	9660.82
572.987	9663.98
573.349	9698.78
573.71	9708.5
574.071	9790.31
574.432	9709.86
574.794	9805.45
575.155	9710.76
575.516	9718.45
575.877	9721.38
576.238	9681.84
576.599	9716.41
576.96	9740.82
577.32	9737.2
577.681	9751.89
578.042	9778.78
578.403	9750.76
578.763	9665.57
579.124	9754.6
579.485	9784.66
579.845	9769.52
580.206	9782.4
580.566	9751.89
580.927	9675.96
581.287	9715.73
581.648	9700.14
582.008	9792.34
582.368	9710.99
582.728	9726.35
583.089	9710.31
583.449	9702.17
583.809	9646.58
584.169	9677.32
584.529	9674.83
584.889	9730.2
585.249	9624.21
585.609	9629.63
585.969	9693.59
586.329	9673.25
586.688	9698.11
587.048	9609.3
587.408	9667.37
587.768	9608.62
588.127	9637.32
588.487	9638.67
588.846	9660.14
589.206	9510.31
589.565	9627.83
589.925	9675.28
590.284	9563.65
590.643	9602.74
591.003	9621.95
591.362	9622.4
591.721	9609.75
592.08	9649.29
592.44	9589.41
592.799	9623.08
593.158	9595.28
593.517	9555.29
593.876	9611.33
594.235	9506.7
594.593	9610.2
594.952	9481.39
595.311	9499.24
595.67	9515.06
596.029	9517.77
596.387	9547.38
596.746	9553.48
597.104	9525
597.463	9431.9
597.822	9489.52
598.18	9420.6
598.538	9499.92
598.897	9529.98
599.255	9433.71
599.613	9548.73
599.972	9498.11
600.33	9435.97
600.688	9413.14
601.046	9510.31
601.404	9505.8
601.762	9411.56
602.12	9544.44
602.478	9555.51
602.836	9484.1
603.194	9424.44
603.552	9521.61
603.91	9428.51
604.268	9471.9
604.625	9448.62
604.983	9422.86
605.341	9421.28
605.698	9466.47
606.056	9494.72
606.413	9450.66
606.771	9474.61
607.128	9495.17
607.485	9406.14
607.843	9382.41
608.2	9469.86
608.557	9456.76
608.914	9454.5
609.272	9527.49
609.629	9479.13
609.986	9521.61
610.343	9500.6
610.7	9547.38
611.057	9480.94
611.414	9462.63
611.771	9518.22
612.127	9509.64
612.484	9510.31
612.841	9543.31
613.198	9519.58
613.554	9510.77
613.911	9550.77
614.267	9550.77
614.624	9591.44
614.98	9555.29
615.337	9542.86
615.693	9593.25
616.05	9619.01
616.406	9650.2
616.762	9563.19
617.118	9607.49
617.475	9550.99
617.831	9654.49
618.187	9619.24
618.543	9553.48
618.899	9661.95
619.255	9657.88
619.611	9731.33
619.967	9680.71
620.323	9676.64
620.678	9658.11
621.034	9680.03
621.39	9665.57
621.746	9659.01
622.101	9661.5
622.457	9656.3
622.812	9624.89
623.168	9664.89
623.523	9714.38
623.879	9665.57
624.234	9592.12
624.589	9636.41
624.945	9620.14
625.3	9659.46
625.655	9620.37
626.01	9579.24
626.365	9647.26
626.72	9590.31
627.075	9555.51
627.43	9587.6
627.785	9565.45
628.14	9589.86
628.495	9595.96
628.85	9624.66
629.205	9560.48
629.559	9559.35
629.914	9578.34
630.269	9527.94
630.623	9555.96
630.978	9471.45
631.332	9527.49
631.687	9570.65
632.041	9575.62
632.396	9432.12
632.75	9461.95
633.104	9449.53
633.459	9494.95
633.813	9445.68
634.167	9451.79
634.521	9464.67
634.875	9515.74
635.229	9437.77
635.583	9376.76
635.937	9359.13
636.291	9347.16
636.645	9390.77
636.999	9306.25
637.352	9348.29
637.706	9333.14
638.06	9361.84
638.413	9338.12
638.767	9263.54
639.121	9249.76
639.474	9191.68
639.828	9193.49
640.181	9291.34
640.534	9194.39
640.888	9198.68
641.241	9170.66
641.594	9178.8
641.947	9261.51
642.301	9181.96
642.654	9225.35
643.007	9250.21
643.36	9220.61
643.713	9093.15
644.066	9155.07
644.419	9094.28
644.771	9075.3
645.124	8994.17
645.477	8944.45
645.83	8973.15
646.182	8870.78
646.535	8921.63
646.888	8943.78
647.24	8856.09
647.593	8913.04
647.945	8952.82
648.298	8865.59
648.65	8839.15
649.002	8794.63
649.355	8820.62
649.707	8889.99
650.059	8888.18
650.411	9006.15
650.763	8971.35
651.115	9018.12
651.467	9038.01
651.819	9058.35
652.171	9109.87
652.523	8984.23
652.875	9004.79
653.227	8971.57
653.578	9086.15
653.93	9041.4
654.282	9050.21
654.633	8984
654.985	9044.79
655.337	9083.89
655.688	9047.73
656.039	9068.52
656.391	9013.6
656.742	8993.49
657.094	9022.19
657.445	9077.33
657.796	9064.45
658.147	8975.64
658.498	9037.78
658.849	9061.97
659.2	9057.45
659.551	9039.82
659.902	9084.34
660.253	9031.91
660.604	9052.02
660.955	9082.08
661.306	9221.06
661.656	9125.92
662.007	9148.52
662.358	9136.77
662.708	9132.02
663.059	9106.26
663.409	9083.43
663.76	9151.91
664.11	9129.31
664.461	9072.59
664.811	9195.29
665.161	9144.45
665.511	9144
665.862	9207.72
666.212	9154.62
666.562	9164.56
666.912	9180.61
667.262	9198.46
667.612	9113.94
667.962	9165.01
668.312	9134.96
668.662	9162.98
669.011	9146.93
669.361	9102.64
669.711	9068.97
670.06	9104.9
670.41	9098.57
670.76	9049.76
671.109	9165.69
671.459	9110.55
671.808	9135.41
672.157	9123.66
672.507	9081.17
672.856	9042.08
673.205	9154.39
673.554	9092.7
673.904	9083.66
674.253	9116.2
674.602	9060.84
674.951	8962.76
675.3	8928.41
675.649	9077.33
675.998	8991.91
676.346	8953.95
676.695	9022.87
677.044	9003.21
677.393	8919.82
677.741	9016.09
678.09	8920.73
678.438	8965.24
678.787	8908.75
679.135	8961.63
679.484	8914.17
679.832	8879.15
680.181	8834.85
680.529	8856.32
680.877	8800.05
681.225	8790.79
681.573	8878.69
681.922	8777.68
682.27	8784.01
682.618	8790.33
682.966	8761.41
683.314	8719.38
683.661	8714.4
684.009	8658.36
684.357	8678.25
684.705	8672.14
685.053	8617.23
685.4	8602.54
685.748	8568.87
686.095	8569.77
686.443	8524.58
686.79	8525.48
687.138	8553.73
687.485	8553.96
687.832	8452.26
688.18	8512.15
688.527	8390.12
688.874	8372.72
689.221	8386.73
689.568	8328.43
689.915	8334.98
690.262	8338.37
690.609	8322.78
690.956	8269.44
691.303	8262.21
691.65	8242.33
691.997	8200.74
692.344	8180.18
692.69	8161.88
693.037	8126.85
693.383	8074.87
693.73	8081.43
694.077	8055.44
694.423	8021.31
694.769	7978.6
695.116	7902.9
695.462	7925.95
695.808	7860.41
696.155	7939.28
696.501	7821.09
696.847	7832.62
697.193	7743.58
697.539	7746.29
697.885	7642.57
698.231	7657.71
698.577	7696.35
698.923	7609.8
699.269	7596.47
699.614	7561.21
699.96	7403.7
700.306	7520.08
700.651	7477.37
700.997	7453.65
701.342	7428.34
701.688	7392.63
702.033	7371.61
702.379	7364.83
702.724	7332.29
703.069	7248.91
703.415	7263.14
703.76	7245.52
704.105	7220.43
704.45	7156.03
704.795	7162.58
705.14	7142.92
705.485	7132.98
705.83	7049.14
706.175	7097.27
706.52	7064.28
706.865	7029.93
707.209	6972.75
707.554	7006.65
707.899	7008.91
708.243	6963.04
708.588	6894.34
708.932	6907.22
709.277	6894.79
709.621	6898.41
709.966	6869.48
710.31	6843.27
710.654	6782.25
710.998	6784.28
711.342	6806.88
711.687	6803.27
712.031	6708.81
712.375	6682.82
712.719	6741.57
713.063	6687.11
713.407	6717.85
713.75	6714.23
714.094	6633.78
714.438	6645.31
714.782	6633.55
715.125	6618.64
715.469	6672.88
715.812	6572.99
716.156	6536.38
716.499	6540.68
716.843	6579.09
717.186	6515.82
717.53	6574.35
717.873	6567.34
718.216	6491.86
718.559	6518.76
718.902	6478.98
719.246	6479.89
719.589	6452.09
719.932	6425.2
720.275	6497.06
720.617	6508.13
720.96	6481.69
721.303	6470.39
721.646	6440.34
721.989	6406.22
722.331	6352.88
722.674	6421.13
723.016	6434.92
723.359	6368.93
723.701	6380.23
724.044	6332.09
724.386	6366.44
724.729	6389.49
725.071	6392.66
725.413	6401.47
725.755	6350.4
726.097	6310.63
726.439	6300
726.782	6290.06
727.124	6387.69
727.465	6342.26
727.807	6346.33
728.149	6325.09
728.491	6286.22
728.833	6341.81
729.175	6316.5
729.516	6341.81
729.858	6327.8
730.199	6298.65
730.541	6303.62
730.882	6314.92
731.224	6337.07
731.565	6337.97
731.906	6296.39
732.248	6263.39
732.589	6292.55
732.93	6231.76
733.271	6303.17
733.612	6305.88
733.953	6287.35
734.294	6325.77
734.635	6299.1
734.976	6305.43
735.317	6304.52
735.658	6275.6
735.999	6290.29
736.339	6298.42
736.68	6312.88
737.021	6303.85
737.361	6291.19
737.702	6383.62
738.042	6295.03
738.383	6317.18
738.723	6307.46
739.063	6321.02
739.404	6347.69
739.744	6358.99
740.084	6393.56
740.424	6407.8
740.764	6384.3
741.104	6464.97
741.444	6444.86
741.784	6431.3
742.124	6421.81
742.464	6489.6
742.804	6498.19
743.143	6525.31
743.483	6529.15
743.823	6516.95
744.162	6544.07
744.502	6631.52
744.841	6654.57
745.181	6684.63
745.52	6758.75
745.86	6784.96
746.199	6763.27
746.538	6797.17
746.877	6792.65
747.216	6886.88
747.556	6936.37
747.895	7008.91
748.234	6981.79
748.573	7084.39
748.911	7140.89
749.25	7168.91
749.589	7168.68
749.928	7289.13
750.267	7347.89
750.605	7410.71
750.944	7500.88
751.283	7570.03
751.621	7673.98
751.96	7729.12
752.298	7872.84
752.636	7957.59
752.975	8015.21
753.313	8067.64
753.651	8252.72
753.989	8307.41
754.327	8427.18
754.666	8482.09
755.004	8708.75
755.342	8803.89
755.679	8906.26
756.017	8970.67
756.355	9174.28
756.693	9257.44
757.031	9449.75
757.368	9573.82
757.706	9676.86
758.044	9897.65
758.381	10024.65
758.719	10138.1
759.056	10383.96
759.394	10528.82
759.731	10630.51
760.068	10779.89
760.405	10901.24
760.743	11153.44
761.08	11326.09
761.417	11536.93
761.754	11632.74
762.091	11830.25
762.428	11988.67
762.765	12171.94
763.102	12380.3
763.438	12399.28
763.775	12591.36
764.112	12837.91
764.449	13018.25
764.785	13173.72
765.122	13314.73
765.458	13461.62
