Data from hue_260_FLMS001491_00076.txt Node
Date: Tue Feb 07 15:59:34 GMT 2017
User: dcchb
Spectrometer: FLMS00149
Trigger mode: 0
Integration Time (sec): 2.000000E-2
Scans to average: 10
Electric dark correction enabled: true
Nonlinearity correction enabled: false
Boxcar width: 0
XAxis mode: Wavelengths
Number of Pixels in Spectrum: 2048
>>>>>Begin Spectral Data<<<<<
341.393	-21.72
341.776	-21.72
342.16	-21.72
342.543	-73.47
342.927	-72.12
343.31	-72.34
343.693	-72.79
344.077	-80.93
344.46	-47.71
344.843	-66.69
345.226	-26.02
345.61	-10.42
345.993	-28.05
346.376	11.27
346.759	-4.32
347.142	30.03
347.525	45.17
347.908	48.33
348.291	69.35
348.674	93.98
349.057	111.16
349.44	94.66
349.823	129.46
350.206	167.88
350.588	187.09
350.971	187.54
351.354	221.66
351.737	242.23
352.119	239.51
352.502	265.28
352.884	260.3
353.267	270.7
353.65	286.52
354.032	305.95
354.414	276.12
354.797	291.49
355.179	311.83
355.562	310.92
355.944	317.48
356.326	305.5
356.709	320.64
357.091	322.9
357.473	318.38
357.855	327.42
358.238	321.32
358.62	329.45
359.002	329.91
359.384	330.81
359.766	341.43
360.148	322
360.53	317.93
360.912	309.12
361.294	329.23
361.676	337.36
362.057	317.93
362.439	325.61
362.821	321.09
363.203	299.4
363.584	314.31
363.966	289.91
364.348	307.76
364.729	314.77
365.111	318.16
365.493	296.24
365.874	338.04
366.256	299.4
366.637	303.24
367.019	315.9
367.4	288.78
367.781	300.3
368.163	310.02
368.544	292.85
368.925	303.69
369.306	296.46
369.688	297.14
370.069	298.95
370.45	300.53
370.831	316.57
371.212	318.83
371.593	301.21
371.974	293.98
372.355	311.6
372.736	294.2
373.117	316.12
373.498	318.16
373.879	310.02
374.26	302.34
374.641	305.95
375.021	290.13
375.402	287.65
375.783	296.01
376.163	331.71
376.544	344.6
376.925	332.39
377.305	334.88
377.686	309.34
378.066	302.79
378.447	302.79
378.827	327.42
379.208	324.71
379.588	332.39
379.968	327.65
380.349	313.41
380.729	317.48
381.109	338.04
381.489	323.35
381.87	310.02
382.25	305.73
382.63	331.71
383.01	347.76
383.39	340.53
383.77	325.39
384.15	331.49
384.53	330.58
384.91	350.02
385.29	328.55
385.67	342.34
386.049	337.82
386.429	347.99
386.809	347.76
387.189	353.63
387.568	340.3
387.948	373.3
388.328	371.49
388.707	349.57
389.087	350.92
389.466	367.19
389.846	351.83
390.225	344.82
390.605	367.87
390.984	345.27
391.363	349.79
391.743	349.12
392.122	349.57
392.501	366.29
392.881	379.4
393.26	368.32
393.639	357.02
394.018	392.96
394.397	359.06
394.776	363.58
395.155	374.88
395.534	381.2
395.913	362.67
396.292	385.95
396.671	379.62
397.05	377.36
397.429	379.62
397.808	378.72
398.186	395.22
398.565	381.88
398.944	403.12
399.323	401.32
399.701	405.16
400.08	398.61
400.458	408.55
400.837	413.52
401.215	411.49
401.594	421.66
401.972	426.18
402.351	414.2
402.729	398.15
403.107	416.23
403.486	445.38
403.864	417.36
404.242	404.71
404.62	427.53
404.999	432.95
405.377	445.16
405.755	445.84
406.133	434.54
406.511	436.12
406.889	444.93
407.267	465.72
407.645	471.37
408.023	493.97
408.401	480.19
408.779	467.98
409.156	508.88
409.534	498.49
409.912	496.91
410.29	513.18
410.667	533.07
411.045	528.09
411.422	525.38
411.8	525.83
412.178	539.17
412.555	542.78
412.933	544.14
413.31	543.69
413.687	568.54
414.065	575.32
414.442	573.97
414.819	582.78
415.197	584.14
415.574	612.61
415.951	629.79
416.328	609.67
416.705	609
417.082	608.77
417.46	629.79
417.837	630.46
418.214	649.22
418.591	647.19
418.967	672.04
419.344	637.47
419.721	677.69
420.098	665.49
420.475	668.88
420.852	696.45
421.228	707.3
421.605	706.17
421.982	719.27
422.358	725.6
422.735	730.12
423.111	766.96
423.488	771.93
423.864	795.88
424.241	755.43
424.617	802.66
424.994	803.34
425.37	821.65
425.746	818.93
426.123	830.23
426.499	812.15
426.875	816.22
427.251	852.15
427.627	876.56
428.003	918.37
428.379	882.21
428.756	898.48
429.132	906.16
429.507	931.92
429.883	939.16
430.259	943.22
430.635	936.9
431.011	946.16
431.387	971.25
431.763	981.64
432.138	1003.34
432.514	1001.98
432.89	1028.42
433.265	1028.65
433.641	1082.88
434.016	1099.38
434.392	1100.51
434.767	1114.74
435.143	1121.52
435.518	1103.67
435.894	1153.39
436.269	1166.72
436.644	1156.55
437.02	1183.22
437.395	1201.97
437.77	1259.83
438.145	1260.73
438.52	1271.12
438.895	1286.49
439.271	1284.46
439.646	1335.3
440.021	1348.86
440.395	1349.99
440.77	1345.7
441.145	1385.25
441.52	1419.37
441.895	1388.64
442.27	1445.58
442.645	1430.67
443.019	1451.23
443.394	1471.8
443.769	1476.32
444.143	1500.5
444.518	1474.96
444.892	1485.36
445.267	1523.77
445.641	1523.77
446.016	1535.3
446.39	1533.04
446.764	1561.74
447.139	1569.87
447.513	1595.86
447.887	1596.09
448.262	1585.24
448.636	1599.25
449.01	1606.03
449.384	1618.46
449.758	1660.49
450.132	1645.8
450.506	1697.55
450.88	1686.93
451.254	1670.89
451.628	1711.79
452.002	1734.39
452.376	1751.11
452.75	1736.65
453.123	1739.36
453.497	1800.6
453.871	1782.75
454.244	1846.25
454.618	1839.02
454.992	1890.32
455.365	1887.38
455.739	1879.92
456.112	1931.45
456.486	1958.11
456.859	1942.52
457.232	1942.29
457.606	1988.62
457.979	2010.31
458.352	2043.99
458.725	2061.16
459.099	2066.36
459.472	2110.2
459.845	2148.62
460.218	2139.8
460.591	2142.74
460.964	2153.81
461.337	2203.08
461.71	2229.07
462.083	2255.51
462.456	2268.84
462.829	2228.39
463.201	2304.77
463.574	2316.97
463.947	2361.04
464.32	2369.85
464.692	2379.12
465.065	2403.98
465.438	2453.01
465.81	2503.86
466.183	2507.25
466.555	2539.79
466.928	2578.89
467.3	2526.23
467.672	2594.25
468.045	2629.96
468.417	2664.31
468.789	2697.98
469.161	2727.58
469.534	2775.72
469.906	2786.57
470.278	2829.95
470.65	2869.05
471.022	2882.16
471.394	2918.99
471.766	2980.68
472.138	2973.9
472.51	3014.81
472.882	3067.46
473.253	3131.87
473.625	3139.1
473.997	3209.6
474.369	3219.77
474.74	3255.25
475.112	3297.29
475.484	3344.29
475.855	3387
476.227	3433.33
476.598	3532.53
476.97	3506.77
477.341	3607.79
477.713	3631.06
478.084	3633.1
478.455	3761.68
478.827	3768.91
479.198	3850.27
479.569	3829.7
479.94	3944.05
480.311	3945.4
480.682	4047.1
481.053	4118.51
481.424	4196.02
481.795	4208
482.166	4240.76
482.537	4292.29
482.908	4373.87
483.279	4394.21
483.65	4492.51
484.021	4511.49
484.391	4547.87
484.762	4630.36
485.133	4650.47
485.503	4658.61
485.874	4760.75
486.244	4801.65
486.615	4879.39
486.985	4960.97
487.356	5017.24
487.726	5043.45
488.097	5158.71
488.467	5140.63
488.837	5198.71
489.207	5237.12
489.578	5306.5
489.948	5353.28
490.318	5443.44
490.688	5432.82
491.058	5504.23
491.428	5562.76
491.798	5630.33
492.168	5775.19
492.538	5720.73
492.908	5786.26
493.278	5800.95
493.648	5853.15
494.017	5905.35
494.387	5878.24
494.757	6022.86
495.126	6002.3
495.496	6056.99
495.866	6112.13
496.235	6108.74
496.605	6133.37
496.974	6192.35
497.344	6276.42
497.713	6294.72
498.082	6304.66
498.452	6399.8
498.821	6374.49
499.19	6324.55
499.559	6391.44
499.928	6465.11
500.298	6490.2
500.667	6512.34
501.036	6491.78
501.405	6549.63
501.774	6572.23
502.143	6600.48
502.512	6648.16
502.88	6696.74
503.249	6676.41
503.618	6704.43
503.987	6764.54
504.356	6798.89
504.724	6776.06
505.093	6778.1
505.462	6775.16
505.83	6877.76
506.199	6879.34
506.567	6961.37
506.936	6902.84
507.304	6934.25
507.672	6972.44
508.041	6993.23
508.409	7017.19
508.777	7076.85
509.145	7073.01
509.514	7131.99
509.882	7115.72
510.25	7120.24
510.618	7201.36
510.986	7166.34
511.354	7217.18
511.722	7258.54
512.09	7238.43
512.458	7248.82
512.826	7238.2
513.193	7291.31
513.561	7283.4
513.929	7277.75
514.297	7383.96
514.664	7379.89
515.032	7424.86
515.4	7449.72
515.767	7485.42
516.135	7438.19
516.502	7450.62
516.869	7530.85
517.237	7471.87
517.604	7477.52
517.972	7541.69
518.339	7578.53
518.706	7540.11
519.073	7530.85
519.44	7605.2
519.808	7657.62
520.175	7615.14
520.542	7679.54
520.909	7668.7
521.276	7675.48
521.643	7688.81
522.009	7673.89
522.376	7727.9
522.743	7786.89
523.11	7786.43
523.477	7804.96
523.843	7831.63
524.21	7852.87
524.577	7853.1
524.943	7948.24
525.31	7943.27
525.676	7900.33
526.043	7991.85
526.409	7999.08
526.776	8000.21
527.142	7989.14
527.508	7991.4
527.874	8049.7
528.241	8105.97
528.607	8144.84
528.973	8079.76
529.339	8058.06
529.705	8039.53
530.071	8119.53
530.437	8136.93
530.803	8173.54
531.169	8184.39
531.535	8130.38
531.901	8169.02
532.267	8128.8
532.632	8204.95
532.998	8151.85
533.364	8179.42
533.73	8191.39
534.095	8184.16
534.461	8238.4
534.826	8216.93
535.192	8197.5
535.557	8226.42
535.923	8157.95
536.288	8227.55
536.653	8213.99
537.019	8141.23
537.384	8151.4
537.749	8139.19
538.114	8230.94
538.479	8176.03
538.845	8196.37
539.21	8176.48
539.575	8170.15
539.94	8185.29
540.305	8104.84
540.67	8151.4
541.034	8180.32
541.399	8216.48
541.764	8104.39
542.129	8201.79
542.494	8176.93
542.858	8121.34
543.223	8099.19
543.587	8174.22
543.952	8082.47
544.316	8085.63
544.681	8128.57
545.045	8103.49
545.41	8148.46
545.774	8126.76
546.138	8104.62
546.503	8100.55
546.867	8084.73
547.231	8143.03
547.595	8126.54
547.959	8108.69
548.324	8104.62
548.688	8080.21
549.052	8018.97
549.416	8036.6
549.779	8033.43
550.143	8033.66
550.507	8039.99
550.871	8081.12
551.235	7982.36
551.599	8048.8
551.962	7990.95
552.326	8107.56
552.689	8070.49
553.053	7992.98
553.417	8016.26
553.78	8068.23
554.143	8125.41
554.507	7995.02
554.87	8074.56
555.234	8106.65
555.597	8026.88
555.96	8065.97
556.323	8096.71
556.686	8033.66
557.05	8096.03
557.413	8085.18
557.776	8111.4
558.139	8130.83
558.502	8074.79
558.865	8085.18
559.228	8155.69
559.59	8141.23
559.953	8145.75
560.316	8196.14
560.679	8120.66
561.041	8248.79
561.404	8202.92
561.767	8301
562.129	8249.02
562.492	8331.73
562.854	8260.77
563.217	8223.03
563.579	8356.81
563.941	8351.62
564.304	8367.89
564.666	8381.45
565.028	8426.42
565.39	8395.23
565.753	8392.75
566.115	8460.54
566.477	8422.58
566.839	8508
567.201	8477.26
567.563	8479.97
567.925	8562.68
568.287	8530.82
568.648	8594.1
569.01	8550.93
569.372	8600.2
569.734	8587.99
570.095	8642.46
570.457	8662.57
570.819	8691.49
571.18	8725.62
571.542	8724.26
571.903	8717.26
572.265	8797.93
572.626	8799.29
572.987	8828.67
573.349	8859.85
573.71	8875.44
574.071	8861.21
574.432	8896.91
574.794	8943.69
575.155	8950.47
575.516	8941.43
575.877	8938.27
576.238	9006.74
576.599	9022.11
576.96	9047.64
577.32	9047.42
577.681	9058.72
578.042	9117.02
578.403	9118.6
578.763	9178.71
579.124	9206.74
579.485	9230.46
579.845	9175.55
580.206	9254.19
580.566	9200.86
580.927	9261.65
581.287	9266.85
581.648	9263.91
582.008	9338.26
582.368	9339.16
582.728	9345.49
583.089	9353.4
583.449	9360.18
583.809	9437.69
584.169	9426.62
584.529	9385.94
584.889	9464.36
585.249	9467.07
585.609	9414.19
585.969	9480.85
586.329	9525.15
586.688	9494.86
587.048	9457.35
587.408	9488.08
587.768	9571.92
588.127	9538.03
588.487	9532.83
588.846	9644.01
589.206	9532.6
589.565	9578.48
589.925	9689.66
590.284	9571.02
590.643	9614.63
591.003	9681.53
591.362	9719.49
591.721	9669.55
592.08	9654.18
592.44	9742.77
592.799	9731.02
593.158	9724.01
593.517	9746.61
593.876	9801.3
594.235	9788.64
594.593	9811.69
594.952	9758.13
595.311	9793.84
595.67	9816.21
596.029	9869.99
596.387	9859.37
596.746	9843.33
597.104	9871.58
597.463	9871.12
597.822	9885.14
598.18	9905.93
598.538	9803.78
598.897	9900.95
599.255	9839.26
599.613	10036.32
599.972	9908.41
600.33	9987.96
600.688	9910.45
601.046	9958.13
601.404	9974.85
601.762	9926.49
602.12	10023.89
602.478	9990.44
602.836	10029.09
603.194	9948.64
603.552	9975.08
603.91	10005.13
604.268	10003.1
604.625	9904.57
604.983	10002.87
605.341	9949.77
605.698	10042.65
606.056	10065.02
606.413	9969.2
606.771	10039.26
607.128	10142.08
607.485	10023.21
607.843	10018.69
608.2	10098.92
608.557	10180.04
608.914	10129.2
609.272	10127.84
609.629	10132.59
609.986	10122.64
610.343	10074.74
610.7	10160.83
611.057	10142.53
611.414	10182.08
611.771	10190.66
612.127	10253.26
612.484	10266.14
612.841	10188.4
613.198	10214.62
613.554	10230.21
613.911	10271.79
614.267	10238.12
614.624	10246.48
614.98	10269.08
615.337	10363.99
615.693	10358.12
616.05	10237.89
616.406	10372.35
616.762	10278.57
617.118	10360.6
617.475	10329.42
617.831	10345.01
618.187	10380.72
618.543	10415.07
618.899	10427.49
619.255	10437.21
619.611	10355.63
619.967	10382.3
620.323	10446.48
620.678	10390.88
621.034	10329.64
621.39	10392.92
621.746	10366.7
622.101	10504.33
622.457	10356.99
622.812	10447.83
623.168	10408.29
623.523	10355.63
623.879	10464.56
624.234	10344.56
624.589	10399.92
624.945	10434.05
625.3	10415.74
625.655	10417.55
626.01	10423.2
626.365	10430.43
626.72	10429.53
627.075	10384.56
627.43	10444.89
627.785	10412.58
628.14	10409.64
628.495	10392.24
628.85	10373.94
629.205	10349.98
629.559	10399.25
629.914	10401.05
630.269	10363.99
630.623	10349.53
630.978	10340.94
631.332	10369.64
631.687	10366.93
632.041	10218.69
632.396	10308.63
632.75	10294.84
633.104	10283.09
633.459	10267.95
633.813	10284.67
634.167	10230.21
634.521	10254.17
634.875	10258.69
635.229	10269.31
635.583	10180.5
635.937	10192.25
636.291	10178.24
636.645	10182.75
636.999	10058.69
637.352	10106.82
637.706	10106.15
638.06	10168.97
638.413	10110.67
638.767	10088.07
639.121	10069.76
639.474	9986.6
639.828	9978.47
640.181	10093.49
640.534	9964
640.888	10020.95
641.241	9962.87
641.594	10005.13
641.947	10028.41
642.301	9962.65
642.654	10002.87
643.007	10010.1
643.36	9986.83
643.713	10002.65
644.066	9969.88
644.419	9942.99
644.771	9861.86
645.124	9852.59
645.477	9760.62
645.83	9741.86
646.182	9691.02
646.535	9658.7
646.888	9660.28
647.24	9622.77
647.593	9634.07
647.945	9615.09
648.298	9607.63
648.65	9550.23
649.002	9587.74
649.355	9642.88
649.707	9598.36
650.059	9653.96
650.411	9745.03
650.763	9736.21
651.115	9910.67
651.467	9789.54
651.819	9797.45
652.171	9725.59
652.523	9784.57
652.875	9800.39
653.227	9779.6
653.578	9821.18
653.93	9767.4
654.282	9744.8
654.633	9716.78
654.985	9767.17
655.337	9820.73
655.688	9844.91
656.039	9807.17
656.391	9720.39
656.742	9797.68
657.094	9757.23
657.445	9756.55
657.796	9773.27
658.147	9828.19
658.498	9858.47
658.849	9787.51
659.2	9823.44
659.551	9759.26
659.902	9822.09
660.253	9803.33
660.604	9850.56
660.955	9797.68
661.306	9810.56
661.656	9771.24
662.007	9792.93
662.358	9792.48
662.708	9787.74
663.059	9812.82
663.409	9817.11
663.76	9857.79
664.11	9788.87
664.461	9787.29
664.811	9744.8
665.161	9811.01
665.511	9737.34
665.862	9739.15
666.212	9749.77
666.562	9850.56
666.912	9733.05
667.262	9757
667.612	9810.79
667.962	9830.22
668.312	9851.24
668.662	9792.93
669.011	9838.13
669.361	9747.06
669.711	9742.09
670.06	9717.91
670.41	9707.74
670.76	9732.37
671.109	9716.33
671.459	9740.96
671.808	9698.93
672.157	9728.76
672.507	9700.28
672.856	9688.53
673.205	9662.09
673.554	9724.91
673.904	9652.6
674.253	9738.47
674.602	9715.87
674.951	9590.91
675.3	9463
675.649	9659.15
675.998	9633.62
676.346	9611.92
676.695	9723.56
677.044	9548.65
677.393	9598.36
677.741	9604.46
678.09	9583.22
678.438	9498.93
678.787	9531.02
679.135	9626.84
679.484	9552.04
679.832	9572.15
680.181	9477.46
680.529	9504.58
680.877	9538.7
681.225	9481.3
681.573	9575.77
681.922	9479.72
682.27	9416.9
682.618	9459.16
682.966	9347.07
683.314	9415.32
683.661	9370.12
684.009	9378.26
684.357	9320.4
684.705	9220.75
685.053	9277.24
685.4	9286.06
685.748	9291.03
686.095	9217.13
686.443	9150.01
686.79	9144.59
687.138	9154.99
687.485	9146.62
687.832	9087.64
688.18	9087.87
688.527	9042.22
688.874	9057.81
689.221	9079.51
689.568	8980.53
689.915	9000.41
690.262	8953.63
690.609	8926.29
690.956	8899.62
691.303	8864.15
691.65	8893.52
691.997	8762.45
692.344	8765.84
692.69	8728.33
693.037	8731.72
693.383	8664.6
693.73	8663.02
694.077	8650.37
694.423	8635.45
694.769	8580.09
695.116	8558.39
695.462	8565.4
695.808	8550.26
696.155	8602.91
696.501	8450.6
696.847	8494.66
697.193	8362.24
697.539	8433.42
697.885	8357.72
698.231	8278.4
698.577	8398.17
698.923	8312.3
699.269	8252.86
699.614	8207.21
699.96	8215.8
700.306	8155.24
700.651	8150.94
700.997	8066.43
701.342	8092.87
701.688	8044.28
702.033	8067.1
702.379	8030.04
702.724	7985.75
703.069	8039.31
703.415	7889.26
703.76	7907.11
704.105	7920.89
704.45	7859.88
704.795	7842.48
705.14	7794.8
705.485	7768.58
705.83	7767.45
706.175	7711.63
706.52	7710.05
706.865	7696.94
707.209	7668.92
707.554	7686.55
707.899	7678.64
708.243	7564.52
708.588	7543.28
708.932	7515.48
709.277	7548.93
709.621	7595.25
709.966	7489.72
710.31	7513.45
710.654	7458.76
710.998	7456.05
711.342	7452.21
711.687	7449.95
712.031	7399.78
712.375	7327.91
712.719	7401.13
713.063	7338.31
713.407	7419.21
713.75	7305.32
714.094	7303.73
714.438	7289.95
714.782	7306.45
715.125	7281.81
715.469	7273.45
715.812	7263.74
716.156	7220.35
716.499	7257.86
716.843	7239.1
717.186	7212.66
717.53	7245.66
717.873	7139.22
718.216	7131.76
718.559	7137.41
718.902	7131.99
719.246	7128.82
719.589	7079.56
719.932	7062.16
720.275	7062.61
720.617	7064.42
720.96	7076.62
721.303	7044.08
721.646	7037.53
721.989	6999.34
722.331	6992.78
722.674	7012.22
723.016	7043.4
723.359	7078.2
723.701	6997.98
724.044	7044.76
724.386	6935.83
724.729	6993.46
725.071	6955.04
725.413	6950.98
725.755	6930.64
726.097	6922.28
726.439	6934.25
726.782	6878.89
727.124	7007.92
727.465	6864.88
727.807	6894.25
728.149	6921.37
728.491	6875.5
728.833	6862.84
729.175	6840.02
729.516	6893.12
729.858	6838.21
730.199	6894.03
730.541	6879.79
730.882	6809.51
731.224	6882.5
731.565	6828.94
731.906	6847.93
732.248	6867.81
732.589	6809.28
732.93	6822.39
733.271	6820.36
733.612	6839.11
733.953	6810.41
734.294	6808.38
734.635	6812.45
734.976	6859.45
735.317	6780.13
735.658	6824.2
735.999	6872.56
736.339	6851.77
736.68	6861.49
737.021	6822.17
737.361	6819.23
737.702	6842.28
738.042	6840.02
738.383	6838.21
738.723	6840.47
739.063	6819.23
739.404	6908.04
739.744	6862.62
740.084	6824.2
740.424	6858.55
740.764	6816.29
741.104	6934.25
741.444	6865.78
741.784	6887.93
742.124	6922.95
742.464	6925.44
742.804	6914.59
743.143	6916.63
743.483	6975.38
743.823	6917.76
744.162	6962.95
744.502	6977.42
744.841	6945.55
745.181	7043.85
745.52	7023.97
745.86	7088.82
746.199	7061.71
746.538	7089.28
746.877	7183.51
747.216	7202.27
747.556	7197.75
747.895	7245.88
748.234	7268.03
748.573	7319.55
748.911	7306.67
749.25	7351.64
749.589	7441.36
749.928	7439.55
750.267	7548.93
750.605	7580.56
750.944	7599.77
751.283	7649.26
751.621	7794.57
751.96	7822.59
752.298	7888.13
752.636	7966.54
752.975	7971.06
753.313	8091.28
753.651	8154.33
753.989	8223.48
754.327	8322.92
754.666	8352.97
755.004	8476.36
755.342	8618.73
755.679	8609.46
756.017	8695.79
756.355	8849
756.693	8916.12
757.031	9028.89
757.368	9166.96
757.706	9228.2
758.044	9375.32
758.381	9515.2
758.719	9566.5
759.056	9748.87
759.394	9891.01
759.731	9936.89
760.068	10086.49
760.405	10063.89
760.743	10250.1
761.08	10453.93
761.417	10555.63
761.754	10637.43
762.091	10755.85
762.428	10888.27
762.765	10975.05
763.102	11192.45
763.438	11253.91
763.775	11355.15
764.112	11528.71
764.449	11599.44
764.785	11746.1
765.122	11876.27
765.458	12019.54
765.795	12072.42
766.131	12221.12
766.467	12307.44
766.804	12419.08
