Data from hue_32_FLMS001491_00092.txt Node
Date: Tue Feb 07 17:24:16 GMT 2017
User: dcchb
Spectrometer: FLMS00149
Trigger mode: 0
Integration Time (sec): 2.000000E-2
Scans to average: 10
Electric dark correction enabled: true
Nonlinearity correction enabled: false
Boxcar width: 0
XAxis mode: Wavelengths
Number of Pixels in Spectrum: 2048
>>>>>Begin Spectral Data<<<<<
341.393	-2.12
341.776	-2.12
342.16	-2.12
342.543	-63.59
342.927	-60.65
343.31	-80.31
343.693	-64.26
344.077	-89.35
344.46	-70.59
344.843	-54.09
345.226	-45.96
345.61	-15.23
345.993	-21.33
346.376	-4.38
346.759	3.3
347.142	38.78
347.525	32.91
347.908	58.9
348.291	91.89
348.674	93.92
349.057	125.79
349.44	142.74
349.823	117.65
350.206	151.32
350.588	176.86
350.971	222.96
351.354	233.81
351.737	240.81
352.119	258.89
352.502	282.85
352.884	271.55
353.267	270.19
353.65	292.11
354.032	293.69
354.414	288.72
354.797	341.38
355.179	319.23
355.562	319.23
355.944	328.04
356.326	320.58
356.709	333.92
357.091	345.89
357.473	338.21
357.855	335.73
358.238	336.63
358.62	367.82
359.002	357.87
359.384	348.61
359.766	364.2
360.148	332.56
360.53	340.25
360.912	341.6
361.294	325.56
361.676	337.76
362.057	345.67
362.439	316.52
362.821	320.58
363.203	321.49
363.584	319.91
363.966	335.27
364.348	327.59
364.729	341.83
365.111	346.12
365.493	331.66
365.874	319.23
366.256	325.56
366.637	319.45
367.019	313.58
367.4	315.61
367.781	304.54
368.163	308.38
368.544	314.26
368.925	304.99
369.306	353.58
369.688	296.4
370.069	326.69
370.45	326.46
370.831	328.72
371.212	329.62
371.593	300.02
371.974	300.02
372.355	334.82
372.736	321.71
373.117	322.17
373.498	308.83
373.879	329.17
374.26	326.46
374.641	322.62
375.021	327.36
375.402	338.89
375.783	326.01
376.163	313.81
376.544	332.56
376.925	321.04
377.305	343.18
377.686	332.79
378.066	342.05
378.447	340.92
378.827	344.54
379.208	347.48
379.588	342.51
379.968	341.15
380.349	364.2
380.729	333.92
381.109	338.66
381.489	346.35
381.87	331.21
382.25	342.51
382.63	330.75
383.01	323.52
383.39	317.42
383.77	356.06
384.15	351.09
384.53	351.32
384.91	351.77
385.29	352.22
385.67	354.93
386.049	352
386.429	371.88
386.809	364.43
387.189	392
387.568	350.41
387.948	351.54
388.328	375.95
388.707	366.23
389.087	375.72
389.466	371.43
389.846	361.49
390.225	375.72
390.605	350.19
390.984	377.76
391.363	363.07
391.743	361.04
392.122	367.14
392.501	358.55
392.881	383.86
393.26	377.76
393.639	398.1
394.018	391.09
394.397	375.95
394.776	380.92
395.155	393.8
395.534	402.62
395.913	364.2
396.292	384.99
396.671	379.11
397.05	389.74
397.429	413.92
397.808	377.98
398.186	386.35
398.565	412.79
398.944	418.66
399.323	393.35
399.701	425.89
400.08	418.21
400.458	416.63
400.837	412.33
401.215	410.75
401.594	411.2
401.972	410.75
402.351	412.33
402.729	424.08
403.107	422.28
403.486	404.65
403.864	421.37
404.242	404.2
404.62	413.01
404.999	429.06
405.377	435.61
405.755	441.26
406.133	431.54
406.511	439.23
406.889	443.29
407.267	433.58
407.645	456.85
408.023	450.75
408.401	462.5
408.779	444.65
409.156	441.26
409.534	439.68
409.912	457.53
410.29	460.92
410.667	463.18
411.045	460.92
411.422	452.33
411.8	462.5
412.178	455.27
412.555	467.93
412.933	503.86
413.31	474.71
413.687	483.97
414.065	478.09
414.442	493.91
414.819	497.3
415.197	506.57
415.574	486.68
415.951	511.31
416.328	501.15
416.705	507.25
417.082	500.92
417.46	511.77
417.837	514.25
418.214	532.33
418.591	504.31
418.967	532.1
419.344	505.21
419.721	521.26
420.098	533.69
420.475	521.03
420.852	529.62
421.228	530.07
421.605	549.28
421.982	544.08
422.358	528.94
422.735	572.1
423.111	554.02
423.488	545.21
423.864	590.41
424.241	592.22
424.617	582.72
424.994	547.25
425.37	573.23
425.746	578.88
426.123	600.13
426.499	587.47
426.875	611.42
427.251	591.09
427.627	605.32
428.003	591.54
428.379	592.89
428.756	609.39
429.132	621.82
429.507	633.34
429.883	615.49
430.259	661.82
430.635	616.4
431.011	644.87
431.387	651.42
431.763	644.19
432.138	637.19
432.514	655.72
432.89	667.69
433.265	673.8
433.641	653.68
434.016	661.59
434.392	678.99
434.767	692.33
435.143	692.55
435.518	694.36
435.894	721.25
436.269	719.67
436.644	688.48
437.02	726.9
437.395	720.12
437.77	718.99
438.145	751.53
438.52	751.53
438.895	731.2
439.271	746.79
439.646	743.62
440.021	770.97
440.395	779.78
440.77	755.15
441.145	759.44
441.52	789.27
441.895	769.16
442.27	803.51
442.645	764.19
443.019	806.22
443.394	795.83
443.769	821.81
444.143	798.76
444.518	812.32
444.892	841.25
445.267	825.66
445.641	851.19
446.016	821.14
446.39	838.31
446.764	819.78
447.139	843.96
447.513	848.71
447.887	860.46
448.262	851.19
448.636	855.26
449.01	864.07
449.384	849.16
449.758	886.45
450.132	868.82
450.506	881.25
450.88	883.51
451.254	900
451.628	930.74
452.002	899.78
452.376	916.95
452.75	920.57
453.123	950.17
453.497	943.62
453.871	945.65
454.244	980.23
454.618	989.49
454.992	978.42
455.365	985.65
455.739	1013
456.112	1017.52
456.486	1026.55
456.859	1046.22
457.232	1038.31
457.606	1051.19
457.979	1044.63
458.352	1056.61
458.725	1107.46
459.099	1109.94
459.472	1101.13
459.845	1113.11
460.218	1137.74
460.591	1117.17
460.964	1136.61
461.337	1161.92
461.71	1176.16
462.083	1205.76
462.456	1186.32
462.829	1201.69
463.201	1198.08
463.574	1201.47
463.947	1222.26
464.32	1255.93
464.692	1280.33
465.065	1293.89
465.438	1289.15
465.81	1345.42
466.183	1351.29
466.555	1355.36
466.928	1356.26
467.3	1376.6
467.672	1393.78
468.045	1421.8
468.417	1424.96
468.789	1438.52
469.161	1435.58
469.534	1485.53
469.906	1524.39
470.278	1533.21
470.65	1532.76
471.022	1586.77
471.394	1613.21
471.766	1633.32
472.138	1658.63
472.51	1699.08
472.882	1711.96
473.253	1736.82
473.625	1751.28
473.997	1804.39
474.369	1822.92
474.74	1852.52
475.112	1876.25
475.484	1902.92
475.855	1947.21
476.227	1993.76
476.598	2050.71
476.97	2068.34
477.341	2118.73
477.713	2168.67
478.084	2179.07
478.455	2252.29
478.827	2278.27
479.198	2363.47
479.569	2415.9
479.94	2440.53
480.311	2499.51
480.682	2581.77
481.053	2614.31
481.424	2675.78
481.795	2754.65
482.166	2793.51
482.537	2803.91
482.908	2919.39
483.279	2976.33
483.65	3040.97
484.021	3128.87
484.391	3206.84
484.762	3241.64
485.133	3311.24
485.503	3393.27
485.874	3473.5
486.244	3513.27
486.615	3605.24
486.985	3683.89
487.356	3767.73
487.726	3841.4
488.097	3929.98
488.467	3979.7
488.837	4087.72
489.207	4140.82
489.578	4255.85
489.948	4336.07
490.318	4441.38
490.688	4424.66
491.058	4563.86
491.428	4634.82
491.798	4703.52
492.168	4844.53
492.538	4884.53
492.908	4972.67
493.278	5076.39
493.648	5133.79
494.017	5162.94
494.387	5285.88
494.757	5374.46
495.126	5422.6
495.496	5440
495.866	5553.67
496.235	5647.68
496.605	5699.88
496.974	5773.1
497.344	5833.43
497.713	5854.45
498.082	5939.19
498.452	6048.34
498.821	6091.96
499.19	6199.75
499.559	6241.79
499.928	6371.05
500.298	6328.11
500.667	6480.2
501.036	6469.8
501.405	6513.42
501.774	6595.45
502.143	6692.39
502.512	6688.55
502.88	6796.57
503.249	6820.53
503.618	6903.01
503.987	6956.12
504.356	6932.84
504.724	7022.78
505.093	7066.85
505.462	7078.83
505.83	7156.56
506.199	7263.91
506.567	7366.5
506.936	7343.45
507.304	7404.92
507.672	7481.53
508.041	7549.1
508.409	7561.07
508.777	7716.77
509.145	7728.53
509.514	7715.64
509.882	7816.43
510.25	7780.5
510.618	7859.14
510.986	7932.59
511.354	7976.65
511.722	8012.36
512.09	8125.58
512.458	8107.72
512.826	8177.55
513.193	8228.17
513.561	8263.88
513.929	8326.7
514.297	8433.82
514.664	8476.08
515.032	8502.29
515.4	8569.86
515.767	8570.54
516.135	8621.84
516.502	8582.29
516.869	8774.37
517.237	8745.22
517.604	8720.82
517.972	8823.19
518.339	8918.32
518.706	8974.14
519.073	8940.02
519.44	8946.35
519.808	9086.91
520.175	9007.81
520.542	9221.14
520.909	9271.54
521.276	9241.48
521.643	9374.13
522.009	9381.59
522.376	9411.87
522.743	9392.21
523.11	9525.99
523.477	9668.59
523.843	9617.97
524.21	9767.34
524.577	9755.59
524.943	9904.51
525.31	9835.81
525.676	9978.86
526.043	10029.71
526.409	10045.53
526.776	10146.99
527.142	10143.38
527.508	10203.26
527.874	10344.05
528.241	10356.93
528.607	10387.66
528.973	10490.49
529.339	10474.44
529.705	10557.38
530.071	10687.54
530.437	10699.07
530.803	10790.82
531.169	10791.95
531.535	10831.49
531.901	10813.64
532.267	10897.93
532.632	11039.62
532.998	11104.93
533.364	11142.22
533.73	11135.22
534.095	11236.46
534.461	11224.7
534.826	11295.66
535.192	11333.85
535.557	11323.69
535.923	11341.76
536.288	11484.36
536.653	11526.17
537.019	11532.04
537.384	11571.81
537.749	11594.19
538.114	11659.5
538.479	11680.74
538.845	11775.88
539.21	11795.99
539.575	11846.61
539.94	11882.09
540.305	12001.41
540.67	11978.36
541.034	11993.72
541.399	12043.89
541.764	12083.21
542.129	12155.3
542.494	12219.71
542.858	12250.67
543.223	12320.04
543.587	12321.63
543.952	12401.62
544.316	12463.54
544.681	12501.06
545.045	12546.25
545.41	12660.37
545.774	12639.13
546.138	12626.25
546.503	12709.86
546.867	12766.36
547.231	12860.82
547.595	12918.67
547.959	12902.4
548.324	12985.34
548.688	12952.34
549.052	13000.93
549.416	13106.69
549.779	13108.5
550.143	13201.83
550.507	13214.26
550.871	13329.73
551.235	13236.63
551.599	13419.68
551.962	13419.45
552.326	13364.54
552.689	13511.65
553.053	13413.57
553.417	13511.42
553.78	13706.67
554.143	13611.99
554.507	13654.25
554.87	13718.88
555.234	13861.02
555.597	13740.8
555.96	13882.71
556.323	13927.68
556.686	13938.08
557.05	14010.62
557.413	14099.43
557.776	14046.55
558.139	14242.25
558.502	14161.58
558.865	14247.22
559.228	14335.58
559.59	14375.58
559.953	14441.12
560.316	14542.58
560.679	14453.77
561.041	14685.86
561.404	14642.47
561.767	14683.37
562.129	14728.79
562.492	14855.34
562.854	14781.22
563.217	14885.63
563.579	14921.56
563.941	14975.79
564.304	15049.46
564.666	15137.14
565.028	15187.54
565.39	15245.84
565.753	15296.91
566.115	15247.42
566.477	15414.2
566.839	15367.87
567.201	15473.41
567.563	15575.55
567.925	15667.07
568.287	15677.47
568.648	15705.49
569.01	15857.13
569.372	15875.43
569.734	15875.88
570.095	15977.12
570.457	15907.97
570.819	16102.54
571.18	16053.5
571.542	16162.65
571.903	16317.68
572.265	16327.17
572.626	16413.27
572.987	16411.24
573.349	16533.27
573.71	16700.95
574.071	16793.15
574.432	16793.6
574.794	16980.03
575.155	17009.41
575.516	16983.2
575.877	17154.49
576.238	17181.84
576.599	17343.19
576.96	17450.76
577.32	17514.71
577.681	17655.72
578.042	17806.45
578.403	17950.86
578.763	18003.96
579.124	18170.96
579.485	18248.93
579.845	18514.46
580.206	18645.75
580.566	18718.52
580.927	18855.24
581.287	19091.16
581.648	19170.03
582.008	19406.64
582.368	19461.32
582.728	19621.55
583.089	19909
583.449	20111.02
583.809	20170.91
584.169	20483.44
584.529	20501.07
584.889	20844.56
585.249	21018.57
585.609	21161.84
585.969	21487.03
586.329	21602.29
586.688	21894.93
587.048	22132.67
587.408	22194.13
587.768	22481.58
588.127	22830.05
588.487	22969.48
588.846	23453.99
589.206	23457.38
589.565	23603.14
589.925	24031.6
590.284	24262.55
590.643	24523.34
591.003	24804.69
591.362	25196.54
591.721	25433.37
592.08	25608.96
592.44	25886.47
592.799	26210.75
593.158	26399.45
593.517	26696.84
593.876	27005.31
594.235	27224.06
594.593	27348.57
594.952	27808.45
595.311	28023.59
595.67	28283.24
596.029	28656.56
596.387	28909.89
596.746	29196.44
597.104	29328.64
597.463	29488.63
597.822	29979.01
598.18	30081.84
598.538	30425.1
598.897	30817.18
599.255	30711.42
599.613	31382.59
599.972	31484.29
600.33	31759.98
600.688	31807.21
601.046	32231.61
601.404	32562
601.762	32641.99
602.12	33086.95
602.478	33153.17
602.836	33429.32
603.194	33473.61
603.552	33799.48
603.91	33836.31
604.268	34218.45
604.625	34370.54
604.983	34645.56
605.341	34770.98
605.698	35198.09
606.056	35235.15
606.413	35438.76
606.771	35525.76
607.128	35809.37
607.485	35885.98
607.843	36170.49
608.2	36480.09
608.557	36690.02
608.914	36631.27
609.272	36998.72
609.629	37255.66
609.986	37500.4
610.343	37487.07
610.7	37923.21
611.057	37904.46
611.414	38157.33
611.771	38331.56
612.127	38441.16
612.484	38494.27
612.841	38814.26
613.198	38865.33
613.554	38909.85
613.911	39239.56
614.267	39466
614.624	39456.28
614.98	39648.59
615.337	39831.64
615.693	39974.46
616.05	39863.95
616.406	40341.23
616.762	40153.44
617.118	40335.58
617.475	40370.38
617.831	40639.52
618.187	40833.64
618.543	40880.42
618.899	41193.18
619.255	41172.84
619.611	41285.16
619.967	41456.9
620.323	41588.43
620.678	41628.43
621.034	41592.04
621.39	41754.3
621.746	41663.23
622.101	42212.36
622.457	41870.68
622.812	41943.45
623.168	42258.92
623.523	42252.36
623.879	42492.36
624.234	42207.62
624.589	42459.14
624.945	42375.3
625.3	42586.82
625.655	42634.73
626.01	42655.29
626.365	42749.98
626.72	42772.35
627.075	42597.21
627.43	42778.45
627.785	42746.81
628.14	42964.21
628.495	42923.98
628.85	42824.33
629.205	42868.17
629.559	43150.19
629.914	43047.82
630.269	43161.27
630.623	43043.98
630.978	43033.13
631.332	43281.49
631.687	43324.43
632.041	43212.79
632.396	43276.52
632.75	43063.42
633.104	43188.61
633.459	43032.46
633.813	43239
634.167	43078.33
634.521	43080.36
634.875	43053.25
635.229	43021.38
635.583	43033.36
635.937	43041.72
636.291	43012.34
636.645	43043.3
636.999	43008.95
637.352	43161.72
637.706	43003.08
638.06	42979.58
638.413	42992.91
638.767	43036.07
639.121	43145.22
639.474	42739.13
639.828	42867.94
640.181	43014.6
640.534	42834.04
640.888	42745.01
641.241	42687.83
641.594	42752.69
641.947	42861.39
642.301	42883.99
642.654	42803.08
643.007	42916.53
643.36	42952.23
643.713	42879.24
644.066	42890.76
644.419	42749.3
644.771	42678.12
645.124	42124.46
645.477	42093.5
645.83	41888.76
646.182	41717.69
646.535	41617.58
646.888	41641.76
647.24	41444.7
647.593	41658.71
647.945	41491.93
648.298	41489.22
648.65	41363.12
649.002	41198.61
649.355	41429.56
649.707	41438.37
650.059	41658.25
650.411	42198.13
650.763	42120.62
651.115	42517.89
651.467	42302.98
651.819	42394.96
652.171	42251.69
652.523	42251.23
652.875	42227.51
653.227	42051.92
653.578	42352.25
653.93	42206.49
654.282	42126.49
654.633	42081.97
654.985	42074.52
655.337	42102.99
655.688	42072.03
656.039	42321.51
656.391	42033.84
656.742	42041.97
657.094	42062.31
657.445	42180.05
657.796	42069.54
658.147	41952.71
658.498	41941.86
658.849	42122.88
659.2	41951.58
659.551	41941.64
659.902	41982.31
660.253	41883.56
660.604	42085.59
660.955	41791.58
661.306	42004.69
661.656	41772.38
662.007	41947.51
662.358	41904.12
662.708	41923.11
663.059	41909.1
663.409	41700.74
663.76	41949.09
664.11	41934.41
664.461	41968.08
664.811	41879.94
665.161	41855.09
665.511	41733.73
665.862	41956.33
666.212	41919.04
666.562	41845.37
666.912	41729.89
667.262	41664.81
667.612	41496.9
667.962	41754.3
668.312	41722.66
668.662	41843.11
669.011	41770.34
669.361	41635.66
669.711	41646.96
670.06	41661.64
670.41	41654.87
670.76	41645.6
671.109	41728.76
671.459	41599.73
671.808	41547.98
672.157	41770.12
672.507	41448.54
672.856	41534.64
673.205	41531.93
673.554	41685.37
673.904	41482.21
674.253	41785.26
674.602	41742.32
674.951	40870.71
675.3	40918.39
675.649	41461.2
675.998	41390.69
676.346	41369.9
676.695	41507.52
677.044	41302.33
677.393	41311.15
677.741	41471.82
678.09	41258.04
678.438	41187.31
678.787	41285.61
679.135	41347.75
679.484	41058.04
679.832	41093.07
680.181	40913.64
680.529	41094.43
680.877	40907.09
681.225	40853.3
681.573	41151.6
681.922	40894.21
682.27	40722.69
682.618	40661.67
682.966	40635.91
683.314	40711.39
683.661	40648.34
684.009	40447.44
684.357	40337.84
684.705	40330.61
685.053	40424.39
685.4	40335.35
685.748	40105.75
686.095	40172.19
686.443	39966.1
686.79	39954.12
687.138	40101.69
687.485	39972.88
687.832	39813.11
688.18	39837.96
688.527	39749.38
688.874	39736.27
689.221	39569.04
689.568	39440.69
689.915	39502.38
690.262	39488.37
690.609	39260.35
690.956	39194.14
691.303	39240.01
691.65	39034.14
691.997	38977.42
692.344	38698.78
692.69	38702.85
693.037	38672.8
693.383	38312.13
693.73	38588.96
694.077	38359.36
694.423	38332.01
694.769	38199.36
695.116	38217.44
695.462	38085.02
695.808	37964.57
696.155	38029.2
696.501	37779.03
696.847	37829.2
697.193	37639.83
697.539	37626.95
697.885	37462.89
698.231	37320.74
698.577	37266.96
698.923	37291.14
699.269	36986.97
699.614	36965.72
699.96	36995.1
700.306	36950.13
700.651	36583.13
700.997	36552.63
701.342	36471.05
701.688	36467.66
702.033	36341.78
702.379	36295.68
702.724	36237.83
703.069	36313.08
703.415	35765.3
703.76	35829.03
704.105	36159.64
704.45	35864.73
704.795	35622.48
705.14	35591.75
705.485	35663.61
705.83	35528.7
706.175	35616.61
706.52	35528.7
706.865	35192.21
707.209	35231.98
707.554	35198.31
707.899	35057.98
708.243	34853.69
708.588	34805.1
708.932	34613.47
709.277	34653.02
709.621	34843.29
709.966	34373.47
710.31	34601.04
710.654	34270.65
710.998	34252.12
711.342	34385
711.687	34198.79
712.031	34165.57
712.375	33928.74
712.719	34107.94
713.063	33972.13
713.407	34035.63
713.75	33792.25
714.094	33764
714.438	33685.36
714.782	33722.19
715.125	33571.24
715.469	33538.69
715.812	33404.46
716.156	33193.39
716.499	33369.89
716.843	33248.98
717.186	33145.26
717.53	33271.58
717.873	33248.08
718.216	33035.2
718.559	32989.33
718.902	32707.98
719.246	32750.92
719.589	32672.95
719.932	32595.67
720.275	32711.6
720.617	32551.6
720.96	32554.99
721.303	32488.55
721.646	32521.55
721.989	32260.08
722.331	32418.72
722.674	32320.87
723.016	32312.74
723.359	32248.78
723.701	32308.44
724.044	32056.02
724.386	31937.38
724.729	31986.42
725.071	31866.2
725.413	31947.32
725.755	31894.22
726.097	31757.72
726.439	31649.03
726.782	31604.73
727.124	31754.33
727.465	31568.35
727.807	31680.21
728.149	31449.94
728.491	31461.01
728.833	31448.58
729.175	31360.45
729.516	31323.39
729.858	31240.22
730.199	31273.44
730.541	31214.01
730.882	31071.41
731.224	31135.37
731.565	30947.12
731.906	31033
732.248	30950.51
732.589	30779.9
732.93	30764.08
733.271	30744.19
733.612	30802.04
733.953	30879.33
734.294	30700.58
734.635	30572.67
734.976	30776.06
735.317	30499.68
735.658	30441.15
735.999	30453.8
736.339	30384.65
736.68	30330.64
737.021	30423.07
737.361	30264.66
737.702	30359.34
738.042	30451.77
738.383	30306.91
738.723	30174.94
739.063	30155.96
739.404	30252.45
739.744	30045.45
740.084	30029.63
740.424	30049.97
740.764	29979.24
741.104	29943.76
741.444	29754.39
741.784	29710.77
742.124	29817.89
742.464	29769.98
742.804	29583.77
743.143	29710.55
743.483	29543.77
743.823	29515.98
744.162	29515.52
744.502	29618.35
744.841	29411.12
745.181	29507.84
745.52	29393.04
745.86	29280.95
746.199	29380.16
746.538	29225.36
746.877	29360.05
747.216	29239.82
747.556	29154.4
747.895	29149.21
748.234	28952.37
748.573	28950.34
748.911	28962.54
749.25	28870.79
749.589	28887.74
749.928	28855.2
750.267	28793.96
750.605	28818.14
750.944	28706.05
751.283	28645.72
751.621	28780.63
751.96	28496.57
752.298	28604.59
752.636	28648.43
752.975	28384.25
753.313	28282.79
753.651	28365.27
753.989	28125.96
754.327	28092.06
754.666	28059.29
755.004	28078.05
755.342	28021.33
755.679	27980.87
756.017	27818.84
756.355	28051.38
756.693	27719.41
757.031	27892.97
757.368	27686.42
