Data from hue_10_FLMS001491_69.txt Node
Date: Mon Feb 06 15:32:20 GMT 2017
User: dcchb
Spectrometer: FLMS00149
Trigger mode: 0
Integration Time (sec): 2.000000E-2
Scans to average: 10
Electric dark correction enabled: true
Nonlinearity correction enabled: false
Boxcar width: 0
XAxis mode: Wavelengths
Number of Pixels in Spectrum: 2048
>>>>>Begin Spectral Data<<<<<
341.393	-18.12
341.776	-18.12
342.16	-18.12
342.543	-56.31
342.927	-65.13
343.31	-74.16
343.693	-64.45
344.077	-67.61
344.46	-59.25
344.843	-40.95
345.226	-35.3
345.61	-28.74
345.993	-26.71
346.376	-6.82
346.759	13.74
347.142	28.43
347.525	46.51
347.908	57.36
348.291	62.78
348.674	87.41
349.057	107.75
349.44	135.77
349.823	142.1
350.206	169.44
350.588	187.75
350.971	200.63
351.354	201.53
351.737	236.11
352.119	255.09
352.502	258.48
352.884	263.23
353.267	288.09
353.65	293.28
354.032	289.67
354.414	302.77
354.797	316.11
355.179	313.4
355.562	310.68
355.944	324.24
356.326	324.92
356.709	344.58
357.091	335.77
357.473	327.18
357.855	345.71
358.238	331.47
358.62	325.37
359.002	328.31
359.384	354.3
359.766	321.53
360.148	338.25
360.53	333.06
360.912	318.37
361.294	326.95
361.676	331.47
362.057	329.67
362.439	326.28
362.821	336.67
363.203	318.14
363.584	318.14
363.966	324.47
364.348	316.11
364.729	312.72
365.111	316.56
365.493	304.58
365.874	327.86
366.256	299.61
366.637	322.21
367.019	299.38
367.4	305.94
367.781	319.5
368.163	297.8
368.544	306.16
368.925	303
369.306	303.9
369.688	312.04
370.069	295.54
370.45	312.04
370.831	324.02
371.212	299.16
371.593	295.09
371.974	312.49
372.355	281.31
372.736	319.95
373.117	308.42
373.498	310.01
373.879	310.46
374.26	312.72
374.641	303.23
375.021	305.71
375.402	308.42
375.783	312.94
376.163	323.79
376.544	311.81
376.925	302.77
377.305	306.84
377.686	324.02
378.066	331.02
378.447	328.99
378.827	319.27
379.208	325.37
379.588	332.38
379.968	305.94
380.349	307.29
380.729	326.73
381.109	349.1
381.489	340.97
381.87	302.32
382.25	339.61
382.63	319.5
383.01	332.83
383.39	314.07
383.77	326.28
384.15	338.48
384.53	316.11
384.91	344.36
385.29	339.84
385.67	325.82
386.049	349.1
386.429	338.03
386.809	345.49
387.189	336.67
387.568	330.34
387.948	344.81
388.328	352.49
388.707	335.99
389.087	334.41
389.466	353.85
389.846	347.97
390.225	333.73
390.605	343.23
390.984	347.52
391.363	369.21
391.743	357.46
392.122	345.03
392.501	352.49
392.881	380.06
393.26	373.96
393.639	355.43
394.018	353.39
394.397	369.21
394.776	366.73
395.155	368.76
395.534	371.02
395.913	361.76
396.292	378.7
396.671	374.86
397.05	359.27
397.429	362.21
397.808	351.36
398.186	364.24
398.565	357.46
398.944	376.9
399.323	377.12
399.701	383.68
400.08	369.67
400.458	378.25
400.837	388.42
401.215	395.65
401.594	381.64
401.972	383.68
402.351	380.29
402.729	371.02
403.107	361.76
403.486	398.37
403.864	397.01
404.242	391.59
404.62	394.3
404.999	399.5
405.377	392.72
405.755	405.37
406.133	386.16
406.511	402.43
406.889	400.4
407.267	390.46
407.645	405.37
408.023	403.34
408.401	410.12
408.779	418.93
409.156	427.97
409.534	409.44
409.912	397.24
410.29	430.68
410.667	416.9
411.045	406.73
411.422	417.12
411.8	420.51
412.178	427.97
412.555	449.89
412.933	419.61
413.31	430.68
413.687	425.26
414.065	445.6
414.442	453.73
414.819	439.72
415.197	437.23
415.574	445.6
415.951	435.2
416.328	445.14
416.705	451.92
417.082	459.83
417.46	431.58
417.837	470.91
418.214	461.64
418.591	483.79
418.967	476.78
419.344	465.26
419.721	473.39
420.098	466.61
420.475	473.39
420.852	475.43
421.228	490.57
421.605	484.69
421.982	487.63
422.358	504.35
422.735	498.7
423.111	490.11
423.488	492.15
423.864	499.15
424.241	510.45
424.617	507.97
424.994	516.78
425.37	522.43
425.746	513.16
426.123	503.22
426.499	538.93
426.875	519.27
427.251	514.07
427.627	519.94
428.003	538.47
428.379	531.47
428.756	540.73
429.132	559.94
429.507	557.91
429.883	550.23
430.259	565.59
430.635	561.3
431.011	567.85
431.387	585.7
431.763	572.37
432.138	556.55
432.514	577.8
432.89	572.82
433.265	590.45
433.641	580.73
434.016	596.55
434.392	605.82
434.767	621.41
435.143	613.27
435.518	613.05
435.894	617.12
436.269	635.87
436.644	618.25
437.02	621.18
437.395	635.42
437.77	672.48
438.145	667.74
438.52	635.42
438.895	641.75
439.271	656.44
439.646	647.62
440.021	646.27
440.395	648.3
440.77	634.52
441.145	681.75
441.52	682.65
441.895	679.71
442.27	675.19
442.645	667.74
443.019	695.31
443.394	685.82
443.769	687.17
444.143	677
444.518	712.03
444.892	700.96
445.267	724.23
445.641	716.55
446.016	707.96
446.39	711.13
446.764	723.78
447.139	700.73
447.513	707.06
447.887	712.93
448.262	735.08
448.636	715.19
449.01	719.71
449.384	738.47
449.758	752.25
450.132	745.02
450.506	743.44
450.88	794.29
451.254	756.1
451.628	752.03
452.002	758.13
452.376	795.42
452.75	789.77
453.123	754.29
453.497	787.28
453.871	782.54
454.244	814.85
454.618	845.36
454.992	819.15
455.365	827.28
455.739	862.99
456.112	836.77
456.486	845.81
456.859	845.81
457.232	856.21
457.606	855.53
457.979	872.48
458.352	887.84
458.725	910.44
459.099	890.1
459.472	907.96
459.845	899.59
460.218	913.15
460.591	940.72
460.964	956.77
461.337	938.24
461.71	943.44
462.083	970.55
462.456	984.11
462.829	971.23
463.201	1001.29
463.574	987.05
463.947	982.3
464.32	992.7
464.692	1027.05
465.065	1049.2
465.438	1023.89
465.81	1051.68
466.183	1058.69
466.555	1112.92
466.928	1081.96
467.3	1080.83
467.672	1111.79
468.045	1148.63
468.417	1142.75
468.789	1147.05
469.161	1143.43
469.534	1143.88
469.906	1218.68
470.278	1205.8
470.65	1236.54
471.022	1223.43
471.394	1247.61
471.766	1252.35
472.138	1293.03
472.51	1343.43
472.882	1335.06
473.253	1331.22
473.625	1355.63
473.997	1367.61
474.369	1366.02
474.74	1403.54
475.112	1394.05
475.484	1439.69
475.855	1473.82
476.227	1505.91
476.598	1526.47
476.97	1542.29
477.341	1573.7
477.713	1614.83
478.084	1632.01
478.455	1653.02
478.827	1674.72
479.198	1692.57
479.569	1730.53
479.94	1775.5
480.311	1781.38
480.682	1837.42
481.053	1872.68
481.424	1882.39
481.795	1949.96
482.166	1954.93
482.537	2001.49
482.908	2017.31
483.279	2047.36
483.65	2092.33
484.021	2137.3
484.391	2212.78
484.762	2166
485.133	2234.93
485.503	2258.2
485.874	2299.56
486.244	2315.83
486.615	2386.79
486.985	2427.01
487.356	2479.67
487.726	2477.18
488.097	2562.38
488.467	2541.81
488.837	2614.58
489.207	2663.16
489.578	2665.2
489.948	2679.44
490.318	2747.23
490.688	2765.99
491.058	2845.76
491.428	2863.16
491.798	2862.48
492.168	2921.46
492.538	2975.92
492.908	3030.16
493.278	3042.82
493.648	3043.95
494.017	3064.74
494.387	3114.68
494.757	3141.57
495.126	3189.7
495.496	3189.93
495.866	3265.63
496.235	3250.49
496.605	3318.29
496.974	3309.48
497.344	3356.48
497.713	3397.61
498.082	3447.1
498.452	3500.2
498.821	3485.29
499.19	3497.04
499.559	3543.37
499.928	3532.07
500.298	3543.82
500.667	3602.12
501.036	3621.33
501.405	3624.27
501.774	3643.25
502.143	3683.93
502.512	3673.76
502.88	3654.32
503.249	3744.49
503.618	3749.46
503.987	3795.11
504.356	3798.28
504.724	3791.72
505.093	3835.11
505.462	3835.34
505.83	3848.9
506.199	3890.93
506.567	3959.4
506.936	3929.57
507.304	3985.39
507.672	4019.74
508.041	3955.56
508.409	4026.07
508.777	4059.29
509.145	4076.69
509.514	4088.21
509.882	4142.9
510.25	4116.46
510.618	4177.93
510.986	4146.74
511.354	4200.75
511.722	4204.59
512.09	4238.49
512.458	4208.89
512.826	4258.83
513.193	4280.07
513.561	4292.05
513.929	4328.43
514.297	4362.78
514.664	4412.95
515.032	4344.25
515.4	4409.56
515.767	4418.37
516.135	4401.2
516.502	4408.66
516.869	4433.74
517.237	4485.94
517.604	4440.52
517.972	4482.33
518.339	4517.13
518.706	4507.41
519.073	4544.47
519.44	4577.92
519.808	4580.85
520.175	4581.76
520.542	4610.68
520.909	4664.92
521.276	4646.39
521.643	4670.34
522.009	4706.05
522.376	4710.12
522.743	4769.55
523.11	4788.31
523.477	4760.06
523.843	4812.26
524.21	4852.49
524.577	4882.77
524.943	4948.3
525.31	4872.6
525.676	4915.99
526.043	4925.48
526.409	4980.39
526.776	5018.36
527.142	5031.69
527.508	5090.9
527.874	5121.18
528.241	5148.3
528.607	5104
528.973	5178.8
529.339	5207.73
529.705	5190.56
530.071	5242.53
530.437	5276.88
530.803	5278.01
531.169	5347.39
531.535	5356.65
531.901	5368.86
532.267	5367.27
532.632	5391.45
532.998	5425.13
533.364	5473.26
533.73	5454.28
534.095	5533.82
534.461	5533.82
534.826	5513.48
535.192	5583.31
535.557	5577.21
535.923	5626.48
536.288	5634.84
536.653	5669.64
537.019	5641.39
537.384	5641.84
537.749	5755.74
538.114	5763.2
538.479	5740.6
538.845	5774.27
539.21	5783.53
539.575	5800.48
539.94	5863.08
540.305	5929.52
540.67	5848.17
541.034	5865.57
541.399	5930.65
541.764	5971.55
542.129	5978.56
542.494	5971.55
542.858	5995.05
543.223	6044.54
543.587	6082.28
543.952	6061.49
544.316	6096.29
544.681	6158.44
545.045	6129.29
545.41	6198.66
545.774	6206.35
546.138	6192.79
546.503	6234.37
546.867	6257.65
547.231	6334.48
547.595	6360.47
547.959	6334.71
548.324	6332.22
548.688	6370.41
549.052	6425.55
549.416	6407.02
549.779	6397.3
550.143	6407.7
550.507	6513.23
550.871	6574.47
551.235	6517.53
551.599	6588.03
551.962	6595.26
552.326	6640.69
552.689	6637.98
553.053	6652.21
553.417	6609.5
553.78	6748.03
554.143	6663.29
554.507	6699.67
554.87	6685.43
555.234	6774.02
555.597	6720.91
555.96	6790.29
556.323	6847.91
556.686	6834.81
557.05	6900.34
557.413	6875.71
557.776	6924.97
558.139	6944.86
558.502	6998.42
558.865	6948.7
559.228	7032.77
559.59	7043.84
559.953	7066.21
560.316	7110.28
560.679	7124.74
561.041	7176.49
561.404	7177.85
561.767	7240.45
562.129	7178.53
562.492	7248.13
562.854	7271.18
563.217	7239.32
563.579	7275.92
563.941	7340.1
564.304	7346.21
564.666	7435.92
565.028	7376.94
565.39	7387.79
565.753	7497.61
566.115	7475.47
566.477	7509.36
566.839	7516.14
567.201	7565.86
567.563	7542.81
567.925	7586.42
568.287	7583.04
568.648	7643.82
569.01	7725.18
569.372	7711.85
569.734	7799.3
570.095	7803.59
570.457	7869.13
570.819	7895.12
571.18	7897.6
571.542	7952.74
571.903	7970.37
572.265	8025.06
572.626	7995.91
572.987	8068.45
573.349	8092.63
573.71	8157.03
574.071	8184.38
574.432	8285.16
574.794	8267.99
575.155	8370.58
575.516	8364.26
575.877	8457.59
576.238	8501.2
576.599	8584.14
576.96	8641.76
577.32	8716.34
577.681	8795.88
578.042	8819.61
578.403	8836.56
578.763	8982.09
579.124	9063.45
579.485	9166.04
579.845	9228.19
580.206	9297.57
580.566	9340.73
580.927	9459.37
581.287	9606.48
581.648	9716.76
582.008	9871.79
582.368	9957.89
582.728	10104.1
583.089	10206.47
583.449	10432.45
583.809	10514.03
584.169	10697.3
584.529	10800.58
584.889	11070.85
585.249	11161.92
585.609	11269.27
585.969	11512.42
586.329	11597.62
586.688	11838.97
587.048	12028.57
587.408	12287.77
587.768	12406.41
588.127	12619.06
588.487	12805.04
588.846	13028.77
589.206	13251.13
589.565	13467.4
589.925	13692.25
590.284	13953.94
590.643	14130.43
591.003	14457.88
591.362	14723.86
591.721	15002.73
592.08	15185.32
592.44	15442.72
592.799	15798.64
593.158	15893.1
593.517	16247.89
593.876	16529.01
594.235	16781.21
594.593	17087.42
594.952	17394.08
595.311	17538.71
595.67	17943.44
596.029	18276.99
596.387	18510.21
596.746	18836.3
597.104	19037.2
597.463	19224.31
597.822	19613.68
598.18	19713.11
598.538	20015.02
598.897	20572.3
599.255	20577.04
599.613	21146.29
599.972	21324.59
600.33	21553.74
600.688	21786.28
601.046	22155.08
601.404	22469.42
601.762	22678.46
602.12	23078.9
602.478	23269.4
602.836	23444.54
603.194	23686.79
603.552	24021.7
603.91	24089.27
604.268	24541.23
604.625	24771.28
604.983	25156.13
605.341	25293.98
605.698	25614.43
606.056	25952.72
606.413	26053.96
606.771	26406.72
607.128	26608.52
607.485	26658.92
607.843	26922.64
608.2	27377.09
608.557	27658.67
608.914	27642.17
609.272	27959.67
609.629	28132.33
609.986	28498.42
610.343	28437.85
610.7	28937.73
611.057	29025.86
611.414	29332.97
611.771	29423.36
612.127	29678.73
612.484	29875.33
612.841	30116.68
613.198	30254.53
613.554	30344.47
613.911	30693.84
614.267	30875.98
614.624	31017.67
614.98	31073.72
615.337	31421.5
615.693	31620.37
616.05	31591.9
616.406	31950.53
616.762	31925.67
617.118	32055.39
617.475	32256.06
617.831	32550.06
618.187	32642.04
618.543	32703.05
618.899	33137.39
619.255	33219.88
619.611	33280.44
619.967	33461.22
620.323	33621.45
620.678	33588
621.034	33654.89
621.39	33800.42
621.746	33764.27
622.101	34363.12
622.457	34086.74
622.812	34309.56
623.168	34349.11
623.523	34489.9
623.879	34794.07
624.234	34512.04
624.589	34811.25
624.945	34743
625.3	34935.31
625.655	34966.72
626.01	35125.14
626.365	35199.71
626.72	35175.08
627.075	35133.05
627.43	35334.17
627.785	35249.65
628.14	35527.16
628.495	35558.8
628.85	35574.16
629.205	35479.02
629.559	35796.3
629.914	35525.58
630.269	35692.13
630.623	35747.27
630.978	35708.17
631.332	35860.48
631.687	35942.74
632.041	35935.28
632.396	35882.63
632.75	35850.99
633.104	36014.38
633.459	35830.65
633.813	35886.02
634.167	35904.78
634.521	35870.43
634.875	36027.48
635.229	35880.6
635.583	35988.84
635.937	35923.31
636.291	35990.65
636.645	35945.45
636.999	35992.23
637.352	36068.61
637.706	35915.85
638.06	36135.96
638.413	35962.85
638.767	35930.99
639.121	36061.83
639.474	35844.44
639.828	35916.3
640.181	35993.81
640.534	35881.27
640.888	35852.35
641.241	35626.37
641.594	35881.5
641.947	36000.82
642.301	35851.9
642.654	36082.85
643.007	35856.19
643.36	35997.43
643.713	35899.58
644.066	36121.49
644.419	35812.12
644.771	35539.36
645.124	35294.85
645.477	35348.18
645.83	34996.33
646.182	34989.55
646.535	34919.72
646.888	34950.23
647.24	34665.49
647.593	34908.87
647.945	34880.85
648.298	34761.98
648.65	34687.86
649.002	34607.18
649.355	34681.98
649.707	34663.45
650.059	34809.66
650.411	35293.04
650.763	35338.01
651.115	35719.92
651.467	35570.55
651.819	35556.76
652.171	35532.36
652.523	35554.5
652.875	35381.4
653.227	35302.08
653.578	35587.27
653.93	35455.75
654.282	35290.56
654.633	35191.57
654.985	35326.71
655.337	35370.1
655.688	35258.24
656.039	35397.44
656.391	35222.76
656.742	35262.76
657.094	35224.57
657.445	35326.26
657.796	35285.58
658.147	35253.49
658.498	35192.25
658.849	35184.8
659.2	35266.6
659.551	35138.24
659.902	35268.41
660.253	35234.74
660.604	35297.33
660.955	35086.04
661.306	35356.77
661.656	35142.99
662.007	35224.34
662.358	35178.24
662.708	35268.18
663.059	35093.05
663.409	34884.92
663.76	35138.02
664.11	35194.29
664.461	35249.88
664.811	35186.38
665.161	35144.57
665.511	35008.75
665.862	35043.78
666.212	35173.27
666.562	35060.05
666.912	35138.69
667.262	35103.67
667.612	35042.88
667.962	35068.41
668.312	35100.28
668.662	35039.49
669.011	34968.3
669.361	35071.58
669.711	34979.6
670.06	34959.72
670.41	34867.06
670.76	34867.29
671.109	35002.65
671.459	35059.6
671.808	34915.42
672.157	35055.76
672.507	34829.55
672.856	34717.01
673.205	34936.89
673.554	34827.97
673.904	34875.88
674.253	35039.49
674.602	34856.22
674.951	34352.73
675.3	34137.59
675.649	34775.99
675.998	34673.4
676.346	34868.19
676.695	34793.17
677.044	34504.36
677.393	34729.44
677.741	34665.49
678.09	34666.62
678.438	34447.87
678.787	34675.88
679.135	34395.21
679.484	34213.75
679.832	34389.56
680.181	34322.44
680.529	34358.15
680.877	34293.97
681.225	34256.23
681.573	34397.25
681.922	34225.72
682.27	34141.88
682.618	34094.88
682.966	34040.64
683.314	34092.17
683.661	34062.79
684.009	33802.01
684.357	33772.4
684.705	33770.14
685.053	33781.89
685.4	33722.91
685.748	33617.83
686.095	33586.19
686.443	33485.4
686.79	33553.43
687.138	33525.63
687.485	33491.05
687.832	33275.69
688.18	33395.69
688.527	33282.7
688.874	33122.7
689.221	32977.17
689.568	32963.38
689.915	32867.57
690.262	32879.77
690.609	32842.94
690.956	32743.73
691.303	32793.9
691.65	32542.15
691.997	32572.21
692.344	32414.47
692.69	32387.81
693.037	32412.21
693.383	32087.48
693.73	32193.69
694.077	32074.59
694.423	31961.6
694.769	31903.98
695.116	31917.76
695.462	31816.52
695.808	31708.5
696.155	31841.61
696.501	31619.01
696.847	31518.45
697.193	31316.2
697.539	31417.44
697.885	31283.2
698.231	31165.24
698.577	31178.12
698.923	31140.61
699.269	30866.49
699.614	30631.47
699.96	30815.87
700.306	30774.74
700.651	30610.9
700.997	30570.91
701.342	30603.45
701.688	30416.56
702.033	30329.56
702.379	30298.6
702.724	30188.77
703.069	30411.59
703.415	29986.06
703.76	30021.32
704.105	29899.51
704.45	29947.19
704.795	29698.61
705.14	29561.44
705.485	29655.22
705.83	29462.91
706.175	29543.14
706.52	29441.9
706.865	29339.98
707.209	29271.05
707.554	29150.38
707.899	29397.83
708.243	29151.28
708.588	29054.79
708.932	28848.69
709.277	28751.97
709.621	28845.53
709.966	28571.86
710.31	28907.45
710.654	28518.53
710.998	28580.9
711.342	28543.39
711.687	28569.83
712.031	28408.93
712.375	28398.98
712.719	28376.84
713.063	28283.73
713.407	28337.74
713.75	28145.66
714.094	28116.05
714.438	28079.9
714.782	28111.53
715.125	27950.64
715.469	27940.24
715.812	27756.29
716.156	27684.2
716.499	27716.97
716.843	27688.72
717.186	27452.12
717.53	27667.93
717.873	27530.76
718.216	27492.12
718.559	27357.2
718.902	27360.14
719.246	27273.36
719.589	27293.25
719.932	27065.01
720.275	27086.93
720.617	27081.05
720.96	26900.95
721.303	27012.13
721.646	26995.63
721.989	26848.07
722.331	26909.53
722.674	26820.72
723.016	26779.59
723.359	26799.03
723.701	26829.08
724.044	26606.94
724.386	26519.03
724.729	26519.94
725.071	26520.84
725.413	26604.46
725.755	26378.02
726.097	26493.27
726.439	26367.17
726.782	26259.83
727.124	26364.91
727.465	26188.87
727.807	26168.31
728.149	26222.09
728.491	26173.05
728.833	26165.6
729.175	25951.59
729.516	25985.94
729.858	25930.8
730.199	25913.63
730.541	25805.83
730.882	25771.48
731.224	25954.08
731.565	25801.99
731.906	25696.91
732.248	25782.1
732.589	25616.01
732.93	25569.23
733.271	25436.8
733.612	25610.81
733.953	25567.87
734.294	25428.44
734.635	25357.71
734.976	25479.97
735.317	25357.93
735.658	25313.87
735.999	25372.17
736.339	25327.88
736.68	25356.13
737.021	25288.56
737.361	25259.41
737.702	25385.73
738.042	25114.78
738.383	25043.82
738.723	25171.73
739.063	25046.98
739.404	25099.18
739.744	24864.39
740.084	24884.73
740.424	24913.2
740.764	24846.54
741.104	24944.84
741.444	24646.77
741.784	24657.84
742.124	24840.21
742.464	24688.57
742.804	24566.77
743.143	24668.01
743.483	24661.46
743.823	24531.74
744.162	24491.97
744.502	24501.23
744.841	24386.21
745.181	24492.42
745.52	24424.63
745.86	24454.68
746.199	24331.52
746.538	24390.05
746.877	24337.85
747.216	24367
747.556	24291.52
747.895	24180.56
748.234	24167.46
748.573	24122.49
748.911	24120
749.25	24075.26
749.589	23975.82
749.928	24074.35
750.267	24062.15
750.605	23868.03
750.944	23956.16
751.283	23763.4
751.621	23849.27
751.96	23729.96
752.298	23703.52
752.636	23727.47
752.975	23664.87
753.313	23503.97
753.651	23591.88
753.989	23407.7
754.327	23433.01
754.666	23269.85
755.004	23360.02
755.342	23271.89
755.679	23337.65
756.017	23147.15
756.355	23241.61
756.693	23181.95
757.031	23195.28
757.368	23080.71
757.706	23065.79
758.044	22939.92
758.381	23024.44
758.719	22820.83
759.056	22873.48
759.394	22734.73
759.731	22573.83
760.068	22692.24
760.405	22589.42
760.743	22412.48
761.08	22446.15
