Data from hue_00_FLMS001491_62.txt Node
Date: Mon Feb 06 15:30:03 GMT 2017
User: dcchb
Spectrometer: FLMS00149
Trigger mode: 0
Integration Time (sec): 2.000000E-2
Scans to average: 10
Electric dark correction enabled: true
Nonlinearity correction enabled: false
Boxcar width: 0
XAxis mode: Wavelengths
Number of Pixels in Spectrum: 2048
>>>>>Begin Spectral Data<<<<<
341.393	-16.72
341.776	-16.72
342.16	-16.72
342.543	-50.39
342.927	-68.7
343.31	-66.44
343.693	-96.95
344.077	-66.44
344.46	-68.02
344.843	-50.62
345.226	-46.1
345.61	-11.75
345.993	4.52
346.376	2.49
346.759	12.88
347.142	17.63
347.525	45.87
347.908	42.03
348.291	78.42
348.674	85.42
349.057	117.06
349.44	108.02
349.823	152.09
350.206	159.32
350.588	167.23
350.971	188.02
351.354	222.14
351.737	235.02
352.119	245.64
352.502	276.38
352.884	270.73
353.267	272.08
353.65	282.7
354.032	289.26
354.414	311.18
354.797	312.76
355.179	322.7
355.562	298.52
355.944	328.8
356.326	344.85
356.709	324.96
357.091	315.47
357.473	346.88
357.855	332.19
358.238	320.9
358.62	321.35
359.002	331.06
359.384	345.3
359.766	336.94
360.148	356.83
360.53	346.21
360.912	329.71
361.294	313.89
361.676	336.26
362.057	330.61
362.439	320.67
362.821	337.62
363.203	320.44
363.584	322.93
363.966	313.89
364.348	334.45
364.729	317.05
365.111	320.9
365.493	319.54
365.874	324.06
366.256	309.82
366.637	317.51
367.019	319.54
367.4	307.79
367.781	305.75
368.163	302.82
368.544	308.92
368.925	308.92
369.306	327
369.688	309.82
370.069	290.84
370.45	304.4
370.831	315.7
371.212	306.21
371.593	309.6
371.974	332.42
372.355	298.75
372.736	319.31
373.117	296.72
373.498	296.04
373.879	298.98
374.26	323.61
374.641	303.27
375.021	306.88
375.402	323.38
375.783	333.55
376.163	314.34
376.544	313.89
376.925	310.95
377.305	301.69
377.686	324.51
378.066	325.64
378.447	331.97
378.827	306.21
379.208	333.78
379.588	319.31
379.968	310.5
380.349	332.87
380.729	335.81
381.109	330.84
381.489	312.08
381.87	325.64
382.25	322.03
382.63	328.58
383.01	329.26
383.39	318.18
383.77	332.19
384.15	351.4
384.53	337.17
384.91	345.53
385.29	346.88
385.67	371.29
386.049	373.32
386.429	327.22
386.809	334.68
387.189	368.8
387.568	354.57
387.948	354.57
388.328	336.71
388.707	356.83
389.087	345.75
389.466	326.55
389.846	366.77
390.225	334.91
390.605	366.09
390.984	357.96
391.363	345.53
391.743	347.11
392.122	348.69
392.501	361.8
392.881	380.78
393.26	364.28
393.639	364.51
394.018	381.46
394.397	369.71
394.776	375.13
395.155	373.55
395.534	383.94
395.913	372.42
396.292	382.14
396.671	370.39
397.05	378.97
397.429	374.68
397.808	358.86
398.186	378.97
398.565	378.52
398.944	371.97
399.323	378.75
399.701	376.94
400.08	404.74
400.458	380.55
400.837	376.71
401.215	385.07
401.594	389.14
401.972	407.45
402.351	399.09
402.729	386.2
403.107	381.46
403.486	411.74
403.864	389.59
404.242	392.53
404.62	398.41
404.999	400.22
405.377	400.44
405.755	406.77
406.133	403.15
406.511	411.97
406.889	413.1
407.267	386.66
407.645	407.67
408.023	421.68
408.401	419.42
408.779	428.24
409.156	432.98
409.534	414.45
409.912	419.65
410.29	421.91
410.667	438.18
411.045	437.05
411.422	446.09
411.8	439.99
412.178	452.42
412.555	456.03
412.933	442.47
413.31	450.16
413.687	470.95
414.065	454.23
414.442	458.75
414.819	448.8
415.197	472.98
415.574	466.43
415.951	464.62
416.328	471.63
416.705	470.95
417.082	494
417.46	487.44
417.837	482.02
418.214	484.73
418.591	488.57
418.967	502.59
419.344	491.74
419.721	499.42
420.098	518.18
420.475	507.78
420.852	521.79
421.228	522.02
421.605	510.5
421.982	528.12
422.358	506.88
422.735	524.05
423.111	526.77
423.488	521.57
423.864	533.09
424.241	524.96
424.617	546.65
424.994	532.64
425.37	537.61
425.746	540.32
426.123	549.14
426.499	557.27
426.875	547.33
427.251	549.59
427.627	549.14
428.003	571.51
428.379	561.79
428.756	575.35
429.132	563.15
429.507	557.73
429.883	573.32
430.259	599.98
430.635	589.82
431.011	609.93
431.387	602.7
431.763	627.33
432.138	626.2
432.514	622.58
432.89	623.71
433.265	609.02
433.641	619.87
434.016	648.34
434.392	632.75
434.767	645.41
435.143	658.06
435.518	662.36
435.894	655.12
436.269	679.76
436.644	672.75
437.02	663.26
437.395	654.45
437.77	679.53
438.145	688.8
438.52	662.58
438.895	694.9
439.271	698.96
439.646	713.43
440.021	718.85
440.395	717.5
440.77	690.38
441.145	719.3
441.52	728.79
441.895	698.06
442.27	710.94
442.645	740.32
443.019	758.4
443.394	751.62
443.769	742.13
444.143	727.21
444.518	741
444.892	755.01
445.267	755.91
445.641	763.6
446.016	771.73
446.39	767.44
446.764	751.39
447.139	767.66
447.513	781
447.887	768.79
448.262	778.06
448.636	775.35
449.01	792.97
449.384	778.96
449.758	809.24
450.132	795.23
450.506	806.31
450.88	823.93
451.254	803.14
451.628	823.26
452.002	825.97
452.376	853.99
452.75	843.82
453.123	829.81
453.497	854.67
453.871	873.88
454.244	864.38
454.618	880.43
454.992	886.98
455.365	870.26
455.739	878.39
456.112	895.34
456.486	925.4
456.859	918.85
457.232	926.98
457.606	929.47
457.979	930.37
458.352	922.24
458.725	982.12
459.099	954.1
459.472	992.52
459.845	972.18
460.218	990.26
460.591	996.58
460.964	957.71
461.337	1048.56
461.71	1023.25
462.083	1035
462.456	1024.15
462.829	1051.05
463.201	1097.6
463.574	1084.94
463.947	1099.63
464.32	1115.9
464.692	1089.91
465.065	1084.27
465.438	1143.7
465.81	1153.19
466.183	1173.3
466.555	1173.75
466.928	1197.26
467.3	1228.89
467.672	1213.53
468.045	1232.28
468.417	1241.78
468.789	1242.68
469.161	1236.35
469.534	1265.73
469.906	1264.37
470.278	1325.39
470.65	1318.61
471.022	1324.26
471.394	1374.88
471.766	1344.6
472.138	1397.93
472.51	1416.01
472.882	1446.52
473.253	1446.06
473.625	1444.93
473.997	1495.78
474.369	1503.92
474.74	1523.12
475.112	1520.41
475.484	1570.81
475.855	1607.87
476.227	1633.86
476.598	1640.63
476.97	1702.1
477.341	1700.52
477.713	1758.82
478.084	1761.99
478.455	1808.54
478.827	1799.95
479.198	1872.95
479.569	1859.84
479.94	1926.28
480.311	1967.18
480.682	1970.8
481.053	2033.39
481.424	2067.29
481.795	2081.98
482.166	2129.89
482.537	2137.12
482.908	2197.23
483.279	2215.53
483.65	2264.57
484.021	2266.16
484.391	2326.49
484.762	2367.4
485.133	2383.21
485.503	2427.51
485.874	2458.69
486.244	2478.58
486.615	2524.91
486.985	2557.45
487.356	2611
487.726	2660.27
488.097	2692.81
488.467	2692.36
488.837	2769.64
489.207	2839.02
489.578	2856.87
489.948	2872.01
490.318	2940.04
490.688	2914.73
491.058	3036.98
491.428	3032.69
491.798	3058.22
492.168	3123.99
492.538	3106.81
492.908	3138
493.278	3200.14
493.648	3220.25
494.017	3260.25
494.387	3306.81
494.757	3347.71
495.126	3373.92
495.496	3370.08
495.866	3394.26
496.235	3423.64
496.605	3469.97
496.974	3530.08
497.344	3550.19
497.713	3486.69
498.082	3632.45
498.452	3617.53
498.821	3657.08
499.19	3671.09
499.559	3678.32
499.928	3688.49
500.298	3730.07
500.667	3716.29
501.036	3768.94
501.405	3784.31
501.774	3799
502.143	3805.1
502.512	3870.86
502.88	3911.99
503.249	3885.55
503.618	3897.98
503.987	3954.92
504.356	3958.99
504.724	3994.25
505.093	3945.66
505.462	4016.39
505.83	4027.24
506.199	4070.85
506.567	4137.07
506.936	4091.87
507.304	4132.32
507.672	4139.55
508.041	4121.47
508.409	4178.42
508.777	4177.74
509.145	4222.04
509.514	4237.85
509.882	4246.89
510.25	4278.98
510.618	4277.85
510.986	4313.78
511.354	4330.06
511.722	4358.53
512.09	4357.63
512.458	4349.72
512.826	4414.57
513.193	4443.27
513.561	4452.54
513.929	4400.11
514.297	4489.6
514.664	4509.94
515.032	4498.19
515.4	4589.94
515.767	4553.55
516.135	4524.17
516.502	4534.8
516.869	4609.6
517.237	4615.02
517.604	4541.35
517.972	4665.41
518.339	4676.71
518.706	4654.79
519.073	4709.25
519.44	4685.75
519.808	4749.71
520.175	4711.06
520.542	4784.06
520.909	4786.54
521.276	4785.86
521.643	4805.3
522.009	4834.45
522.376	4846.43
522.743	4877.84
523.11	4923.94
523.477	4967.78
523.843	4982.02
524.21	5011.85
524.577	4981.79
524.943	5017.5
525.31	5026.53
525.676	5161.45
526.043	5107.66
526.409	5132.97
526.776	5185.63
527.142	5217.26
527.508	5170.26
527.874	5215
528.241	5241.22
528.607	5247.77
528.973	5285.28
529.339	5302.01
529.705	5357.37
530.071	5404.83
530.437	5471.72
530.803	5421.78
531.169	5497.48
531.535	5410.48
531.901	5459.29
532.267	5495.9
532.632	5601.43
532.998	5610.25
533.364	5593.53
533.73	5565.05
534.095	5681.21
534.461	5657.7
534.826	5693.86
535.192	5706.97
535.557	5718.27
535.923	5720.75
536.288	5800.75
536.653	5836.23
537.019	5800.98
537.384	5836.23
537.749	5877.36
538.114	5874.65
538.479	5928.43
538.845	5955.1
539.21	5957.58
539.575	6005.72
539.94	6005.04
540.305	6036
540.67	6039.62
541.034	6038.94
541.399	6071.03
541.764	6112.38
542.129	6141.99
542.494	6142.44
542.858	6175.88
543.223	6198.93
543.587	6235.54
543.952	6273.73
544.316	6312.6
544.681	6308.31
545.045	6321.19
545.41	6365.48
545.774	6398.7
546.138	6378.36
546.503	6385.59
546.867	6442.09
547.231	6481.64
547.595	6509.89
547.959	6523.67
548.324	6523.22
548.688	6521.64
549.052	6624.23
549.416	6544.46
549.779	6592.6
550.143	6650.9
550.507	6693.84
550.871	6686.38
551.235	6656.32
551.599	6737.68
551.962	6764.12
552.326	6840.95
552.689	6767.51
553.053	6804.11
553.417	6852.93
553.78	6891.8
554.143	6878.01
554.507	6931.8
554.87	6925.24
555.234	6998.69
555.597	6938.8
555.96	7001.4
556.323	7023.32
556.686	7048.18
557.05	7057.44
557.413	7152.13
557.776	7071.23
558.139	7139.47
558.502	7124.33
558.865	7148.74
559.228	7269.64
559.59	7206.82
559.953	7216.31
560.316	7296.08
560.679	7281.84
561.041	7327.26
561.404	7405.91
561.767	7379.47
562.129	7397.77
562.492	7448.84
562.854	7455.85
563.217	7431.44
563.579	7434.83
563.941	7522.97
564.304	7496.75
564.666	7562.51
565.028	7625.34
565.39	7612.23
565.753	7666.47
566.115	7656.75
566.477	7661.27
566.839	7730.87
567.201	7788.95
567.563	7792.34
567.925	7850.64
568.287	7847.48
568.648	7858.55
569.01	7918.89
569.372	7924.99
569.734	7920.92
570.095	8024.42
570.457	8109.39
570.819	8048.38
571.18	8082.5
571.542	8099
571.903	8171.54
572.265	8225.32
572.626	8235.26
572.987	8298.54
573.349	8365.43
573.71	8417.63
574.071	8393
574.432	8487.91
574.794	8625.31
575.155	8614.91
575.516	8597.97
575.877	8700.11
576.238	8767.23
576.599	8820.56
576.96	8843.84
577.32	8982.81
577.681	8998.41
578.042	9090.38
578.403	9177.84
578.763	9229.36
579.124	9364.73
579.485	9439.53
579.845	9591.61
580.206	9641.1
580.566	9723.59
580.927	9844.49
581.287	10035.22
581.648	10026.85
582.008	10211.03
582.368	10309.11
582.728	10505.94
583.089	10586.61
583.449	10695.76
583.809	10881.97
584.169	11077.45
584.529	11239.48
584.889	11476.08
585.249	11589.07
585.609	11719.92
585.969	11918.78
586.329	12061.6
586.688	12322.61
587.048	12450.97
587.408	12723.51
587.768	12919.89
588.127	13130.95
588.487	13352.87
588.846	13645.29
589.206	13795.12
589.565	14112.4
589.925	14271.94
590.284	14484.36
590.643	14845.49
591.003	15113.5
591.362	15350.56
591.721	15621.06
592.08	15866.02
592.44	16134.49
592.799	16379.68
593.158	16595.04
593.517	16859.9
593.876	17124.52
594.235	17434.57
594.593	17754.56
594.952	18020.77
595.311	18251.72
595.67	18538.27
596.029	18917.92
596.387	19160.63
596.746	19527.4
597.104	19654.62
597.463	19964.22
597.822	20395.85
598.18	20583.64
598.538	20783.86
598.897	21207.35
599.255	21363.96
599.613	21869.93
599.972	21980.21
600.33	22425.17
600.688	22545.85
601.046	22800.53
601.404	23101.09
601.762	23250.24
602.12	23721.86
602.478	23960.5
602.836	24214.28
603.194	24306.93
603.552	24743.53
603.91	24800.93
604.268	25171.54
604.625	25365.66
604.983	25633.9
605.341	25805.2
605.698	26088.35
606.056	26433.2
606.413	26522.24
606.771	26884.26
607.128	27129.68
607.485	27318.38
607.843	27545.26
608.2	27889.21
608.557	28040.84
608.914	28239.48
609.272	28491.91
609.629	28651.9
609.986	28970.09
610.343	29044.21
610.7	29419.57
611.057	29611.88
611.414	29742.95
611.771	29879.21
612.127	30127.8
612.484	30237.4
612.841	30536.37
613.198	30627.22
613.554	30878.96
613.911	31137.71
614.267	31245.73
614.624	31396.91
614.98	31516.23
615.337	31805.72
615.693	31941.76
616.05	32052.49
616.406	32292.94
616.762	32374.06
617.118	32546.04
617.475	32660.16
617.831	32840.72
618.187	33028.96
618.543	33151.67
618.899	33357.09
619.255	33418.1
619.611	33494.03
619.967	33793.46
620.323	33817.19
620.678	33696.52
621.034	33862.39
621.39	33981.93
621.746	34070.06
622.101	34408.13
622.457	34339.66
622.812	34397.74
623.168	34579.66
623.523	34738.97
623.879	34832.98
624.234	34715.25
624.589	34901.23
624.945	35152.75
625.3	35119.53
625.655	35106.42
626.01	35189.58
626.365	35188.68
626.72	35356.81
627.075	35481.33
627.43	35439.07
627.785	35416.02
628.14	35445.17
628.495	35649.91
628.85	35700.76
629.205	35679.51
629.559	35940.75
629.914	35758.16
630.269	35853.97
630.623	35733.52
630.978	35705.73
631.332	35924.48
631.687	35898.94
632.041	35914.31
632.396	36072.5
632.75	35968.32
633.104	36111.14
633.459	35954.53
633.813	35942.11
634.167	35895.33
634.521	36002.44
634.875	36047.87
635.229	36059.39
635.583	35992.95
635.937	36045.83
636.291	35899.17
636.645	36014.19
636.999	35988.66
637.352	36076.34
637.706	35905.72
638.06	36149.33
638.413	35986.85
638.767	36016.91
639.121	35997.47
639.474	35771.94
639.828	35831.37
640.181	35999.05
640.534	36093.51
640.888	35928.09
641.241	35828.44
641.594	35899.4
641.947	35898.72
642.301	35935.55
642.654	36014.65
643.007	35908.89
643.36	35832.5
643.713	35835.44
644.066	36093.97
644.419	35601.55
644.771	35543.92
645.124	35149.58
645.477	35157.72
645.83	35023.26
646.182	35003.15
646.535	34882.02
646.888	34904.17
647.24	34737.62
647.593	34964.5
647.945	34874.56
648.298	34686.09
648.65	34658.3
649.002	34560
649.355	34795.02
649.707	34596.38
650.059	34777.62
650.411	35116.59
650.763	35136.7
651.115	35517.48
651.467	35498.28
651.819	35511.38
652.171	35404.04
652.523	35282.91
652.875	35456.69
653.227	35271.16
653.578	35487.2
653.93	35555.45
654.282	35270.71
654.633	35137.16
654.985	35274.1
655.337	35350.93
655.688	35232.07
656.039	35340.31
656.391	35101
656.742	35121.56
657.094	35265.74
657.445	35298.73
657.796	35189.13
658.147	35142.13
658.498	35060.77
658.849	35188.45
659.2	35130.83
659.551	35028.46
659.902	35235.01
660.253	35121.79
660.604	35212.41
660.955	34987.78
661.306	35145.06
661.656	35038.63
662.007	35086.76
662.358	35036.37
662.708	35135.35
663.059	34997.5
663.409	34828.24
663.76	35213.09
664.11	35133.77
664.461	35062.13
664.811	35105.74
665.161	34967.22
665.511	34924.73
665.862	35018.74
666.212	35068.91
666.562	35088.79
666.912	35019.42
667.262	34924.73
667.612	34896.94
667.962	34910.04
668.312	34973.77
668.662	35201.56
669.011	35035.91
669.361	34978.06
669.711	34869.82
670.06	34912.53
670.41	34866.65
670.76	34790.05
671.109	34918.86
671.459	34918.63
671.808	34785.53
672.157	34988.01
672.507	34706.88
672.856	34724.96
673.205	34673.21
673.554	34783.27
673.904	34694
674.253	34829.59
674.602	34691.97
674.951	34394.8
675.3	34138.31
675.649	34623.04
675.998	34607
676.346	34669.14
676.695	34715.47
677.044	34394.58
677.393	34485.19
677.741	34596.38
678.09	34535.59
678.438	34449.26
678.787	34450.39
679.135	34550.73
679.484	34342.37
679.832	34424.18
680.181	34188.03
680.529	34215.82
680.877	34164.98
681.225	34194.58
681.573	34433.9
681.922	34050.86
682.27	34023.74
682.618	34128.59
682.966	33899.22
683.314	33984.19
683.661	33867.13
684.009	33699.9
684.357	33601.83
684.705	33734.93
685.053	33705.1
685.4	33565.67
685.748	33404.55
686.095	33600.02
686.443	33325
686.79	33327.03
687.138	33399.35
687.485	33383.3
687.832	33201.84
688.18	33226.47
688.527	33007.49
688.874	33069.86
689.221	33152.12
689.568	32993.03
689.915	32835.07
690.262	32832.13
690.609	32856.99
690.956	32663.1
691.303	32701.97
691.65	32478.47
691.997	32462.2
692.344	32317.79
692.69	32385.59
693.037	32283.22
693.383	32011.59
693.73	32263.11
694.077	32016.33
694.423	31843.23
694.769	31913.51
695.116	31857.47
695.462	31796
695.808	31605.5
696.155	31771.37
696.501	31386.07
696.847	31446.4
697.193	31192.63
697.539	31337.48
697.885	30957.15
698.231	31096.36
698.577	31029.69
698.923	31050.71
699.269	30873.76
699.614	30687.1
699.96	30649.36
700.306	30665.41
700.651	30469.93
700.997	30387
701.342	30430.16
701.688	30423.15
702.033	30258.19
702.379	30204.4
702.724	30226.1
703.069	30186.78
703.415	29814.81
703.76	29949.49
704.105	29820.91
704.45	29803.28
704.795	29597.87
705.14	29546.79
705.485	29518.32
705.83	29401.94
706.175	29374.82
706.52	29451.2
706.865	29391.77
707.209	29162.4
707.554	29134.83
707.899	29290.3
708.243	29194.26
708.588	29000.82
708.932	28786.14
709.277	28731.45
709.621	28720.37
709.966	28600.83
710.31	28691.9
710.654	28351.57
710.998	28532.36
711.342	28494.39
711.687	28403.77
712.031	28207.62
712.375	28065.93
712.719	28256.88
713.063	28052.6
713.407	28324.68
713.75	28019.15
714.094	28066.15
714.438	27791.81
714.782	27933.5
715.125	27792.49
715.469	27882.2
715.812	27632.27
716.156	27596.11
716.499	27512.95
716.843	27590.91
717.186	27476.79
717.53	27505.94
717.873	27539.61
718.216	27483.35
718.559	27330.35
718.902	27141.66
719.246	27290.13
719.589	27176.69
719.932	27053.98
720.275	27109.57
720.617	26962.68
720.96	27051.94
721.303	27042.23
721.646	26880.42
721.989	26756.58
722.331	26836.81
722.674	26801.56
723.016	26766.08
723.359	26776.25
723.701	26827.77
724.044	26609.7
724.386	26587.78
724.729	26556.82
725.071	26443.15
725.413	26495.12
725.755	26424.62
726.097	26392.98
726.439	26119.99
726.782	26203.15
727.124	26283.83
727.465	26164.96
727.807	26153.89
728.149	26182.36
728.491	25991.18
728.833	26097.17
729.175	25922.26
729.516	25913.44
729.858	25811.3
730.199	25960.45
730.541	25907.34
730.882	25703.96
731.224	25807.91
731.565	25638.42
731.906	25681.36
732.248	25568.59
732.589	25603.85
732.93	25435.94
733.271	25553.68
733.612	25553.45
733.953	25446.34
734.294	25445.88
734.635	25293.35
734.976	25484.08
735.317	25272.33
735.658	25266.68
735.999	25198.89
736.339	25197.53
736.68	25182.16
737.021	25148.04
737.361	25030.3
737.702	25204.76
738.042	25040.25
738.383	24910.98
738.723	25031.21
739.063	24917.99
739.404	24917.54
739.744	24855.84
740.084	24885.67
740.424	24861.95
740.764	24778.33
741.104	24779.91
741.444	24716.86
741.784	24603.19
742.124	24645.68
742.464	24573.82
742.804	24703.76
743.143	24548.73
743.483	24612.01
743.823	24367.27
744.162	24366.59
744.502	24459.92
744.841	24400.04
745.181	24407.72
745.52	24341.51
745.86	24379.25
746.199	24238.68
746.538	24149.42
746.877	24346.48
747.216	24265.35
747.556	24109.65
747.895	24165.01
748.234	23935.64
748.573	24055.64
748.911	23851.35
749.25	23894.51
749.589	23808.87
749.928	23915.3
750.267	23837.11
750.605	23836.66
750.944	23670.79
751.283	23633.28
751.621	23689.55
751.96	23515.77
752.298	23493.17
752.636	23457.24
752.975	23544.92
753.313	23467.18
753.651	23491.13
753.989	23339.27
754.327	23313.29
754.666	23243.46
755.004	23264.7
755.342	23244.59
755.679	23070.58
756.017	23113.97
756.355	23146.74
756.693	22989
757.031	23119.62
757.368	22845.95
757.706	22893.64
758.044	22784.94
758.381	22754.88
758.719	22658.61
759.056	22691.83
759.394	22610.7
759.731	22425.85
760.068	22419.98
760.405	22295.91
760.743	22343.82
761.08	22386.53
761.417	22208.91
