Data from hue_10_FLMS001491_63.txt Node
Date: Mon Feb 06 15:32:19 GMT 2017
User: dcchb
Spectrometer: FLMS00149
Trigger mode: 0
Integration Time (sec): 2.000000E-2
Scans to average: 10
Electric dark correction enabled: true
Nonlinearity correction enabled: false
Boxcar width: 0
XAxis mode: Wavelengths
Number of Pixels in Spectrum: 2048
>>>>>Begin Spectral Data<<<<<
341.393	-5.28
341.776	-5.28
342.16	-5.28
342.543	-48.45
342.927	-66.52
343.31	-79.18
343.693	-84.83
344.077	-52.74
344.46	-36.69
344.843	-69.46
345.226	-45.96
345.61	-21.33
345.993	-16.36
346.376	-43.47
346.759	6.02
347.142	35.62
347.525	23.42
347.908	68.39
348.291	69.52
348.674	103.42
349.057	143.64
349.44	128.73
349.823	121.04
350.206	165.11
350.588	195.39
350.971	203.53
351.354	223.41
351.737	232
352.119	246.46
352.502	241.49
352.884	255.28
353.267	278.33
353.65	275.61
354.032	298.66
354.414	300.25
354.797	321.04
355.179	317.42
355.562	307.7
355.944	325.78
356.326	322.62
356.709	333.92
357.091	307.25
357.473	344.09
357.855	319.45
358.238	328.04
358.62	339.57
359.002	344.54
359.384	342.28
359.766	336.63
360.148	346.57
360.53	350.19
360.912	313.13
361.294	320.58
361.676	307.93
362.057	310.19
362.439	318.55
362.821	321.04
363.203	311.09
363.584	311.09
363.966	330.53
364.348	302.96
364.729	318.78
365.111	300.47
365.493	311.32
365.874	309.74
366.256	291.88
366.637	323.07
367.019	321.71
367.4	316.97
367.781	323.75
368.163	308.38
368.544	312
368.925	295.73
369.306	298.21
369.688	306.12
370.069	292.56
370.45	310.19
370.831	304.77
371.212	306.35
371.593	295.05
371.974	299.34
372.355	304.09
372.736	307.25
373.117	309.51
373.498	318.78
373.879	292.56
374.26	307.7
374.641	315.39
375.021	307.7
375.402	326.91
375.783	312.9
376.163	300.25
376.544	310.19
376.925	305.44
377.305	318.55
377.686	300.25
378.066	319.45
378.447	329.85
378.827	321.49
379.208	309.06
379.588	333.24
379.968	325.1
380.349	328.49
380.729	335.27
381.109	318.55
381.489	319.23
381.87	313.35
382.25	326.46
382.63	333.01
383.01	320.58
383.39	337.76
383.77	327.36
384.15	330.53
384.53	322.39
384.91	332.56
385.29	322.39
385.67	321.04
386.049	337.99
386.429	345.67
386.809	352
387.189	341.15
387.568	347.02
387.948	350.87
388.328	314.48
388.707	353.8
389.087	334.14
389.466	344.99
389.846	318.78
390.225	335.05
390.605	343.18
390.984	348.15
391.363	360.13
391.743	379.57
392.122	325.56
392.501	348.83
392.881	383.18
393.26	346.8
393.639	369.17
394.018	346.57
394.397	369.17
394.776	366.23
395.155	367.14
395.534	370.53
395.913	361.94
396.292	354.93
396.671	355.61
397.05	358.78
397.429	354.71
397.808	373.92
398.186	352.67
398.565	375.05
398.944	374.14
399.323	408.94
399.701	375.72
400.08	381.6
400.458	380.92
400.837	384.54
401.215	386.8
401.594	369.17
401.972	389.51
402.351	370.98
402.729	386.57
403.107	392
403.486	377.98
403.864	392.67
404.242	381.15
404.62	400.36
404.999	382.28
405.377	366.46
405.755	383.86
406.133	400.58
406.511	389.28
406.889	419.34
407.267	400.58
407.645	394.71
408.023	390.64
408.401	419.57
408.779	408.49
409.156	413.69
409.534	424.99
409.912	414.82
410.29	417.53
410.667	405.33
411.045	401.03
411.422	424.08
411.8	433.12
412.178	424.54
412.555	420.7
412.933	457.08
413.31	444.65
413.687	427.7
414.065	433.58
414.442	434.48
414.819	427.25
415.197	442.16
415.574	439.68
415.951	446.91
416.328	450.75
416.705	448.27
417.082	447.14
417.46	465.89
417.837	443.75
418.214	447.36
418.591	467.47
418.967	467.93
419.344	456.63
419.721	474.71
420.098	493.69
420.475	466.34
420.852	478.32
421.228	472.22
421.605	479.22
421.982	484.2
422.358	485.33
422.735	491.88
423.111	483.07
423.488	505.66
423.864	497.76
424.241	498.21
424.617	505.66
424.994	500.24
425.37	514.93
425.746	484.2
426.123	538.66
426.499	492.78
426.875	528.94
427.251	531.65
427.627	523.97
428.003	526.46
428.379	525.1
428.756	537.98
429.132	532.33
429.507	529.84
429.883	562.39
430.259	532.33
430.635	533.69
431.011	550.86
431.387	570.97
431.763	564.87
432.138	554.02
432.514	576.4
432.89	584.31
433.265	579.56
433.641	586.11
434.016	584.08
434.392	598.77
434.767	594.25
435.143	598.32
435.518	613.01
435.894	615.49
436.269	623.85
436.644	645.55
437.02	623.63
437.395	637.64
437.77	647.81
438.145	658.88
438.52	647.58
438.895	636.06
439.271	659.56
439.646	626.11
440.021	636.73
440.395	665.66
440.77	659.33
441.145	657.07
441.52	683.97
441.895	674.47
442.27	683.06
442.645	676.28
443.019	696.85
443.394	680.35
443.769	710.18
444.143	711.76
444.518	703.85
444.892	700.91
445.267	704.08
445.641	717.41
446.016	698.65
446.39	707.24
446.764	696.39
447.139	710.86
447.513	703.4
447.887	742.72
448.262	732.33
448.636	727.81
449.01	732.33
449.384	737.97
449.758	736.85
450.132	758.09
450.506	746.34
450.88	774.13
451.254	775.26
451.628	763.29
452.002	783.17
452.376	796.73
452.75	772.78
453.123	765.32
453.497	778.65
453.871	798.99
454.244	837.86
454.618	813.45
454.992	840.35
455.365	823.4
455.739	843.96
456.112	854.36
456.486	837.63
456.859	845.54
457.232	875.82
457.606	848.48
457.979	884.41
458.352	876.73
458.725	879.21
459.099	893.23
459.472	914.69
459.845	904.98
460.218	926.9
460.591	913.56
460.964	934.13
461.337	953.79
461.71	977.52
462.083	951.75
462.456	984.52
462.829	962.15
463.201	981.81
463.574	968.48
463.947	986.78
464.32	1012.32
464.692	1033.33
465.065	1018.42
465.438	1042.83
465.81	1035.82
466.183	1054.35
466.555	1075.14
466.928	1087.8
467.3	1105.65
467.672	1098.19
468.045	1128.47
468.417	1142.26
468.789	1153.11
469.161	1153.56
469.534	1155.37
469.906	1191.07
470.278	1207.12
470.65	1210.73
471.022	1219.77
471.394	1235.81
471.766	1252.54
472.138	1260.67
472.51	1325.76
472.882	1329.37
473.253	1361.24
473.625	1334.8
473.997	1374.57
474.369	1394.45
474.74	1393.1
475.112	1421.35
475.484	1466.77
475.855	1508.12
476.227	1512.19
476.598	1536.15
476.97	1550.38
477.341	1570.72
477.713	1619.31
478.084	1584.96
478.455	1641.68
478.827	1662.92
479.198	1703.15
479.569	1738.85
479.94	1793.54
480.311	1773.2
480.682	1845.74
481.053	1858.4
481.424	1898.4
481.795	1930.71
482.166	1961.9
482.537	1982.91
482.908	2051.39
483.279	2058.39
483.65	2139.52
484.021	2137.94
484.391	2148.56
484.762	2195.34
485.133	2193.08
485.503	2280.31
485.874	2270.59
486.244	2331.38
486.615	2390.36
486.985	2405.5
487.356	2451.6
487.726	2503.35
488.097	2560.75
488.467	2543.58
488.837	2598.04
489.207	2644.59
489.578	2698.15
489.948	2715.32
490.318	2753.74
490.688	2780.41
491.058	2826.96
491.428	2872.83
491.798	2881.87
492.168	2956.9
492.538	2959.16
492.908	2982.21
493.278	3022.21
493.648	3046.39
494.017	3128.65
494.387	3121.19
494.757	3171.13
495.126	3197.35
495.496	3241.86
495.866	3241.86
496.235	3278.7
496.605	3330.22
496.974	3355.53
497.344	3363.67
497.713	3384.69
498.082	3423.33
498.452	3432.37
498.821	3489.09
499.19	3498.58
499.559	3505.59
499.928	3562.08
500.298	3586.94
500.667	3615.19
501.036	3606.15
501.405	3626.71
501.774	3623.77
502.143	3681.17
502.512	3698.35
502.88	3707.84
503.249	3749.42
503.618	3714.17
503.987	3756.88
504.356	3806.82
504.724	3835.97
505.093	3816.09
505.462	3866.03
505.83	3897.89
506.199	3926.59
506.567	3932.47
506.936	3959.59
507.304	3992.35
507.672	3992.13
508.041	4001.39
508.409	4041.16
508.777	4029.87
509.145	4092.24
509.514	4082.97
509.882	4073.93
510.25	4137.21
510.618	4133.37
510.986	4202.29
511.354	4219.92
511.722	4195.96
512.09	4248.62
512.458	4247.94
512.826	4261.72
513.193	4312.12
513.561	4242.06
513.929	4305.79
514.297	4370.2
514.664	4380.37
515.032	4348.95
515.4	4421.27
515.767	4391.21
516.135	4451.1
516.502	4394.83
516.869	4438.89
517.237	4481.15
517.604	4481.83
517.972	4536.52
518.339	4528.38
518.706	4539.68
519.073	4504.2
519.44	4507.37
519.808	4616.52
520.175	4603.41
520.542	4644.31
520.909	4661.71
521.276	4676.18
521.643	4704.88
522.009	4729.96
522.376	4683.86
522.743	4717.53
523.11	4757.98
523.477	4782.16
523.843	4796.63
524.21	4816.06
524.577	4885.89
524.943	4878.21
525.31	4931.09
525.676	4949.16
526.043	4994.13
526.409	4985.77
526.776	5014.47
527.142	4993.91
527.508	5063.51
527.874	5141.93
528.241	5153.9
528.607	5153.68
528.973	5149.16
529.339	5165.88
529.705	5216.95
530.071	5261.7
530.437	5265.77
530.803	5305.99
531.169	5364.75
531.535	5350.96
531.901	5321.81
532.267	5407
532.632	5413.78
532.998	5441.35
533.364	5438.64
533.73	5421.69
534.095	5505.53
534.461	5493.56
534.826	5566.1
535.192	5584.18
535.557	5640.9
535.923	5550.96
536.288	5612.88
536.653	5661.46
537.019	5667.56
537.384	5707.11
537.749	5706.43
538.114	5751.18
538.479	5743.95
538.845	5750.27
539.21	5752.08
539.575	5849.03
539.94	5825.75
540.305	5824.17
540.67	5852.87
541.034	5903.26
541.399	5904.84
541.764	5902.36
542.129	6030.04
542.494	6051.96
542.858	6029.81
543.223	6052.19
543.587	6075.24
543.952	6065.07
544.316	6141.9
544.681	6084.95
545.045	6167.44
545.41	6168.11
545.774	6200.2
546.138	6227.1
546.503	6249.02
546.867	6280.43
547.231	6317.04
547.595	6346.19
547.959	6342.35
548.324	6346.19
548.688	6338.96
549.052	6412.18
549.416	6447.88
549.779	6434.32
550.143	6448.33
550.507	6458.73
550.871	6481.55
551.235	6546.64
551.599	6602.91
551.962	6606.75
552.326	6561.32
552.689	6608.78
553.053	6610.14
553.417	6638.38
553.78	6675.9
554.143	6703.02
554.507	6709.34
554.87	6741.66
555.234	6863.46
555.597	6740.98
555.96	6814.2
556.323	6784.6
556.686	6792.51
557.05	6901.2
557.413	6918.15
557.776	6863.46
558.139	6921.32
558.502	6972.84
558.865	6903.01
559.228	7032.72
559.59	7106.62
559.953	7056.45
560.316	7158.82
560.679	7134.19
561.041	7121.31
561.404	7116.79
561.767	7185.94
562.129	7161.08
562.492	7288.31
562.854	7270.46
563.217	7257.13
563.579	7286.96
563.941	7323.79
564.304	7374.41
564.666	7366.95
565.028	7403.79
565.39	7385.71
565.753	7454.63
566.115	7478.36
566.477	7517.46
566.839	7575.08
567.201	7594.07
567.563	7574.86
567.925	7555.65
568.287	7644.01
568.648	7625.93
569.01	7764
569.372	7786.38
569.734	7764.91
570.095	7785.02
570.457	7844.45
570.819	7917
571.18	7931.68
571.542	7937.33
571.903	7976.2
572.265	8044.68
572.626	8079.7
572.987	8069.76
573.349	8128.97
573.71	8165.58
574.071	8204.45
574.432	8274.73
574.794	8325.35
575.155	8396.53
575.516	8355.4
575.877	8406.47
576.238	8449.18
576.599	8593.14
576.96	8642.85
577.32	8624.32
577.681	8693.25
578.042	8853.69
578.403	8856.41
578.763	8933.24
579.124	8991.09
579.485	9092.78
579.845	9233.12
580.206	9332.55
580.566	9359.67
580.927	9524.18
581.287	9616.16
581.648	9762.82
582.008	9812.09
582.368	9956.49
582.728	10110.16
583.089	10193.09
583.449	10302.7
583.809	10497.49
584.169	10760.08
584.529	10787.88
584.889	10985.39
585.249	11186.29
585.609	11290.24
585.969	11471.48
586.329	11641.87
586.688	11807.51
587.048	12000.96
587.408	12209.76
587.768	12359.59
588.127	12603.65
588.487	12826.47
588.846	13096.52
589.206	13164.54
589.565	13429.17
589.925	13687.24
590.284	13905.99
590.643	14131.3
591.003	14423.49
591.362	14705.52
591.721	14951.39
592.08	15186.63
592.44	15446.51
592.799	15718.6
593.158	15971.47
593.517	16174.63
593.876	16496.43
594.235	16663.88
594.593	17067.26
594.952	17332.57
595.311	17582.5
595.67	17866.79
596.029	18183.62
596.387	18517.17
596.746	18886.88
597.104	18912.86
597.463	19392.63
597.822	19654.09
598.18	19840.98
598.538	20093.62
598.897	20464.01
599.255	20577.91
599.613	21157.55
599.972	21225.8
600.33	21603.64
600.688	21776.29
601.046	22150.52
601.404	22526.33
601.762	22667.34
602.12	23067.33
602.478	23296.03
602.836	23532.86
603.194	23683.59
603.552	23969.91
603.91	24172.39
604.268	24563.34
604.625	24752.71
604.983	25094.62
605.341	25208.74
605.698	25499.58
606.056	25820.03
606.413	26085.56
606.771	26406
607.128	26513.79
607.485	26726.44
607.843	26901.13
608.2	27252.31
608.557	27605.97
608.914	27651.17
609.272	27926.64
609.629	28154.88
609.986	28595.1
610.343	28558.26
610.7	28946.05
611.057	28995.09
611.414	29130.9
611.771	29393.04
612.127	29617.44
612.484	29901.05
612.841	30124.55
613.198	30106.69
613.554	30267.37
613.911	30666.23
614.267	30773.34
614.624	30917.29
614.98	31100.57
615.337	31472.08
615.693	31504.85
616.05	31571.06
616.406	31944.84
616.762	31852.41
617.118	32136.92
617.475	32329.69
617.831	32335.56
618.187	32592.28
618.543	32735.1
618.899	33075.66
619.255	33157.01
619.611	33260.06
619.967	33463.89
620.323	33621.63
620.678	33657.11
621.034	33528.75
621.39	33781.4
621.746	33754.28
622.101	34234.04
622.457	34139.58
622.812	34189.75
623.168	34281.5
623.523	34500.7
623.879	34633.13
624.234	34422.96
624.589	34753.8
624.945	34821.15
625.3	34949.28
625.655	34980.69
626.01	35042.38
626.365	35289.38
626.72	35097.07
627.075	35227.69
627.43	35258.42
627.785	35229.27
628.14	35340
628.495	35427.46
628.85	35514.24
629.205	35477.63
629.559	35709.71
629.914	35639.88
630.269	35757.85
630.623	35576.15
630.978	35557.4
631.332	35811.85
631.687	35871.51
632.041	35849.82
632.396	35833.1
632.75	35909.03
633.104	35865.41
633.459	35816.83
633.813	35881.68
634.167	35928.24
634.521	35911.51
634.875	35971.4
635.229	35817.5
635.583	35764.62
635.937	35879.88
636.291	35910.84
636.645	36061.11
636.999	35851.4
637.352	36059.76
637.706	35829.03
638.06	35981.79
638.413	35957.61
638.767	35724.85
639.121	35966.2
639.474	35888.92
639.828	35823.15
640.181	35956.94
640.534	35985.41
640.888	35727.56
641.241	35665.42
641.594	36018.18
641.947	35959.2
642.301	35770.05
642.654	35874
643.007	35908.12
643.36	35836.26
643.713	35751.97
644.066	36143.82
644.419	35716.49
644.771	35542.94
645.124	35243.96
645.477	35106.11
645.83	35044.19
646.182	34917.87
646.535	34778.44
646.888	34923.06
647.24	34709.51
647.593	34900.92
647.945	34797.87
648.298	34709.74
648.65	34546.58
649.002	34566.69
649.355	34757.19
649.707	34746.35
650.059	34800.13
650.411	35210.74
650.763	35245.54
651.115	35638.07
651.467	35593.56
651.819	35436.95
652.171	35405.54
652.523	35321.7
652.875	35372.09
653.227	35255.71
653.578	35694.57
653.93	35447.8
654.282	35216.62
654.633	35225.66
654.985	35183.62
655.337	35312.43
655.688	35401.47
656.039	35366.89
656.391	35200.8
656.742	35249.38
657.094	35285.77
657.445	35334.13
657.796	35246.22
658.147	35207.8
658.498	35237.18
658.849	35169.16
659.2	35215.26
659.551	35155.83
659.902	35289.61
660.253	35255.26
660.604	35267.91
660.955	35038.32
661.306	35238.76
661.656	35163.96
662.007	35130.06
662.358	35166.67
662.708	35137.3
663.059	35011.88
663.409	34893.01
663.76	35202.38
664.11	35185.88
664.461	35226.79
664.811	35293.22
665.161	34951.31
665.511	35018.66
665.862	35160.8
666.212	35111.08
666.562	35050.97
666.912	35116.05
667.262	34942.73
667.612	34928.04
667.962	35041.48
668.312	35039.45
668.662	35112.66
669.011	35029.28
669.361	34953.12
669.711	34903.86
670.06	34920.8
670.41	34922.39
670.76	34794.25
671.109	34975.94
671.459	34949.5
671.808	34745.67
672.157	34956.96
672.507	34702.28
672.856	34647.14
673.205	34771.2
673.554	34970.75
673.904	34748.61
674.253	35003.97
674.602	34863.18
674.951	34267.71
675.3	34225
675.649	34720.81
675.998	34788.61
676.346	34776.18
676.695	34701.83
677.044	34602.4
677.393	34716.29
677.741	34765.55
678.09	34613.69
678.438	34523.08
678.787	34562.62
679.135	34470.42
679.484	34378.9
679.832	34526.01
680.181	34230.88
680.529	34399.01
680.877	34333.02
681.225	34250.31
681.573	34396.52
681.922	34206.93
682.27	34143.65
682.618	34118.79
682.966	33968.97
683.314	34033.37
683.661	34006.03
684.009	33866.37
684.357	33701.63
684.705	33818.69
685.053	33803.09
685.4	33731.91
685.748	33599.94
686.095	33590.67
686.443	33401.97
686.79	33505.02
687.138	33549.32
687.485	33486.94
687.832	33274.07
688.18	33266.61
688.527	33242.43
688.874	33166.95
689.221	33068.65
689.568	32928.77
689.915	32891.71
690.262	32957.47
690.609	32784.82
690.956	32688.32
691.303	32768.55
691.65	32598.83
691.997	32521.09
692.344	32378.95
692.69	32390.48
693.037	32352.51
693.383	32147.77
693.73	32222.34
694.077	32019.86
694.423	31994.1
694.769	31920.66
695.116	31840.43
695.462	31787.1
695.808	31692.42
696.155	31638.86
696.501	31590.5
696.847	31453.55
697.193	31214.91
697.539	31388.92
697.885	31209.94
698.231	31249.04
698.577	31160.68
698.923	30971.3
699.269	30844.98
699.614	30712.33
699.96	30680.24
700.306	30728.6
700.651	30710.52
700.997	30571.54
701.342	30474.59
701.688	30353.47
702.033	30322.73
702.379	30176.52
702.724	30270.76
703.069	30355.73
703.415	29947.15
703.76	30023.98
704.105	30035.28
704.45	29902.63
704.795	29694.5
705.14	29555.75
705.485	29604.11
705.83	29640.94
706.175	29556.2
706.52	29377.22
706.865	29380.39
707.209	29297.22
707.554	29075.76
707.899	29262.65
708.243	29091.58
708.588	29073.28
708.932	28910.34
709.277	28865.6
709.621	28818.37
709.966	28624.93
710.31	28833.96
710.654	28606.17
710.998	28586.51
711.342	28505.83
711.687	28491.82
712.031	28234.43
712.375	28328.21
712.719	28339.06
713.063	28271.94
713.407	28257.03
713.75	28133.86
714.094	28120.31
714.438	28093.87
714.782	28101.32
715.125	27860.88
715.469	27916.24
715.812	27779.98
716.156	27599.87
716.499	27728.23
716.843	27704.5
717.186	27519.19
717.53	27645.52
717.873	27646.65
718.216	27483.26
718.559	27367.33
718.902	27206.43
719.246	27272.42
719.589	27191.52
719.932	27027.45
720.275	27079.43
720.617	27002.14
720.96	26958.08
721.303	26966.89
721.646	27000.11
721.989	26849.38
722.331	26942.48
722.674	26888.25
723.016	26959.21
723.359	26740.46
723.701	26786.78
724.044	26552.44
724.386	26453.46
724.729	26667.01
725.071	26540.23
725.413	26528.94
725.755	26440.12
726.097	26338.43
726.439	26288.04
726.782	26267.93
727.124	26424.53
727.465	26104.09
727.807	26140.24
728.149	26151.54
728.491	26065.9
728.833	26141.15
729.175	26025.67
729.516	25849.41
729.858	25874.94
730.199	26011.66
730.541	25860.48
730.882	25759.24
731.224	25881.95
731.565	25658.45
731.906	25660.71
732.248	25778.67
732.589	25592.91
732.93	25445.57
733.271	25630.43
733.612	25572.35
733.953	25509.75
734.294	25433.37
734.635	25389.76
734.976	25493.48
735.317	25326.93
735.658	25296.43
735.999	25349.53
736.339	25285.13
736.68	25273.15
737.021	25239.93
737.361	25098.92
737.702	25207.39
738.042	25098.24
738.383	25102.08
738.723	24997.68
739.063	25091.68
739.404	25005.81
739.744	24952.25
740.084	24939.82
740.424	24980.5
740.764	24862.09
741.104	24916.55
741.444	24693.96
741.784	24656.89
742.124	24741.86
742.464	24629.78
742.804	24646.72
743.143	24593.39
743.483	24631.81
743.823	24540.06
744.162	24536.45
744.502	24578.48
744.841	24341.87
745.181	24527.41
745.52	24319.5
745.86	24387.07
746.199	24412.83
746.538	24336.68
746.877	24299.84
747.216	24267.53
747.556	24267.75
747.895	24224.82
748.234	23985.95
748.573	24009.45
748.911	24016.46
749.25	24000.19
749.589	23951.6
749.928	24024.14
750.267	24000.87
750.605	23938.95
750.944	23825.5
751.283	23723.59
751.621	23700.54
751.96	23588
752.298	23707.99
752.636	23597.49
752.975	23535.12
753.313	23468.22
753.651	23515.91
753.989	23427.55
754.327	23455.12
754.666	23310.71
755.004	23327.89
755.342	23310.49
755.679	23217.38
756.017	23150.27
756.355	23275.69
756.693	22994.79
757.031	23142.81
757.368	23007.67
757.706	23003.83
758.044	22865.3
758.381	23016.49
758.719	22841.57
759.056	22875.92
759.394	22732.65
759.731	22675.25
760.068	22660.56
760.405	22612.2
760.743	22442.04
761.08	22489.95
