Data from hue_220_FLMS001491_00011.txt Node
Date: Tue Feb 07 16:38:35 GMT 2017
User: dcchb
Spectrometer: FLMS00149
Trigger mode: 0
Integration Time (sec): 2.000000E-2
Scans to average: 10
Electric dark correction enabled: true
Nonlinearity correction enabled: false
Boxcar width: 0
XAxis mode: Wavelengths
Number of Pixels in Spectrum: 2048
>>>>>Begin Spectral Data<<<<<
341.393	-15.8
341.776	-15.8
342.16	-15.8
342.543	-63.49
342.927	-42.92
343.31	-66.88
343.693	-69.59
344.077	-59.42
344.46	-57.39
344.843	-63.26
345.226	-46.99
345.61	-47.44
345.993	-23.49
346.376	-3.6
346.759	20.58
347.142	12.22
347.525	47.7
347.908	75.49
348.291	79.79
348.674	104.19
349.057	98.09
349.44	141.93
349.823	150.74
350.206	172.66
350.588	195.26
350.971	208.14
351.354	204.3
351.737	225.77
352.119	245.21
352.502	268.26
352.884	256.73
353.267	284.3
353.65	276.84
354.032	286.56
354.414	292.89
354.797	317.75
355.179	303.06
355.562	316.84
355.944	314.36
356.326	325.2
356.709	320.23
357.091	321.36
357.473	337.18
357.855	336.05
358.238	328.14
358.62	331.76
359.002	328.14
359.384	322.72
359.766	340.8
360.148	352.32
360.53	334.02
360.912	326.56
361.294	334.24
361.676	316.62
362.057	335.82
362.439	324.98
362.821	334.47
363.203	303.96
363.584	304.86
363.966	302.38
364.348	340.12
364.729	314.13
365.111	318.42
365.493	335.6
365.874	303.06
366.256	287.01
366.637	305.54
367.019	315.49
367.4	300.8
367.781	316.39
368.163	335.82
368.544	334.69
368.925	301.02
369.306	321.59
369.688	301.02
370.069	303.96
370.45	286.79
370.831	301.7
371.212	330.17
371.593	298.54
371.974	314.81
372.355	292.89
372.736	310.06
373.117	308.48
373.498	315.71
373.879	299.22
374.26	298.99
374.641	313.9
375.021	304.41
375.402	311.19
375.783	300.35
376.163	331.3
376.544	321.81
376.925	327.69
377.305	322.27
377.686	302.15
378.066	298.54
378.447	340.12
378.827	321.81
379.208	306.22
379.588	325.43
379.968	329.5
380.349	322.27
380.729	309.38
381.109	317.07
381.489	339.44
381.87	333.34
382.25	334.02
382.63	339.89
383.01	336.28
383.39	339.21
383.77	338.99
384.15	329.5
384.53	340.57
384.91	352.77
385.29	346.45
385.67	355.71
386.049	353.23
386.429	343.28
386.809	350.06
387.189	357.74
387.568	344.86
387.948	361.81
388.328	341.25
388.707	353.23
389.087	352.77
389.466	379.44
389.846	352.1
390.225	338.08
390.605	360.91
390.984	370.63
391.363	359.55
391.743	380.34
392.122	362.49
392.501	362.49
392.881	377.41
393.26	370.85
393.639	372.21
394.018	372.66
394.397	378.31
394.776	384.18
395.155	370.85
395.534	374.24
395.913	391.19
396.292	390.96
396.671	402.49
397.05	384.86
397.429	385.99
397.808	376.28
398.186	405.65
398.565	388.03
398.944	386.44
399.323	389.16
399.701	387.57
400.08	400.91
400.458	386.9
400.837	408.82
401.215	435.03
401.594	408.82
401.972	425.99
402.351	414.24
402.729	411.98
403.107	427.8
403.486	413.11
403.864	428.03
404.242	433.68
404.62	437.74
404.999	431.42
405.377	447.01
405.755	457.4
406.133	441.13
406.511	427.12
406.889	468.48
407.267	457.63
407.645	449.49
408.023	482.71
408.401	480.45
408.779	484.97
409.156	488.59
409.534	501.92
409.912	483.84
410.29	509.83
410.667	477.74
411.045	522.03
411.422	511.64
411.8	512.32
412.178	549.38
412.555	543.28
412.933	538.08
413.31	563.84
413.687	560.68
414.065	561.13
414.442	583.28
414.819	599.32
415.197	612.65
415.574	590.51
415.951	627.12
416.328	641.58
416.705	619.88
417.082	628.47
417.46	658.98
417.837	673.22
418.214	648.81
418.591	667.12
418.967	689.94
419.344	678.64
419.721	686.1
420.098	715.7
420.475	703.95
420.852	718.19
421.228	736.72
421.605	724.06
421.982	764.06
422.358	793.67
422.735	759.32
423.111	779.43
423.488	794.12
423.864	782.37
424.241	827.79
424.617	850.16
424.994	860.1
425.37	872.31
425.746	870.73
426.123	895.36
426.499	905.3
426.875	907.56
427.251	938.29
427.627	951.85
428.003	968.58
428.379	970.84
428.756	950.95
429.132	982.59
429.507	969.71
429.883	985.52
430.259	1040.21
430.635	1011.06
431.011	1070.27
431.387	1049.03
431.763	1084.28
432.138	1087.9
432.514	1099.65
432.89	1127.67
433.265	1131.28
433.641	1159.08
434.016	1178.97
434.392	1197.27
434.767	1206.31
435.143	1231.39
435.518	1282.69
435.894	1248.79
436.269	1327.44
436.644	1320.66
437.02	1317.49
437.395	1373.99
437.77	1378.28
438.145	1417.6
438.52	1431.16
438.895	1450.6
439.271	1454.67
439.646	1483.14
440.021	1499.18
440.395	1520.43
440.77	1516.81
441.145	1534.89
441.52	1609.46
441.895	1579.86
442.27	1583.02
442.645	1646.07
443.019	1638.16
443.394	1626.19
443.769	1666.86
444.143	1675.45
444.518	1691.5
444.892	1684.94
445.267	1696.69
445.641	1734.66
446.016	1776.46
446.39	1761.1
446.764	1790.48
447.139	1764.94
447.513	1820.98
447.887	1792.51
448.262	1846.07
448.636	1806.29
449.01	1833.41
449.384	1839.97
449.758	1851.72
450.132	1880.87
450.506	1913.86
450.88	1905.05
451.254	1910.47
451.628	1938.72
452.002	1966.52
452.376	1990.24
452.75	1998.38
453.123	1992.28
453.497	2048.77
453.871	2089.22
454.244	2126.74
454.618	2121.77
454.992	2156.12
455.365	2160.64
455.739	2190.47
456.112	2196.34
456.486	2228.88
456.859	2241.09
457.232	2251.03
457.606	2259.16
457.979	2294.42
458.352	2359.27
458.725	2351.36
459.099	2392.27
459.472	2421.42
459.845	2424.81
460.218	2475.43
460.591	2478.82
460.964	2498.93
461.337	2546.39
461.71	2544.81
462.083	2587.97
462.456	2616.67
462.829	2605.82
463.201	2624.58
463.574	2668.87
463.947	2723.11
464.32	2776.44
464.692	2752.94
465.065	2791.35
465.438	2852.82
465.81	2874.51
466.183	2899.82
466.555	2951.57
466.928	2954.51
467.3	2973.72
467.672	3006.26
468.045	3078.58
468.417	3062.53
468.789	3099.14
469.161	3110.89
469.534	3147.5
469.906	3229.31
470.278	3246.93
470.65	3294.62
471.022	3354.5
471.394	3427.27
471.766	3425.69
472.138	3431.56
472.51	3545.23
472.882	3548.4
473.253	3583.2
473.625	3628.39
473.997	3680.82
474.369	3738.67
474.74	3753.36
475.112	3815.06
475.484	3833.81
475.855	3886.01
476.227	3956.75
476.598	4024.09
476.97	4095.95
477.341	4134.82
477.713	4240.81
478.084	4185.67
478.455	4320.8
478.827	4304.76
479.198	4449.61
479.569	4436.51
479.94	4570.74
480.311	4620.68
480.682	4690.96
481.053	4791.53
481.424	4800.57
481.795	4847.8
482.166	4907.91
482.537	5000.11
482.908	5076.72
483.279	5087.79
483.65	5159.43
484.021	5307.22
484.391	5292.3
484.762	5310.61
485.133	5375.01
485.503	5447.1
485.874	5566.2
486.244	5562.58
486.615	5648
486.985	5741.56
487.356	5790.14
487.726	5845.74
488.097	5944.94
488.467	5948.56
488.837	6071.72
489.207	6080.98
489.578	6208.66
489.948	6264.71
490.318	6327.31
490.688	6325.05
491.058	6435.78
491.428	6484.82
491.798	6509.9
492.168	6606.39
492.538	6643.23
492.908	6702.44
493.278	6786.73
493.648	6772.49
494.017	6872.83
494.387	6917.8
494.757	6992.6
495.126	7006.38
495.496	6976.33
495.866	7008.87
496.235	7068.3
496.605	7126.83
496.974	7144.23
497.344	7188.53
497.713	7236.21
498.082	7212.48
498.452	7331.8
498.821	7340.61
499.19	7383.1
499.559	7429.2
499.928	7438.91
500.298	7459.48
500.667	7531.34
501.036	7478.24
501.405	7619.25
501.774	7577.67
502.143	7561.85
502.512	7636.42
502.88	7653.6
503.249	7649.76
503.618	7702.64
503.987	7732.24
504.356	7795.06
504.724	7825.35
505.093	7755.06
505.462	7745.35
505.83	7879.58
506.199	7851.11
506.567	7975.85
506.936	7918.45
507.304	7917.32
507.672	7967.49
508.041	7984.21
508.409	7999.35
508.777	8051.78
509.145	8093.81
509.514	8114.83
509.882	8127.03
510.25	8117.31
510.618	8143.08
510.986	8117.31
511.354	8208.84
511.722	8265.33
512.09	8192.79
512.458	8231.89
512.826	8239.12
513.193	8259.46
513.561	8246.12
513.929	8345.56
514.297	8342.62
514.664	8398.89
515.032	8345.11
515.4	8331.77
515.767	8408.61
516.135	8353.47
516.502	8276.63
516.869	8422.17
517.237	8379.68
517.604	8261.72
517.972	8392.34
518.339	8457.19
518.706	8359.34
519.073	8418.1
519.44	8402.28
519.808	8499.9
520.175	8448.15
520.542	8521.82
520.909	8539
521.276	8507.59
521.643	8515.27
522.009	8508.04
522.376	8565.21
522.743	8563.4
523.11	8590.52
523.477	8623.52
523.843	8623.29
524.21	8690.18
524.577	8606.79
524.943	8614.48
525.31	8665.1
525.676	8717.07
526.043	8734.7
526.409	8737.64
526.776	8791.65
527.142	8784.87
527.508	8752.1
527.874	8727.02
528.241	8762.04
528.607	8712.33
528.973	8815.83
529.339	8729.05
529.705	8731.31
530.071	8784.64
530.437	8790.97
530.803	8809.5
531.169	8818.99
531.535	8767.24
531.901	8771.08
532.267	8701.48
532.632	8665.1
532.998	8716.85
533.364	8800.46
533.73	8740.58
534.095	8777.64
534.461	8734.93
534.826	8717.53
535.192	8671.42
535.557	8748.71
535.923	8667.81
536.288	8706.45
536.653	8701.25
537.019	8632.78
537.384	8666
537.749	8591.88
538.114	8619
538.479	8649.28
538.845	8541.71
539.21	8485.21
539.575	8566.34
539.94	8529.51
540.305	8544.87
540.67	8510.07
541.034	8476.63
541.399	8506.91
541.764	8498.77
542.129	8449.28
542.494	8407.02
542.858	8356.4
543.223	8361.83
543.587	8431.2
543.952	8348.72
544.316	8307.37
544.681	8296.75
545.045	8306.01
545.41	8336.74
545.774	8323.86
546.138	8156.86
546.503	8225.79
546.867	8221.72
547.231	8253.81
547.595	8230.08
547.959	8178.33
548.324	8197.31
548.688	8060.14
549.052	8178.33
549.416	8080.25
549.779	7999.35
550.143	8094.49
550.507	8058.11
550.871	8036.41
551.235	7991.89
551.599	8010.42
551.962	8038.67
552.326	7922.74
552.689	8032.12
553.053	7949.86
553.417	7927.94
553.78	7949.18
554.143	7949.64
554.507	7972.91
554.87	7896.76
555.234	7963.87
555.597	7859.92
555.96	7909.86
556.323	7887.72
556.686	7869.19
557.05	7890.88
557.413	7875.51
557.776	7840.49
558.139	7910.09
558.502	7875.06
558.865	7911.67
559.228	7858.79
559.59	7855.85
559.953	7786.02
560.316	7894.04
560.679	7853.82
561.041	7877.1
561.404	7891.11
561.767	7947.15
562.129	7833.25
562.492	7923.2
562.854	7861.95
563.217	7904.67
563.579	7843.42
563.941	7899.47
564.304	7919.58
564.666	7943.08
565.028	7914.38
565.39	7897.66
565.753	7962.97
566.115	7995.51
566.477	7964.55
566.839	8034.83
567.201	7961.16
567.563	8030.76
567.925	8076.64
568.287	8078.45
568.648	8037.54
569.01	8048.84
569.372	8067.37
569.734	8061.5
570.095	8083.42
570.457	8113.7
570.819	8108.5
571.18	8117.77
571.542	8111.67
571.903	8172.45
572.265	8157.54
572.626	8205.67
572.987	8183.3
573.349	8189.86
573.71	8259.23
574.071	8276.63
574.432	8279.12
574.794	8331.09
575.155	8300.36
575.516	8220.59
575.877	8281.15
576.238	8317.31
576.599	8421.49
576.96	8368.83
577.32	8477.76
577.681	8383.07
578.042	8433.92
578.403	8449.74
578.763	8365.44
579.124	8487.93
579.485	8483.63
579.845	8515.27
580.206	8502.84
580.566	8481.15
580.927	8519.56
581.287	8496.29
581.648	8539.68
582.008	8546.46
582.368	8588.49
582.728	8566.12
583.089	8625.55
583.449	8556.4
583.809	8619.22
584.169	8718.65
584.529	8640.92
584.889	8709.39
585.249	8645.66
585.609	8705.32
585.969	8733.34
586.329	8703.97
586.688	8706.23
587.048	8785.09
587.408	8719.78
587.768	8758.43
588.127	8765.43
588.487	8771.99
588.846	8863.74
589.206	8788.71
589.565	8767.47
589.925	8896.28
590.284	8847.69
590.643	8885.43
591.003	8892.44
591.362	8933.11
591.721	8921.59
592.08	8911.87
592.44	8941.25
592.799	8891.76
593.158	8931.53
593.517	8985.77
593.876	8985.09
594.235	8960.23
594.593	8957.97
594.952	8984.41
595.311	8964.75
595.67	8994.81
596.029	9011.53
596.387	8993
596.746	9075.03
597.104	9016.05
597.463	8983.73
597.822	8968.82
598.18	8994.35
598.538	9020.79
598.897	9089.72
599.255	9065.54
599.613	9164.07
599.972	9082.26
600.33	9179.43
600.688	9000.46
601.046	9093.33
601.404	9131.75
601.762	9150.28
602.12	9158.42
602.478	9189.6
602.836	9171.52
603.194	9105.76
603.552	9157.06
603.91	9097.63
604.268	9153.9
604.625	9135.82
604.983	9240
605.341	9196.38
605.698	9192.09
606.056	9236.38
606.413	9208.36
606.771	9191.41
607.128	9172.88
607.485	9235.93
607.843	9240.22
608.2	9193.44
608.557	9256.27
608.914	9213.11
609.272	9378.98
609.629	9320.22
609.986	9300.11
610.343	9271.18
610.7	9322.25
611.057	9280
611.414	9286.55
611.771	9358.19
612.127	9373.55
612.484	9358.41
612.841	9399.54
613.198	9343.05
613.554	9312.99
613.911	9442.48
614.267	9418.3
614.624	9363.61
614.98	9409.71
615.337	9479.99
615.693	9449.71
616.05	9396.15
616.406	9462.82
616.762	9436.6
617.118	9475.7
617.475	9380.78
617.831	9448.13
618.187	9479.31
618.543	9423.27
618.899	9524.96
619.255	9504.4
619.611	9564.73
619.967	9559.99
620.323	9545.53
620.678	9524.06
621.034	9553.44
621.39	9534
621.746	9423.5
622.101	9577.84
622.457	9507.11
622.812	9560.21
623.168	9552.98
623.523	9536.26
623.879	9560.44
624.234	9467.79
624.589	9549.14
624.945	9512.53
625.3	9593.21
625.655	9511.85
626.01	9572.64
626.365	9561.34
626.72	9540.1
627.075	9557.5
627.43	9517.05
627.785	9478.41
628.14	9558.63
628.495	9590.72
628.85	9528.13
629.205	9464.4
629.559	9526.32
629.914	9463.27
630.269	9468.47
630.623	9473.44
630.978	9490.39
631.332	9485.19
631.687	9513.66
632.041	9419.65
632.396	9445.87
632.75	9378.3
633.104	9410.16
633.459	9390.28
633.813	9392.76
634.167	9329.71
634.521	9323.84
634.875	9338.3
635.229	9367.9
635.583	9358.64
635.937	9373.55
636.291	9269.37
636.645	9295.59
636.999	9260.11
637.352	9222.6
637.706	9247.91
638.06	9298.75
638.413	9291.52
638.767	9257.62
639.121	9290.17
639.474	9224.63
639.828	9201.81
640.181	9212.88
640.534	9262.37
640.888	9220.56
641.241	9164.07
641.594	9225.08
641.947	9191.64
642.301	9174.91
642.654	9139.89
643.007	9169.72
643.36	9169.94
643.713	9148.7
644.066	9142.37
644.419	9129.04
644.771	9071.87
645.124	8996.61
645.477	8909.38
645.83	8884.53
646.182	8837.07
646.535	8810.4
646.888	8802.95
647.24	8751.87
647.593	8827.58
647.945	8852.21
648.298	8835.71
648.65	8763.85
649.002	8777.64
649.355	8845.66
649.707	8809.27
650.059	8833.68
650.411	8892.66
650.763	8891.76
651.115	9034.8
651.467	8982.6
651.819	9005.65
652.171	8992.09
652.523	8973.34
652.875	8983.05
653.227	8971.53
653.578	9068.02
653.93	8989.61
654.282	8976.5
654.633	8944.19
654.985	8964.52
655.337	8957.07
655.688	8990.06
656.039	9016.95
656.391	8988.25
656.742	8932.21
657.094	8989.16
657.445	9021.47
657.796	8944.86
658.147	8971.53
658.498	8998.87
658.849	9094.01
659.2	9048.36
659.551	8990.96
659.902	9019.21
660.253	8969.5
660.604	9047.46
660.955	8985.77
661.306	9014.24
661.656	9099.66
662.007	9055.14
662.358	9017.63
662.708	8998.42
663.059	9019.44
663.409	8989.83
663.76	9027.57
664.11	8965.65
664.461	9060.57
664.811	9097.4
665.161	9075.71
665.511	9024.86
665.862	9103.5
666.212	9103.96
666.562	9037.06
666.912	9111.64
667.262	9022.38
667.612	9081.58
667.962	9058.08
668.312	9068.25
668.662	9127.01
669.011	9031.64
669.361	9062.15
669.711	9057.18
670.06	8988.93
670.41	9047.46
670.76	9081.81
671.109	9098.31
671.459	8993
671.808	8994.58
672.157	8920.68
672.507	8925.2
672.856	8941.93
673.205	8932.21
673.554	9000.23
673.904	8956.84
674.253	9032.09
674.602	9001.36
674.951	8827.58
675.3	8766.11
675.649	8895.83
675.998	8923.85
676.346	8921.14
676.695	8950.06
677.044	8909.84
677.393	8909.38
677.741	8912.55
678.09	8870.06
678.438	8849.72
678.787	8851.76
679.135	8806.34
679.484	8797.97
679.832	8843.62
680.181	8771.31
680.529	8777.41
680.877	8820.8
681.225	8741.48
681.573	8794.36
681.922	8770.86
682.27	8723.63
682.618	8745.09
682.966	8691.99
683.314	8721.37
683.661	8683.18
684.009	8599.56
684.357	8607.7
684.705	8591.43
685.053	8619.9
685.4	8588.71
685.748	8532.67
686.095	8530.86
686.443	8474.59
686.79	8468.04
687.138	8540.13
687.485	8426.91
687.832	8481.37
688.18	8462.84
688.527	8340.81
688.874	8355.05
689.221	8348.95
689.568	8312.79
689.915	8330.87
690.262	8300.81
690.609	8254.49
690.956	8207.71
691.303	8237.54
691.65	8163.19
691.997	8216.52
692.344	8113.7
692.69	8082.06
693.037	8136.75
693.383	8027.37
693.73	8038.22
694.077	7951.22
694.423	8029.63
694.769	8028.96
695.116	7900.15
695.462	7932.69
695.808	7867.83
696.155	7911.9
696.501	7821.96
696.847	7825.35
697.193	7711
697.539	7801.16
697.885	7690.89
698.231	7664.9
698.577	7698.12
698.923	7637.33
699.269	7646.37
699.614	7636.65
699.96	7546.48
700.306	7590.1
700.651	7480.72
700.997	7448.86
701.342	7414.06
701.688	7379.93
702.033	7362.98
702.379	7399.37
702.724	7424.45
703.069	7361.85
703.415	7261.52
703.76	7247.28
704.105	7229.65
704.45	7230.56
704.795	7204.57
705.14	7145.59
705.485	7172.93
705.83	7132.48
706.175	7090.45
706.52	7134.52
706.865	7018.13
707.209	7061.07
707.554	6997.8
707.899	7025.14
708.243	6975.2
708.588	6959.83
708.932	6918.48
709.277	6913.73
709.621	6904.24
709.966	6870.12
710.31	6874.18
710.654	6871.47
710.998	6828.31
711.342	6824.69
711.687	6881.42
712.031	6805.03
712.375	6792.38
712.719	6723
713.063	6729.1
713.407	6753.51
713.75	6684.58
714.094	6693.62
714.438	6707.63
714.782	6661.99
715.125	6698.82
715.469	6677.13
715.812	6619.95
716.156	6599.61
716.499	6590.58
716.843	6656.11
717.186	6582.44
717.53	6647.07
717.873	6591.25
718.216	6584.47
718.559	6558.26
718.902	6497.7
719.246	6532.27
719.589	6494.08
719.932	6476.91
720.275	6505.38
720.617	6473.52
720.96	6496.57
721.303	6477.58
721.646	6465.61
721.989	6443.46
722.331	6444.14
722.674	6452.05
723.016	6324.59
723.359	6396.68
723.701	6439.84
724.044	6389.22
724.386	6347.42
724.729	6483.01
725.071	6358.27
725.413	6439.39
725.755	6377.02
726.097	6297.93
726.439	6356.91
726.782	6346.29
727.124	6391.26
727.465	6351.03
727.807	6338.6
728.149	6293.41
728.491	6332.28
728.833	6352.62
729.175	6342.67
729.516	6359.85
729.858	6319.85
730.199	6309.9
730.541	6308.1
730.882	6305.39
731.224	6347.87
731.565	6291.37
731.906	6349.68
732.248	6296.12
732.589	6334.54
732.93	6353.07
733.271	6320.53
733.612	6293.86
733.953	6338.15
734.294	6280.53
734.635	6231.49
734.976	6294.54
735.317	6305.39
735.658	6295.22
735.999	6353.07
736.339	6335.67
736.68	6353.29
737.021	6347.87
737.361	6351.26
737.702	6367.98
738.042	6320.98
738.383	6305.84
738.723	6361.88
739.063	6332.95
739.404	6438.26
739.744	6372.95
740.084	6374.76
740.424	6403.69
740.764	6393.07
741.104	6473.06
741.444	6450.92
741.784	6440.3
742.124	6491.59
742.464	6449.34
742.804	6488.88
743.143	6525.49
743.483	6465.15
743.823	6487.53
744.162	6551.93
744.502	6636.45
744.841	6623.79
745.181	6672.61
745.52	6631.93
745.86	6637.35
746.199	6696.56
746.538	6774.3
746.877	6773.17
747.216	6835.77
747.556	6814.07
747.895	6929.32
748.234	6926.61
748.573	6981.3
748.911	6979.94
749.25	7058.13
749.589	7126.15
749.928	7205.02
750.267	7285.02
750.605	7311.46
750.944	7337.67
751.283	7428.07
751.621	7533.15
751.96	7561.4
752.298	7684.11
752.636	7732.24
752.975	7736.31
753.313	7900.82
753.651	7997.09
753.989	8096.07
754.327	8189.86
754.666	8258.78
755.004	8407.02
755.342	8544.65
755.679	8670.52
756.017	8728.37
756.355	8823.74
756.693	8925.88
757.031	9139.89
757.368	9303.27
757.706	9347.11
758.044	9533.32
758.381	9727.44
758.719	9833.65
759.056	9935.8
759.394	10143.93
759.731	10200.65
760.068	10355.67
760.405	10573.3
760.743	10657.59
761.08	10921.76
761.417	10903.23
761.754	11199.49
762.091	11373.73
762.428	11469.54
762.765	11618.24
763.102	11832.02
763.438	11974.39
763.775	12172.58
764.112	12383.42
764.449	12617.76
764.785	12599.46
765.122	12792.45
765.458	12942.72
765.795	13106.79
766.131	13268.14
766.467	13473.33
766.804	13523.05
767.14	13665.64
767.476	13844.62
767.812	13895.69
768.148	14184.5
768.485	14308.56
768.821	14408.22
