Data from hue_00_FLMS001491_10.txt Node
Date: Mon Feb 06 15:29:12 GMT 2017
User: dcchb
Spectrometer: FLMS00149
Trigger mode: 0
Integration Time (sec): 2.000000E-2
Scans to average: 10
Electric dark correction enabled: true
Nonlinearity correction enabled: false
Boxcar width: 0
XAxis mode: Wavelengths
Number of Pixels in Spectrum: 2048
>>>>>Begin Spectral Data<<<<<
341.393	-13.59
341.776	-13.59
342.16	-13.59
342.543	-58.11
342.927	-62.85
343.31	-68.5
343.693	-76.64
344.077	-66.47
344.46	-65.34
344.843	-50.2
345.226	-47.26
345.61	-49.74
345.993	-28.05
346.376	-9.75
346.759	9.46
347.142	32.06
347.525	48.33
347.908	79.74
348.291	78.16
348.674	100.99
349.057	113.19
349.44	140.76
349.823	143.92
350.206	152.51
350.588	196.35
350.971	211.04
351.354	199.06
351.737	243.58
352.119	250.13
352.502	261.89
352.884	276.35
353.267	278.83
353.65	305.5
354.032	286.97
354.414	304.37
354.797	292.17
355.179	319.29
355.562	320.64
355.944	329.45
356.326	331.26
356.709	331.04
357.091	348.89
357.473	353.18
357.855	342.11
358.238	343.24
358.62	364.03
359.002	319.29
359.384	355.22
359.766	342.79
360.148	339.85
360.53	352.5
360.912	322
361.294	336.69
361.676	318.16
362.057	324.93
362.439	332.17
362.821	322.68
363.203	345.73
363.584	315.44
363.966	303.47
364.348	302.79
364.729	315.44
365.111	320.64
365.493	321.09
365.874	334.88
366.256	307.76
366.637	319.96
367.019	301.21
367.4	310.92
367.781	306.4
368.163	317.48
368.544	314.09
368.925	302.56
369.306	307.53
369.688	311.15
370.069	328.78
370.45	305.95
370.831	306.18
371.212	308.44
371.593	331.49
371.974	325.61
372.355	320.87
372.736	336.46
373.117	317.03
373.498	336.46
373.879	291.04
374.26	309.79
374.641	295.56
375.021	292.85
375.402	314.09
375.783	336.46
376.163	336.91
376.544	332.84
376.925	320.19
377.305	318.61
377.686	313.41
378.066	322.68
378.447	312.05
378.827	347.53
379.208	331.49
379.588	322.9
379.968	349.79
380.349	328.32
380.729	345.73
381.109	340.08
381.489	334.65
381.87	336.23
382.25	338.49
382.63	310.25
383.01	335.78
383.39	343.24
383.77	325.84
384.15	323.58
384.53	357.93
384.91	335.78
385.29	355.44
385.67	344.37
386.049	366.74
386.429	368.32
386.809	374.2
387.189	346.63
387.568	342.11
387.948	366.29
388.328	348.66
388.707	335.1
389.087	373.3
389.466	360.19
389.846	345.05
390.225	347.76
390.605	365.61
390.984	369.45
391.363	357.7
391.743	354.76
392.122	374.2
392.501	361.77
392.881	365.61
393.26	363.13
393.639	362.45
394.018	387.53
394.397	367.87
394.776	368.78
395.155	392.96
395.534	377.81
395.913	380.3
396.292	397.7
396.671	382.33
397.05	403.58
397.429	380.98
397.808	384.14
398.186	378.94
398.565	388.66
398.944	380.75
399.323	373.97
399.701	398.38
400.08	381.66
400.458	389.57
400.837	392.96
401.215	413.29
401.594	391.83
401.972	391.83
402.351	408.55
402.729	383.24
403.107	388.89
403.486	414.2
403.864	422.79
404.242	400.87
404.62	401.77
404.999	418.72
405.377	425.27
405.755	398.38
406.133	396.12
406.511	420.75
406.889	421.88
407.267	427.98
407.645	425.5
408.023	444.71
408.401	424.14
408.779	427.08
409.156	427.76
409.534	442.67
409.912	435.89
410.29	425.72
410.667	456
411.045	449.9
411.422	468.66
411.8	450.13
412.178	440.64
412.555	464.59
412.933	456.91
413.31	449
413.687	458.94
414.065	475.44
414.442	498.26
414.819	457.59
415.197	475.21
415.574	472.73
415.951	496.23
416.328	498.49
416.705	512.95
417.082	473.18
417.46	507.98
417.837	495.55
418.214	505.27
418.591	483.12
418.967	512.05
419.344	512.27
419.721	518.15
420.098	519.51
420.475	525.16
420.852	519.05
421.228	527.19
421.605	510.69
421.982	536.45
422.358	526.29
422.735	528.55
423.111	561.54
423.488	546.4
423.864	543.23
424.241	540.52
424.617	538.71
424.994	565.15
425.37	570.58
425.746	587.75
426.123	585.72
426.499	559.28
426.875	575.55
427.251	569.9
427.627	578.49
428.003	579.39
428.379	582.56
428.756	595.21
429.132	613.06
429.507	613.06
429.883	594.08
430.259	626.4
430.635	632.95
431.011	639.95
431.387	640.86
431.763	607.87
432.138	647.64
432.514	635.89
432.89	634.76
433.265	643.12
433.641	689.67
434.016	658.49
434.392	675.66
434.767	695.32
435.143	678.6
435.518	698.03
435.894	682.44
436.269	700.07
436.644	681.31
437.02	707.98
437.395	705.49
437.77	687.41
438.145	697.35
438.52	685.6
438.895	732.38
439.271	737.13
439.646	752.72
440.021	753.85
440.395	734.64
440.77	755.43
441.145	752.95
441.52	779.84
441.895	773.06
442.27	761.53
442.645	773.51
443.019	774.64
443.394	759.73
443.769	780.97
444.143	791.36
444.518	792.72
444.892	774.87
445.267	801.31
445.641	792.49
446.016	801.31
446.39	811.25
446.764	820.06
447.139	808.09
447.513	808.76
447.887	802.66
448.262	866.84
448.636	852.83
449.01	846.73
449.384	863
449.758	830.01
450.132	849.44
450.506	838.14
450.88	851.25
451.254	867.29
451.628	877.01
452.002	888.54
452.376	865.26
452.75	906.39
453.123	893.96
453.497	909.1
453.871	910.68
454.244	971.7
454.618	929.44
454.992	955.2
455.365	956.1
455.739	954.52
456.112	968.99
456.486	983.67
456.859	989.32
457.232	971.7
457.606	1001.08
457.979	995.2
458.352	1016.22
458.725	1031.58
459.099	1033.39
459.472	1048.53
459.845	1048.76
460.218	1057.57
460.591	1049.44
460.964	1058.7
461.337	1090.79
461.71	1142.31
462.083	1111.81
462.456	1124.24
462.829	1103.9
463.201	1125.37
463.574	1163.78
463.947	1157.91
464.32	1189.09
464.692	1168.08
465.065	1169.88
465.438	1190.67
465.81	1234.29
466.183	1217.34
466.555	1255.53
466.928	1230.67
467.3	1226.15
467.672	1281.29
468.045	1313.16
468.417	1315.19
468.789	1305.93
469.161	1358.81
469.534	1341.86
469.906	1412.36
470.278	1364.46
470.65	1388.18
471.022	1432.93
471.394	1431.57
471.766	1443.1
472.138	1479.25
472.51	1507.95
472.882	1519.03
473.253	1545.69
473.625	1575.52
473.997	1582.3
474.369	1612.36
474.74	1621.62
475.112	1648.52
475.484	1678.57
475.855	1691.45
476.227	1719.7
476.598	1755.63
476.97	1757.67
477.341	1790.89
477.713	1807.16
478.084	1833.6
478.455	1905.01
478.827	1900.03
479.198	1947.49
479.569	1953.82
479.94	2037.43
480.311	2057.32
480.682	2100.03
481.053	2119.46
481.424	2165.56
481.795	2174.38
482.166	2227.48
482.537	2254.38
482.908	2289.86
483.279	2308.61
483.65	2354.26
484.021	2412.56
484.391	2461.83
484.762	2452.79
485.133	2481.26
485.503	2514.26
485.874	2585.44
486.244	2614.82
486.615	2681.03
486.985	2654.37
487.356	2760.35
487.726	2766.23
488.097	2805.1
488.467	2804.64
488.837	2898.88
489.207	2918.31
489.578	2968.03
489.948	3010.51
490.318	3050.51
490.688	3086.9
491.058	3100.46
491.428	3142.04
491.798	3280.11
492.168	3244.18
492.538	3229.94
492.908	3307.23
493.278	3348.36
493.648	3363.27
494.017	3408.24
494.387	3448.92
494.757	3470.39
495.126	3556.49
495.496	3571.18
495.866	3515.81
496.235	3565.98
496.605	3631.74
496.974	3649.59
497.344	3704.73
497.713	3702.47
498.082	3751.06
498.452	3801.45
498.821	3796.26
499.19	3825.63
499.559	3860.21
499.928	3861.11
500.298	3936.37
500.667	3946.08
501.036	3916.93
501.405	3965.07
501.774	4034.89
502.143	3993.99
502.512	4028.79
502.88	4037.61
503.249	4052.52
503.618	4105.17
503.987	4130.03
504.356	4160.09
504.724	4181.78
505.093	4169.13
505.462	4201.22
505.83	4220.43
506.199	4232.18
506.567	4323.7
506.936	4334.32
507.304	4285.28
507.672	4392.85
508.041	4375
508.409	4411.38
508.777	4424.49
509.145	4466.29
509.514	4454.09
509.882	4489.8
510.25	4511.49
510.618	4500.42
510.986	4496.8
511.354	4551.72
511.722	4603.47
512.09	4666.97
512.458	4581.77
512.826	4648.44
513.193	4658.83
513.561	4725.5
513.929	4675.56
514.297	4737.47
514.664	4779.73
515.032	4796.91
515.4	4846.4
515.767	4804.59
516.135	4816.79
516.502	4855.66
516.869	4894.53
517.237	4897.7
517.604	4883.46
517.972	4900.63
518.339	4946.96
518.706	5002.33
519.073	5000.97
519.44	5019.27
519.808	5074.41
520.175	5101.31
520.542	5115.77
520.909	5137.01
521.276	5130.91
521.643	5191.02
522.009	5195.09
522.376	5274.64
522.743	5220.4
523.11	5313.28
523.477	5327.97
523.843	5362.32
524.21	5459.49
524.577	5421.3
524.943	5437.79
525.31	5454.07
525.676	5485.48
526.043	5522.54
526.409	5524.57
526.776	5572.48
527.142	5588.75
527.508	5625.81
527.874	5634.63
528.241	5689.09
528.607	5734.06
528.973	5743.55
529.339	5750.33
529.705	5833.94
530.071	5833.04
530.437	5864.45
530.803	5881.63
531.169	5941.96
531.535	5956.65
531.901	6000.04
532.267	6036.88
532.632	6031
532.998	6066.48
533.364	6118.45
533.73	6126.59
534.095	6185.12
534.461	6159.13
534.826	6245.68
535.192	6183.31
535.557	6301.5
535.923	6327.94
536.288	6312.35
536.653	6342.86
537.019	6333.59
537.384	6359.58
537.749	6400.48
538.114	6417.66
538.479	6456.3
538.845	6437.32
539.21	6464.21
539.575	6525.22
539.94	6499.01
540.305	6519.8
540.67	6588.73
541.034	6622.85
541.399	6677.31
541.764	6739.68
542.129	6667.82
542.494	6680.7
542.858	6679.12
543.223	6762.96
543.587	6821.71
543.952	6808.15
544.316	6813.8
544.681	6884.31
545.045	6868.94
545.41	6885.21
545.774	6978.77
546.138	6947.81
546.503	6913.91
546.867	7012.22
547.231	7085.21
547.595	7009.96
547.959	7061.48
548.324	7121.37
548.688	7122.95
549.052	7120.01
549.416	7136.06
549.779	7184.19
550.143	7204.3
550.507	7247.24
550.871	7319.33
551.235	7303.73
551.599	7350.96
551.962	7367.01
552.326	7378.31
552.689	7417.63
553.053	7417.63
553.417	7415.6
553.78	7525.88
554.143	7456.05
554.507	7496.27
554.87	7520
555.234	7580.56
555.597	7631.86
555.96	7599.55
556.323	7727.45
556.686	7665.98
557.05	7732.2
557.413	7711.86
557.776	7726.32
558.139	7744.85
558.502	7835.47
558.865	7813.33
559.228	7879.76
559.59	7896.26
559.953	7875.02
560.316	7929.93
560.679	7986.2
561.041	8065.52
561.404	8049.93
561.767	8168.34
562.129	8056.48
562.492	8168.34
562.854	8156.82
563.217	8094.22
563.579	8208.8
563.941	8228.68
564.304	8315.01
564.666	8306.19
565.028	8359.98
565.39	8311.17
565.753	8419.19
566.115	8422.58
566.477	8484.72
566.839	8500.54
567.201	8480.2
567.563	8549.8
567.925	8572.85
568.287	8581.67
568.648	8608.78
569.01	8670.48
569.372	8737.82
569.734	8701.89
570.095	8776.46
570.457	8744.37
570.819	8858.04
571.18	8899.17
571.542	8950.24
571.903	8945.05
572.265	9026.18
572.626	9005.38
572.987	9039.28
573.349	9160.86
573.71	9210.8
574.071	9277.02
574.432	9284.02
574.794	9412.38
575.155	9393.17
575.516	9417.8
575.877	9531.7
576.238	9527.4
576.599	9592.04
576.96	9634.75
577.32	9773.27
577.681	9748.64
578.042	9881.75
578.403	10002.87
578.763	9970.33
579.124	10090.1
579.485	10188.18
579.845	10329.19
580.206	10294.16
580.566	10427.49
580.927	10547.49
581.287	10660.26
581.648	10804.21
582.008	10832
582.368	10957.42
582.728	11100.02
583.089	11235.61
583.449	11286.68
583.809	11439.44
584.169	11648.71
584.529	11615.49
584.889	12014.8
585.249	12030.16
585.609	12292.08
585.969	12470.15
586.329	12611.84
586.688	12707.43
587.048	12908.33
587.408	12978.39
587.768	13278.04
588.127	13419.73
588.487	13631.25
588.846	13923.9
589.206	13974.52
589.565	14266.72
589.925	14518.01
590.284	14749.87
590.643	14945.12
591.003	15160.93
591.362	15339.23
591.721	15570.41
592.08	15852.44
592.44	16174.91
592.799	16391.18
593.158	16491.52
593.517	16841.79
593.876	17141.22
594.235	17245.39
594.593	17653.07
594.952	17846.73
595.311	18087.41
595.67	18345.7
596.029	18709.08
596.387	19001.51
596.746	19232.69
597.104	19391.1
597.463	19643.52
597.822	20017.07
598.18	20148.14
598.538	20317.4
598.897	20746.09
599.255	20843.04
599.613	21449.8
599.972	21583.81
600.33	21791.72
600.688	22120.29
601.046	22375.2
601.404	22584.24
601.762	22917.79
602.12	23074.85
602.478	23387.15
602.836	23570.2
603.194	23724.77
603.552	24044.09
603.91	24150.07
604.268	24592.32
604.625	24703.5
604.983	24956.38
605.341	25152.76
605.698	25464.16
606.056	25749.58
606.413	25976.46
606.771	26277.02
607.128	26520.86
607.485	26549.78
607.843	26788.87
608.2	27006.49
608.557	27259.37
608.914	27465.69
609.272	27690.09
609.629	27951.78
609.986	28249.4
610.343	28309.74
610.7	28641.48
611.057	28804.41
611.414	28824.07
611.771	29084.63
612.127	29403.04
612.484	29472.42
612.841	29689.81
613.198	29838.51
613.554	29951.95
613.911	30246.18
614.267	30333.19
614.624	30441.66
614.98	30621.09
615.337	31004.35
615.693	30978.59
616.05	31140.4
616.406	31375.19
616.762	31408.86
617.118	31474.4
617.475	31705.13
617.831	31852.02
618.187	32086.13
618.543	32167.04
618.899	32420.59
619.255	32494.71
619.611	32491.77
619.967	32654.48
620.323	32824.87
620.678	33005.43
621.034	32904.42
621.39	32976.96
621.746	33066.45
622.101	33452.65
622.457	33384.4
622.812	33523.61
623.168	33624.17
623.523	33769.71
623.879	34004.73
624.234	33675.92
624.589	33962.69
624.945	34061.68
625.3	34076.59
625.655	34093.09
626.01	34267.55
626.365	34273.65
626.72	34280.43
627.075	34383.93
627.43	34442.91
627.785	34470.93
628.14	34685.61
628.495	34622.79
628.85	34666.4
629.205	34564.94
629.559	34963.35
629.914	34770.36
630.269	34808.55
630.623	34726.74
630.978	34815.33
631.332	34902.56
631.687	35129.9
632.041	35040.86
632.396	34941.65
632.75	34987.75
633.104	34948.66
633.459	34906.62
633.813	34879.05
634.167	34950.69
634.521	34987.07
634.875	34935.55
635.229	34951.82
635.583	34857.81
635.937	35085.6
636.291	35083.12
636.645	35152.04
636.999	34971.93
637.352	35116.34
637.706	34992.72
638.06	35150.01
638.413	35105.94
638.767	35135.77
639.121	34994.53
639.474	34961.09
639.828	34955.66
640.181	35014.64
640.534	35016
640.888	34933.97
641.241	34878.6
641.594	34931.93
641.947	35003.8
642.301	34877.92
642.654	34871.6
643.007	34990.69
643.36	34872.05
643.713	34879.73
644.066	34997.92
644.419	34816.01
644.771	34562.23
645.124	34162.69
645.477	34250.82
645.83	34130.83
646.182	33989.36
646.535	33914.11
646.888	34017.83
647.24	33901
647.593	34106.65
647.945	33860.32
648.298	33698.97
648.65	33775.13
649.002	33666.21
649.355	33922.02
649.707	33829.14
650.059	33905.52
650.411	34312.74
650.763	34415.11
651.115	34641.09
651.467	34749.11
651.819	34538.95
652.171	34543.02
652.523	34375.57
652.875	34457.6
653.227	34414.43
653.578	34657.59
653.93	34514.32
654.282	34302.57
654.633	34266.42
654.985	34278.39
655.337	34506.41
655.688	34435.22
656.039	34535.79
656.391	34138.28
656.742	34300.09
657.094	34404.94
657.445	34489.01
657.796	34368.33
658.147	34339.86
658.498	34190.71
658.849	34345.28
659.2	34259.41
659.551	34175.57
659.902	34314.78
660.253	34293.31
660.604	34313.42
660.955	34088.11
661.306	34208.56
661.656	34238.62
662.007	34175.34
662.358	34118.85
662.708	34117.27
663.059	34115.46
663.409	33929.93
663.76	34122.92
664.11	34063.26
664.461	34172.86
664.811	34270.26
665.161	34174.67
665.511	34028.68
665.862	34153.42
666.212	34231.16
666.562	34204.5
666.912	34097.38
667.262	34142.8
667.612	34098.96
667.962	34189.58
668.312	34142.58
668.662	34314.55
669.011	34142.8
669.361	34239.98
669.711	34162.46
670.06	33941.23
670.41	34116.14
670.76	33934.9
671.109	34077.04
671.459	34097.15
671.808	33880.21
672.157	34009.92
672.507	33810.83
672.856	33865.75
673.205	33851.96
673.554	33885.63
673.904	33874.56
674.253	33964.05
674.602	33838.4
674.951	33464.4
675.3	33231.19
675.649	33823.94
675.998	33728.35
676.346	33716.83
676.695	33886.54
677.044	33571.97
677.393	33634.79
677.741	33656.26
678.09	33661.23
678.438	33666.43
678.787	33740.1
679.135	33659.43
679.484	33506.66
679.832	33571.07
680.181	33375.37
680.529	33401.35
680.877	33390.73
681.225	33336.5
681.573	33521.35
681.922	33263.96
682.27	33209.49
682.618	33215.82
682.966	33135.82
683.314	33056.05
683.661	33083.62
684.009	32886.79
684.357	32857.86
684.705	32694.48
685.053	32861.48
685.4	32737.64
685.748	32716.4
686.095	32635.27
686.443	32593.01
686.79	32463.98
687.138	32531.55
687.485	32584.2
687.832	32526.12
688.18	32496.07
688.527	32364.09
688.874	32287.26
689.221	32120.26
689.568	32165.91
689.915	32181.95
690.262	32048.62
690.609	31935.86
690.956	31856.31
691.303	31936.31
691.65	31641.4
691.997	31645.69
692.344	31418.58
692.69	31511.23
693.037	31406.38
693.383	31134.97
693.73	31258.36
694.077	31198.47
694.423	31175.2
694.769	31078.48
695.116	31072.15
695.462	31010.23
695.808	30908.99
696.155	30963.9
696.501	30794.64
696.847	30799.61
697.193	30511.26
697.539	30613.63
697.885	30238.72
698.231	30297.25
698.577	30345.39
698.923	30221.55
699.269	30075.11
699.614	29987.21
699.96	29889.81
700.306	30069.92
700.651	29821.56
700.997	29695.91
701.342	29720.77
701.688	29637.38
702.033	29459.76
702.379	29522.59
702.724	29464.51
703.069	29412.76
703.415	29096.83
703.76	29253.89
704.105	29175.48
704.45	29153.78
704.795	28914.01
705.14	28891.87
705.485	28887.12
705.83	28706.56
706.175	28757.63
706.52	28684.19
706.865	28533.91
707.209	28683.51
707.554	28495.72
707.899	28492.33
708.243	28301.15
708.588	28324.42
708.932	28061.61
709.277	28167.82
709.621	28291.66
709.966	28041.27
710.31	28030.87
710.654	27730.54
710.998	27770.77
711.342	27823.65
711.687	27739.13
712.031	27632.47
712.375	27560.6
712.719	27588.4
713.063	27495.97
713.407	27611.22
713.75	27474.73
714.094	27452.13
714.438	27271.8
714.782	27332.36
715.125	27098.69
715.469	27163.33
715.812	27052.59
716.156	26928.3
716.499	26926.04
716.843	26971.69
717.186	26729.21
717.53	26926.04
717.873	26914.74
718.216	26791.13
718.559	26728.76
718.902	26507.3
719.246	26632.27
719.589	26493.06
719.932	26415.77
720.275	26547.52
720.617	26470.01
720.96	26419.84
721.303	26256.46
721.646	26324.93
721.989	26118.38
722.331	26128.78
722.674	26206.51
723.016	26121.54
723.359	26138.72
723.701	26188.44
724.044	26034.77
724.386	25838.61
724.729	25898.05
725.071	25786.19
725.413	25747.32
725.755	25845.85
726.097	25825.73
726.439	25575.34
726.782	25657.15
727.124	25767.88
727.465	25574.44
727.807	25527.89
728.149	25488.79
728.491	25402.47
728.833	25413.31
729.175	25305.75
729.516	25372.64
729.858	25362.92
730.199	25416.93
730.541	25322.92
730.882	25209.03
731.224	25261.91
731.565	25105.53
731.906	25134
732.248	25261.68
732.589	24846.1
732.93	24862.37
733.271	24990.05
733.612	24940.33
733.953	24926.77
734.294	24880.22
734.635	24783.73
734.976	24813.1
735.317	24733.56
735.658	24677.74
735.999	24567.91
736.339	24601.81
736.68	24721.81
737.021	24511.19
737.361	24444.07
737.702	24677.06
738.042	24521.59
738.383	24409.73
738.723	24495.82
739.063	24420.35
739.404	24358.88
739.744	24256.51
740.084	24228.71
740.424	24373.34
740.764	24220.13
741.104	24245.21
741.444	24145.78
741.784	24028.04
742.124	24027.81
742.464	24028.27
742.804	23973.58
743.143	23934.71
743.483	23946.01
743.823	23872.34
744.162	23818.55
744.502	23907.14
744.841	23776.75
745.181	23758.22
745.52	23680.03
745.86	23776.75
746.199	23755.51
746.538	23714.38
746.877	23753.02
747.216	23668.5
747.556	23569.75
747.895	23700.37
748.234	23442.52
748.573	23403.65
748.911	23482.74
749.25	23379.92
749.589	23332.92
749.928	23316.19
750.267	23376.53
750.605	23214.5
750.944	23205.46
751.283	23186.03
751.621	23267.83
751.96	22954.17
752.298	23058.35
752.636	23097.67
752.975	22872.59
753.313	22796.89
753.651	22916.21
753.989	22815.87
754.327	22694.52
754.666	22518.7
755.004	22648.19
755.342	22734.74
755.679	22626.5
756.017	22475.76
756.355	22584.24
756.693	22494.3
757.031	22592.82
757.368	22344.24
757.706	22447.74
758.044	22299.27
758.381	22310.12
758.719	22160.29
759.056	22192.61
759.394	22045.72
759.731	22117.81
760.068	22074.42
760.405	21841.21
760.743	21894.99
