Data from hue_330_FLMS001491_62.txt Node
Date: Mon Feb 06 15:45:43 GMT 2017
User: dcchb
Spectrometer: FLMS00149
Trigger mode: 0
Integration Time (sec): 2.000000E-2
Scans to average: 10
Electric dark correction enabled: true
Nonlinearity correction enabled: false
Boxcar width: 0
XAxis mode: Wavelengths
Number of Pixels in Spectrum: 2048
>>>>>Begin Spectral Data<<<<<
341.393	-24.26
341.776	-24.26
342.16	-24.26
342.543	-53.19
342.927	-87.77
343.31	-77.37
343.693	-69.24
344.077	-37.37
344.46	-64.72
344.843	-69.91
345.226	-54.77
345.61	-17.71
345.993	-19.52
346.376	-22.68
346.759	5.79
347.142	21.84
347.525	42.4
347.908	44.66
348.291	81.5
348.674	104.32
349.057	132.79
349.44	129.63
349.823	152.91
350.206	156.07
350.588	211.66
350.971	211.44
351.354	205.79
351.737	222.06
352.119	234.26
352.502	264.54
352.884	278.78
353.267	301.15
353.65	260.02
354.032	296.86
354.414	296.18
354.797	305.44
355.179	312.22
355.562	316.07
355.944	312.68
356.326	326.23
356.709	320.81
357.091	332.56
357.473	361.49
357.855	329.17
358.238	333.69
358.62	340.02
359.002	340.02
359.384	332.79
359.766	339.34
360.148	327.14
360.53	327.36
360.912	325.78
361.294	331.43
361.676	328.95
362.057	328.04
362.439	322.62
362.821	293.24
363.203	300.7
363.584	311.77
363.966	322.17
364.348	319.91
364.729	312.22
365.111	319.68
365.493	328.04
365.874	313.58
366.256	308.38
366.637	318.78
367.019	308.83
367.4	315.84
367.781	306.35
368.163	302.51
368.544	317.87
368.925	298.66
369.306	324.88
369.688	293.01
370.069	311.09
370.45	294.6
370.831	302.96
371.212	304.54
371.593	319.23
371.974	322.17
372.355	277.42
372.736	314.26
373.117	291.88
373.498	313.81
373.879	276.97
374.26	300.92
374.641	309.51
375.021	302.96
375.402	309.74
375.783	315.61
376.163	320.58
376.544	319.91
376.925	310.64
377.305	319.91
377.686	324.65
378.066	321.26
378.447	333.24
378.827	324.43
379.208	323.52
379.588	321.94
379.968	317.87
380.349	363.52
380.729	329.4
381.109	330.3
381.489	331.66
381.87	345.44
382.25	322.39
382.63	343.86
383.01	344.54
383.39	347.7
383.77	333.69
384.15	302.05
384.53	340.7
384.91	340.92
385.29	351.09
385.67	331.43
386.049	343.18
386.429	306.12
386.809	352.22
387.189	340.02
387.568	352.9
387.948	329.85
388.328	358.1
388.707	344.09
389.087	330.98
389.466	363.07
389.846	340.02
390.225	358.55
390.605	348.61
390.984	357.87
391.363	346.57
391.743	347.93
392.122	376.63
392.501	370.53
392.881	365.33
393.26	357.87
393.639	370.75
394.018	343.64
394.397	357.42
394.776	354.03
395.155	355.16
395.534	375.05
395.913	369.85
396.292	363.07
396.671	368.72
397.05	369.85
397.429	359
397.808	363.75
398.186	384.09
398.565	378.21
398.944	393.13
399.323	396.06
399.701	399.23
400.08	392.45
400.458	381.6
400.837	413.46
401.215	397.87
401.594	384.76
401.972	385.67
402.351	380.92
402.729	383.63
403.107	397.19
403.486	426.34
403.864	413.01
404.242	408.49
404.62	403.75
404.999	391.32
405.377	412.56
405.755	431.99
406.133	399.9
406.511	434.48
406.889	445.78
407.267	427.47
407.645	428.15
408.023	445.78
408.401	425.44
408.779	425.67
409.156	451.65
409.534	429.73
409.912	440.58
410.29	472.9
410.667	467.47
411.045	470.19
411.422	443.07
411.8	485.1
412.178	471.77
412.555	485.78
412.933	508.38
413.31	484.42
413.687	488.94
414.065	502.73
414.442	501.15
414.819	504.53
415.197	502.73
415.574	521.94
415.951	534.14
416.328	521.03
416.705	525.33
417.082	533.01
417.46	554.48
417.837	544.31
418.214	558.54
418.591	574.36
418.967	569.17
419.344	589.96
419.721	576.17
420.098	571.2
420.475	590.86
420.852	615.27
421.228	605.32
421.605	585.66
421.982	622.27
422.358	618.88
422.735	634.93
423.111	630.63
423.488	624.98
423.864	617.75
424.241	653.68
424.617	641.48
424.994	658.2
425.37	653.68
425.746	664.76
426.123	694.13
426.499	686.22
426.875	687.81
427.251	677.41
427.627	691.65
428.003	698.65
428.379	729.61
428.756	715.83
429.132	721.03
429.507	736.85
429.883	732.33
430.259	754.92
430.635	738.88
431.011	759.22
431.387	778.88
431.763	785.66
432.138	798.99
432.514	789.95
432.89	806
433.265	834.92
433.641	816.16
434.016	810.97
434.392	854.81
434.767	844.64
435.143	829.72
435.518	829.27
435.894	862.72
436.269	874.02
436.644	881.47
437.02	879.67
437.395	874.24
437.77	891.19
438.145	926.67
438.52	913.79
438.895	921.7
439.271	912.66
439.646	937.74
440.021	949.27
440.395	924.64
440.77	951.53
441.145	946.78
441.52	984.52
441.895	971.19
442.27	960.79
442.645	977.52
443.019	963.05
443.394	994.92
443.769	987.23
444.143	984.3
444.518	999.66
444.892	1007.12
445.267	997.63
445.641	998.08
446.016	986.33
446.39	1049.83
446.764	1060.45
447.139	1034.24
447.513	1022.26
447.887	1030.4
448.262	1059.32
448.636	1045.54
449.01	1031.07
449.384	1047.8
449.758	1073.56
450.132	1062.71
450.506	1073.33
450.88	1066.78
451.254	1049.38
451.628	1054.58
452.002	1091.19
452.376	1104.52
452.75	1106.55
453.123	1092.32
453.497	1139.55
453.871	1108.81
454.244	1134.35
454.618	1143.61
454.992	1153.78
455.365	1158.3
455.739	1173.22
456.112	1165.76
456.486	1176.16
456.859	1175.25
457.232	1208.25
457.606	1212.76
457.979	1202.14
458.352	1245.53
458.725	1204.63
459.099	1241.92
459.472	1276.49
459.845	1259.77
460.218	1287.11
460.591	1291.18
460.964	1290.28
461.337	1310.39
461.71	1295.93
462.083	1311.07
462.456	1323.72
462.829	1315.59
463.201	1342.93
463.574	1333.67
463.947	1360.56
464.32	1370.05
464.692	1394.91
465.065	1392.65
465.438	1369.82
465.81	1404.62
466.183	1434.68
466.555	1465.87
466.928	1493.21
467.3	1474.68
467.672	1462.25
468.045	1509.48
468.417	1477.84
468.789	1535.92
469.161	1508.35
469.534	1543.6
469.906	1561.23
470.278	1578.18
470.65	1601.91
471.022	1614.11
471.394	1641.68
471.766	1621.12
472.138	1635.8
472.51	1699.31
472.882	1701.34
473.253	1729.59
473.625	1757.84
473.997	1766.42
474.369	1755.35
474.74	1788.12
475.112	1784.28
475.484	1822.92
475.855	1851.62
476.227	1869.24
476.598	1903.14
476.97	1908.57
477.341	1923.71
477.713	1986.53
478.084	1984.04
478.455	2029.92
478.827	1994.44
479.198	2047.77
479.569	2083.25
479.94	2157.82
480.311	2128.67
480.682	2183.59
481.053	2224.72
481.424	2223.36
481.795	2241.89
482.166	2269.23
482.537	2285.96
482.908	2353.75
483.279	2367.99
483.65	2410.02
484.021	2455.67
484.391	2444.14
484.762	2455.67
485.133	2475.78
485.503	2525.27
485.874	2580.41
486.244	2597.81
486.615	2596.01
486.985	2615.67
487.356	2685.49
487.726	2684.59
488.097	2730.46
488.467	2735.21
488.837	2786.28
489.207	2783.57
489.578	2849.33
489.948	2875.32
490.318	2903.57
490.688	2883.23
491.058	2929.78
491.428	2995.77
491.798	3038.71
492.168	3055.43
492.538	3039.16
492.908	3035.77
493.278	3104.69
493.648	3117.8
494.017	3174.97
494.387	3156.44
494.757	3167.06
495.126	3204.8
495.496	3221.07
495.866	3219.27
496.235	3240.96
496.605	3263.11
496.974	3295.2
497.344	3313.05
497.713	3306.27
498.082	3373.39
498.452	3401.63
498.821	3400.05
499.19	3427.85
499.559	3384.69
499.928	3479.15
500.298	3461.52
500.667	3482.31
501.036	3471.69
501.405	3517.11
501.774	3508.52
502.143	3548.75
502.512	3586.94
502.88	3564.12
503.249	3574.51
503.618	3601.18
503.987	3597.79
504.356	3601.63
504.724	3622.42
505.093	3650.44
505.462	3647.5
505.83	3666.03
506.199	3705.13
506.567	3708.29
506.936	3685.47
507.304	3717.56
507.672	3740.16
508.041	3785.13
508.409	3761.85
508.777	3812.24
509.145	3808.4
509.514	3829.87
509.882	3846.14
510.25	3863.09
510.618	3821.96
510.986	3829.42
511.354	3853.83
511.722	3905.58
512.09	3896.08
512.458	3919.36
512.826	3932.02
513.193	3931.34
513.561	3957.1
513.929	3978.79
514.297	4015.63
514.664	4007.27
515.032	4001.17
515.4	4042.97
515.767	4009.08
516.135	4053.82
516.502	3995.29
516.869	4057.89
517.237	4106.25
517.604	4061.5
517.972	4080.71
518.339	4133.14
518.706	4156.42
519.073	4130.43
519.44	4142.86
519.808	4161.16
520.175	4129.3
520.542	4176.53
520.909	4206.13
521.276	4204.1
521.643	4218.79
522.009	4222.4
522.376	4266.24
522.743	4292.68
523.11	4220.6
523.477	4265.79
523.843	4337.88
524.21	4400.48
524.577	4340.82
524.943	4396.18
525.31	4415.62
525.676	4402.29
526.043	4423.08
526.409	4454.26
526.776	4515.95
527.142	4494.71
527.508	4555.5
527.874	4582.62
528.241	4597.53
528.607	4558.67
528.973	4623.3
529.339	4637.76
529.705	4650.87
530.071	4689.96
530.437	4666.23
530.803	4712.79
531.169	4707.59
531.535	4755.95
531.901	4810.18
532.267	4746.91
532.632	4813.35
532.998	4844.99
533.364	4859.67
533.73	4848.15
534.095	4876.85
534.461	4875.49
534.826	4904.87
535.192	4960.91
535.557	4928.6
535.923	4984.42
536.288	4998.43
536.653	5071.42
537.019	4996.85
537.384	5038.43
537.749	5076.84
538.114	5121.36
538.479	5126.11
538.845	5146.9
539.21	5132.44
539.575	5142.15
539.94	5204.98
540.305	5197.52
540.67	5202.49
541.034	5268.48
541.399	5288.14
541.764	5300.57
542.129	5287.69
542.494	5273
542.858	5320.68
543.223	5306.44
543.587	5374.46
543.952	5389.15
544.316	5408.13
544.681	5345.76
545.045	5434.57
545.41	5509.15
545.774	5527
546.138	5501.01
546.503	5551.86
546.867	5582.59
547.231	5593.21
547.595	5549.83
547.959	5633.89
548.324	5621.91
548.688	5700.78
549.052	5716.15
549.416	5721.12
549.779	5738.52
550.143	5708.92
550.507	5821.46
550.871	5782.59
551.235	5795.24
551.599	5799.76
551.962	5810.61
552.326	5865.98
552.689	5838.63
553.053	5839.08
553.417	5899.65
553.78	5954.56
554.143	5944.62
554.507	6025.29
554.87	5950.95
555.234	6067.55
555.597	5987.33
555.96	6037.04
556.323	6040.21
556.686	6015.58
557.05	6129.92
557.413	6133.31
557.776	6102.58
558.139	6101
558.502	6123.6
558.865	6163.59
559.228	6249.69
559.59	6207.21
559.953	6249.24
560.316	6281.56
560.679	6257.83
561.041	6305.74
561.404	6309.58
561.767	6326.3
562.129	6357.04
562.492	6398.84
562.854	6413.31
563.217	6400.2
563.579	6459.41
563.941	6427.54
564.304	6424.83
564.666	6529.69
565.028	6503.47
565.39	6519.97
565.753	6603.36
566.115	6597.26
566.477	6620.98
566.839	6627.99
567.201	6675.45
567.563	6628.44
567.925	6733.07
568.287	6703.24
568.648	6726.52
569.01	6820.07
569.372	6771.71
569.734	6754.31
570.095	6806.74
570.457	6878.15
570.819	6923.8
571.18	6928.77
571.542	6978.71
571.903	6954.08
572.265	7076.57
572.626	7076.11
572.987	7095.32
573.349	7153.85
573.71	7174.42
574.071	7220.29
574.432	7235.21
574.794	7345.03
575.155	7315.88
575.516	7367.63
575.877	7450.79
576.238	7587.29
576.599	7570.34
576.96	7652.37
577.32	7725.59
577.681	7836.77
578.042	7905.02
578.403	7903.21
578.763	7986.6
579.124	8158.34
579.485	8222.3
579.845	8323.31
580.206	8371.67
580.566	8474.95
580.927	8606.02
581.287	8765.33
581.648	8833.81
582.008	8925.56
582.368	9116.96
582.728	9196.74
583.089	9354.02
583.449	9546.33
583.809	9655.25
584.169	9803.27
584.529	10005.75
584.889	10260.89
585.249	10340.43
585.609	10553.54
585.969	10817.71
586.329	10909.46
586.688	11100.41
587.048	11364.36
587.408	11483
587.768	11697.69
588.127	11976.1
588.487	12188.52
588.846	12575.63
589.206	12593.48
589.565	12932.91
589.925	13171.09
590.284	13359.11
590.643	13689.5
591.003	13888.36
591.362	14224.17
591.721	14510.95
592.08	14627.78
592.44	15061.89
592.799	15313.41
593.158	15527.42
593.517	15869.33
593.876	16103.9
594.235	16295.98
594.593	16627.73
594.952	16974.16
595.311	17270.87
595.67	17640.81
596.029	17893.91
596.387	18101.59
596.746	18512.65
597.104	18716.71
597.463	19028.57
597.822	19499.74
598.18	19601.66
598.538	19810.47
598.897	20143.11
599.255	20419.27
599.613	21017.89
599.972	20970.66
600.33	21434.15
600.688	21608.16
601.046	22070.52
601.404	22305.09
601.762	22598.64
602.12	22895.36
602.478	23124.28
602.836	23411.05
603.194	23467.77
603.552	23793.87
603.91	23916.57
604.268	24304.36
604.625	24509.55
604.983	24889.43
605.341	24927.62
605.698	25418
606.056	25713.14
606.413	25927.37
606.771	26206.91
607.128	26316.51
607.485	26461.82
607.843	26748.59
608.2	27057.06
608.557	27296.37
608.914	27522.58
609.272	27849.58
609.629	28090.7
609.986	28373.41
610.343	28350.58
610.7	28802.1
611.057	28796.67
611.414	29063.78
611.771	29292.48
612.127	29579.7
612.484	29753.94
612.841	30032.35
613.198	29949.41
613.554	30207.48
613.911	30528.15
614.267	30588.49
614.624	30786.22
614.98	30973.11
615.337	31332.65
615.693	31367.45
616.05	31383.27
616.406	31698.74
616.762	31822.58
617.118	31866.42
617.475	32125.4
617.831	32227.99
618.187	32526.74
618.543	32489
618.899	32756.34
619.255	32929.22
619.611	32920.63
619.967	33236.33
620.323	33325.14
620.678	33348.19
621.034	33454.4
621.39	33502.09
621.746	33603.1
622.101	34026.59
622.457	33843.32
622.812	33974.39
623.168	34156.53
623.523	34131.9
623.879	34396.98
624.234	34208.28
624.589	34471.33
624.945	34585.67
625.3	34604.2
625.655	34675.16
626.01	34840.13
626.365	34892.78
626.72	34891.2
627.075	34968.71
627.43	34944.53
627.785	35049.84
628.14	35183.17
628.495	35334.58
628.85	35289.61
629.205	35121.03
629.559	35449.38
629.914	35325.99
630.269	35464.75
630.623	35465.88
630.978	35356.05
631.332	35558.98
631.687	35636.04
632.041	35651.63
632.396	35809.14
632.75	35651.18
633.104	35693.89
633.459	35581.35
633.813	35633.78
634.167	35787.67
634.521	35605.76
634.875	35798.52
635.229	35839.65
635.583	35531.64
635.937	35633.55
636.291	35684.4
636.645	35726.21
636.999	35610.05
637.352	35866.09
637.706	35672.42
638.06	35822.02
638.413	35774.12
638.767	35575.25
639.121	35767.34
639.474	35691.41
639.828	35706.55
640.181	35803.04
640.534	35708.13
640.888	35660.67
641.241	35520.34
641.594	35739.31
641.947	35728.47
642.301	35542.03
642.654	35717.17
643.007	35632.88
643.36	35709.71
643.713	35536.61
644.066	35785.87
644.419	35394.01
644.771	35352.66
645.124	34962.61
645.477	34936.4
645.83	34882.61
646.182	34627.93
646.535	34662.51
646.888	34567.59
647.24	34567.59
647.593	34680.36
647.945	34622.28
648.298	34453.25
648.65	34337.77
649.002	34314.27
649.355	34521.95
649.707	34309.07
650.059	34600.14
650.411	34983.85
650.763	35003.51
651.115	35365.77
651.467	35236.28
651.819	35255.26
652.171	35192.44
652.523	35204.41
652.875	35192.44
653.227	34950.18
653.578	35396.5
653.93	35388.14
654.282	34958.09
654.633	35071.54
654.985	35032.44
655.337	35142.72
655.688	35059.78
656.039	35165.09
656.391	34847.81
656.742	34945.66
657.094	35014.14
657.445	35093.46
657.796	34964.19
658.147	34972.56
658.498	35042.38
658.849	35041.25
659.2	35003.51
659.551	34844.2
659.902	35013.01
660.253	34970.97
660.604	35053.91
660.955	34901.14
661.306	34898.88
661.656	34828.38
662.007	34854.37
662.358	34782.73
662.708	34871.31
663.059	34924.42
663.409	34651.21
663.76	34943.86
664.11	34834.93
664.461	35026.11
664.811	34937.75
665.161	34903.63
665.511	34784.99
665.862	34964.42
666.212	34881.26
666.562	34974.59
666.912	34773.92
667.262	34909.51
667.612	34783.86
667.962	34973.46
668.312	34815.72
668.662	35035.6
669.011	34863.86
669.361	34892.56
669.711	34800.13
670.06	34764.2
670.41	34682.85
670.76	34656.63
671.109	34729.85
671.459	34787.02
671.808	34743.41
672.157	34788.83
672.507	34489.63
672.856	34541.83
673.205	34598.55
673.554	34795.38
673.904	34527.14
674.253	34705.22
674.602	34571.89
674.951	34076.08
675.3	34056.87
675.649	34490.08
675.998	34403.76
676.346	34297.32
676.695	34513.13
677.044	34357.43
677.393	34340.71
677.741	34477.43
678.09	34278.79
678.438	34197.66
678.787	34205.12
679.135	34373.02
679.484	34041.51
679.832	34336.41
680.181	34072.24
680.529	34313.14
680.877	34143.65
681.225	34214.38
681.573	34222.07
681.922	34004.44
682.27	33951.34
682.618	33859.82
682.966	33851.45
683.314	33919.02
683.661	33801.06
684.009	33661.4
684.357	33559.26
684.705	33419.83
685.053	33654.17
685.4	33477.91
685.748	33399.72
686.095	33386.83
686.443	33285.14
686.79	33290.57
687.138	33270.23
687.485	33237.69
687.832	33111.14
688.18	33114.07
688.527	32966.05
688.874	32984.58
689.221	32934.42
689.568	32870.46
689.915	32778.26
690.262	32798.37
690.609	32702.56
690.956	32571.04
691.303	32435.22
691.65	32422.79
691.997	32461.43
692.344	32314.77
692.69	32233.19
693.037	32263.02
693.383	32092.86
693.73	32113.2
694.077	31946.42
694.423	31959.07
694.769	31807.89
695.116	31772.64
695.462	31737.39
695.808	31633.21
696.155	31792.07
696.501	31363.61
696.847	31422.14
697.193	31281.13
697.539	31290.17
697.885	31117.74
698.231	30944.41
698.577	31035.71
698.923	30914.13
699.269	30863.74
699.614	30650.63
699.96	30572.44
700.306	30650.63
700.651	30519.79
700.997	30328.61
701.342	30392.11
701.688	30342.39
702.033	30260.36
702.379	30232.11
702.724	30052.23
703.069	30139.91
703.415	29833.03
703.76	29787.61
704.105	29882.52
704.45	29760.49
704.795	29711.9
705.14	29619.25
705.485	29514.39
705.83	29337.9
706.175	29547.16
706.52	29344.91
706.865	29284.79
707.209	29155.31
707.554	29078.02
707.899	29172.71
708.243	29030.34
708.588	29003.67
708.932	28794.64
709.277	28805.71
709.621	28850.23
709.966	28598.03
710.31	28685.71
710.654	28469.9
710.998	28504.93
711.342	28504.7
711.687	28308.55
712.031	28232.17
712.375	28189.68
712.719	28206.41
713.063	28163.92
713.407	28175.22
713.75	28078.05
714.094	28043.47
714.438	27890.93
714.782	28052.96
715.125	27784.27
715.469	27784.5
715.812	27705.18
716.156	27544.73
716.499	27653.65
716.843	27692.75
717.186	27429.02
717.53	27518.29
717.873	27651.84
718.216	27496.82
718.559	27340.21
718.902	27222.48
719.246	27266.54
719.589	27142.93
719.932	27071.29
720.275	27152.2
720.617	27050.5
720.96	26914.91
721.303	26946.55
721.646	26932.77
721.989	26720.57
722.331	26886.21
722.674	26794.92
723.016	26777.29
723.359	26781.81
723.701	26763.51
724.044	26445.55
724.386	26410.29
724.729	26622.49
725.071	26493
725.413	26457.75
725.755	26366.68
726.097	26316.51
726.439	26236.51
726.782	26187.02
727.124	26292.33
727.465	26232.22
727.807	26127.14
728.149	26167.14
728.491	26094.14
728.833	25910.65
729.175	25857.99
729.516	25880.82
729.858	25951.55
730.199	25915.62
730.541	25793.36
730.882	25745.23
731.224	25910.42
731.565	25586.59
731.906	25666.13
732.248	25684.66
732.589	25614.61
732.93	25501.62
733.271	25498.91
733.612	25561.95
733.953	25467.95
734.294	25415.07
734.635	25401.06
734.976	25432.24
735.317	25251
735.658	25206.03
735.999	25282.64
736.339	25217.33
736.68	25177.11
737.021	25102.08
737.361	25054.85
737.702	25054.85
738.042	25097.33
738.383	25063.44
738.723	25021.86
739.063	24931.01
739.404	24834.06
739.744	24850.11
740.084	24716.1
740.424	24874.29
740.764	24696.22
741.104	24855.98
741.444	24676.55
741.784	24560.85
742.124	24668.65
742.464	24662.32
742.804	24436.33
743.143	24550
743.483	24471.14
743.823	24305.04
744.162	24337.35
744.502	24440.18
744.841	24210.58
745.181	24369.67
745.52	24285.6
745.86	24259.62
746.199	24240.18
746.538	24252.84
746.877	24173.06
747.216	24210.35
747.556	24059.62
747.895	24147.08
748.234	23929
748.573	23949.79
748.911	23979.17
749.25	23918.61
749.589	23813.75
749.928	23819.63
750.267	23908.21
750.605	23773.08
750.944	23587.09
751.283	23646.98
751.621	23685.85
751.96	23597.71
752.298	23478.17
752.636	23437.72
752.975	23401.33
753.313	23395.23
753.651	23447.21
753.989	23253.32
754.327	23248.8
754.666	23131.06
755.004	23118.18
755.342	23158.4
755.679	22983.94
756.017	22973.77
756.355	22969.03
756.693	22893.78
757.031	22933.55
757.368	22811.52
757.706	22691.75
758.044	22734.68
758.381	22714.12
758.719	22599.55
759.056	22550.28
759.394	22568.14
759.731	22359.33
