Data from hue_290_FLMS001491_00099.txt Node
Date: Tue Feb 07 15:53:45 GMT 2017
User: dcchb
Spectrometer: FLMS00149
Trigger mode: 0
Integration Time (sec): 2.000000E-2
Scans to average: 10
Electric dark correction enabled: true
Nonlinearity correction enabled: false
Boxcar width: 0
XAxis mode: Wavelengths
Number of Pixels in Spectrum: 2048
>>>>>Begin Spectral Data<<<<<
341.393	-38.39
341.776	-38.39
342.16	-38.39
342.543	-71.16
342.927	-79.52
343.31	-78.16
343.693	-89.69
344.077	-63.25
344.46	-54.89
344.843	-53.98
345.226	-49.91
345.61	-33.87
345.993	-16.92
346.376	-8.11
346.759	7.26
347.142	34.83
347.525	52.46
347.908	60.37
348.291	92.46
348.674	89.07
349.057	112.34
349.44	123.41
349.823	152.11
350.206	154.83
350.588	212.9
350.971	209.29
351.354	226.46
351.737	228.27
352.119	242.96
352.502	249.29
352.884	268.95
353.267	268.27
353.65	278.89
354.032	285.22
354.414	311.21
354.797	295.61
355.179	310.75
355.562	315.5
355.944	320.7
356.326	351.66
356.709	340.36
357.091	346.46
357.473	354.6
357.855	340.36
358.238	329.51
358.62	327.48
359.002	337.87
359.384	335.84
359.766	313.24
360.148	345.1
360.53	361.6
360.912	329.96
361.294	322.96
361.676	334.26
362.057	342.17
362.439	323.86
362.821	308.04
363.203	292.68
363.584	303.3
363.966	320.47
364.348	319.57
364.729	311.88
365.111	337.42
365.493	322.51
365.874	314.6
366.256	327.03
366.637	306.01
367.019	324.77
367.4	310.98
367.781	314.37
368.163	325.9
368.544	320.7
368.925	295.39
369.306	304.88
369.688	336.97
370.069	305.1
370.45	308.95
370.831	309.85
371.212	315.27
371.593	310.08
371.974	322.73
372.355	297.87
372.736	307.82
373.117	307.59
373.498	310.53
373.879	305.56
374.26	301.26
374.641	312.56
375.021	307.82
375.402	320.47
375.783	319.57
376.163	324.09
376.544	327.7
376.925	302.85
377.305	334.26
377.686	333.13
378.066	317.08
378.447	333.13
378.827	328.38
379.208	334.26
379.588	318.66
379.968	329.06
380.349	316.86
380.729	337.19
381.109	350.53
381.489	342.17
381.87	340.58
382.25	337.42
382.63	350.08
383.01	336.29
383.39	356.4
383.77	339
384.15	351.66
384.53	352.79
384.91	338.78
385.29	351.43
385.67	344.88
386.049	380.36
386.429	338.55
386.809	356.18
387.189	367.48
387.568	362.28
387.948	328.83
388.328	379.23
388.707	348.04
389.087	342.39
389.466	381.04
389.846	355.95
390.225	369.74
390.605	383.52
390.984	387.81
391.363	358.44
391.743	369.51
392.122	368.38
392.501	373.13
392.881	377.19
393.26	370.19
393.639	371.54
394.018	359.79
394.397	372.67
394.776	366.12
395.155	396.18
395.534	389.62
395.913	388.72
396.292	401.37
396.671	388.49
397.05	395.05
397.429	388.49
397.808	400.7
398.186	393.69
398.565	409.96
398.944	391.43
399.323	419.45
399.701	418.77
400.08	398.44
400.458	411.54
400.837	419.45
401.215	439.11
401.594	431.43
401.972	439.34
402.351	419.9
402.729	458.32
403.107	435.5
403.486	471.43
403.864	427.14
404.242	441.82
404.62	455.61
404.999	446.12
405.377	449.96
405.755	470.52
406.133	443.63
406.511	476.17
406.889	475.95
407.267	478.66
407.645	503.29
408.023	472.33
408.401	493.12
408.779	493.12
409.156	496.74
409.534	486.12
409.912	490.64
410.29	537.64
410.667	511.2
411.045	508.49
411.422	504.42
411.8	529.51
412.178	537.19
412.555	545.32
412.933	581.93
413.31	586.91
413.687	578.32
414.065	581.93
414.442	590.75
414.819	597.3
415.197	633.46
415.574	610.18
415.951	644.31
416.328	658.77
416.705	658.32
417.082	638.2
417.46	650.63
417.837	665.77
418.214	684.76
418.591	692.44
418.967	679.33
419.344	701.03
419.721	692.89
420.098	719.11
420.475	715.94
420.852	717.3
421.228	746
421.605	731.99
421.982	748.26
422.358	780.35
422.735	775.6
423.111	763.17
423.488	801.14
423.864	825.09
424.241	834.13
424.617	805.66
424.994	815.83
425.37	826.22
425.746	842.27
426.123	853.34
426.499	846.79
426.875	864.19
427.251	905.54
427.627	882.94
428.003	908.7
428.379	917.29
428.756	929.04
429.132	919.1
429.507	979.44
429.883	960.91
430.259	987.12
430.635	974.69
431.011	990.28
431.387	1006.78
431.763	1016.72
432.138	1022.83
432.514	1026.22
432.89	1060.57
433.265	1057.18
433.641	1060.79
434.016	1101.69
434.392	1091.75
434.767	1131.75
435.143	1132.2
435.518	1167.91
435.894	1172.65
436.269	1159.32
436.644	1194.8
437.02	1213.78
437.395	1189.38
437.77	1204.97
438.145	1234.8
438.52	1279.09
438.895	1260.11
439.271	1267.57
439.646	1279.09
440.021	1277.96
440.395	1324.06
440.77	1286.55
441.145	1334.46
441.52	1339.43
441.895	1346.43
442.27	1339.88
442.645	1345.08
443.019	1369.71
443.394	1378.52
443.769	1394.34
444.143	1373.55
444.518	1406.77
444.892	1411.52
445.267	1415.81
445.641	1396.15
446.016	1414.23
446.39	1450.84
446.764	1464.85
447.139	1418.97
447.513	1445.87
447.887	1473.21
448.262	1468.92
448.636	1461.46
449.01	1476.15
449.384	1474.57
449.758	1524.73
450.132	1501.01
450.506	1507.11
450.88	1542.13
451.254	1485.19
451.628	1538.97
452.002	1529.71
452.376	1543.04
452.75	1570.16
453.123	1591.62
453.497	1578.29
453.871	1609.48
454.244	1629.14
454.618	1644.73
454.992	1615.13
455.365	1624.39
455.739	1680.66
456.112	1705.29
456.486	1684.96
456.859	1721.11
457.232	1767.21
457.606	1746.87
457.979	1748.91
458.352	1748.46
458.725	1797.72
459.099	1775.35
459.472	1831.17
459.845	1872.52
460.218	1859.87
460.591	1874.1
460.964	1873.65
461.337	1882.69
461.71	1899.87
462.083	1933.31
462.456	1938.73
462.829	1950.94
463.201	1965.17
463.574	1952.97
463.947	1995
464.32	2038.84
464.692	2043.59
465.065	2021.22
465.438	2057.6
465.81	2100.54
466.183	2071.84
466.555	2162.23
466.928	2126.07
467.3	2150.03
467.672	2186.41
468.045	2227.77
468.417	2204.49
468.789	2238.84
469.161	2270.7
469.534	2292.85
469.906	2313.87
470.278	2342.34
470.65	2347.31
471.022	2394.77
471.394	2395.9
471.766	2412.17
472.138	2419.4
472.51	2477.03
472.882	2491.26
473.253	2517.25
473.625	2543.24
473.997	2569.68
474.369	2604.93
474.74	2601.99
475.112	2649.45
475.484	2657.36
475.855	2741.65
476.227	2738.26
476.598	2803.57
476.97	2808.77
477.341	2879.27
477.713	2908.88
478.084	2901.42
478.455	2916.56
478.827	2945.94
479.198	3029.33
479.569	3072.04
479.94	3111.36
480.311	3105.03
480.682	3188.64
481.053	3213.73
481.424	3279.49
481.795	3263.22
482.166	3328.3
482.537	3343.9
482.908	3390.45
483.279	3433.16
483.65	3499.82
484.021	3515.64
484.391	3571.46
484.762	3578.24
485.133	3595.87
485.503	3610.55
485.874	3659.37
486.244	3691
486.615	3775.3
486.985	3808.52
487.356	3864.56
487.726	3881.73
488.097	3927.38
488.467	3945.69
488.837	3986.59
489.207	4034.27
489.578	4046.7
489.948	4089.64
490.318	4182.07
490.688	4133.25
491.058	4232.23
491.428	4286.24
491.798	4281.72
492.168	4337.77
492.538	4374.83
492.908	4403.08
493.278	4405.79
493.648	4466.35
494.017	4479.01
494.387	4513.81
494.757	4519.23
495.126	4608.04
495.496	4580.92
495.866	4608.72
496.235	4622.96
496.605	4666.12
496.974	4674.48
497.344	4690.07
497.713	4709.06
498.082	4787.47
498.452	4815.49
498.821	4820.24
499.19	4825.21
499.559	4883.06
499.928	4893.46
500.298	4893.46
500.667	4968.26
501.036	4926.9
501.405	4996.96
501.774	4980.24
502.143	5023.4
502.512	5032.44
502.88	5039.67
503.249	5072.44
503.618	5065.21
503.987	5052.78
504.356	5150.4
504.724	5144.75
505.093	5134.36
505.462	5145.66
505.83	5187.46
506.199	5257.97
506.567	5252.32
506.936	5244.41
507.304	5293.45
507.672	5361.24
508.041	5325.31
508.409	5368.7
508.777	5329.61
509.145	5422.94
509.514	5424.29
509.882	5410.51
510.25	5423.16
510.618	5454.8
510.986	5493.22
511.354	5483.73
511.722	5547
512.09	5587.45
512.458	5612.08
512.826	5591.07
513.193	5643.27
513.561	5637.39
513.929	5642.82
514.297	5703.38
514.664	5749.71
515.032	5717.62
515.4	5809.59
515.767	5753.78
516.135	5763.72
516.502	5727.79
516.869	5802.14
517.237	5831.06
517.604	5804.4
517.972	5855.02
518.339	5864.28
518.706	5895.47
519.073	5875.81
519.44	5889.82
519.808	5957.16
520.175	5964.62
520.542	6020.89
520.909	5998.06
521.276	6046.87
521.643	6091.85
522.009	6092.52
522.376	6098.62
522.743	6124.61
523.11	6152.63
523.477	6233.76
523.843	6225.18
524.21	6252.75
524.577	6358.51
524.943	6381.56
525.31	6340.43
525.676	6348.34
526.043	6440.31
526.409	6384.95
526.776	6491.16
527.142	6452.97
527.508	6492.06
527.874	6526.41
528.241	6633.98
528.607	6577.26
528.973	6591.49
529.339	6629.68
529.705	6719.63
530.071	6673.53
530.437	6741.55
530.803	6797.14
531.169	6841.2
531.535	6819.51
531.901	6822
532.267	6857.25
532.632	6873.75
532.998	6884.14
533.364	6919.85
533.73	6961.2
534.095	6970.01
534.461	6939.05
534.826	7093.4
535.192	7056.34
535.557	7101.99
535.923	7093.4
536.288	7123
536.653	7150.57
537.019	7071.71
537.384	7171.37
537.749	7128.2
538.114	7201.19
538.479	7212.95
538.845	7238.71
539.21	7174.75
539.575	7279.84
539.94	7224.47
540.305	7349.89
540.67	7342.43
541.034	7342.66
541.399	7385.14
541.764	7428.08
542.129	7370.91
542.494	7372.49
542.858	7513.95
543.223	7488.87
543.587	7546.04
543.952	7519.15
544.316	7522.54
544.681	7614.74
545.045	7583.33
545.41	7615.87
545.774	7591.24
546.138	7672.14
546.503	7643.9
546.867	7699.26
547.231	7738.58
547.595	7735.64
547.959	7795.98
548.324	7772.93
548.688	7783.78
549.052	7805.92
549.416	7836.43
549.779	7880.95
550.143	7849.31
550.507	7914.62
550.871	7903.78
551.235	7967.5
551.599	7975.64
551.962	7942.87
552.326	7964.11
552.689	7986.03
553.053	7968.86
553.417	8014.73
553.78	8085.92
554.143	8062.64
554.507	8062.87
554.87	8120.27
555.234	8130.66
555.597	8111.23
555.96	8135.18
556.323	8154.62
556.686	8206.82
557.05	8313.71
557.413	8235.29
557.776	8247.72
558.139	8298.79
558.502	8272.13
558.865	8298.57
559.228	8370.43
559.59	8365.23
559.953	8352.35
560.316	8466.25
560.679	8418.11
561.041	8506.92
561.404	8494.04
561.767	8505.79
562.129	8492.01
562.492	8590.99
562.854	8596.64
563.217	8629.41
563.579	8635.96
563.941	8664.89
564.304	8740.82
564.666	8690.42
565.028	8759.8
565.39	8736.52
565.753	8868.95
566.115	8840.7
566.477	8877.53
566.839	8877.53
567.201	8916.86
567.563	8901.26
567.925	9032.33
568.287	8971.77
568.648	8958.21
569.01	9104.2
569.372	9019.45
569.734	9071.2
570.095	9201.82
570.457	9197.53
570.819	9250.63
571.18	9235.72
571.542	9320.01
571.903	9297.64
572.265	9318.2
572.626	9370.18
572.987	9399.78
573.349	9390.97
573.71	9463.96
574.071	9517.74
574.432	9618.53
574.794	9710.28
575.155	9696.04
575.516	9682.03
575.877	9738.98
576.238	9814.46
576.599	9868.47
576.96	9841.8
577.32	9956.83
577.681	9997.73
578.042	10092.64
578.403	10111.63
578.763	10168.57
579.124	10180.78
579.485	10249.48
579.845	10379.19
580.206	10403.82
580.566	10565.85
580.927	10557.26
581.287	10712.29
581.648	10605.4
582.008	10798.61
582.368	10845.39
582.728	10968.55
583.089	11045.16
583.449	11182.56
583.809	11237.7
584.169	11378.03
584.529	11375.1
584.889	11566.28
585.249	11598.59
585.609	11726.05
585.969	11922.65
586.329	12033.16
586.688	12098.02
587.048	12177.56
587.408	12425.69
587.768	12474.5
588.127	12544.33
588.487	12674.27
588.846	12836.53
589.206	12893.7
589.565	13047.37
589.925	13253.69
590.284	13352.45
590.643	13395.38
591.003	13552.21
591.362	13833.56
591.721	13909.27
592.08	14033.11
592.44	14210.95
592.799	14324.4
593.158	14400.33
593.517	14556.48
593.876	14724.61
594.235	14833.54
594.593	15028.11
594.952	15090.93
595.311	15130.93
595.67	15350.36
596.029	15635.78
596.387	15709.22
596.746	15865.6
597.104	15871.93
597.463	16033.96
597.822	16204.12
598.18	16270.11
598.538	16406.6
598.897	16616.99
599.255	16584
599.613	16929.07
599.972	16953.93
600.33	17016.76
600.688	17144.89
601.046	17297.2
601.404	17485.67
601.762	17508.72
602.12	17727.92
602.478	17854.93
602.836	17912.33
603.194	17968.14
603.552	17971.31
603.91	18085.88
604.268	18367
604.625	18356.38
604.983	18471.41
605.341	18451.97
605.698	18649.26
606.056	18823.26
606.413	18849.7
606.771	18937.84
607.128	19079.3
607.485	19089.02
607.843	19119.07
608.2	19271.84
608.557	19431.83
608.914	19371.72
609.272	19577.82
609.629	19618.72
609.986	19832.5
610.343	19602
610.7	20007.86
611.057	19945.27
611.414	20008.54
611.771	20011.93
612.127	20172.61
612.484	20237.46
612.841	20309.78
613.198	20296.67
613.554	20378.93
613.911	20519.26
614.267	20556.1
614.624	20632.71
614.98	20726.71
615.337	20785.47
615.693	20883.77
616.05	20870.67
616.406	21086.48
616.762	20992.7
617.118	21044.22
617.475	21060.27
617.831	21175.06
618.187	21244.22
618.543	21167.16
618.899	21447.6
619.255	21383.42
619.611	21508.84
619.967	21623.19
620.323	21589.52
620.678	21595.62
621.034	21494.6
621.39	21557.2
621.746	21669.97
622.101	21865.44
622.457	21725.56
622.812	21752.9
623.168	21878.78
623.523	21894.59
623.879	21907.7
624.234	21834.71
624.589	21892.56
624.945	21900.7
625.3	22086.45
625.655	21964.65
626.01	22053.69
626.365	22058.21
626.72	22048.94
627.075	22031.77
627.43	22096.85
627.785	21992.67
628.14	22110.86
628.495	22149.73
628.85	22072.22
629.205	22011.65
629.559	22211.87
629.914	22121.03
630.269	22109.73
630.623	22078.09
630.978	21966.46
631.332	22198.09
631.687	22097.98
632.041	22057.3
632.396	22187.92
632.75	22173.46
633.104	22083.29
633.459	21976.4
633.813	21930.75
634.167	22019.79
634.521	21984.99
634.875	21962.39
635.229	21971.88
635.583	21918.1
635.937	21860.47
636.291	21932.33
636.645	21986.12
636.999	21828.61
637.352	21921.71
637.706	21887.14
638.06	22001.03
638.413	21877.19
638.767	21962.16
639.121	21815.05
639.474	21703.19
639.828	21780.02
640.181	21798.33
640.534	21867.7
640.888	21832.22
641.241	21698.67
641.594	21778.66
641.947	21843.52
642.301	21825.22
642.654	21836.97
643.007	21847.82
643.36	21757.87
643.713	21718.33
644.066	21848.49
644.419	21690.76
644.771	21533.02
645.124	21336.87
645.477	21357.43
645.83	21265.91
646.182	21113.6
646.535	21086.71
646.888	21072.02
647.24	20940.72
647.593	21123.31
647.945	21166.25
648.298	21022.07
648.65	21025.46
649.002	20949.08
649.355	21051.45
649.707	21120.15
650.059	21189.3
650.411	21404.44
650.763	21476.53
651.115	21629.06
651.467	21635.62
651.819	21562.4
652.171	21517.2
652.523	21512.91
652.875	21545.45
653.227	21391.56
653.578	21672.45
653.93	21509.75
654.282	21494.38
654.633	21372.35
654.985	21533.02
655.337	21554.94
655.688	21593.13
656.039	21645.33
656.391	21495.06
656.742	21527.6
657.094	21537.32
657.445	21567.82
657.796	21522.17
658.147	21518.78
658.498	21517.2
658.849	21613.25
659.2	21573.25
659.551	21523.76
659.902	21593.58
660.253	21509.97
660.604	21559.24
660.955	21518.33
661.306	21608.27
661.656	21516.07
662.007	21586.35
662.358	21625.9
662.708	21554.26
663.059	21575.28
663.409	21419.13
663.76	21812.79
664.11	21668.16
664.461	21689.63
664.811	21642.62
665.161	21689.63
665.511	21730.3
665.862	21616.86
666.212	21645.79
666.562	21657.31
666.912	21649.63
667.262	21623.41
667.612	21630.65
667.962	21657.54
668.312	21585.9
668.662	21743.19
669.011	21672.23
669.361	21624.32
669.711	21590.42
670.06	21590.2
670.41	21498.22
670.76	21556.98
671.109	21619.35
671.459	21586.13
671.808	21567.37
672.157	21504.1
672.507	21414.61
672.856	21458
673.205	21505.23
673.554	21533.25
673.904	21393.14
674.253	21553.81
674.602	21487.37
674.951	21159.7
675.3	21005.8
675.649	21446.24
675.998	21342.97
676.346	21343.87
676.695	21477.43
677.044	21272.01
677.393	21345.68
677.741	21320.15
678.09	21337.09
678.438	21151.34
678.787	21274.95
679.135	21208.06
679.484	21018.91
679.832	21167.61
680.181	21106.82
680.529	21083.54
680.877	20908.86
681.225	21076.99
681.573	21119.92
681.922	21006.48
682.27	20818.46
682.618	20942.3
682.966	20826.6
683.314	20891.91
683.661	20837.45
684.009	20790.67
684.357	20668.19
684.705	20643.33
685.053	20708.86
685.4	20630.22
685.748	20463.9
686.095	20535.76
686.443	20409.21
686.79	20400.85
687.138	20460.28
687.485	20304.13
687.832	20324.24
688.18	20266.39
688.527	20161.31
688.874	20097.35
689.221	20187.97
689.568	20103.23
689.915	20002.89
690.262	19940.52
690.609	19940.52
690.956	19781.66
691.303	19750.24
691.65	19695.78
691.997	19625.05
692.344	19641.09
692.69	19520.19
693.037	19524.71
693.383	19460.53
693.73	19430.25
694.077	19215.12
694.423	19286.3
694.769	19181.67
695.116	19238.84
695.462	19210.82
695.808	19155
696.155	19071.39
696.501	18965.63
696.847	18924.73
697.193	18804.51
697.539	18891.06
697.885	18686.09
698.231	18619.43
698.577	18648.13
698.923	18623.04
699.269	18504.4
699.614	18318.19
699.96	18385.99
700.306	18248.14
700.651	18249.27
700.997	18225.99
701.342	18092.89
701.688	18150.74
702.033	18151.42
702.379	18008.37
702.724	17938.09
703.069	18082.49
703.415	17703.74
703.76	17769.05
704.105	17689.51
704.45	17743.29
704.795	17597.76
705.14	17493.13
705.485	17475.5
705.83	17359.57
706.175	17426.01
706.52	17361.38
706.865	17320.25
707.209	17261.72
707.554	17217.2
707.899	17259.91
708.243	17068.96
708.588	17084.1
708.932	16897.21
709.277	16964.78
709.621	16993.25
709.966	16866.7
710.31	16809.08
710.654	16731.34
710.998	16742.41
711.342	16680.95
711.687	16696.54
712.031	16637.78
712.375	16492.02
712.719	16621.51
713.063	16486.37
713.407	16542.64
713.75	16419.03
714.094	16477.34
714.438	16299.03
714.782	16356.21
715.125	16252.03
715.469	16292.93
715.812	16240.96
716.156	16172.71
716.499	16130.68
716.843	16233.73
717.186	16031.02
717.53	16146.5
717.873	16064.69
718.216	16062.88
718.559	15998.48
718.902	15870.35
719.246	15979.5
719.589	15911.93
719.932	15869.22
720.275	15893.62
720.617	15837.58
720.96	15781.08
721.303	15819.05
721.646	15970
721.989	15801.87
722.331	15734.98
722.674	15735.21
723.016	15745.15
723.359	15722.78
723.701	15733.4
724.044	15619.28
724.386	15574.08
724.729	15576.12
725.071	15499.51
725.413	15555.1
725.755	15578.83
726.097	15458.6
726.439	15442.56
726.782	15460.86
727.124	15533.63
727.465	15465.38
727.807	15370.25
728.149	15425.61
728.491	15400.53
728.833	15531.6
729.175	15370.7
729.516	15351.26
729.858	15409.57
730.199	15449.57
730.541	15350.59
730.882	15317.82
731.224	15363.01
731.565	15409.79
731.906	15275.78
732.248	15275.33
732.589	15259.97
732.93	15220.19
733.271	15175
733.612	15276.91
733.953	15265.84
734.294	15217.03
734.635	15184.94
734.976	15288.67
735.317	15206.86
735.658	15190.82
735.999	15224.03
736.339	15203.47
736.68	15284.15
737.021	15217.93
737.361	15118.5
737.702	15230.36
738.042	15193.75
738.383	15273.52
738.723	15320.76
739.063	15236.92
739.404	15237.37
739.744	15292.96
740.084	15215.9
740.424	15231.04
740.764	15246.86
741.104	15327.53
741.444	15259.97
741.784	15292.51
742.124	15263.36
742.464	15308.55
742.804	15279.17
743.143	15231.04
743.483	15375.67
743.823	15227.65
744.162	15378.15
744.502	15353.75
744.841	15344.94
745.181	15480.07
745.52	15443.24
745.86	15545.61
746.199	15515.78
746.538	15581.99
746.877	15646.4
747.216	15647.53
747.556	15713.97
747.895	15709.67
748.234	15739.5
748.573	15896.33
748.911	15903.11
749.25	15931.59
749.589	15937.91
749.928	16142.88
750.267	16094.52
750.605	16258.13
750.944	16235.99
751.283	16259.71
751.621	16376.09
751.96	16414.96
752.298	16476.43
752.636	16638.69
752.975	16612.25
753.313	16665.58
753.651	16863.09
753.989	16972.01
754.327	17022.18
754.666	17074.38
755.004	17178.56
755.342	17236.86
755.679	17366.35
756.017	17388.95
756.355	17608.83
756.693	17647.25
757.031	17771.54
757.368	17886.11
757.706	17869.84
758.044	18089.95
758.381	18205.88
758.719	18190.28
759.056	18365.87
759.394	18453.1
