Data from hue_100_FLMS001491_00099.txt Node
Date: Tue Feb 07 17:03:55 GMT 2017
User: dcchb
Spectrometer: FLMS00149
Trigger mode: 0
Integration Time (sec): 2.000000E-2
Scans to average: 10
Electric dark correction enabled: true
Nonlinearity correction enabled: false
Boxcar width: 0
XAxis mode: Wavelengths
Number of Pixels in Spectrum: 2048
>>>>>Begin Spectral Data<<<<<
341.393	-1.1
341.776	-1.1
342.16	-1.1
342.543	-84.94
342.927	-55.79
343.31	-88.11
343.693	-58.28
344.077	-76.35
344.46	-44.26
344.843	-57.37
345.226	-41.55
345.61	-19.63
345.993	-25.96
346.376	-13.98
346.759	19.69
347.142	43.64
347.525	40.48
347.908	76.86
348.291	66.24
348.674	82.51
349.057	96.07
349.44	107.82
349.823	144.43
350.206	150.08
350.588	192.57
350.971	217.65
351.354	229.17
351.737	245.22
352.119	268.5
352.502	244.77
352.884	253.58
353.267	267.14
353.65	299.23
354.032	296.74
354.414	297.2
354.797	294.26
355.179	337.65
355.562	320.02
355.944	320.7
356.326	308.49
356.709	323.18
357.091	338.55
357.473	351.88
357.855	358.89
358.238	347.14
358.62	333.35
359.002	326.57
359.384	346.23
359.766	320.47
360.148	347.82
360.53	347.36
360.912	354.14
361.294	334.26
361.676	342.62
362.057	325.22
362.439	334.71
362.821	331.54
363.203	333.13
363.584	318.89
363.966	327.48
364.348	327.03
364.729	332
365.111	327.7
365.493	322.96
365.874	307.82
366.256	329.96
366.637	315.95
367.019	338.55
367.4	334.26
367.781	320.02
368.163	311.66
368.544	306.91
368.925	313.92
369.306	303.98
369.688	316.86
370.069	325.22
370.45	319.57
370.831	317.76
371.212	334.71
371.593	305.78
371.974	316.4
372.355	295.61
372.736	309.85
373.117	315.05
373.498	299.46
373.879	320.02
374.26	323.41
374.641	322.28
375.021	300.36
375.402	307.82
375.783	305.78
376.163	338.55
376.544	325.22
376.925	315.27
377.305	325.22
377.686	339
378.066	325.9
378.447	339
378.827	321.15
379.208	363.86
379.588	333.13
379.968	342.84
380.349	334.93
380.729	332.9
381.109	342.62
381.489	339.91
381.87	327.48
382.25	341.94
382.63	339.23
383.01	329.74
383.39	344.2
383.77	350.98
384.15	350.98
384.53	353.69
384.91	352.79
385.29	337.65
385.67	355.95
386.049	383.07
386.429	361.37
386.809	372.67
387.189	368.61
387.568	358.89
387.948	337.65
388.328	372.45
388.707	371.54
389.087	357.31
389.466	366.35
389.846	365.22
390.225	381.04
390.605	373.58
390.984	366.35
391.363	374.71
391.743	389.62
392.122	357.53
392.501	381.49
392.881	396.4
393.26	370.64
393.639	373.58
394.018	386.46
394.397	375.16
394.776	392.56
395.155	386.01
395.534	390.53
395.913	396.63
396.292	391.2
396.671	383.07
397.05	390.98
397.429	386.23
397.808	389.4
398.186	405.44
398.565	407.02
398.944	398.66
399.323	385.33
399.701	423.52
400.08	409.73
400.458	404.76
400.837	408.15
401.215	393.69
401.594	426.68
401.972	421.49
402.351	421.71
402.729	418.55
403.107	414.93
403.486	422.16
403.864	429.85
404.242	451.54
404.62	445.89
404.999	444.54
405.377	421.03
405.755	430.3
406.133	437.53
406.511	442.5
406.889	444.31
407.267	423.75
407.645	450.86
408.023	456.29
408.401	475.27
408.779	457.42
409.156	493.57
409.534	475.27
409.912	449.96
410.29	476.63
410.667	484.54
411.045	475.95
411.422	462.61
411.8	481.82
412.178	498.55
412.555	506.23
412.933	494.25
413.31	515.95
413.687	513.24
414.065	505.55
414.442	501.03
414.819	529.05
415.197	517.98
415.574	520.92
415.951	524.08
416.328	534.48
416.705	525.66
417.082	513.69
417.46	543.97
417.837	555.04
418.214	544.42
418.591	554.36
418.967	533.12
419.344	567.47
419.721	573.57
420.098	536.06
420.475	558.66
420.852	592.33
421.228	567.47
421.605	576.51
421.982	592.33
422.358	588.04
422.735	580.8
423.111	585.78
423.488	603.63
423.864	606.57
424.241	613.8
424.617	594.14
424.994	614.48
425.37	625.1
425.746	626.45
426.123	619.22
426.499	629.16
426.875	626.9
427.251	633.46
427.627	650.86
428.003	653.34
428.379	656.96
428.756	665.1
429.132	665.1
429.507	683.17
429.883	694.02
430.259	703.74
430.635	674.59
431.011	675.04
431.387	725.21
431.763	723.85
432.138	727.24
432.514	731.76
432.89	718.2
433.265	744.64
433.641	736.73
434.016	750.97
434.392	767.69
434.767	750.74
435.143	774.25
435.518	785.77
435.894	790.06
436.269	769.05
436.644	778.76
437.02	793.45
437.395	816.28
437.77	806.33
438.145	819.89
438.52	830.06
438.895	852.89
439.271	835.26
439.646	865.32
440.021	862.38
440.395	867.58
440.77	867.58
441.145	874.36
441.52	892.43
441.895	881.81
442.27	908.25
442.645	877.29
443.019	910.29
443.394	903.28
443.769	913
444.143	907.12
444.518	944.86
444.892	926.78
445.267	923.62
445.641	946.67
446.016	952.32
446.39	949.38
446.764	969.72
447.139	972.21
447.513	993.45
447.887	955.48
448.262	979.44
448.636	995.93
449.01	1027.8
449.384	1002.71
449.758	1017.4
450.132	1027.57
450.506	1024.18
450.88	1037.97
451.254	1024.63
451.628	1045.42
452.002	1081.58
452.376	1066.21
452.75	1081.13
453.123	1107.12
453.497	1094.01
453.871	1116.38
454.244	1128.36
454.618	1137.17
454.992	1153.9
455.365	1168.81
455.739	1167.23
456.112	1227.34
456.486	1188.7
456.859	1209.26
457.232	1231.63
457.606	1258.07
457.979	1214.69
458.352	1256.72
458.725	1277.06
459.099	1290.16
459.472	1345.76
459.845	1326.1
460.218	1338.52
460.591	1378.52
460.964	1356.83
461.337	1425.3
461.71	1417.17
462.083	1435.92
462.456	1432.76
462.829	1450.61
463.201	1474.34
463.574	1502.14
463.947	1492.64
464.32	1535.13
464.692	1543.49
465.065	1565.64
465.438	1582.59
465.81	1630.49
466.183	1652.87
466.555	1676.59
466.928	1715.24
467.3	1718.85
467.672	1729.25
468.045	1788.23
468.417	1764.05
468.789	1818.51
469.161	1844.95
469.534	1887.44
469.906	1891.73
470.278	1929.47
470.65	1995.23
471.022	2006.76
471.394	2058.28
471.766	2072.52
472.138	2121.1
472.51	2136.24
472.882	2196.81
473.253	2237.48
473.625	2298.72
473.997	2371.27
474.369	2349.35
474.74	2445.61
475.112	2511.83
475.484	2525.16
475.855	2622.11
476.227	2621.2
476.598	2750.69
476.97	2822.78
477.341	2876.11
477.713	2939.16
478.084	2949.1
478.455	3090.57
478.827	3149.1
479.198	3256.21
479.569	3303.9
479.94	3421.86
480.311	3506.83
480.682	3582.53
481.053	3713.38
481.424	3815.3
481.795	3872.24
482.166	3979.58
482.537	4076.98
482.908	4208.73
483.279	4261.61
483.65	4377.77
484.021	4508.61
484.391	4585.67
484.762	4770.07
485.133	4853.23
485.503	4962.61
485.874	5127.13
486.244	5168.48
486.615	5346.1
486.985	5459.55
487.356	5648.47
487.726	5696.6
488.097	5892.98
488.467	6013.66
488.837	6189.02
489.207	6296.36
489.578	6508.56
489.948	6590.59
490.318	6710.36
490.688	6858.15
491.058	7008.88
491.428	7152.83
491.798	7337.46
492.168	7483.9
492.538	7589.89
492.908	7805.02
493.278	7966.15
493.648	7977.67
494.017	8228.51
494.387	8331.33
494.757	8437.55
495.126	8596.19
495.496	8686.81
495.866	8865.11
496.235	8956.18
496.605	9160.92
496.974	9190.97
497.344	9388.48
497.713	9500.34
498.082	9629.38
498.452	9751.18
498.821	9878.41
499.19	9972.87
499.559	10127.67
499.928	10226.43
500.298	10332.41
500.667	10477.04
501.036	10571.28
501.405	10697.6
501.774	10699.86
502.143	10806.07
502.512	10899.63
502.88	11060.3
503.249	11114.54
503.618	11224.37
503.987	11279.28
504.356	11406.96
504.724	11523.79
505.093	11574.87
505.462	11731.47
505.83	11793.16
506.199	11902.09
506.567	12084.46
506.936	12057.34
507.304	12237.45
507.672	12314.73
508.041	12266.82
508.409	12482.19
508.777	12562.41
509.145	12581.84
509.514	12601.73
509.882	12747.26
510.25	12719.47
510.618	12815.96
510.986	12855.96
511.354	13050.76
511.722	13127.14
512.09	13167.37
512.458	13154.03
512.826	13280.81
513.193	13296.4
513.561	13376.4
513.929	13438.32
514.297	13526.9
514.664	13620.46
515.032	13637.86
515.4	13672.44
515.767	13804.19
516.135	13832.66
516.502	13744.53
516.869	13850.51
517.237	14044.86
517.604	13943.39
517.972	14043.05
518.339	14168.92
518.706	14076.49
519.073	14085.76
519.44	14098.64
519.808	14242.59
520.175	14302.48
520.542	14384.06
520.909	14456.15
521.276	14450.04
521.643	14508.57
522.009	14659.3
522.376	14542.47
522.743	14615.24
523.11	14794.89
523.477	14740.43
523.843	14838.28
524.21	14909.92
524.577	14939.97
524.943	14952.18
525.31	15006.87
525.676	15125.05
526.043	15116.01
526.409	15127.99
526.776	15244.6
527.142	15190.36
527.508	15283.92
527.874	15352.17
528.241	15311.49
528.607	15312.85
528.973	15366.63
529.339	15372.96
529.705	15494.99
530.071	15552.39
530.437	15468.77
530.803	15525.95
531.169	15492.95
531.535	15451.83
531.901	15430.36
532.267	15410.02
532.632	15592.16
532.998	15540.41
533.364	15615.21
533.73	15541.09
534.095	15621.54
534.461	15662.89
534.826	15530.69
535.192	15600.75
535.557	15622.67
535.923	15658.83
536.288	15568.88
536.653	15572.5
537.019	15492.05
537.384	15506.97
537.749	15506.51
538.114	15398.95
538.479	15376.35
538.845	15460.19
539.21	15336.35
539.575	15305.61
539.94	15294.32
540.305	15308.33
540.67	15220.19
541.034	15385.16
541.399	15224.94
541.764	15312.17
542.129	15239.63
542.494	15260.42
542.858	15252.96
543.223	15205.96
543.587	15262.45
543.952	15181.32
544.316	15116.24
544.681	15094.32
545.045	15099.74
545.41	15137.26
545.774	15046.86
546.138	15059.52
546.503	14996.24
546.867	14957.15
547.231	14955.79
547.595	14833.76
547.959	14947.43
548.324	14847.55
548.688	14920.77
549.052	14916.7
549.416	14830.15
549.779	14824.72
550.143	14805.51
550.507	14737.49
550.871	14730.04
551.235	14686.42
551.599	14723.93
551.962	14721.22
552.326	14675.57
552.689	14723.26
553.053	14601
553.417	14544.96
553.78	14768
554.143	14651.85
554.507	14604.84
554.87	14581.57
555.234	14633.09
555.597	14555.35
555.96	14522.36
556.323	14505.18
556.686	14535.92
557.05	14560.1
557.413	14522.36
557.776	14500.66
558.139	14573.66
558.502	14490.04
558.865	14558.52
559.228	14512.87
559.59	14560.1
559.953	14527.33
560.316	14578.63
560.679	14579.31
561.041	14645.52
561.404	14609.36
561.767	14585.41
562.129	14572.07
562.492	14656.14
562.854	14672.41
563.217	14623.15
563.579	14598.29
563.941	14648.68
564.304	14747.21
564.666	14745.86
565.028	14620.89
565.39	14738.17
565.753	14820.88
566.115	14732.75
566.477	14866.3
566.839	14815.01
567.201	14910.14
567.563	14845.74
567.925	14982.69
568.287	14994.66
568.648	14863.14
569.01	14975.23
569.372	15040.54
569.734	14849.58
570.095	15024.04
570.457	15032.63
570.819	15025.4
571.18	15051.84
571.542	14993.53
571.903	15004.15
572.265	15112.17
572.626	15086.41
572.987	15103.13
573.349	15171.61
573.71	15145.84
574.071	15183.13
574.432	15076.47
574.794	15278.72
575.155	15224.71
575.516	15194.43
575.877	15278.27
576.238	15218.16
576.599	15268.55
576.96	15208.44
577.32	15240.08
577.681	15318.95
578.042	15309.91
578.403	15254.09
578.763	15304.03
579.124	15342.22
579.485	15448.44
579.845	15367.31
580.206	15309.23
580.566	15269.91
580.927	15311.26
581.287	15410.47
581.648	15239.18
582.008	15393.07
582.368	15312.85
582.728	15355.1
583.089	15318.5
583.449	15220.42
583.809	15319.4
584.169	15246.86
584.529	15275.11
584.889	15378.38
585.249	15281.21
585.609	15229.23
585.969	15226.07
586.329	15212.28
586.688	15319.85
587.048	15262.23
587.408	15179.29
587.768	15166.64
588.127	15068.56
588.487	15145.39
588.846	15214.54
589.206	15098.84
589.565	15176.58
589.925	15122.34
590.284	15164.83
590.643	15221.1
591.003	15088.9
591.362	15215.67
591.721	15177.93
592.08	15107.2
592.44	15164.38
592.799	15049.8
593.158	15061.78
593.517	15063.81
593.876	15204.6
594.235	15034.89
594.593	14968.9
594.952	15099.29
595.311	14994.44
595.67	15037.37
596.029	15138.84
596.387	15065.39
596.746	15066.75
597.104	15019.29
597.463	15041.44
597.822	15068.56
598.18	14968.67
598.538	15052.51
598.897	15063.59
599.255	14863.59
599.613	15147.43
599.972	15041.21
600.33	15044.83
600.688	15019.52
601.046	14998.73
601.404	15061.1
601.762	15135.22
602.12	15133.42
602.478	15102.91
602.836	15041.44
603.194	14945.4
603.552	14973.42
603.91	14913.31
604.268	15098.39
604.625	14970.48
604.983	15021.78
605.341	14924.38
605.698	15001.67
606.056	15135.9
606.413	15047.54
606.771	15087.99
607.128	15105.85
607.485	14940.65
607.843	15021.78
608.2	15196.92
608.557	15216.35
608.914	15071.72
609.272	15202.79
609.629	15216.8
609.986	15167.99
610.343	15218.39
610.7	15226.52
611.057	15240.31
611.414	15267.2
611.771	15175.9
612.127	15190.82
612.484	15184.94
612.841	15239.85
613.198	15154.88
613.554	15217.71
613.911	15295.67
614.267	15285.73
614.624	15273.3
614.98	15243.24
615.337	15339.06
615.693	15315.11
616.05	15287.08
616.406	15398.49
616.762	15341.77
617.118	15342
617.475	15314.88
617.831	15440.07
618.187	15381.09
618.543	15447.08
618.899	15457.25
619.255	15476.23
619.611	15388.1
619.967	15477.81
620.323	15479.4
620.678	15583.57
621.034	15474.2
621.39	15529.79
621.746	15491.82
622.101	15621.54
622.457	15452.73
622.812	15454.54
623.168	15563.46
623.523	15488.66
623.879	15586.51
624.234	15511.26
624.589	15459.96
624.945	15510.35
625.3	15509.68
625.655	15456.57
626.01	15476.01
626.365	15463.35
626.72	15443.69
627.075	15459.28
627.43	15437.59
627.785	15448.44
628.14	15473.97
628.495	15486.4
628.85	15473.52
629.205	15413.63
629.559	15455.89
629.914	15409.34
630.269	15384.71
630.623	15292.06
630.978	15403.69
631.332	15403.24
631.687	15466.29
632.041	15323.24
632.396	15368.89
632.75	15342.22
633.104	15352.62
633.459	15263.58
633.813	15200.98
634.167	15313.3
634.521	15165.96
634.875	15234.88
635.229	15197.37
635.583	15106.3
635.937	15142.45
636.291	14997.6
636.645	15063.81
636.999	15136.58
637.352	15135.22
637.706	15084.83
638.06	15022.91
638.413	15046.64
638.767	15032.63
639.121	15019.75
639.474	14986.98
639.828	14950.6
640.181	14897.72
640.534	14935
640.888	14890.48
641.241	14827.66
641.594	14864.04
641.947	14918.51
642.301	14904.04
642.654	14766.65
643.007	14761.9
643.36	14859.75
643.713	14826.98
644.066	14857.94
644.419	14700.21
644.771	14641
645.124	14562.13
645.477	14595.58
645.83	14398.97
646.182	14378.41
646.535	14343.83
646.888	14342.7
647.24	14230.16
647.593	14370.95
647.945	14350.84
648.298	14285.3
648.65	14281.69
649.002	14187.23
649.355	14308.8
649.707	14252.76
650.059	14396.49
650.411	14598.29
650.763	14498.4
651.115	14657.27
651.467	14613.66
651.819	14674.67
652.171	14610.72
652.523	14539.98
652.875	14583.83
653.227	14547.22
653.578	14624.05
653.93	14659.76
654.282	14584.96
654.633	14574.33
654.985	14556.93
655.337	14590.38
655.688	14679.42
656.039	14638.29
656.391	14488.01
656.742	14572.3
657.094	14610.27
657.445	14654.11
657.796	14575.46
658.147	14613.66
658.498	14613.66
658.849	14626.99
659.2	14626.99
659.551	14536.14
659.902	14588.57
660.253	14670.83
660.604	14622.47
660.955	14546.31
661.306	14657.27
661.656	14683.03
662.007	14683.71
662.358	14640.55
662.708	14680.55
663.059	14662.69
663.409	14578.4
663.76	14725.52
664.11	14680.55
664.461	14746.76
664.811	14776.14
665.161	14786.31
665.511	14627.44
665.862	14704.95
666.212	14738.85
666.562	14631.06
666.912	14706.31
667.262	14636.25
667.612	14632.86
667.962	14682.58
668.312	14665.86
668.662	14784.95
669.011	14678.51
669.361	14628.34
669.711	14632.41
670.06	14626.99
670.41	14584.28
670.76	14617.27
671.109	14659.76
671.459	14552.64
671.808	14549.02
672.157	14610.49
672.507	14455.24
672.856	14552.41
673.205	14604.84
673.554	14552.64
673.904	14514.45
674.253	14625.63
674.602	14512.19
674.951	14361.68
675.3	14236.49
675.649	14474.45
675.998	14405.75
676.346	14447.78
676.695	14494.11
677.044	14341.35
677.393	14362.36
677.741	14354.45
678.09	14401.23
678.438	14313.1
678.787	14279.65
679.135	14344.51
679.484	14181.8
679.832	14300.67
680.181	14210.95
680.529	14196.94
680.877	14227.22
681.225	14198.75
681.573	14194.46
681.922	14166.44
682.27	14031.98
682.618	14047.12
682.966	14033.56
683.314	14144.52
683.661	13983.16
684.009	13915.82
684.357	13891.87
684.705	13924.41
685.053	13878.99
685.4	13847.35
685.748	13842.15
686.095	13753.34
686.443	13753.56
686.79	13702.04
687.138	13707.46
687.485	13712.89
687.832	13638.77
688.18	13696.17
688.527	13514.02
688.874	13527.81
689.221	13525.32
689.568	13509.96
689.915	13461.37
690.262	13499.33
690.609	13424.31
690.956	13347.02
691.303	13246.01
691.65	13353.58
691.997	13272
692.344	13175.73
692.69	13193.58
693.037	13041.72
693.383	13023.41
693.73	13135.05
694.077	13028.61
694.423	12970.53
694.769	12975.73
695.116	12805.57
695.462	12801.5
695.808	12766.7
696.155	12790.65
696.501	12656.19
696.847	12638.79
697.193	12613.93
697.539	12558.34
697.885	12534.16
698.231	12461.4
698.577	12414.17
698.923	12346.6
699.269	12335.3
699.614	12260.95
699.96	12201.97
700.306	12290.33
700.651	12155.87
700.997	12103.66
701.342	12106.15
701.688	12055.76
702.033	12001.52
702.379	11936.66
702.724	11938.47
703.069	11958.58
703.415	11805.59
703.76	11780.06
704.105	11794.29
704.45	11764.69
704.795	11684.69
705.14	11631.59
705.485	11594.53
705.83	11656.9
706.175	11616.45
706.52	11591.59
706.865	11493.06
707.209	11442.89
707.554	11382.78
707.899	11446.28
708.243	11376.23
708.588	11363.57
708.932	11269.56
709.277	11308.43
709.621	11277.47
709.966	11238.15
710.31	11212.61
710.654	11078.61
710.998	11131.49
711.342	11103.24
711.687	11097.36
712.031	11076.57
712.375	10996.35
712.719	10954.32
713.063	10944.15
713.407	11035.9
713.75	10897.14
714.094	10940.98
714.438	10856.47
714.782	10868.44
715.125	10793.87
715.469	10837.48
715.812	10812.63
716.156	10677.49
716.499	10725.17
716.843	10677.71
717.186	10630.94
717.53	10765.17
717.873	10704.38
718.216	10678.17
718.559	10615.34
718.902	10541.67
719.246	10649.92
719.589	10557.72
719.932	10454.67
720.275	10545.06
720.617	10510.49
720.96	10500.32
721.303	10472.75
721.646	10505.51
721.989	10446.76
722.331	10461
722.674	10415.35
723.016	10416.93
723.359	10347.55
723.701	10399.08
724.044	10410.38
724.386	10333.99
724.729	10383.03
725.071	10391.85
725.413	10345.97
725.755	10357.5
726.097	10311.4
726.439	10274.11
726.782	10216.48
727.124	10301
727.465	10315.46
727.807	10302.13
728.149	10216.03
728.491	10216.26
728.833	10317.5
729.175	10165.64
729.516	10208.35
729.858	10215.8
730.199	10204.73
730.541	10125.86
730.882	10175.58
731.224	10217.16
731.565	10190.27
731.906	10195.92
732.248	10151.85
732.589	10189.59
732.93	10045.19
733.271	10112.98
733.612	10105.98
733.953	10206.77
734.294	10130.84
734.635	10044.96
734.976	10170.83
735.317	10082.25
735.658	10144.85
735.999	10121.12
736.339	10105.53
736.68	10121.12
737.021	10138.29
737.361	10151.63
737.702	10171.29
738.042	10165.86
738.383	10091.51
738.723	10192.98
739.063	10177.61
739.404	10263.26
739.744	10199.31
740.084	10173.55
740.424	10287.44
740.764	10206.31
741.104	10269.14
741.444	10177.61
741.784	10179.87
742.124	10298.06
742.464	10300.55
742.804	10320.43
743.143	10330.6
743.483	10444.5
743.823	10310.04
744.162	10335.35
744.502	10461.22
744.841	10422.35
745.181	10525.4
745.52	10414.22
745.86	10472.52
746.199	10495.57
746.538	10625.74
746.877	10775.34
747.216	10725.17
747.556	10796.13
747.895	10790.48
748.234	10753.42
748.573	10813.98
748.911	10926.75
749.25	11002
749.589	11077.25
749.928	11129.68
750.267	11239.96
750.605	11290.13
750.944	11320.63
751.283	11361.09
751.621	11530.35
751.96	11555.43
752.298	11626.16
752.636	11774.86
752.975	11804.92
753.313	11893.95
753.651	12033.61
753.989	12130.78
754.327	12218.01
754.666	12305.69
755.004	12421.4
755.342	12629.53
755.679	12741.61
756.017	12797.21
