Data from hue_120_FLMS001491_00082.txt Node
Date: Tue Feb 07 17:00:08 GMT 2017
User: dcchb
Spectrometer: FLMS00149
Trigger mode: 0
Integration Time (sec): 2.000000E-2
Scans to average: 10
Electric dark correction enabled: true
Nonlinearity correction enabled: false
Boxcar width: 0
XAxis mode: Wavelengths
Number of Pixels in Spectrum: 2048
>>>>>Begin Spectral Data<<<<<
341.393	-12.12
341.776	-12.12
342.16	-12.12
342.543	-65.22
342.927	-74.26
343.31	-73.36
343.693	-80.82
344.077	-54.83
344.46	-41.27
344.843	-62.51
345.226	-52.57
345.61	-21.84
345.993	-20.25
346.376	-3.53
346.759	15.23
347.142	37.15
347.525	39.86
347.908	53.87
348.291	66.3
348.674	82.12
349.057	116.47
349.44	116.01
349.823	146.52
350.206	150.36
350.588	182.23
350.971	203.24
351.354	218.61
351.737	239.17
352.119	261.55
352.502	268.55
352.884	250.47
353.267	263.81
353.65	290.25
354.032	275.33
354.414	316.69
354.797	295.9
355.179	336.35
355.562	328.21
355.944	322.34
356.326	331.6
356.709	332.05
357.091	348.32
357.473	337.93
357.855	350.81
358.238	331.6
358.62	350.36
359.002	339.74
359.384	345.61
359.766	359.85
360.148	327.76
360.53	330.47
360.912	323.47
361.294	339.96
361.676	320.53
362.057	372.05
362.439	330.47
362.821	360.75
363.203	311.26
363.584	338.15
363.966	314.43
364.348	323.47
364.729	329.34
365.111	323.01
365.493	326.18
365.874	315.56
366.256	312.17
366.637	309.23
367.019	303.58
367.4	324.82
367.781	303.81
368.163	326.4
368.544	327.08
368.925	318.49
369.306	316.69
369.688	330.47
370.069	323.24
370.45	310.81
370.831	318.27
371.212	317.36
371.593	313.97
371.974	320.08
372.355	320.3
372.736	329.57
373.117	337.93
373.498	331.83
373.879	331.83
374.26	339.28
374.641	314.2
375.021	325.27
375.402	332.05
375.783	316.91
376.163	326.86
376.544	333.41
376.925	326.86
377.305	327.99
377.686	326.18
378.066	327.53
378.447	351.04
378.827	313.75
379.208	347.65
379.588	347.19
379.968	354.43
380.349	351.71
380.729	349.23
381.109	338.38
381.489	340.19
381.87	343.8
382.25	353.07
382.63	336.8
383.01	327.76
383.39	340.19
383.77	335.9
384.15	346.74
384.53	354.65
384.91	377.93
385.29	346.29
385.67	370.92
386.049	359.4
386.429	348.32
386.809	372.5
387.189	357.36
387.568	360.98
387.948	356.46
388.328	364.37
388.707	377.48
389.087	371.83
389.466	370.92
389.846	377.7
390.225	399.17
390.605	375.89
390.984	384.48
391.363	395.33
391.743	383.58
392.122	382.9
392.501	377.93
392.881	393.75
393.26	386.52
393.639	379.74
394.018	389.68
394.397	408.21
394.776	396.23
395.155	400.3
395.534	379.96
395.913	402.33
396.292	427.42
396.671	398.49
397.05	429.23
397.429	390.13
397.808	419.28
398.186	407.98
398.565	414.76
398.944	408.21
399.323	414.99
399.701	406.18
400.08	420.86
400.458	431.03
400.837	439.17
401.215	449.56
401.594	420.86
401.972	422.67
402.351	419.96
402.729	417.25
403.107	436.46
403.486	430.58
403.864	415.22
404.242	431.03
404.62	436.23
404.999	452.05
405.377	451.82
405.755	453.63
406.133	452.05
406.511	458.38
406.889	470.35
407.267	490.69
407.645	477.13
408.023	471.94
408.401	472.39
408.779	484.37
409.156	486.85
409.534	483.01
409.912	485.72
410.29	496.57
410.667	508.32
411.045	494.99
411.422	494.31
411.8	511.94
412.178	533.63
412.555	510.35
412.933	495.21
413.31	497.92
413.687	548.77
414.065	526.4
414.442	533.4
414.819	536.79
415.197	543.35
415.574	549.45
415.951	548.54
416.328	539.05
416.705	554.42
417.082	548.77
417.46	578.15
417.837	566.62
418.214	571.37
418.591	563.46
418.967	541.99
419.344	586.96
419.721	570.92
420.098	593.52
420.475	586.06
420.852	584.25
421.228	589.45
421.605	594.42
421.982	600.29
422.358	610.69
422.735	602.78
423.111	609.56
423.488	637.58
423.864	620.41
424.241	625.61
424.617	653.4
424.994	641.42
425.37	643.91
425.746	654.76
426.123	655.89
426.499	659.05
426.875	639.39
427.251	682.33
427.627	681.87
428.003	682.33
428.379	698.82
428.756	678.48
429.132	687.3
429.507	697.02
429.883	704.92
430.259	736.11
430.635	691.14
431.011	732.04
431.387	723.91
431.763	758.26
432.138	747.18
432.514	744.25
432.89	775.66
433.265	769.1
433.641	747.86
434.016	784.7
434.392	810.01
434.767	797.58
435.143	814.07
435.518	801.65
435.894	826.05
436.269	796.9
436.644	823.34
437.02	848.65
437.395	841.64
437.77	869.67
438.145	859.95
438.52	859.72
438.895	899.5
439.271	849.33
439.646	895.43
440.021	897.91
440.395	907.41
440.77	912.6
441.145	914.19
441.52	932.26
441.895	939.27
442.27	908.99
442.645	915.54
443.019	941.53
443.394	945.14
443.769	966.61
444.143	968.19
444.518	962.32
444.892	974.07
445.267	956.44
445.641	994.86
446.016	968.42
446.39	1003.45
446.764	1017.01
447.139	1009.78
447.513	1001.87
447.887	1004.8
448.262	1035.31
448.636	1010.91
449.01	1038.25
449.384	1031.47
449.758	1064.92
450.132	1080.28
450.506	1068.31
450.88	1088.87
451.254	1071.24
451.628	1068.08
452.002	1106.5
452.376	1112.82
452.75	1110.11
453.123	1121.64
453.497	1150.34
453.871	1165.7
454.244	1170.9
454.618	1198.25
454.992	1190.11
455.365	1198.02
455.739	1237.79
456.112	1239.37
456.486	1276.66
456.859	1271.46
457.232	1239.37
457.606	1261.29
457.979	1296.55
458.352	1330.67
458.725	1340.39
459.099	1335.19
459.472	1350.11
459.845	1372.93
460.218	1397.11
460.591	1391.69
460.964	1428.3
461.337	1461.52
461.71	1484.79
462.083	1512.81
462.456	1509.2
462.829	1524.56
463.201	1541.74
463.574	1560.27
463.947	1588.52
464.32	1593.72
464.692	1603.21
465.065	1591.23
465.438	1668.74
465.81	1662.41
466.183	1675.75
466.555	1725.24
466.928	1763.65
467.3	1761.17
467.672	1780.38
468.045	1828.74
468.417	1865.35
468.789	1873.48
469.161	1909.41
469.534	1926.59
469.906	1989.64
470.278	2026.25
470.65	2023.31
471.022	2073.7
471.394	2154.15
471.766	2169.97
472.138	2181.04
472.51	2235.05
472.882	2279.35
473.253	2322.28
473.625	2376.07
473.997	2431.66
474.369	2460.13
474.74	2536.97
475.112	2591.66
475.484	2613.8
475.855	2695.61
476.227	2715.04
476.598	2839.11
476.97	2876.39
477.341	2982.38
477.713	3065.99
478.084	3079.78
478.455	3164.97
478.827	3208.59
479.198	3356.83
479.569	3402.03
479.94	3524.74
480.311	3583.04
480.682	3674.11
481.053	3765.41
481.424	3898.51
481.795	3969.7
482.166	4085.85
482.537	4208.79
482.908	4315.9
483.279	4406.3
483.65	4481.77
484.021	4677.48
484.391	4751.6
484.762	4831.37
485.133	4939.62
485.503	5084.47
485.874	5190.91
486.244	5308.42
486.615	5511.8
486.985	5649.88
487.356	5783.44
487.726	5904.79
488.097	6073.37
488.467	6152.47
488.837	6325.79
489.207	6463.87
489.578	6644.88
489.948	6735.27
490.318	6882.62
490.688	7039.22
491.058	7186.79
491.428	7394.24
491.798	7486.89
492.168	7721.92
492.538	7821.8
492.908	7981.57
493.278	8114.22
493.648	8193.99
494.017	8387.89
494.387	8568.9
494.757	8639.18
495.126	8827.2
495.496	8969.79
495.866	9001.2
496.235	9166.4
496.605	9352.83
496.974	9506.95
497.344	9647.29
497.713	9713.95
498.082	9837.11
498.452	10013.15
498.821	10083.66
499.19	10181.06
499.559	10327.95
499.928	10456.53
500.298	10596.87
500.667	10744.66
501.036	10794.15
501.405	10889.29
501.774	10986.69
502.143	11097.65
502.512	11194.37
502.88	11347.13
503.249	11391.42
503.618	11486.79
503.987	11498.99
504.356	11635.26
504.724	11703.51
505.093	11797.74
505.462	11902.14
505.83	12038.64
506.199	12105.76
506.567	12301
506.936	12275.02
507.304	12401.57
507.672	12513.88
508.041	12573.77
508.409	12717.04
508.777	12764.04
509.145	12940.31
509.514	12879.29
509.882	12948.67
510.25	13042.23
510.618	13098.95
510.986	13170.59
511.354	13231.83
511.722	13408.55
512.09	13421.65
512.458	13437.7
512.826	13520.86
513.193	13581.65
513.561	13575.1
513.929	13727.86
514.297	13848.08
514.664	13818.25
515.032	13823.45
515.4	14029.32
515.767	14035.42
516.135	14120.84
516.502	13995.65
516.869	14254.4
517.237	14161.52
517.604	14159.71
517.972	14247.62
518.339	14393.15
518.706	14411.91
519.073	14495.07
519.44	14551.79
519.808	14646.03
520.175	14476.77
520.542	14713.6
520.909	14752.92
521.276	14707.04
521.643	14801.05
522.009	14905.91
522.376	14871.78
522.743	14877.43
523.11	14969.41
523.477	15069.97
523.843	15158.33
524.21	15282.39
524.577	15281.72
524.943	15296.18
525.31	15358.78
525.676	15483.97
526.043	15406.23
526.409	15453.01
526.776	15573.91
527.142	15580.92
527.508	15563.52
527.874	15648.03
528.241	15718.32
528.607	15637.64
528.973	15778.43
529.339	15669.5
529.705	15780.69
530.071	15768.94
530.437	15834.92
530.803	15829.27
531.169	15898.2
531.535	15757.18
531.901	15827.69
532.267	15956.95
532.632	15892.32
532.998	15921.93
533.364	15929.61
533.73	15882.83
534.095	15958.76
534.461	15871.08
534.826	15983.85
535.192	15842.61
535.557	15954.24
535.923	15893
536.288	15978.87
536.653	15905.66
537.019	15734.13
537.384	15817.07
537.749	15918.08
538.114	15804.41
538.479	15784.53
538.845	15844.87
539.21	15747.92
539.575	15752.44
539.94	15641.03
540.305	15817.52
540.67	15625.44
541.034	15674.02
541.399	15737.75
541.764	15610.52
542.129	15675.38
542.494	15588.15
542.858	15559.22
543.223	15482.16
543.587	15579.34
543.952	15471.77
544.316	15489.62
544.681	15374.37
545.045	15443.52
545.41	15474.48
545.774	15449.4
546.138	15326.91
546.503	15322.62
546.867	15276.52
547.231	15323.98
547.595	15344.77
547.959	15291.89
548.324	15234.94
548.688	15251.66
549.052	15218.67
549.416	15110.42
549.779	15181.61
550.143	15097.54
550.507	15149.52
550.871	15104.55
551.235	14992.91
551.599	15114.04
551.962	15139.35
552.326	15049.41
552.689	15015.06
553.053	14939.58
553.417	14920.14
553.78	15103.87
554.143	14920.82
554.507	14918.11
554.87	14860.94
555.234	15038.56
555.597	14859.36
555.96	14902.74
556.323	14889.18
556.686	14974.15
557.05	14974.61
557.413	14916.98
557.776	14952.91
558.139	14847.15
558.502	14994.27
558.865	14958.11
559.228	14973.93
559.59	14891.22
559.953	14863.42
560.316	15055.96
560.679	15018.9
561.041	15015.28
561.404	15021.16
561.767	15064.32
562.129	14930.09
562.492	15113.13
562.854	15041.27
563.217	14977.09
563.579	15088.95
563.941	15235.16
564.304	15193.58
564.666	15179.8
565.028	15159.01
565.39	15198.56
565.753	15158.56
566.115	15244.43
566.477	15298.67
566.839	15307.03
567.201	15306.12
567.563	15337.99
567.925	15342.28
568.287	15360.36
568.648	15376.63
569.01	15395.39
569.372	15393.13
569.734	15395.16
570.095	15487.36
570.457	15539.34
570.819	15460.92
571.18	15509.73
571.542	15561.03
571.903	15589.28
572.265	15628.15
572.626	15646.23
572.987	15519.45
573.349	15555.83
573.71	15728.48
574.071	15676.96
574.432	15733.68
574.794	15830.4
575.155	15768.03
575.516	15760.57
575.877	15734.36
576.238	15721.71
576.599	15760.35
576.96	15713.8
577.32	15840.35
577.681	15831.08
578.042	15890.51
578.403	15749.5
578.763	15814.13
579.124	15848.93
579.485	15937.74
579.845	15823.4
580.206	15735.72
580.566	15821.82
580.927	15865.2
581.287	15855.04
581.648	15785.88
582.008	15920.8
582.368	15840.35
582.728	15925.32
583.089	15890.51
583.449	15817.3
583.809	15949.72
584.169	15864.75
584.529	15808.71
584.889	15806
585.249	15771.65
585.609	15772.55
585.969	15794.92
586.329	15733
586.688	15778.88
587.048	15711.76
587.408	15720.58
587.768	15737.3
588.127	15664.98
588.487	15604.87
588.846	15762.16
589.206	15564.87
589.565	15730.52
589.925	15752.89
590.284	15630.18
590.643	15723.74
591.003	15696.4
591.362	15823.85
591.721	15643.52
592.08	15695.49
592.44	15719.45
592.799	15766.45
593.158	15670.63
593.517	15623.18
593.876	15669.05
594.235	15683.06
594.593	15664.76
594.952	15609.17
595.311	15630.63
595.67	15597.87
596.029	15752.21
596.387	15660.24
596.746	15712.67
597.104	15654.14
597.463	15621.37
597.822	15686.68
598.18	15523.52
598.538	15607.81
598.897	15660.69
599.255	15479.23
599.613	15747.24
599.972	15551.31
600.33	15664.76
600.688	15569.39
601.046	15565.33
601.404	15616.85
601.762	15670.41
602.12	15755.38
602.478	15687.36
602.836	15719.67
603.194	15677.86
603.552	15583.86
603.91	15551.54
604.268	15613.46
604.625	15614.59
604.983	15667.47
605.341	15613.69
605.698	15608.04
606.056	15730.74
606.413	15667.92
606.771	15716.51
607.128	15609.17
607.485	15652.78
607.843	15656.62
608.2	15761.7
608.557	15719.67
608.914	15757.41
609.272	15722.61
609.629	15843.06
609.986	15961.02
610.343	15760.12
610.7	15908.37
611.057	15840.35
611.414	15807.58
611.771	15806.67
612.127	15869.72
612.484	15844.64
612.841	15988.14
613.198	15846.67
613.554	15865.2
613.911	16046.22
614.267	15999.66
614.624	15915.6
614.98	16038.08
615.337	16039.21
615.693	16016.16
616.05	15970.51
616.406	16119.43
616.762	16024.07
617.118	16071.75
617.475	15982.04
617.831	16141.81
618.187	16011.42
618.543	16094.35
618.899	16062.94
619.255	16113.11
619.611	16067.91
619.967	16114.01
620.323	16149.72
620.678	16139.55
621.034	16114.01
621.39	15954.69
621.746	16020.23
622.101	16286.89
622.457	16131.41
622.812	16169.15
623.168	16217.29
623.523	16249.83
623.879	16196.04
624.234	16158.98
624.589	16249.83
624.945	16268.13
625.3	16182.26
625.655	16119.66
626.01	16131.86
626.365	16164.86
626.72	16131.86
627.075	16155.14
627.43	16212.77
627.785	16107.23
628.14	16127.12
628.495	16186.55
628.85	16103.62
629.205	16083.96
629.559	16201.24
629.914	16174.35
630.269	16017.74
630.623	16092.54
630.978	15917.41
631.332	16074.69
631.687	16154.91
632.041	16016.84
632.396	16109.49
632.75	15982.72
633.104	15961.92
633.459	15991.08
633.813	15884.19
634.167	15933.9
634.521	15810.29
634.875	15927.58
635.229	15841.93
635.583	15814.13
635.937	15776.85
636.291	15836.05
636.645	15807.58
636.999	15770.74
637.352	15752.21
637.706	15721.93
638.06	15793.79
638.413	15691.2
638.767	15754.02
639.121	15689.62
639.474	15582.05
639.828	15611.43
640.181	15652.1
640.534	15624.53
640.888	15592.22
641.241	15565.78
641.594	15557.64
641.947	15698.66
642.301	15480.36
642.654	15537.76
643.007	15554.7
643.36	15506.8
643.713	15496.85
644.066	15515.61
644.419	15468.38
644.771	15387.02
645.124	15215.73
645.477	15287.14
645.83	15065.45
646.182	15041.05
646.535	14963.31
646.888	14980.71
647.24	14943.65
647.593	15036.75
647.945	14956.08
648.298	14998.11
648.65	14859.58
649.002	14876.08
649.355	14983.65
649.707	14942.29
650.059	15005.34
650.411	15121.04
650.763	15199.91
651.115	15293.92
651.467	15318.78
651.819	15236.97
652.171	15242.62
652.523	15324.43
652.875	15246.01
653.227	15208.72
653.578	15323.75
653.93	15230.19
654.282	15170.53
654.633	15123.08
654.985	15198.1
655.337	15229.74
655.688	15204.88
656.039	15277.2
656.391	15103.87
656.742	15210.53
657.094	15157.2
657.445	15258.89
657.796	15292.79
658.147	15161.27
658.498	15256.63
658.849	15225.67
659.2	15227.93
659.551	15210.98
659.902	15222.96
660.253	15185
660.604	15173.47
660.955	15100.25
661.306	15275.84
661.656	15222.28
662.007	15326.46
662.358	15233.13
662.708	15234.49
663.059	15163.53
663.409	15106.13
663.76	15342.51
664.11	15250.53
664.461	15321.94
664.811	15264.99
665.161	15290.53
665.511	15234.49
665.862	15246.24
666.212	15318.1
666.562	15275.84
666.912	15298.44
667.262	15260.25
667.612	15319.46
667.962	15285.56
668.312	15206.46
668.662	15332.34
669.011	15282.39
669.361	15271.55
669.711	15254.15
670.06	15163.3
670.41	15169.4
670.76	15196.3
671.109	15190.19
671.459	15125.11
671.808	15118.11
672.157	15168.73
672.507	15078.78
672.856	15105.45
673.205	15111.78
673.554	15252.79
673.904	15117.43
674.253	15204.43
674.602	15136.64
674.951	14908.62
675.3	14789.07
675.649	15077.88
675.998	15041.05
676.346	15076.52
676.695	15029.29
677.044	14966.47
677.393	14998.11
677.741	14956.75
678.09	14951.1
678.438	14930.31
678.787	14972.12
679.135	14884.21
679.484	14860.71
679.832	14879.02
680.181	14860.48
680.529	14839.47
680.877	14748.62
681.225	14741.39
681.573	14841.5
681.922	14689.42
682.27	14605.35
682.618	14707.95
682.966	14590.89
683.314	14646.48
683.661	14688.06
684.009	14518.57
684.357	14487.61
684.705	14493.71
685.053	14496.65
685.4	14437.9
685.748	14379.37
686.095	14425.02
686.443	14352.25
686.79	14340.05
687.138	14344.57
687.485	14327.39
687.832	14277.9
688.18	14295.3
688.527	14157.68
688.874	14208.3
689.221	14093.05
689.568	14002.43
689.915	14050.79
690.262	13994.97
690.609	13903
690.956	13937.8
691.303	13886.73
691.65	13858.25
691.997	13806.05
692.344	13690.57
692.69	13661.42
693.037	13664.81
693.383	13508.88
693.73	13655.54
694.077	13421.88
694.423	13561.76
694.769	13472.27
695.116	13400.86
695.462	13322.9
695.808	13407.64
696.155	13359.96
696.501	13225.5
696.847	13258.72
697.193	13149.8
697.539	13137.14
697.885	13152.28
698.231	13004.49
698.577	13022.12
698.923	12957.71
699.269	12879.75
699.614	12759.75
699.96	12853.98
700.306	12900.31
700.651	12707.32
700.997	12756.36
701.342	12723.82
701.688	12570.38
702.033	12524.05
702.379	12548.23
702.724	12515.24
703.069	12456.03
703.415	12345.07
703.76	12289.71
704.105	12327.22
704.45	12211.97
704.795	12216.26
705.14	12237.28
705.485	12136.49
705.83	12104.4
706.175	12092.65
706.52	12079.09
706.865	12044.97
707.209	12004.06
707.554	11931.3
707.899	12078.64
708.243	11897.17
708.588	11810.85
708.932	11793.45
709.277	11740.34
709.621	11786.89
709.966	11623.96
710.31	11694.24
710.654	11583.28
710.998	11570.18
711.342	11590.29
711.687	11535.6
712.031	11548.48
712.375	11526.79
712.719	11495.83
713.063	11540.12
713.407	11518.65
713.75	11430.74
714.094	11472.33
714.438	11397.98
714.782	11437.07
715.125	11295.61
715.469	11410.63
715.812	11299.9
716.156	11275.95
716.499	11235.04
716.843	11186.68
717.186	11207.47
717.53	11288.38
717.873	11260.35
718.216	11179.68
718.559	11146.46
718.902	11061.94
719.246	11069.4
719.589	11033.92
719.932	10996.18
720.275	11001.83
720.617	10989.85
720.96	10954.37
721.303	11052
721.646	11055.61
721.989	10931.77
722.331	10960.25
722.674	10894.71
723.016	10969.29
723.359	10874.6
723.701	10890.87
724.044	10882.74
724.386	10859.69
724.729	10857.88
725.071	10829.63
725.413	10858.56
725.755	10768.39
726.097	10766.81
726.439	10762.74
726.782	10775.39
727.124	10790.31
727.465	10821.27
727.807	10756.19
728.149	10728.16
728.491	10746.24
728.833	10739.69
729.175	10778.33
729.516	10652.91
729.858	10714.38
730.199	10689.97
730.541	10726.13
730.882	10659.47
731.224	10716.87
731.565	10651.33
731.906	10697.66
732.248	10669.18
732.589	10608.85
732.93	10654.04
733.271	10626.7
733.612	10594.16
733.953	10687.71
734.294	10584.44
734.635	10647.94
734.976	10615.62
735.317	10584.89
735.658	10556.42
735.999	10556.64
736.339	10590.31
736.68	10664.21
737.021	10630.99
737.361	10555.74
737.702	10550.99
738.042	10617.21
738.383	10636.42
738.723	10640.03
739.063	10571.33
739.404	10683.87
739.744	10586.7
740.084	10569.3
740.424	10674.38
740.764	10615.4
741.104	10605.68
741.444	10677.09
741.784	10631.44
742.124	10689.97
742.464	10739.92
742.804	10703.53
743.143	10753.93
743.483	10693.36
743.823	10629.86
744.162	10766.13
744.502	10832.12
744.841	10794.6
745.181	10883.19
745.52	10825.34
745.86	10901.27
746.199	10943.07
746.538	10986.24
746.877	11098.1
747.216	11104.43
747.556	11098.78
747.895	11193.01
748.234	11124.09
748.573	11231.2
748.911	11230.52
749.25	11364.98
749.589	11370.86
749.928	11451.08
750.267	11565.2
750.605	11521.82
750.944	11673.45
751.283	11690.17
751.621	11819.43
751.96	11870.96
752.298	11995.93
752.636	12058.98
752.975	12131.74
753.313	12127.22
753.651	12400.44
753.989	12369.48
754.327	12549.13
754.666	12583.26
755.004	12673.2
755.342	12948.44
755.679	13053.98
