Data from hue_330_FLMS001491_19.txt Node
Date: Mon Feb 06 15:45:00 GMT 2017
User: dcchb
Spectrometer: FLMS00149
Trigger mode: 0
Integration Time (sec): 2.000000E-2
Scans to average: 10
Electric dark correction enabled: true
Nonlinearity correction enabled: false
Boxcar width: 0
XAxis mode: Wavelengths
Number of Pixels in Spectrum: 2048
>>>>>Begin Spectral Data<<<<<
341.393	-19.65
341.776	-19.65
342.16	-19.65
342.543	-57.84
342.927	-62.36
343.31	-58.52
343.693	-74.33
344.077	-53.09
344.46	-67.1
344.843	-59.87
345.226	-33.88
345.61	-28.23
345.993	-18.97
346.376	-2.25
346.759	9.51
347.142	23.97
347.525	68.94
347.908	50.41
348.291	63.52
348.674	74.81
349.057	105.1
349.44	127.02
349.823	157.75
350.206	162.04
350.588	188.48
350.971	192.78
351.354	230.06
351.737	215.83
352.119	262.83
352.502	270.97
352.884	273.45
353.267	268.03
353.65	282.72
354.032	297.86
354.414	309.84
354.797	307.8
355.179	316.16
355.562	311.42
355.944	323.4
356.326	313.9
356.709	334.69
357.091	330.85
357.473	348.48
357.855	338.76
358.238	335.6
358.62	328.59
359.002	325.88
359.384	310.74
359.766	343.73
360.148	331.08
360.53	306.45
360.912	335.6
361.294	338.76
361.676	316.16
362.057	329.95
362.439	329.05
362.821	329.72
363.203	349.16
363.584	327.92
363.966	329.27
364.348	306.67
364.729	324.98
365.111	303.96
365.493	322.49
365.874	327.92
366.256	319.1
366.637	303.06
367.019	308.71
367.4	322.49
367.781	329.05
368.163	313.9
368.544	302.61
368.925	306.22
369.306	331.3
369.688	303.28
370.069	307.12
370.45	285.43
370.831	313
371.212	338.99
371.593	308.03
371.974	294.02
372.355	326.33
372.736	315.94
373.117	324.3
373.498	306.9
373.879	339.44
374.26	322.49
374.641	315.26
375.021	322.27
375.402	314.36
375.783	325.2
376.163	320.23
376.544	313.9
376.925	303.73
377.305	326.11
377.686	330.63
378.066	324.3
378.447	305.99
378.827	330.17
379.208	314.36
379.588	311.64
379.968	345.32
380.349	322.72
380.729	312.32
381.109	325.66
381.489	321.81
381.87	311.42
382.25	345.77
382.63	318.65
383.01	345.54
383.39	324.07
383.77	315.03
384.15	335.37
384.53	320.68
384.91	354.81
385.29	328.37
385.67	354.81
386.049	337.18
386.429	343.73
386.809	341.93
387.189	356.16
387.568	374.24
387.948	331.53
388.328	368.14
388.707	335.15
389.087	372.66
389.466	354.58
389.846	356.61
390.225	368.37
390.605	355.03
390.984	348.48
391.363	367.24
391.743	354.36
392.122	386.44
392.501	356.39
392.881	374.92
393.26	371.98
393.639	377.63
394.018	343.73
394.397	356.61
394.776	360.68
395.155	384.41
395.534	364.75
395.913	365.43
396.292	394.13
396.671	381.7
397.05	376.73
397.429	375.6
397.808	377.86
398.186	389.38
398.565	374.02
398.944	394.13
399.323	393.22
399.701	398.87
400.08	396.16
400.458	401.36
400.837	394.13
401.215	409.27
401.594	373.79
401.972	387.8
402.351	388.25
402.729	402.26
403.107	421.47
403.486	399.55
403.864	411.3
404.242	415.14
404.62	402.94
404.999	399.33
405.377	423.51
405.755	408.59
406.133	424.18
406.511	406.33
406.889	443.62
407.267	436.16
407.645	424.64
408.023	432.55
408.401	447.69
408.779	444.3
409.156	462.6
409.534	445.65
409.912	451.53
410.29	443.84
410.667	460.79
411.045	471.87
411.422	480.23
411.8	492.2
412.178	495.37
412.555	491.3
412.933	513.67
413.31	488.36
413.687	510.06
414.065	538.98
414.442	521.58
414.819	531.53
415.197	529.94
415.574	567.91
415.951	550.73
416.328	536.27
416.705	548.47
417.082	550.28
417.46	566.55
417.837	581.47
418.214	580.34
418.591	560.23
418.967	586.44
419.344	608.81
419.721	587.34
420.098	596.83
420.475	622.82
420.852	614.91
421.228	624.4
421.605	614.91
421.982	647.45
422.358	633.22
422.735	652.43
423.111	647.91
423.488	644.97
423.864	653.33
424.241	680
424.617	686.55
424.994	649.04
425.37	676.15
425.746	693.78
426.123	669.38
426.499	678.19
426.875	710.05
427.251	718.64
427.627	726.77
428.003	743.05
428.379	731.75
428.756	743.05
429.132	742.59
429.507	771.52
429.883	755.93
430.259	756.6
430.635	797.51
431.011	781.91
431.387	807.68
431.763	807.22
432.138	826.66
432.514	825.3
432.89	830.27
433.265	855.81
433.641	865.3
434.016	857.84
434.392	856.49
434.767	873.89
435.143	914.34
435.518	888.13
435.894	915.02
436.269	910.72
436.644	912.08
437.02	915.24
437.395	911.18
437.77	927.9
438.145	961.57
438.52	952.31
438.895	950.27
439.271	974.68
439.646	987.11
440.021	972.42
440.395	972.19
440.77	982.59
441.145	987.56
441.52	997.28
441.895	999.54
442.27	1008.35
442.645	1007.67
443.019	1009.25
443.394	1021.46
443.769	1062.59
444.143	1034.56
444.518	1064.39
444.892	1052.19
445.267	1047.44
445.641	1048.12
446.016	1088.8
446.39	1071.85
446.764	1072.08
447.139	1084.51
447.513	1070.72
447.887	1090.15
448.262	1087.9
448.636	1098.97
449.01	1108.23
449.384	1104.39
449.758	1117.5
450.132	1113.43
450.506	1121.34
450.88	1121.34
451.254	1117.95
451.628	1127.22
452.002	1144.16
452.376	1136.26
452.75	1158.4
453.123	1143.94
453.497	1150.04
453.871	1177.84
454.244	1195.46
454.618	1189.14
454.992	1204.95
455.365	1203.37
455.739	1220.55
456.112	1244.28
456.486	1234.56
456.859	1223.71
457.232	1253.77
457.606	1241.34
457.979	1296.25
458.352	1297.38
458.725	1292.41
459.099	1281.56
459.472	1334.67
459.845	1326.08
460.218	1324.05
460.591	1312.75
460.964	1361.79
461.337	1354.33
461.71	1352.52
462.083	1382.58
462.456	1389.36
462.829	1383.71
463.201	1409.24
463.574	1428.9
463.947	1402.24
464.32	1443.14
464.692	1450.82
465.065	1492.4
465.438	1477.04
465.81	1502.8
466.183	1502.12
466.555	1527.43
466.928	1552.06
467.3	1524.72
467.672	1544.61
468.045	1613.31
468.417	1588.67
468.789	1578.96
469.161	1612.18
469.534	1636.13
469.906	1638.39
470.278	1664.15
470.65	1679.29
471.022	1713.42
471.394	1694.88
471.766	1749.8
472.138	1733.3
472.51	1755.45
472.882	1792.74
473.253	1822.57
473.625	1815.11
473.997	1842.23
474.369	1850.59
474.74	1870.47
475.112	1907.31
475.484	1908.66
475.855	1910.02
476.227	1972.17
476.598	2002.9
476.97	2003.58
477.341	2059.85
477.713	2096.68
478.084	2102.78
478.455	2162.67
478.827	2123.57
479.198	2185.72
479.569	2223.23
479.94	2230.01
480.311	2247.64
480.682	2279.28
481.053	2317.24
481.424	2353.62
481.795	2364.7
482.166	2392.49
482.537	2434.75
482.908	2449.44
483.279	2486.73
483.65	2516.78
484.021	2565.6
484.391	2579.61
484.762	2588.19
485.133	2627.29
485.503	2651.24
485.874	2713.39
486.244	2716.55
486.615	2737.8
486.985	2770.34
487.356	2833.16
487.726	2823.44
488.097	2891.46
488.467	2902.08
488.837	2934.63
489.207	2937.79
489.578	2982.31
489.948	3030.44
490.318	3061.4
490.688	3054.62
491.058	3130.55
491.428	3140.95
491.798	3201.51
492.168	3205.35
492.538	3230.89
492.908	3248.29
493.278	3286.93
493.648	3330.32
494.017	3351.79
494.387	3335.29
494.757	3363.32
495.126	3431.79
495.496	3385.69
495.866	3408.51
496.235	3441.28
496.605	3520.15
496.974	3477.89
497.344	3582.97
497.713	3535.97
498.082	3531.22
498.452	3606.02
498.821	3596.76
499.19	3556.3
499.559	3666.81
499.928	3665
500.298	3680.14
500.667	3659.58
501.036	3702.29
501.405	3719.46
501.774	3742.29
502.143	3720.59
502.512	3754.04
502.88	3790.2
503.249	3783.87
503.618	3803.53
503.987	3815.96
504.356	3825.9
504.724	3833.36
505.093	3892.57
505.462	3869.06
505.83	3914.04
506.199	3937.54
506.567	3968.27
506.936	3968.05
507.304	3994.26
507.672	3998.78
508.041	3975.5
508.409	4026.57
508.777	4028.38
509.145	4072.9
509.514	4092.56
509.882	4074.48
510.25	4061.15
510.618	4105.89
510.986	4119.68
511.354	4158.55
511.722	4165.1
512.09	4171.2
512.458	4160.81
512.826	4202.39
513.193	4252.33
513.561	4240.58
513.929	4250.52
514.297	4231.09
514.664	4304.76
515.032	4287.13
515.4	4303.86
515.767	4311.09
516.135	4305.21
516.502	4291.2
516.869	4364.87
517.237	4384.31
517.604	4345.21
517.972	4327.13
518.339	4404.87
518.706	4370.29
519.073	4400.35
519.44	4403.29
519.808	4468.6
520.175	4373.23
520.542	4439.67
520.909	4525.77
521.276	4478.77
521.643	4531.19
522.009	4538.88
522.376	4579.78
522.743	4555.37
523.11	4625.88
523.477	4617.29
523.843	4643.51
524.21	4661.13
524.577	4693.68
524.943	4699.55
525.31	4687.35
525.676	4758.99
526.043	4796.05
526.409	4768.02
526.776	4808.25
527.142	4808.48
527.508	4843.5
527.874	4847.57
528.241	4904.29
528.607	4889.15
528.973	4965.99
529.339	4931.18
529.705	4999.88
530.071	5049.82
530.437	4994.46
530.803	5078.52
531.169	5034.23
531.535	5091.86
531.901	5100.9
532.267	5154.23
532.632	5178.18
532.998	5131.63
533.364	5199.88
533.73	5188.8
534.095	5207.33
534.461	5256.15
534.826	5281.68
535.192	5349.7
535.557	5324.62
535.923	5341.79
536.288	5320.1
536.653	5339.99
537.019	5348.12
537.384	5386.77
537.749	5462.02
538.114	5445.52
538.479	5435.35
538.845	5497.27
539.21	5439.19
539.575	5492.98
539.94	5556.7
540.305	5583.82
540.67	5603.48
541.034	5612.07
541.399	5636.93
541.764	5712.63
542.129	5676.93
542.494	5710.82
542.858	5721.22
543.223	5749.47
543.587	5809.35
543.952	5815.91
544.316	5806.64
544.681	5841.22
545.045	5850.71
545.41	5880.31
545.774	5923.02
546.138	5918.28
546.503	5950.82
546.867	5959.63
547.231	6036.47
547.595	5994.21
547.959	6033.53
548.324	6061.32
548.688	6092.28
549.052	6153.3
549.416	6103.58
549.779	6132.96
550.143	6132.96
550.507	6186.29
550.871	6167.08
551.235	6268.1
551.599	6238.95
551.962	6275.33
552.326	6235.56
552.689	6288.44
553.053	6276.91
553.417	6323.46
553.78	6418.38
554.143	6402.33
554.507	6378.15
554.87	6430.58
555.234	6456.57
555.597	6425.16
555.96	6469.22
556.323	6532.72
556.686	6533.63
557.05	6525.49
557.413	6579.05
557.776	6521.42
558.139	6615.89
558.502	6591.48
558.865	6640.52
559.228	6659.27
559.59	6681.19
559.953	6716.9
560.316	6755.99
560.679	6758.03
561.041	6799.16
561.404	6833.51
561.767	6818.14
562.129	6786.95
562.492	6925.93
562.854	6854.52
563.217	6905.14
563.579	6847.29
563.941	6903.56
564.304	6959.61
564.666	6969.77
565.028	6970.9
565.39	7017
565.753	7069.66
566.115	7109.43
566.477	7107.85
566.839	7077.57
567.201	7165.02
567.563	7179.71
567.925	7254.51
568.287	7216.55
568.648	7254.96
569.01	7312.36
569.372	7398.46
569.734	7345.36
570.095	7392.36
570.457	7447.28
570.819	7441.85
571.18	7485.69
571.542	7486.37
571.903	7589.19
572.265	7562.08
572.626	7622.41
572.987	7726.82
573.349	7695.63
573.71	7751.22
574.071	7836.42
574.432	7838.45
574.794	7993.25
575.155	7888.17
575.516	7942.4
575.877	8009.52
576.238	8082.97
576.599	8204.32
576.96	8278.21
577.32	8306.01
577.681	8396.18
578.042	8487.47
578.403	8489.73
578.763	8612.9
579.124	8742.61
579.485	8804.53
579.845	8965.2
580.206	8962.94
580.566	9124.29
580.927	9243.84
581.287	9305.31
581.648	9465.53
582.008	9687.22
582.368	9669.82
582.728	9890.15
583.089	10032.07
583.449	10179.18
583.809	10416.92
584.169	10486.52
584.529	10708.21
584.889	10940.07
585.249	11060.74
585.609	11213.05
585.969	11432.93
586.329	11665.02
586.688	11788.4
587.048	12042.86
587.408	12248.05
587.768	12493.02
588.127	12662.51
588.487	12952.22
588.846	13241.02
589.206	13343.17
589.565	13629.03
589.925	13973.43
590.284	14128.68
590.643	14533.19
591.003	14684.83
591.362	15031.48
591.721	15340.4
592.08	15514.41
592.44	15850.22
592.799	16153.94
593.158	16397.55
593.517	16696.07
593.876	17057.42
594.235	17358.2
594.593	17585.09
594.952	17882.26
595.311	18230.04
595.67	18470.94
596.029	18891.27
596.387	19133.07
596.746	19504.59
597.104	19721.08
597.463	19986.61
597.822	20379.82
598.18	20643.54
598.538	20893.7
598.897	21396.97
599.255	21383.18
599.613	21969.15
599.972	22151.97
600.33	22415.47
600.688	22629.48
601.046	23088.67
601.404	23388.55
601.762	23611.14
602.12	24064.24
602.478	24360.5
602.836	24501.06
603.194	24618.58
603.552	25062.41
603.91	25140.37
604.268	25584.88
604.625	25721.37
604.983	26031.42
605.341	26221.47
605.698	26625.08
606.056	26754.11
606.413	26988.68
606.771	27318.39
607.128	27668.67
607.485	27758.15
607.843	27903.69
608.2	28316.11
608.557	28627.51
608.914	28706.38
609.272	29103.43
609.629	29168.06
609.986	29700.7
610.343	29655.05
610.7	30053.46
611.057	30315.38
611.414	30284.42
611.771	30563.96
612.127	30852.08
612.484	30951.52
612.841	31330.94
613.198	31390.15
613.554	31576.81
613.911	31825.62
614.267	31924.82
614.624	32087.31
614.98	32233.97
615.337	32587.86
615.693	32732.71
616.05	32723
616.406	33132.48
616.762	33125.92
617.118	33237.11
617.475	33466.25
617.831	33707.15
618.187	33842.06
618.543	34017.2
618.899	34254.03
619.255	34253.8
619.611	34332.9
619.967	34607.69
620.323	34823.05
620.678	34744.86
621.034	34786.67
621.39	34835.93
621.746	34935.37
622.101	35412.42
622.457	35258.52
622.812	35522.47
623.168	35542.58
623.523	35565.18
623.879	35919.07
624.234	35728.79
624.589	35947.09
624.945	35965.85
625.3	36138.5
625.655	36079.07
626.01	36235.67
626.365	36286.07
626.72	36370.13
627.075	36495.78
627.43	36549.34
627.785	36523.12
628.14	36670.46
628.495	36662.78
628.85	36753.85
629.205	36681.31
629.559	36999.95
629.914	36775.77
630.269	36879.04
630.623	36937.35
630.978	36907.07
631.332	37154.52
631.687	37169.88
632.041	37025.03
632.396	37190.45
632.75	37132.82
633.104	37169.88
633.459	37056.67
633.813	37118.59
634.167	37118.36
634.521	37113.61
634.875	37376.43
635.229	37127.4
635.583	37160.84
635.937	37172.14
636.291	37175.99
636.645	37182.54
636.999	37276.77
637.352	37340.5
637.706	37049.66
638.06	37252.14
638.413	37262.54
638.767	37155.87
639.121	37212.37
639.474	37130.56
639.828	37128.08
640.181	37287.4
640.534	37177.34
640.888	37086.72
641.241	37125.82
641.594	37070.45
641.947	37354.06
642.301	37233.39
642.654	37159.94
643.007	37098.7
643.36	37136.89
643.713	37188.64
644.066	37363.78
644.419	36997.46
644.771	36820.06
645.124	36455.1
645.477	36446.97
645.83	36324.71
646.182	36183.24
646.535	36030.71
646.888	36117.93
647.24	35994.55
647.593	36152.06
647.945	36084.49
648.298	35977.15
648.65	35876.36
649.002	35789.13
649.355	36032.74
649.707	35825.74
650.059	36201.55
650.411	36558.6
650.763	36543.23
651.115	36940.29
651.467	36798.37
651.819	36870.68
652.171	36678.15
652.523	36704.81
652.875	36766.73
653.227	36665.26
653.578	36927.86
653.93	36770.35
654.282	36558.6
654.633	36491.48
654.985	36486.51
655.337	36606.74
655.688	36657.58
656.039	36677.24
656.391	36473.18
656.742	36472.05
657.094	36498.04
657.445	36658.03
657.796	36554.76
658.147	36490.13
658.498	36400.19
658.849	36623.46
659.2	36554.76
659.551	36383.01
659.902	36510.24
660.253	36518.83
660.604	36570.35
660.955	36477.02
661.306	36410.58
661.656	36404.03
662.007	36579.39
662.358	36404.25
662.708	36428.89
663.059	36415.1
663.409	36185.5
663.76	36429.34
664.11	36432.28
664.461	36419.17
664.811	36482.44
665.161	36419.85
665.511	36179.85
665.862	36274.09
666.212	36410.13
666.562	36526.06
666.912	36358.83
667.262	36329.91
667.612	36345.05
667.962	36363.58
668.312	36333.75
668.662	36432.28
669.011	36423.69
669.361	36425.27
669.711	36275.9
670.06	36347.08
670.41	36177.14
670.76	36284.94
671.109	36386.4
671.459	36281.55
671.808	36083.59
672.157	36418.49
672.507	36035.45
672.856	36086.52
673.205	36170.59
673.554	36240.87
673.904	36168.78
674.253	36393.18
674.602	36204.03
674.951	35498.06
675.3	35463.71
675.649	36023.7
675.998	35975.34
676.346	36035.22
676.695	36151.83
677.044	35737.61
677.393	35888.34
677.741	35971.27
678.09	35805.63
678.438	35773.08
678.787	35919.52
679.135	35885.17
679.484	35639.08
679.832	35824.16
680.181	35555.92
680.529	35720.43
680.877	35694.67
681.225	35512.53
681.573	35782.58
681.922	35512.53
682.27	35457.84
682.618	35541.68
682.966	35401.34
683.314	35413.77
683.661	35279.99
684.009	35151.86
684.357	35203.83
684.705	35108.24
685.053	35083.39
685.4	35079.09
685.748	34931.3
686.095	34865.09
686.443	34748.7
686.79	34828.93
687.138	34720.23
687.485	34769.72
687.832	34502.84
688.18	34701.02
688.527	34473.01
688.874	34456.06
689.221	34438.2
689.568	34261.71
689.915	34312.33
690.262	34287.02
690.609	34092.68
690.956	34032.34
691.303	33903.76
691.65	33847.71
691.997	33846.58
692.344	33584.67
692.69	33692.01
693.037	33724.33
693.383	33433.49
693.73	33535.86
694.077	33395.75
694.423	33323.66
694.769	33283.43
695.116	33173.15
695.462	33096.77
695.808	33036.21
696.155	32994.17
696.501	32793.5
696.847	32794.41
697.193	32520.51
697.539	32751.24
697.885	32456.79
698.231	32528.42
698.577	32317.58
698.923	32450.23
699.269	32129.34
699.614	32157.36
699.96	32093.63
700.306	32078.49
700.651	31908.55
700.997	31875.11
701.342	31782.46
701.688	31656.58
702.033	31644.83
702.379	31594.44
702.724	31456.14
703.069	31492.07
703.415	31176.6
703.76	31248.91
704.105	31204.17
704.45	31124.17
704.795	30896.38
705.14	30871.74
705.485	30815.93
705.83	30756.04
706.175	30812.99
706.52	30795.81
706.865	30567.35
707.209	30588.81
707.554	30476.05
707.899	30442.83
708.243	30266.11
708.588	30320.8
708.932	30086.91
709.277	30128.71
709.621	30104.76
709.966	29933.24
710.31	29956.97
710.654	29758.33
710.998	29723.75
711.342	29862.05
711.687	29659.8
712.031	29611.89
712.375	29490.76
712.719	29547.49
713.063	29485.79
713.407	29473.36
713.75	29265.69
714.094	29387.49
714.438	29211.22
714.782	29395.85
715.125	29062.53
715.469	29167.38
715.812	29008.06
716.156	28810.33
716.499	28813.49
716.843	28920.38
717.186	28673.16
717.53	28917.22
717.873	28776.66
718.216	28791.35
718.559	28617.34
718.902	28466.61
719.246	28536.66
719.589	28435.2
719.932	28343.45
720.275	28258.03
720.617	28296.22
720.96	28184.81
721.303	28127.86
721.646	28218.26
721.989	27959.96
722.331	28086.96
722.674	28016.45
723.016	27974.87
723.359	27991.59
723.701	28047.64
724.044	27790.47
724.386	27626.86
724.729	27795.22
725.071	27735.1
725.413	27788.21
725.755	27651.04
726.097	27466.64
726.439	27425.73
726.782	27436.35
727.124	27565.39
727.465	27227.09
727.807	27335.57
728.149	27293.08
728.491	27150.49
728.833	27272.07
729.175	27101
729.516	27064.84
729.858	27097.38
730.199	27103.71
730.541	26945.29
730.882	26987.33
731.224	27040.66
731.565	26865.3
731.906	26834.56
732.248	26899.42
732.589	26713.66
732.93	26677.73
733.271	26606.32
733.612	26701.68
733.953	26690.84
734.294	26515.48
734.635	26610.16
734.976	26583.95
735.317	26244.3
735.658	26333.56
735.999	26298.76
736.339	26336.72
736.68	26377.17
737.021	26371.98
737.361	26049.27
737.702	26358.64
738.042	26196.16
738.383	26098.54
738.723	26131.08
739.063	26030.06
739.404	26157.07
739.744	26127.91
740.084	25865.32
740.424	25912.55
740.764	25836.4
741.104	25902.38
741.444	25781.03
741.784	25756.17
742.124	25789.39
742.464	25680.02
742.804	25747.59
743.143	25607.02
743.483	25573.58
743.823	25467.59
744.162	25630.75
744.502	25592.11
744.841	25445.67
745.181	25458.78
745.52	25339.91
745.86	25396.86
746.199	25270.54
746.538	25253.81
746.877	25334.26
747.216	25362.51
747.556	25073.93
747.895	25116.19
748.234	24975.18
748.573	24990.54
748.911	25022.63
749.25	24987.15
749.589	24823.77
749.928	24799.14
750.267	24939.92
750.605	24797.78
750.944	24800.04
751.283	24709.65
751.621	24681.17
751.96	24561.18
752.298	24523.89
752.636	24579.03
752.975	24512.36
753.313	24321.63
753.651	24505.81
753.989	24279.83
754.327	24216.1
754.666	24188.53
755.004	24280.96
755.342	24208.42
755.679	24204.12
756.017	23982.89
756.355	24010.68
756.693	23887.07
757.031	23932.04
757.368	23761.88
757.706	23838.26
758.044	23685.49
758.381	23738.6
758.719	23639.84
759.056	23538.38
759.394	23521.88
759.731	23324.6
