Data from hue_22_FLMS001491_00031.txt Node
Date: Tue Feb 07 17:10:00 GMT 2017
User: dcchb
Spectrometer: FLMS00149
Trigger mode: 0
Integration Time (sec): 2.000000E-2
Scans to average: 10
Electric dark correction enabled: true
Nonlinearity correction enabled: false
Boxcar width: 0
XAxis mode: Wavelengths
Number of Pixels in Spectrum: 2048
>>>>>Begin Spectral Data<<<<<
341.393	-0.07
341.776	-0.07
342.16	-0.07
342.543	-64.93
342.927	-51.14
343.31	-68.32
343.693	-78.94
344.077	-61.99
344.46	-54.98
344.843	-59.28
345.226	-40.07
345.61	-40.07
345.993	-10.01
346.376	-12.5
346.759	3.09
347.142	25.24
347.525	36.99
347.908	59.36
348.291	91.9
348.674	96.65
349.057	112.92
349.44	120.6
349.823	152.69
350.206	173.26
350.588	191.56
350.971	217.78
351.354	229.53
351.737	249.64
352.119	242.41
352.502	254.61
352.884	291
353.267	277.44
353.65	274.72
354.032	301.16
354.414	334.61
354.797	300.26
355.179	327.6
355.562	329.64
355.944	308.62
356.326	321.73
356.709	348.85
357.091	344.1
357.473	357.43
357.855	359.24
358.238	339.58
358.62	355.17
359.002	345.91
359.384	342.29
359.766	342.97
360.148	361.05
360.53	325.34
360.912	314.95
361.294	315.85
361.676	339.36
362.057	320.37
362.439	338.45
362.821	335.74
363.203	338
363.584	334.84
363.966	307.49
364.348	328.96
364.729	335.06
365.111	325.34
365.493	314.95
365.874	316.53
366.256	324.21
366.637	313.82
367.019	312.01
367.4	298.68
367.781	307.94
368.163	302.52
368.544	319.02
368.925	313.59
369.306	340.94
369.688	313.82
370.069	319.69
370.45	329.64
370.831	312.46
371.212	326.93
371.593	299.36
371.974	307.49
372.355	318.11
372.736	322.86
373.117	327.6
373.498	319.02
373.879	330.54
374.26	323.31
374.641	328.96
375.021	321.73
375.402	312.01
375.783	330.32
376.163	336.42
376.544	335.51
376.925	333.25
377.305	323.54
377.686	321.95
378.066	337.1
378.447	341.16
378.827	343.2
379.208	320.15
379.588	340.49
379.968	330.54
380.349	314.72
380.729	328.96
381.109	332.8
381.489	356.08
381.87	322.86
382.25	344.1
382.63	338.45
383.01	335.51
383.39	348.85
383.77	332.35
384.15	338.68
384.53	342.97
384.91	355.85
385.29	354.27
385.67	355.63
386.049	351.78
386.429	358.79
386.809	358.56
387.189	361.28
387.568	366.47
387.948	367.38
388.328	380.71
388.707	373.03
389.087	357.89
389.466	362.63
389.846	358.34
390.225	356.53
390.605	368.06
390.984	395.63
391.363	358.11
391.743	371.45
392.122	379.13
392.501	367.15
392.881	377.55
393.26	363.08
393.639	392.24
394.018	356.76
394.397	376.19
394.776	384.78
395.155	362.41
395.534	377.09
395.913	385.68
396.292	378.68
396.671	368.96
397.05	379.13
397.429	407.83
397.808	399.69
398.186	384.55
398.565	412.35
398.944	397.43
399.323	389.07
399.701	406.25
400.08	378.22
400.458	400.82
400.837	391.56
401.215	403.99
401.594	401.73
401.972	405.34
402.351	420.03
402.729	420.48
403.107	437.43
403.486	411.22
403.864	393.37
404.242	428.17
404.62	422.74
404.999	415.96
405.377	430.2
405.755	440.6
406.133	425.45
406.511	439.92
406.889	437.66
407.267	441.73
407.645	439.01
408.023	437.43
408.401	440.14
408.779	452.12
409.156	441.95
409.534	449.86
409.912	467.04
410.29	463.19
410.667	456.41
411.045	457.77
411.422	475.17
411.8	471.78
412.178	461.61
412.555	452.8
412.933	471.33
413.31	489.18
413.687	500.71
414.065	492.57
414.442	478.33
414.819	499.35
415.197	500.71
415.574	495.51
415.951	501.84
416.328	499.35
416.705	495.28
417.082	473.82
417.46	515.85
417.837	527.37
418.214	523.98
418.591	519.01
418.967	524.66
419.344	526.47
419.721	528.73
420.098	524.44
420.475	538.67
420.852	557.65
421.228	535.28
421.605	544.32
421.982	555.17
422.358	578.22
422.735	566.47
423.111	570.08
423.488	543.87
423.864	552.46
424.241	570.31
424.617	570.54
424.994	559.01
425.37	576.86
425.746	586.13
426.123	567.37
426.499	592.68
426.875	598.56
427.251	609.86
427.627	593.36
428.003	615.96
428.379	610.99
428.756	600.37
429.132	619.35
429.507	638.33
429.883	629.07
430.259	639.91
430.635	626.13
431.011	661.83
431.387	651.89
431.763	655.51
432.138	655.96
432.514	663.87
432.89	657.31
433.265	682.85
433.641	699.12
434.016	699.12
434.392	712.68
434.767	681.72
435.143	704.54
435.518	704.77
435.894	712.23
436.269	735.73
436.644	736.18
437.02	737.54
437.395	747.93
437.77	745.67
438.145	747.93
438.52	759.23
438.895	773.92
439.271	785.45
439.646	763.75
440.021	775.28
440.395	792.45
440.77	784.09
441.145	795.61
441.52	798.55
441.895	800.13
442.27	796.29
442.645	797.87
443.019	803.07
443.394	808.27
443.769	827.48
444.143	836.07
444.518	848.49
444.892	812.56
445.267	842.17
445.641	850.75
446.016	862.96
446.39	855.27
446.764	854.82
447.139	871.32
447.513	881.04
447.887	868.38
448.262	855.73
448.636	885.78
449.01	886.46
449.384	897.76
449.758	873.13
450.132	883.07
450.506	910.64
450.88	917.87
451.254	935.5
451.628	922.39
452.002	922.39
452.376	941.6
452.75	938.44
453.123	952.9
453.497	973.46
453.871	954.71
454.244	990.64
454.618	986.8
454.992	1013.91
455.365	1013.24
455.739	1027.02
456.112	1049.62
456.486	1039.9
456.859	1029.96
457.232	1051.43
457.606	1055.95
457.979	1072.22
458.352	1102.73
458.725	1113.12
459.099	1116.06
459.472	1134.59
459.845	1136.4
460.218	1132.78
460.591	1140.69
460.964	1170.97
461.337	1174.59
461.71	1219.78
462.083	1197.86
462.456	1232.44
462.829	1208.03
463.201	1236.73
463.574	1253.46
463.947	1248.48
464.32	1286
464.692	1291.42
465.065	1293
465.438	1314.92
465.81	1371.64
466.183	1361.7
466.555	1370.74
466.928	1397.86
467.3	1382.72
467.672	1392.44
468.045	1453
468.417	1443.73
468.789	1448.03
469.161	1495.03
469.534	1478.31
469.906	1508.36
470.278	1542.04
470.65	1561.24
471.022	1588.81
471.394	1626.33
471.766	1628.81
472.138	1666.33
472.51	1663.84
472.882	1714.91
473.253	1726.44
473.625	1788.13
473.997	1788.36
474.369	1787.68
474.74	1805.08
475.112	1855.93
475.484	1868.35
475.855	1929.6
476.227	1935.92
476.598	1996.94
476.97	1996.49
477.341	2071.06
477.713	2082.59
478.084	2092.08
478.455	2137.5
478.827	2170.27
479.198	2231.96
479.569	2263.37
479.94	2331.62
480.311	2337.95
480.682	2396.02
481.053	2445.51
481.424	2510.37
481.795	2515.34
482.166	2578.84
482.537	2589.24
482.908	2656.13
483.279	2678.73
483.65	2742.46
484.021	2824.71
484.391	2812.28
484.762	2856.8
485.133	2897.25
485.503	2961.43
485.874	3031.71
486.244	3067.42
486.615	3098.83
486.985	3149.45
487.356	3230.13
487.726	3240.52
488.097	3304.48
488.467	3325.49
488.837	3426.73
489.207	3458.14
489.578	3493.17
489.948	3545.37
490.318	3559.38
490.688	3623.79
491.058	3701.08
491.428	3783.56
491.798	3779.04
492.168	3879.83
492.538	3871.01
492.908	3897
493.278	4029.2
493.648	4008.64
494.017	4053.83
494.387	4120.5
494.757	4136.09
495.126	4184.23
495.496	4212.93
495.866	4217.22
496.235	4317.78
496.605	4376.09
496.974	4353.04
497.344	4399.14
497.713	4465.12
498.082	4454.5
498.452	4551
498.821	4560.49
499.19	4536.31
499.559	4630.09
499.928	4616.31
500.298	4626.7
500.667	4752.35
501.036	4717.77
501.405	4786.24
501.774	4774.04
502.143	4821.72
502.512	4828.5
502.88	4863.3
503.249	4878.45
503.618	4907.37
503.987	4883.42
504.356	4946.24
504.724	5019.23
505.093	5036.63
505.462	5046.8
505.83	5098.78
506.199	5122.96
506.567	5171.54
506.936	5153.01
507.304	5169.74
507.672	5252.9
508.041	5258.1
508.409	5283.18
508.777	5329.96
509.145	5395.04
509.514	5413.35
509.882	5410.18
510.25	5431.42
510.618	5478.66
510.986	5435.72
511.354	5529.28
511.722	5579.44
512.09	5560.46
512.458	5590.06
512.826	5645.88
513.193	5666.9
513.561	5644.98
513.929	5717.07
514.297	5730.17
514.664	5764.07
515.032	5798.42
515.4	5774.69
515.767	5840.45
516.135	5892.66
516.502	5878.42
516.869	5977.17
517.237	5926.78
517.604	5888.81
517.972	5967.23
518.339	5985.76
518.706	6039.54
519.073	6096.94
519.44	6121.8
519.808	6110.28
520.175	6125.19
520.542	6192.31
520.909	6220.56
521.276	6242.48
521.643	6275.47
522.009	6301.68
522.376	6318.63
522.743	6335.58
523.11	6444.73
523.477	6466.65
523.843	6426.65
524.21	6564.73
524.577	6616.25
524.943	6593.2
525.31	6630.26
525.676	6706.87
526.043	6750.71
526.409	6756.36
526.776	6802.46
527.142	6861.9
527.508	6852.86
527.874	6946.64
528.241	6962.01
528.607	7002.46
528.973	7040.42
529.339	7012.17
529.705	7118.16
530.071	7138.27
530.437	7209.68
530.803	7179.18
531.169	7225.5
531.535	7238.61
531.901	7233.64
532.267	7261.21
532.632	7380.3
532.998	7432.95
533.364	7353.18
533.73	7459.62
534.095	7517.02
534.461	7464.82
534.826	7609.67
535.192	7651.03
535.557	7653.06
535.923	7618.94
536.288	7746.17
536.653	7721.53
537.019	7704.59
537.384	7720.18
537.749	7789.33
538.114	7835.2
538.479	7832.27
538.845	7830.91
539.21	7852.15
539.575	7980.51
539.94	7934.18
540.305	7986.84
540.67	7983
541.034	8041.98
541.399	8118.59
541.764	8088.76
542.129	8198.36
542.494	8154.97
542.858	8207.4
543.223	8186.38
543.587	8307.51
543.952	8321.97
544.316	8322.42
544.681	8321.97
545.045	8385.7
545.41	8464.79
545.774	8503.89
546.138	8454.62
546.503	8469.54
546.867	8558.12
547.231	8633.37
547.595	8605.13
547.959	8669.53
548.324	8619.14
548.688	8635.18
549.052	8689.87
549.416	8767.61
549.779	8802.64
550.143	8832.01
550.507	8791.56
550.871	8878.79
551.235	8846.25
551.599	8964.67
551.962	8969.64
552.326	9000.14
552.689	8979.35
553.053	8981.16
553.417	9038.11
553.78	9068.17
554.143	9065.91
554.507	9089.86
554.87	9167.37
555.234	9302.28
555.597	9202.63
555.96	9268.39
556.323	9238.56
556.686	9309.97
557.05	9381.6
557.413	9429.74
557.776	9403.52
558.139	9528.27
558.502	9441.72
558.865	9427.03
559.228	9632.67
559.59	9682.61
559.953	9614.37
560.316	9710.86
560.679	9694.14
561.041	9790.41
561.404	9859.78
561.767	9801.71
562.129	9832.44
562.492	9911.99
562.854	9891.65
563.217	9909.5
563.579	9926
563.941	10006.9
564.304	10057.74
564.666	10082.38
565.028	10136.16
565.39	10186.1
565.753	10197.85
566.115	10188.59
566.477	10254.58
566.839	10328.02
567.201	10375.02
567.563	10338.41
567.925	10421.8
568.287	10476.26
568.648	10450.28
569.01	10507.68
569.372	10634.23
569.734	10554.45
570.095	10660.21
570.457	10706.99
570.819	10724.85
571.18	10777.5
571.542	10863.6
571.903	10866.76
572.265	10958.51
572.626	11015.46
572.987	11048
573.349	11104.04
573.71	11168.9
574.071	11231.5
574.432	11213.19
574.794	11372.06
575.155	11392.17
575.516	11374.09
575.877	11406.18
576.238	11508.55
576.599	11623.58
576.96	11735.44
577.32	11805.72
577.681	11825.16
578.042	11948.09
578.403	11971.37
578.763	12062.21
579.124	12175.88
579.485	12247.29
579.845	12334.29
580.206	12383.78
580.566	12487.51
580.927	12643.89
581.287	12779.48
581.648	12859.25
582.008	13063.31
582.368	13135.4
582.728	13376.3
583.089	13437.32
583.449	13528.39
583.809	13767.7
584.169	13859.45
584.529	14067.13
584.889	14297.86
585.249	14393.22
585.609	14504.63
585.969	14742.14
586.329	14870.5
586.688	15096.03
587.048	15348.45
587.408	15593.19
587.768	15726.3
588.127	15907.99
588.487	16192.95
588.846	16457.58
589.206	16709.09
589.565	16936.43
589.925	17131.46
590.284	17534.38
590.643	17692.8
591.003	17995.84
591.362	18303.63
591.721	18551.53
592.08	18946.1
592.44	19202.81
592.799	19484.84
593.158	19674.21
593.517	20047.99
593.876	20374.31
594.235	20582.21
594.593	20846.39
594.952	21348.07
595.311	21351.46
595.67	21829.41
596.029	22166.8
596.387	22475.04
596.746	22867.35
597.104	23058.76
597.463	23275.02
597.822	23696.26
598.18	23830.49
598.538	24171.95
598.897	24630.24
599.255	24733.52
599.613	25288.98
599.972	25536.43
600.33	25877.22
600.688	26062.75
601.046	26446.01
601.404	26776.4
601.762	27159.67
602.12	27520.34
602.478	27756.49
602.836	28041.23
603.194	28063.6
603.552	28429.24
603.91	28826.29
604.268	29132.95
604.625	29327.07
604.983	29753.27
605.341	30030.1
605.698	30287.72
606.056	30613.36
606.413	30862.85
606.771	31154.36
607.128	31545.54
607.485	31730.62
607.843	31906.21
608.2	32153.21
608.557	32545.29
608.914	32821.21
609.272	33094.65
609.629	33360.18
609.986	33698.7
610.343	33824.58
610.7	34141.4
611.057	34213.49
611.414	34455.07
611.771	34492.81
612.127	35013.47
612.484	35252.34
612.841	35488.04
613.198	35593.8
613.554	35693.45
613.911	36099.09
614.267	36296.38
614.624	36395.36
614.98	36619.08
615.337	37045.51
615.693	37014.1
616.05	37226.52
616.406	37610.69
616.762	37589
617.118	37765.04
617.475	37935.43
617.831	38155.31
618.187	38344.91
618.543	38509.65
618.899	38832.13
619.255	38828.51
619.611	38943.54
619.967	39249.29
620.323	39334.26
620.678	39412
621.034	39421.94
621.39	39630.3
621.746	39703.07
622.101	40269.61
622.457	39952.1
622.812	40076.62
623.168	40407.91
623.523	40420.34
623.879	40614.68
624.234	40547.56
624.589	40664.4
624.945	40907.33
625.3	41014.44
625.655	41077.49
626.01	41149.36
626.365	41125.63
626.72	41161.33
627.075	41349.58
627.43	41283.14
627.785	41316.58
628.14	41531.72
628.495	41575.33
628.85	41567.42
629.205	41524.94
629.559	41869.79
629.914	41656.69
630.269	41796.12
630.623	41778.72
630.978	41780.3
631.332	42039.73
631.687	42194.98
632.041	41938.94
632.396	42075.43
632.75	41906.17
633.104	42068.2
633.459	42062.33
633.813	42016
634.167	42118.82
634.521	42055.32
634.875	42145.04
635.229	42169.22
635.583	42097.35
635.937	42082.66
636.291	42028.65
636.645	42185.26
636.999	42091.7
637.352	42129.9
637.706	42012.38
638.06	42274.3
638.413	42188.2
638.767	42009.67
639.121	42183.45
639.474	42092.61
639.828	42043.8
640.181	42108.88
640.534	42300.51
640.888	42036.11
641.241	41921.76
641.594	41973.74
641.947	42146.84
642.301	42101.42
642.654	42053.51
643.007	42141.19
643.36	42070.46
643.713	42121.99
644.066	42149.1
644.419	41992.95
644.771	41700.3
645.124	41347.32
645.477	41409.46
645.83	41077.04
646.182	41006.53
646.535	40943.71
646.888	40984.84
647.24	40773.55
647.593	41040.66
647.945	41083.37
648.298	40793.66
648.65	40757.95
649.002	40655.81
649.355	40786.88
649.707	40676.15
650.059	40932.64
650.411	41550.48
650.763	41401.33
651.115	41794.99
651.467	41715.44
651.819	41693.3
652.171	41581.21
652.523	41498.27
652.875	41575.11
653.227	41427.77
653.578	41793.41
653.93	41599.51
654.282	41453.3
654.633	41428.22
654.985	41566.75
655.337	41577.59
655.688	41513.64
656.039	41579.85
656.391	41364.27
656.742	41389.8
657.094	41470.7
657.445	41588.21
657.796	41458.27
658.147	41408.56
658.498	41410.37
658.849	41572.85
659.2	41369.01
659.551	41294.89
659.902	41458.5
660.253	41424.83
660.604	41385.06
660.955	41151.39
661.306	41345.06
661.656	41445.85
662.007	41483.13
662.358	41293.53
662.708	41471.38
663.059	41143.93
663.409	41096.93
663.76	41430.93
664.11	41296.24
664.461	41279.07
664.811	41296.47
665.161	41337.15
665.511	41221.44
665.862	41285.17
666.212	41316.81
666.562	41415.79
666.912	41148.68
667.262	41309.58
667.612	41277.71
667.962	41244.04
668.312	41238.17
668.662	41455.56
669.011	41351.16
669.361	41145.97
669.711	41105.97
670.06	41280.43
670.41	41102.58
670.76	41031.17
671.109	41124.5
671.459	41154.55
671.808	41066.65
672.157	41250.14
672.507	40903.26
672.856	41061.45
673.205	40992.75
673.554	41062.13
673.904	40983.03
674.253	41273.19
674.602	40985.74
674.951	40513.89
675.3	40350.96
675.649	40978.51
675.998	40867.33
676.346	40880.21
676.695	41107.32
677.044	40727.67
677.393	40755.02
677.741	40820.1
678.09	40831.17
678.438	40594.57
678.787	40822.13
679.135	40568.13
679.484	40422.82
679.832	40607.9
680.181	40359.32
680.529	40547.11
680.877	40368.59
681.225	40415.59
681.573	40590.95
681.922	40186.9
682.27	40237.29
682.618	40309.6
682.966	40129.5
683.314	40282.49
683.661	39996.39
684.009	39953.46
684.357	39865.32
684.705	39860.35
685.053	39948.94
685.4	39847.47
685.748	39567.48
686.095	39619
686.443	39467.37
686.79	39513.69
687.138	39549.4
687.485	39451.32
687.832	39424.2
688.18	39374.94
688.527	39236.41
688.874	39166.36
689.221	39115.96
689.568	38960.94
689.915	38863.99
690.262	38915.97
690.609	38775.63
690.956	38479.14
691.303	38602.98
691.65	38462.19
691.997	38426.26
692.344	38300.17
692.69	38358.02
693.037	38234.4
693.383	38012.72
693.73	38054.3
694.077	37935.43
694.423	37946.73
694.769	37863.57
695.116	37686.17
695.462	37666.51
695.808	37580.18
696.155	37588.55
696.501	37316.46
696.847	37367.76
697.193	37080.54
697.539	37214.54
697.885	36839.64
698.231	36815.91
698.577	36889.81
698.923	36812.97
699.269	36630.38
699.614	36424.96
699.96	36309.26
700.306	36442.81
700.651	36268.35
700.997	36085.99
701.342	36091.41
701.688	36060.45
702.033	35794.92
702.379	35856.39
702.724	35735.03
703.069	35727.58
703.415	35443.74
703.76	35517.41
704.105	35431.31
704.45	35373.69
704.795	35187.03
705.14	35174.6
705.485	35194.48
705.83	34935.06
706.175	35046.69
706.52	34988.61
706.865	34813.48
707.209	34758.79
707.554	34539.59
707.899	34687.6
708.243	34479.47
708.588	34465.69
708.932	34226.37
709.277	34167.84
709.621	34232.02
709.966	34048.07
710.31	34039.03
710.654	33876.33
710.998	33755.65
711.342	33869.32
711.687	33681.76
712.031	33623.68
712.375	33335.78
712.719	33523.34
713.063	33498.26
713.407	33706.61
713.75	33300.07
714.094	33328.32
714.438	33237.7
714.782	33275.21
715.125	33196.34
715.469	33145.27
715.812	32928.56
716.156	32826.64
716.499	32936.46
716.843	32786.86
717.186	32605.85
717.53	32779.18
717.873	32767.2
718.216	32619.41
718.559	32444.95
718.902	32363.37
719.246	32352.98
719.589	32350.04
719.932	32247.22
720.275	32187.11
720.617	32236.82
720.96	31993.21
721.303	32083.38
721.646	32126.32
721.989	31853.56
722.331	32077.96
722.674	31777.85
723.016	31802.93
723.359	31903.05
723.701	31775.59
724.044	31562.26
724.386	31563.85
724.729	31654.24
725.071	31516.61
725.413	31618.53
725.755	31413.11
726.097	31264.64
726.439	31116.85
726.782	31110.07
727.124	31295.6
727.465	31076.85
727.807	31070.07
728.149	31085.67
728.491	30989.17
728.833	31042.28
729.175	30903.98
729.516	30931.77
729.858	30949.4
730.199	30818.78
730.541	30691.78
730.882	30733.81
731.224	30724.77
731.565	30602.51
731.906	30587.6
732.248	30658.56
732.589	30456.3
732.93	30383.99
733.271	30365.23
733.612	30291.11
733.953	30286.36
734.294	30233.26
734.635	30191.23
734.976	30281.17
735.317	30103.09
735.658	30151
735.999	30198.23
736.339	30093.6
736.68	30105.13
737.021	29968.63
737.361	29910.56
737.702	29962.98
738.042	29904
738.383	29817.22
738.723	29921.18
739.063	29700.39
739.404	29773.16
739.744	29764.57
740.084	29606.83
740.424	29737.45
740.764	29525.25
741.104	29716.66
741.444	29423.11
741.784	29362.55
742.124	29450.23
742.464	29367.29
742.804	29356.67
743.143	29312.38
743.483	29367.29
743.823	29152.84
744.162	29202.78
744.502	29143.34
744.841	29159.16
745.181	29191.93
745.52	28935.89
745.86	29039.17
746.199	29030.58
746.538	28964.59
746.877	28978.15
747.216	28920.75
747.556	28816.12
747.895	28859.96
748.234	28771.15
748.573	28702.23
748.911	28798.72
749.25	28686.86
749.589	28509.46
749.928	28598.5
750.267	28528.67
750.605	28512.85
750.944	28452.74
751.283	28266.98
751.621	28433.53
751.96	28257.72
752.298	28205.97
752.636	28283.25
752.975	28125.97
753.313	28029.47
753.651	28149.47
753.989	27931.4
754.327	27825.86
754.666	27806.88
755.004	27777.73
755.342	27894.34
755.679	27743.15
756.017	27532.54
756.355	27741.12
756.693	27618.19
757.031	27516.95
757.368	27415.48
757.706	27311.98
758.044	27446.89
758.381	27358.76
758.719	27259.1
759.056	27331.64
759.394	27191.53
759.731	26967.58
760.068	26917.64
