Data from hue_28_FLMS001491_00070.txt Node
Date: Tue Feb 07 17:17:37 GMT 2017
User: dcchb
Spectrometer: FLMS00149
Trigger mode: 0
Integration Time (sec): 2.000000E-2
Scans to average: 10
Electric dark correction enabled: true
Nonlinearity correction enabled: false
Boxcar width: 0
XAxis mode: Wavelengths
Number of Pixels in Spectrum: 2048
>>>>>Begin Spectral Data<<<<<
341.393	-13.64
341.776	-13.64
342.16	-13.64
342.543	-59.07
342.927	-67.43
343.31	-62.23
343.693	-76.69
344.077	-78.73
344.46	-53.64
344.843	-61.33
345.226	-20.65
345.61	-46.86
345.993	-8.9
346.376	-5.51
346.759	1.05
347.142	32.46
347.525	30.42
347.908	68.61
348.291	66.35
348.674	96.41
349.057	119.23
349.44	140.02
349.823	149.06
350.206	155.84
350.588	205.79
350.971	202.85
351.354	216.86
351.737	226.58
352.119	265.9
352.502	254.6
352.884	272.68
353.267	297.99
353.65	306.35
354.032	309.74
354.414	308.83
354.797	316.74
355.179	333.69
355.562	325.33
355.944	317.2
356.326	336.18
356.709	331.43
357.091	329.62
357.473	336.86
357.855	342.28
358.238	349.28
358.62	333.24
359.002	316.74
359.384	358.1
359.766	346.35
360.148	337.76
360.53	348.38
360.912	341.15
361.294	326.01
361.676	332.34
362.057	333.92
362.439	336.86
362.821	342.73
363.203	312.45
363.584	326.91
363.966	330.75
364.348	324.65
364.729	328.49
365.111	314.48
365.493	322.17
365.874	321.26
366.256	322.84
366.637	311.32
367.019	327.36
367.4	301.38
367.781	310.42
368.163	329.17
368.544	304.09
368.925	312.22
369.306	320.36
369.688	317.42
370.069	312.22
370.45	337.76
370.831	308.38
371.212	317.87
371.593	307.7
371.974	307.93
372.355	324.88
372.736	311.55
373.117	314.48
373.498	318.78
373.879	315.39
374.26	308.38
374.641	315.39
375.021	321.49
375.402	337.53
375.783	327.59
376.163	316.07
376.544	346.8
376.925	324.2
377.305	327.82
377.686	323.97
378.066	322.62
378.447	313.35
378.827	303.64
379.208	329.17
379.588	336.18
379.968	332.11
380.349	357.19
380.729	334.82
381.109	356.06
381.489	344.76
381.87	332.11
382.25	330.75
382.63	338.89
383.01	349.28
383.39	345.22
383.77	340.7
384.15	342.28
384.53	340.47
384.91	352.9
385.29	356.52
385.67	320.58
386.049	343.86
386.429	362.84
386.809	327.82
387.189	344.54
387.568	351.54
387.948	349.74
388.328	338.66
388.707	354.93
389.087	362.62
389.466	358.1
389.846	353.8
390.225	345.89
390.605	359.45
390.984	358.1
391.363	348.15
391.743	362.62
392.122	352.22
392.501	362.39
392.881	380.92
393.26	361.26
393.639	379.57
394.018	383.41
394.397	356.74
394.776	359
395.155	363.07
395.534	387.25
395.913	382.05
396.292	380.47
396.671	378.89
397.05	370.08
397.429	382.73
397.808	391.54
398.186	376.4
398.565	385.67
398.944	391.54
399.323	413.01
399.701	380.24
400.08	392
400.458	396.51
400.837	396.29
401.215	384.99
401.594	401.49
401.972	410.98
402.351	395.39
402.729	397.42
403.107	405.33
403.486	411.43
403.864	389.51
404.242	407.36
404.62	416.18
404.999	416.63
405.377	399
405.755	406.01
406.133	400.58
406.511	415.5
406.889	408.04
407.267	397.87
407.645	429.96
408.023	428.6
408.401	420.92
408.779	409.85
409.156	434.25
409.534	429.28
409.912	439
410.29	447.81
410.667	448.49
411.045	447.59
411.422	444.65
411.8	450.52
412.178	439.68
412.555	446.01
412.933	479.9
413.31	438.1
413.687	485.33
414.065	451.43
414.442	479.45
414.819	460.92
415.197	477.64
415.574	467.93
415.951	449.85
416.328	477.64
416.705	460.24
417.082	470.86
417.46	483.97
417.837	488.49
418.214	489.85
418.591	480.13
418.967	495.72
419.344	518.55
419.721	499.11
420.098	486.23
420.475	471.77
420.852	503.18
421.228	502.27
421.605	510.18
421.982	534.82
422.358	516.29
422.735	530.52
423.111	530.3
423.488	541.6
423.864	540.01
424.241	534.14
424.617	563.29
424.994	547.47
425.37	525.1
425.746	525.78
426.123	523.29
426.499	575.95
426.875	535.95
427.251	548.38
427.627	556.28
428.003	574.59
428.379	569.62
428.756	591.54
429.132	589.96
429.507	613.23
429.883	577.3
430.259	598.54
430.635	607.58
431.011	601.26
431.387	611.2
431.763	607.13
432.138	608.03
432.514	617.3
432.89	629.73
433.265	620.01
433.641	630.18
434.016	636.06
434.392	649.39
434.767	651.65
435.143	642.61
435.518	649.84
435.894	675.6
436.269	671.54
436.644	674.02
437.02	671.31
437.395	674.02
437.77	671.54
438.145	685.55
438.52	702.04
438.895	700.01
439.271	720.12
439.646	709.28
440.021	726.9
440.395	737.3
440.77	701.37
441.145	702.04
441.52	715.38
441.895	737.52
442.27	749.95
442.645	730.97
443.019	718.99
443.394	751.99
443.769	759.44
444.143	741.36
444.518	765.32
444.892	771.42
445.267	789.5
445.641	789.05
446.016	774.58
446.39	780.91
446.764	786.11
447.139	787.47
447.513	765.54
447.887	769.84
448.262	798.09
448.636	806.45
449.01	810.29
449.384	811.42
449.758	821.59
450.132	838.54
450.506	829.05
450.88	822.49
451.254	838.99
451.628	836.05
452.002	850.29
452.376	850.51
452.75	848.71
453.123	841.02
453.497	857.29
453.871	865.88
454.244	895.94
454.618	901.81
454.992	916.95
455.365	920.12
455.739	899.1
456.112	927.57
456.486	951.75
456.859	933.22
457.232	961.25
457.606	960.79
457.979	952.66
458.352	988.36
458.725	987.69
459.099	985.88
459.472	1008.02
459.845	1033.11
460.218	1031.75
460.591	1023.62
460.964	1019.78
461.337	1042.15
461.71	1091.19
462.083	1075.82
462.456	1071.07
462.829	1097.29
463.201	1118.3
463.574	1112.65
463.947	1119.21
464.32	1156.04
464.692	1149.94
465.065	1159.66
465.438	1181.35
465.81	1204.63
466.183	1203.27
466.555	1233.56
466.928	1241.92
467.3	1230.62
467.672	1245.98
468.045	1291.63
468.417	1295.25
468.789	1298.86
469.161	1319.2
469.534	1327.56
469.906	1346.77
470.278	1376.38
470.65	1390.39
471.022	1397.39
471.394	1456.37
471.766	1443.27
472.138	1460.67
472.51	1519.88
472.882	1517.62
473.253	1539.76
473.625	1562.59
473.997	1583.38
474.369	1589.03
474.74	1664.05
475.112	1668.12
475.484	1701.11
475.855	1713.77
476.227	1737.04
476.598	1786.76
476.97	1818.85
477.341	1850.04
477.713	1885.06
478.084	1918.28
478.455	1959.19
478.827	1985.63
479.198	2048.45
479.569	2030.82
479.94	2105.4
480.311	2153.76
480.682	2194.66
481.053	2217.71
481.424	2282.57
481.795	2315.33
482.166	2335.67
482.537	2386.52
482.908	2474.88
483.279	2462.22
483.65	2521.66
484.021	2578.6
484.391	2633.52
484.762	2665.61
485.133	2723.01
485.503	2759.84
485.874	2833.74
486.244	2898.6
486.615	2933.62
486.985	2988.31
487.356	3053.17
487.726	3095.88
488.097	3134.97
488.467	3199.61
488.837	3301.07
489.207	3289.32
489.578	3380.39
489.948	3428.3
490.318	3498.81
490.688	3514.17
491.058	3569.76
491.428	3627.62
491.798	3652.02
492.168	3790.1
492.538	3765.92
492.908	3838.91
493.278	3946.03
493.648	3942.86
494.017	4003.65
494.387	4075.74
494.757	4125.91
495.126	4131.56
495.496	4183.53
495.866	4197.09
496.235	4259.24
496.605	4293.36
496.974	4347.6
497.344	4365.45
497.713	4425.79
498.082	4426.47
498.452	4577.87
498.821	4567.7
499.19	4593.92
499.559	4630.08
499.928	4655.39
500.298	4713.46
500.667	4743.97
501.036	4772.67
501.405	4867.36
501.774	4824.65
502.143	4862.61
502.512	4886.34
502.88	4922.95
503.249	4957.75
503.618	5026.68
503.987	4988.71
504.356	5027.58
504.724	5073
505.093	5079.33
505.462	5163.4
505.83	5189.61
506.199	5187.58
506.567	5284.52
506.936	5289.49
507.304	5313.67
507.672	5379.66
508.041	5406.1
508.409	5448.81
508.777	5466.66
509.145	5499.88
509.514	5474.57
509.882	5554.57
510.25	5570.62
510.618	5626.66
510.986	5611.52
511.354	5633.21
511.722	5715.47
512.09	5726.32
512.458	5776.94
512.826	5784.62
513.193	5819.88
513.561	5828.01
513.929	5879.31
514.297	5893.09
514.664	5902.81
515.032	5958.85
515.4	5961.11
515.767	6027.33
516.135	6011.73
516.502	6005.86
516.869	6118.17
517.237	6064.39
517.604	6104.84
517.972	6187.32
518.339	6178.28
518.706	6159.75
519.073	6177.15
519.44	6269.13
519.808	6294.89
520.175	6272.52
520.542	6347.54
520.909	6300.54
521.276	6362.46
521.643	6449.24
522.009	6441.33
522.376	6492.63
522.743	6480.65
523.11	6559.97
523.477	6641.55
523.843	6657.37
524.21	6660.31
524.577	6758.38
524.943	6758.83
525.31	6782.56
525.676	6849.23
526.043	6860.98
526.409	6897.14
526.776	6998.6
527.142	6969.68
527.508	7029.11
527.874	7044.02
528.241	7095.55
528.607	7111.59
528.973	7189.33
529.339	7161.53
529.705	7198.14
530.071	7263
530.437	7352.72
530.803	7295.99
531.169	7395.88
531.535	7420.74
531.901	7399.72
532.267	7402.88
532.632	7484.46
532.998	7571.24
533.364	7557.68
533.73	7622.99
534.095	7616.21
534.461	7730.33
534.826	7734.4
535.192	7705.48
535.557	7811.01
535.923	7796.32
536.288	7837.9
536.653	7896.2
537.019	7833.83
537.384	7925.36
537.749	7870.44
538.114	7960.16
538.479	8017.11
538.845	8051.23
539.21	7995.86
539.575	8019.14
539.94	8127.61
540.305	8161.51
540.67	8175.29
541.034	8185.91
541.399	8352.69
541.764	8259.13
542.129	8309.3
542.494	8366.02
542.858	8327.83
543.223	8429.98
543.587	8526.7
543.952	8459.13
544.316	8514.27
544.681	8487.83
545.045	8607.82
545.41	8601.72
545.774	8634.94
546.138	8617.09
546.503	8725.79
546.867	8723.98
547.231	8800.81
547.595	8810.53
547.959	8798.55
548.324	8804.66
548.688	8865.67
549.052	8893.92
549.416	8888.5
549.779	8978.21
550.143	8937.31
550.507	9024.76
550.871	9095.04
551.235	9001.03
551.599	9156.28
551.962	9172.56
552.326	9135.95
552.689	9222.5
553.053	9187.7
553.417	9245.32
553.78	9334.81
554.143	9274.7
554.507	9323.51
554.87	9426.33
555.234	9418.42
555.597	9451.42
555.96	9437.63
556.323	9461.81
556.686	9487.35
557.05	9634.24
557.413	9545.43
557.776	9614.8
558.139	9623.84
558.502	9722.15
558.865	9684.18
559.228	9770.28
559.59	9813.67
559.953	9817.06
560.316	9922.37
560.679	9930.95
561.041	9996.49
561.404	9962.82
561.767	10012.76
562.129	10011.4
562.492	10124.17
562.854	10097.28
563.217	10027.9
563.579	10165.75
563.941	10160.33
564.304	10265.63
564.666	10219.76
565.028	10334.78
565.39	10330.27
565.753	10408.46
566.115	10361
566.477	10513.76
566.839	10562.8
567.201	10566.19
567.563	10582.24
567.925	10635.79
568.287	10610.26
568.648	10661.33
569.01	10710.82
569.372	10769.35
569.734	10785.85
570.095	10873.98
570.457	10848.22
570.819	10942.23
571.18	10993.98
571.542	11079.62
571.903	11044.14
572.265	11203.01
572.626	11096.57
572.987	11202.56
573.349	11316
573.71	11360.52
574.071	11409.56
574.432	11533.85
574.794	11649.33
575.155	11583.57
575.516	11676.9
575.877	11741.53
576.238	11817.46
576.599	11918.02
576.96	11965.02
577.32	12026.49
577.681	12192.59
578.042	12247.5
578.403	12284.79
578.763	12441.4
579.124	12518
579.485	12722.97
579.845	12806.36
580.206	12859.69
580.566	13033.24
580.927	13183.75
581.287	13333.12
581.648	13402.73
582.008	13532.89
582.368	13795.94
582.728	13887.23
583.089	13974.46
583.449	14176.72
583.809	14384.85
584.169	14467.78
584.529	14724.95
584.889	14960.43
585.249	15189.12
585.609	15183.7
585.969	15526.96
586.329	15665.49
586.688	15952.49
587.048	16094.86
587.408	16421.63
587.768	16616.43
588.127	16772.58
588.487	17086.47
588.846	17483.07
589.206	17493.69
589.565	17843.51
589.925	18232.66
590.284	18320.56
590.643	18670.38
591.003	18977.27
591.362	19374.32
591.721	19624.48
592.08	19756.23
592.44	20146.96
592.799	20439.15
593.158	20640.05
593.517	20873.26
593.876	21192.58
594.235	21388.51
594.593	21782.17
594.952	22181.48
595.311	22267.13
595.67	22656.72
596.029	22990.5
596.387	23401.11
596.746	23652.63
597.104	23873.64
597.463	24135.1
597.822	24561.98
598.18	24709.32
598.538	25089.43
598.897	25433.82
599.255	25533.71
599.613	26201.49
599.972	26316.96
600.33	26608.03
600.688	26775.26
601.046	27160.78
601.404	27578.17
601.762	27780.65
602.12	28055.9
602.478	28345.61
602.836	28576.11
603.194	28632.16
603.552	29093.16
603.91	29218.36
604.268	29552.81
604.625	29706.7
604.983	30123.19
605.341	30132.23
605.698	30657.41
606.056	30797.98
606.413	31093.33
606.771	31331.29
607.128	31611.97
607.485	31659.2
607.843	31967.66
608.2	32302.12
608.557	32577.14
608.914	32663.24
609.272	33097.8
609.629	33201.75
609.986	33506.38
610.343	33606.49
610.7	33963.99
611.057	34039.47
611.414	34278.56
611.771	34561.94
612.127	34796.51
612.484	34843.29
612.841	35215.94
613.198	35082.16
613.554	35464.75
613.911	35660.22
614.267	35837.17
614.624	36006.88
614.98	36133.43
615.337	36480.09
615.693	36567.32
616.05	36562.34
616.406	36938.83
616.762	36986.29
617.118	37090.01
617.475	37388.99
617.831	37533.84
618.187	37719.6
618.543	37880.05
618.899	38004.79
619.255	38031.68
619.611	38151.45
619.967	38327.27
620.323	38504.21
620.678	38539.69
621.034	38564.1
621.39	38586.25
621.746	38707.82
622.101	39200.24
622.457	38777.2
622.812	39088.83
623.168	39294.7
623.523	39343.29
623.879	39480.23
624.234	39408.82
624.589	39532.21
624.945	39642.26
625.3	39896.95
625.655	39857.4
626.01	39820.11
626.365	40066.21
626.72	39802.94
627.075	40084.29
627.43	40138.52
627.785	40060.78
628.14	40143.04
628.495	40223.26
628.85	40322.7
629.205	40315.24
629.559	40486.31
629.914	40507.32
630.269	40460.32
630.623	40419.42
630.978	40395.46
631.332	40744.61
631.687	40650.37
632.041	40637.49
632.396	40646.3
632.75	40673.65
633.104	40750.26
633.459	40598.62
633.813	40534.89
634.167	40752.29
634.521	40720.65
634.875	40683.59
635.229	40697.83
635.583	40623.03
635.937	40630.94
636.291	40644.27
636.645	40642.01
636.999	40737.6
637.352	40864.6
637.706	40471.62
638.06	40742.12
638.413	40668
638.767	40639.75
639.121	40677.49
639.474	40489.47
639.828	40573.31
640.181	40617.6
640.534	40630.71
640.888	40490.6
641.241	40303.04
641.594	40481.79
641.947	40527.66
642.301	40541.45
642.654	40554.1
643.007	40588.23
643.36	40503.93
643.713	40464.84
644.066	40720.65
644.419	40444.73
644.771	40231.85
645.124	39970.39
645.477	39767.23
645.83	39538.54
646.182	39369.95
646.535	39354.13
646.888	39488.82
647.24	39263.74
647.593	39452.66
647.945	39480.01
648.298	39360.24
648.65	39235.27
649.002	39155.72
649.355	39365.66
649.707	39253.35
650.059	39537.86
650.411	39799.77
650.763	39942.14
651.115	40336.71
651.467	40157.96
651.819	40114.79
652.171	40079.54
652.523	40034.12
652.875	40002.25
653.227	39818.3
653.578	40038.86
653.93	40124.51
654.282	39923.61
654.633	39835.03
654.985	39871.18
655.337	39957.96
655.688	39981.69
656.039	40180.1
656.391	39795.25
656.742	39936.49
657.094	39821.47
657.445	40127.9
657.796	40023.72
658.147	39897.17
658.498	39774.91
658.849	39936.04
659.2	39721.81
659.551	39764.97
659.902	39891.07
660.253	39810.62
660.604	39914.57
660.955	39621.25
661.306	39900.79
661.656	39678.87
662.007	39777.17
662.358	39664.64
662.708	39842.48
663.059	39751.41
663.409	39607.91
663.76	39740.34
664.11	39803.39
664.461	39854.01
664.811	39879.09
665.161	39755.93
665.511	39665.54
665.862	39590.74
666.212	39671.41
666.562	39708.02
666.912	39723.84
667.262	39655.6
667.612	39556.39
667.962	39588.48
668.312	39622.6
668.662	39776.27
669.011	39732.2
669.361	39612.88
669.711	39623.51
670.06	39541.93
670.41	39481.14
670.76	39304.87
671.109	39517.97
671.459	39554.81
671.808	39553
672.157	39614.69
672.507	39242.05
672.856	39270.07
673.205	39412.44
673.554	39564.75
673.904	39417.41
674.253	39534.47
674.602	39485.43
674.951	38956.86
675.3	38715.73
675.649	39262.16
675.998	39326.11
676.346	39312.78
676.695	39440.91
677.044	39141.48
677.393	39369.5
677.741	39287.24
678.09	39253.57
678.438	39123.63
678.787	39174.7
679.135	39110.98
679.484	39010.19
679.832	39118.66
680.181	38759.35
680.529	39038.66
680.877	38883.41
681.225	38865.56
681.573	39002.51
681.922	38791.44
682.27	38664.21
682.618	38709.63
682.966	38553.93
683.314	38686.13
683.661	38533.37
684.009	38324.11
684.357	38423.76
684.705	38262.86
685.053	38274.16
685.4	38236.88
685.748	38061.97
686.095	38036.66
686.443	37980.16
686.79	38102.87
687.138	37957.56
687.485	37995.07
687.832	37826.94
688.18	37909.2
688.527	37716.44
688.874	37777.68
689.221	37609.55
689.568	37543.33
689.915	37362.55
690.262	37473.05
690.609	37248.2
690.956	37123.01
691.303	37156.68
691.65	36906.97
691.997	36945.38
692.344	36742.45
692.69	36804.37
693.037	36665.62
693.383	36574.32
693.73	36537.71
694.077	36302.46
694.423	36340.2
694.769	36217.95
695.116	36253.65
695.462	36257.04
695.808	36016.82
696.155	36102.02
696.501	35849.59
696.847	35779.09
697.193	35631.75
697.539	35761.69
697.885	35478.08
698.231	35383.17
698.577	35460.45
698.923	35415.26
699.269	35141.82
699.614	35002.16
699.96	34971.2
700.306	35058.2
700.651	34866.12
700.997	34674.94
701.342	34685.78
701.688	34566.24
702.033	34529.85
702.379	34450.53
702.724	34425.45
703.069	34421.84
703.415	34033.14
703.76	34135.06
704.105	34182.07
704.45	34044.9
704.795	33858.91
705.14	33741.85
705.485	33606.04
705.83	33502.09
706.175	33475.19
706.52	33500.28
706.865	33382.77
707.209	33329.43
707.554	33268.19
707.899	33304.58
708.243	32985.49
708.588	33201.3
708.932	32915.43
709.277	33032.72
709.621	32917.24
709.966	32625.05
710.31	32746.17
710.654	32388.89
710.998	32564.03
711.342	32569
711.687	32516.57
712.031	32366.3
712.375	32212.18
712.719	32338.73
713.063	32201.78
713.407	32216.47
713.75	32038.62
714.094	32112.29
714.438	31925.63
714.782	31944.84
715.125	31764.96
715.469	31745.3
715.812	31696.03
716.156	31428.92
716.499	31525.64
716.843	31543.94
717.186	31317.51
717.53	31519.99
717.873	31495.36
718.216	31227.79
718.559	31198.42
718.902	31012.66
719.246	31058.53
719.589	30997.97
719.932	30962.72
720.275	31063.96
720.617	30864.87
720.96	30789.16
721.303	30760.46
721.646	30821.03
721.989	30624.19
722.331	30792.33
722.674	30530.64
723.016	30555.72
723.359	30478.21
723.701	30576.74
724.044	30329.74
724.386	30259.46
724.729	30363.41
725.071	30391.43
725.413	30320.02
725.755	30177.2
726.097	30084.55
726.439	29937.43
726.782	30081.38
727.124	30130.65
727.465	29922.29
727.807	29892.69
728.149	29883.88
728.491	29799.58
728.833	29824.22
729.175	29686.14
729.516	29600.72
729.858	29598.69
730.199	29710.32
730.541	29571.12
730.882	29486.82
731.224	29482.76
731.565	29410.44
731.906	29381.52
732.248	29438.46
732.589	29268.3
732.93	29167.28
733.271	29269.43
733.612	29282.99
733.953	29120.05
734.294	29158.24
734.635	29021.3
734.976	29131.35
735.317	28879.16
735.658	29081.86
735.999	28890.46
736.339	28927.52
736.68	28950.57
737.021	28732.95
737.361	28648.88
737.702	28739.5
738.042	28666.28
738.383	28635.55
738.723	28556
739.063	28518.49
739.404	28655.66
739.744	28461.31
740.084	28358.49
740.424	28436.46
740.764	28214.54
741.104	28362.56
741.444	28145.16
741.784	28359.62
742.124	28294.54
742.464	28174.77
742.804	28207.54
743.143	28071.72
743.483	28074.43
743.823	27966.86
744.162	27920.99
744.502	28058.39
744.841	27930.48
745.181	27979.07
745.52	27793.08
745.86	27876.7
746.199	27859.75
746.538	27775.68
746.877	27715.8
747.216	27893.42
747.556	27653.65
747.895	27620.21
748.234	27614.78
748.573	27576.82
748.911	27464.5
749.25	27563.26
749.589	27368.69
749.928	27373.66
750.267	27438.74
750.605	27349.48
750.944	27296.6
751.283	27261.57
751.621	27296.37
751.96	27058.64
752.298	27116.04
752.636	27074.46
752.975	26918.76
753.313	26854.12
753.651	26988.81
753.989	26821.36
754.327	26761.47
754.666	26654.58
755.004	26635.83
755.342	26665.88
755.679	26584.53
756.017	26380.92
756.355	26588.14
756.693	26484.87
757.031	26461.14
757.368	26265.67
757.706	26137.53
758.044	26157.42
758.381	26127.14
758.719	26121.04
759.056	26031.77
759.394	25927.37
759.731	25880.14
