Data from hue_340_FLMS001491_58.txt Node
Date: Mon Feb 06 15:43:19 GMT 2017
User: dcchb
Spectrometer: FLMS00149
Trigger mode: 0
Integration Time (sec): 2.000000E-2
Scans to average: 10
Electric dark correction enabled: true
Nonlinearity correction enabled: false
Boxcar width: 0
XAxis mode: Wavelengths
Number of Pixels in Spectrum: 2048
>>>>>Begin Spectral Data<<<<<
341.393	-10.37
341.776	-10.37
342.16	-10.37
342.543	-50.82
342.927	-62.12
343.31	-69.35
343.693	-84.72
344.077	-67.31
344.46	-55.11
344.843	-58.05
345.226	-39.07
345.61	-39.52
345.993	-13.53
346.376	-8.33
346.759	0.48
347.142	15.62
347.525	52.46
347.908	64.43
348.291	63.08
348.674	112.57
349.057	126.35
349.44	131.32
349.823	149.18
350.206	159.35
350.588	195.5
350.971	194.6
351.354	219.01
351.737	214.03
352.119	244.54
352.502	265.56
352.884	262.39
353.267	293.81
353.65	272.34
354.032	299.91
354.414	295.84
354.797	303.3
355.179	296.74
355.562	310.3
355.944	303.52
356.326	327.03
356.709	334.93
357.091	346.69
357.473	314.14
357.855	344.43
358.238	340.81
358.62	339.45
359.002	345.78
359.384	330.64
359.766	336.74
360.148	344.43
360.53	312.56
360.912	343.52
361.294	337.19
361.676	322.73
362.057	333.58
362.439	312.79
362.821	315.27
363.203	308.04
363.584	307.36
363.966	319.12
364.348	315.27
364.729	288.83
365.111	307.14
365.493	303.98
365.874	329.74
366.256	326.35
366.637	296.52
367.019	321.38
367.4	316.4
367.781	311.66
368.163	310.98
368.544	306.46
368.925	290.19
369.306	336.74
369.688	293.81
370.069	323.41
370.45	299.23
370.831	315.95
371.212	308.04
371.593	305.33
371.974	304.2
372.355	307.59
372.736	310.53
373.117	325.44
373.498	303.52
373.879	313.24
374.26	286.8
374.641	318.89
375.021	309.85
375.402	325.22
375.783	300.13
376.163	344.2
376.544	290.19
376.925	323.18
377.305	333.35
377.686	310.53
378.066	328.16
378.447	334.26
378.827	325.44
379.208	332.22
379.588	324.09
379.968	303.52
380.349	330.42
380.729	336.29
381.109	344.65
381.489	341.71
381.87	335.84
382.25	323.18
382.63	338.32
383.01	318.21
383.39	334.71
383.77	325.44
384.15	328.38
384.53	351.66
384.91	350.98
385.29	355.27
385.67	348.04
386.049	348.49
386.429	352.11
386.809	337.65
387.189	353.47
387.568	344.43
387.948	355.5
388.328	363.18
388.707	346.23
389.087	345.33
389.466	382.84
389.846	362.05
390.225	368.83
390.605	369.96
390.984	343.3
391.363	359.34
391.743	348.72
392.122	358.21
392.501	371.32
392.881	358.66
393.26	358.21
393.639	385.78
394.018	380.13
394.397	369.06
394.776	372.45
395.155	370.64
395.534	372.45
395.913	356.18
396.292	388.49
396.671	372.67
397.05	372.9
397.429	403.86
397.808	357.76
398.186	369.28
398.565	363.41
398.944	381.71
399.323	380.81
399.701	394.14
400.08	386.46
400.458	388.27
400.837	397.98
401.215	391.43
401.594	403.18
401.972	394.14
402.351	383.52
402.729	410.41
403.107	392.11
403.486	392.79
403.864	397.08
404.242	392.79
404.62	395.72
404.999	407.48
405.377	415.38
405.755	392.79
406.133	421.71
406.511	420.36
406.889	438.21
407.267	419
407.645	423.75
408.023	412.67
408.401	446.8
408.779	430.53
409.156	440.92
409.534	453.35
409.912	434.37
410.29	461.71
410.667	460.36
411.045	461.03
411.422	459.45
411.8	461.26
412.178	447.7
412.555	476.17
412.933	470.75
413.31	498.09
413.687	513.91
414.065	477.08
414.442	484.31
414.819	487.7
415.197	491.99
415.574	499.45
415.951	505.55
416.328	525.89
416.705	497.87
417.082	516.62
417.46	520.92
417.837	540.8
418.214	537.19
418.591	538.77
418.967	541.26
419.344	543.74
419.721	557.3
420.098	547.36
420.475	535.83
420.852	550.07
421.228	561.37
421.605	572.89
421.982	543.97
422.358	590.3
422.735	582.84
423.111	576.28
423.488	590.3
423.864	578.77
424.241	614.02
424.617	589.39
424.994	611.76
425.37	598.66
425.746	622.38
426.123	635.04
426.499	635.72
426.875	642.05
427.251	626.45
427.627	637.53
428.003	678.43
428.379	670.97
428.756	648.37
429.132	667.58
429.507	667.13
429.883	667.13
430.259	672.78
430.635	673
431.011	664.87
431.387	704.42
431.763	724.08
432.138	692.89
432.514	711.65
432.89	738.09
433.265	736.73
433.641	735.83
434.016	744.42
434.392	751.87
434.767	765.21
435.143	778.54
435.518	779.22
435.894	781.93
436.269	788.93
436.644	803.4
437.02	755.26
437.395	800.91
437.77	789.84
438.145	830.06
438.52	819.22
438.895	823.51
439.271	808.14
439.646	844.75
440.021	857.41
440.395	848.37
440.77	844.3
441.145	841.59
441.52	852.89
441.895	882.94
442.27	851.53
442.645	865.32
443.019	888.14
443.394	899.67
443.769	875.71
444.143	886.78
444.518	905.77
444.892	892.89
445.267	905.32
445.641	887.91
446.016	916.16
446.39	901.02
446.764	928.14
447.139	913.22
447.513	920.46
447.887	916.84
448.262	919.78
448.636	927.46
449.01	946.44
449.384	946.9
449.758	955.48
450.132	947.57
450.506	961.81
450.88	950.29
451.254	995.48
451.628	968.82
452.002	988.02
452.376	999.78
452.75	989.61
453.123	986.67
453.497	999.78
453.871	1008.14
454.244	1018.53
454.618	1018.53
454.992	1034.13
455.365	1018.08
455.739	1056.27
456.112	1032.32
456.486	1062.37
456.859	1075.93
457.232	1079.55
457.606	1111.86
457.979	1101.92
458.352	1117.06
458.725	1106.89
459.099	1113.9
459.472	1129.49
459.845	1148.7
460.218	1160.9
460.591	1152.77
460.964	1167
461.337	1191.41
461.71	1175.14
462.083	1211.3
462.456	1222.82
462.829	1234.57
463.201	1196.61
463.574	1236.61
463.947	1254.91
464.32	1271.41
464.692	1268.7
465.065	1293.78
465.438	1307.34
465.81	1309.6
466.183	1323.16
466.555	1352.76
466.928	1356.83
467.3	1347.56
467.672	1373.33
468.045	1397.28
468.417	1404.29
468.789	1422.59
469.161	1419.88
469.534	1421.23
469.906	1466.88
470.278	1459.42
470.65	1450.16
471.022	1498.07
471.394	1510.27
471.766	1541.91
472.138	1559.31
472.51	1569.48
472.882	1621.23
473.253	1584.17
473.625	1609.7
473.997	1676.14
474.369	1682.24
474.74	1713.66
475.112	1675.69
475.484	1731.96
475.855	1773.77
476.227	1745.75
476.598	1796.37
476.97	1831.39
477.341	1849.02
477.713	1849.7
478.084	1865.74
478.455	1933.76
478.827	1951.62
479.198	1966.53
479.569	2005.63
479.94	2053.76
480.311	2049.01
480.682	2074.55
481.053	2144.38
481.424	2183.02
481.795	2204.72
482.166	2206.3
482.537	2238.61
482.908	2265.73
483.279	2287.43
483.65	2343.92
484.021	2363.36
484.391	2418.04
484.762	2430.47
485.133	2448.55
485.503	2454.88
485.874	2515.22
486.244	2560.41
486.615	2563.8
486.985	2607.64
487.356	2665.27
487.726	2622.78
488.097	2716.79
488.467	2695.32
488.837	2789.79
489.207	2838.6
489.578	2873.85
489.948	2879.95
490.318	2875.43
490.688	2921.53
491.058	2987.97
491.428	2999.5
491.798	3005.6
492.168	3115.88
492.538	3066.16
492.908	3100.74
493.278	3163.11
493.648	3188.87
494.017	3209.21
494.387	3244.91
494.757	3227.06
495.126	3277.91
495.496	3302.54
495.866	3328.08
496.235	3341.64
496.605	3354.74
496.974	3404.91
497.344	3421.63
497.713	3447.17
498.082	3453.27
498.452	3493.5
498.821	3514.74
499.19	3499.15
499.559	3575.3
499.928	3583.21
500.298	3613.04
500.667	3608.75
501.036	3610.1
501.405	3620.05
501.774	3667.5
502.143	3674.96
502.512	3677.22
502.88	3707.73
503.249	3750.44
503.618	3726.26
503.987	3770.1
504.356	3836.76
504.724	3789.53
505.093	3808.74
505.462	3856.65
505.83	3849.64
506.199	3899.59
506.567	3909.08
506.936	3915.63
507.304	3929.64
507.672	3959.25
508.041	3993.37
508.409	3967.38
508.777	3976.42
509.145	4072.92
509.514	4021.39
509.882	4027.04
510.25	4021.39
510.618	4086.93
510.986	4036.98
511.354	4109.3
511.722	4162.86
512.09	4106.59
512.458	4179.35
512.826	4192.01
513.193	4186.36
513.561	4216.41
513.929	4208.73
514.297	4239.01
514.664	4232.69
515.032	4305.9
515.4	4268.62
515.767	4303.64
516.135	4298.22
516.502	4298.9
516.869	4319.01
517.237	4327.6
517.604	4326.47
517.972	4406.69
518.339	4426.58
518.706	4367.37
519.073	4413.92
519.44	4428.16
519.808	4487.59
520.175	4456.86
520.542	4476.75
520.909	4503.19
521.276	4491.89
521.643	4515.16
522.009	4580.25
522.376	4558.33
522.743	4546.8
523.11	4633.13
523.477	4626.57
523.843	4634.03
524.21	4697.31
524.577	4718.55
524.943	4739.34
525.31	4816.62
525.676	4790.86
526.043	4850.52
526.409	4824.76
526.776	4888.26
527.142	4890.75
527.508	4904.08
527.874	4922.84
528.241	4949.5
528.607	4941.14
528.973	4996.28
529.339	5018.43
529.705	5043.51
530.071	5060.91
530.437	5091.42
530.803	5080.57
531.169	5134.81
531.535	5102.72
531.901	5205.77
532.267	5165.54
532.632	5201.47
532.998	5222.04
533.364	5274.47
533.73	5255.48
534.095	5314.24
534.461	5306.1
534.826	5365.54
535.192	5396.95
535.557	5395.82
535.923	5391.75
536.288	5449.83
536.653	5464.74
537.019	5431.98
537.384	5487.12
537.749	5505.19
538.114	5499.09
538.479	5482.14
538.845	5559.66
539.21	5527.79
539.575	5565.53
539.94	5625.19
540.305	5610.28
540.67	5680.56
541.034	5697.51
541.399	5708.8
541.764	5751.52
542.129	5772.53
542.494	5834.9
542.858	5799.42
543.223	5814.11
543.587	5851.4
543.952	5877.39
544.316	5881
544.681	5959.42
545.045	5919.42
545.41	5966.2
545.774	5995.58
546.138	6013.66
546.503	6020.21
546.867	6032.64
547.231	6109.02
547.595	6118.51
547.959	6136.36
548.324	6071.51
548.688	6132.52
549.052	6221.79
549.416	6190.15
549.779	6175.23
550.143	6213.65
550.507	6215.01
550.871	6280.09
551.235	6288.68
551.599	6340.88
551.962	6375.23
552.326	6358.28
552.689	6409.35
553.053	6349.69
553.417	6387.88
553.78	6516.02
554.143	6447.54
554.507	6474.21
554.87	6461.78
555.234	6538.61
555.597	6531.16
555.96	6607.99
556.323	6635.79
556.686	6583.36
557.05	6666.52
557.413	6641.89
557.776	6651.38
558.139	6707.2
558.502	6743.81
558.865	6732.96
559.228	6760.08
559.59	6797.82
559.953	6796.01
560.316	6812.5
560.679	6885.04
561.041	6866.51
561.404	6880.07
561.767	6902.45
562.129	6968.66
562.492	6966.62
562.854	6911.48
563.217	6965.04
563.579	6995.55
563.941	7073.06
564.304	7012.73
564.666	7139.05
565.028	7146.28
565.39	7186.96
565.753	7159.84
566.115	7207.97
566.477	7235.77
566.839	7249.33
567.201	7297.01
567.563	7301.76
567.925	7351.02
568.287	7282.1
568.648	7316.45
569.01	7406.39
569.372	7428.31
569.734	7421.98
570.095	7516.67
570.457	7504.24
570.819	7552.37
571.18	7668.08
571.542	7563.22
571.903	7627.62
572.265	7703.1
572.626	7775.87
572.987	7725.02
573.349	7886.6
573.71	7869.2
574.071	7902.42
574.432	7903.55
574.794	8013.83
575.155	8096.54
575.516	8129.53
575.877	8139.02
576.238	8208.17
576.599	8315.97
576.96	8360.71
577.32	8304.22
577.681	8429.86
578.042	8523.19
578.403	8596.86
578.763	8677.09
579.124	8829.63
579.485	8836.18
579.845	8947.82
580.206	9063.07
580.566	9167.47
580.927	9215.83
581.287	9304.64
581.648	9449.5
582.008	9582.83
582.368	9766.78
582.728	9843.84
583.089	9988.24
583.449	10140.78
583.809	10305.29
584.169	10482.01
584.529	10602.91
584.889	10775.56
585.249	10938.72
585.609	11047.42
585.969	11280.86
586.329	11536.22
586.688	11716.78
587.048	11891.24
587.408	12071.8
587.768	12133.04
588.127	12549.08
588.487	12672.24
588.846	12987.71
589.206	13157.42
589.565	13351.09
589.925	13746.56
590.284	13894.58
590.643	14156.27
591.003	14410.04
591.362	14687.78
591.721	14896.81
592.08	15151.95
592.44	15402.79
592.799	15700.18
593.158	15990.79
593.517	16278.7
593.876	16461.06
594.235	16727.72
594.593	17098.79
594.952	17296.52
595.311	17564.76
595.67	17847.69
596.029	18260.57
596.387	18423.27
596.746	18739.42
597.104	18941.45
597.463	19189.58
597.822	19638.83
598.18	19745.5
598.538	20072.95
598.897	20398.59
599.255	20491.69
599.613	21041.51
599.972	21300.94
600.33	21533.02
600.688	21711.32
601.046	22083.06
601.404	22345.66
601.762	22619.77
602.12	23003.04
602.478	23144.5
602.836	23452.74
603.194	23567.32
603.552	23907.2
603.91	24095.67
604.268	24440.29
604.625	24549.89
604.983	24978.58
605.341	25025.58
605.698	25426.7
606.056	25673.93
606.413	25905.11
606.771	26106.91
607.128	26491.08
607.485	26581.02
607.843	26686.11
608.2	27025.76
608.557	27365.64
608.914	27470.72
609.272	27728.56
609.629	27977.6
609.986	28335.33
610.343	28381.88
610.7	28756.33
611.057	28776.45
611.414	28980.28
611.771	29025.93
612.127	29505.92
612.484	29584.79
612.841	29779.36
613.198	29837.44
613.554	30053.93
613.911	30366.01
614.267	30307.93
614.624	30552.9
614.98	30764.87
615.337	31119.89
615.693	31022.72
616.05	31362.37
616.406	31634.9
616.762	31411.18
617.118	31641.23
617.475	31721.23
617.831	32120.31
618.187	32125.51
618.543	32402.34
618.899	32552.84
619.255	32678.49
619.611	32676.01
619.967	32943.79
620.323	33001.42
620.678	33026.05
621.034	33085.49
621.39	33239.38
621.746	33295.42
622.101	33596.88
622.457	33511.92
622.812	33570.44
623.168	33716.88
623.523	33904.45
623.879	34110.32
624.234	33932.02
624.589	34149.86
624.945	34205.23
625.3	34293.82
625.655	34341.72
626.01	34476.18
626.365	34518.44
626.72	34473.7
627.075	34583.3
627.43	34682.73
627.785	34630.53
628.14	34750.53
628.495	34773.13
628.85	34872.11
629.205	34864.42
629.559	35189.61
629.914	35001.37
630.269	35048.6
630.623	35049.28
630.978	35032.1
631.332	35198.42
631.687	35297.41
632.041	35155.26
632.396	35276.39
632.75	35167.47
633.104	35260.34
633.459	35047.02
633.813	35148.71
634.167	35162.95
634.521	35265.99
634.875	35259.67
635.229	35352.55
635.583	35156.62
635.937	35344.18
636.291	35162.49
636.645	35315.48
636.999	35221.25
637.352	35395.93
637.706	35132.66
638.06	35247.24
638.413	35235.94
638.767	35228.93
639.121	35246.79
639.474	35044.53
639.828	35217.41
640.181	35169.05
640.534	35089.5
640.888	35151.42
641.241	35084.98
641.594	35169.05
641.947	35254.47
642.301	35114.81
642.654	35061.48
643.007	35202.04
643.36	35176.05
643.713	35149.84
644.066	35315.94
644.419	34976.51
644.771	34791.43
645.124	34524.09
645.477	34394.38
645.83	34396.19
646.182	34259.92
646.535	34050.66
646.888	34205.68
647.24	34038.23
647.593	34239.81
647.945	34132.46
648.298	33976.76
648.65	34005.01
649.002	33859.48
649.355	34007.27
649.707	33975.63
650.059	34049.3
650.411	34414.94
650.763	34678.44
651.115	34953.46
651.467	34833.24
651.819	34873.69
652.171	34727.93
652.523	34715.95
652.875	34662.17
653.227	34579.01
653.578	34811.09
653.93	34616.29
654.282	34587.37
654.633	34580.59
654.985	34638.44
655.337	34625.33
655.688	34674.82
656.039	34722.28
656.391	34558.89
656.742	34529.74
657.094	34448.61
657.445	34617.88
657.796	34526.13
658.147	34597.54
658.498	34422.63
658.849	34530.42
659.2	34517.31
659.551	34457.43
659.902	34592.11
660.253	34415.62
660.604	34453.36
660.955	34312.12
661.306	34502.85
661.656	34449.97
662.007	34471.21
662.358	34314.15
662.708	34484.09
663.059	34312.35
663.409	34219.02
663.76	34374.49
664.11	34494.49
664.461	34381.5
664.811	34408.39
665.161	34366.81
665.511	34230.54
665.862	34335.17
666.212	34380.59
666.562	34493.81
666.912	34301.73
667.262	34407.26
667.612	34364.1
667.962	34349.86
668.312	34282.97
668.662	34386.24
669.011	34314.61
669.361	34132.24
669.711	34158.68
670.06	34233.03
670.41	34255.62
670.76	34116.87
671.109	34463.08
671.459	34210.43
671.808	34226.02
672.157	34376.75
672.507	33990.55
672.856	34034.61
673.205	34130.2
673.554	34148.73
673.904	34022.41
674.253	34243.42
674.602	34134.27
674.951	33718.92
675.3	33370
675.649	34008.85
675.998	33987.84
676.346	33973.82
676.695	34081.39
677.044	33837.56
677.393	34005.69
677.741	34016.99
678.09	33841.4
678.438	33801.85
678.787	33855.41
679.135	33912.36
679.484	33663.55
679.832	33748.75
680.181	33563.21
680.529	33710.1
680.877	33669.43
681.225	33542.65
681.573	33653.38
681.922	33503.1
682.27	33383.56
682.618	33550.56
682.966	33381.52
683.314	33400.96
683.661	33336.55
684.009	33188.31
684.357	33208.87
684.705	33144.69
685.053	33254.97
685.4	33086.84
685.748	32831.03
686.095	32947.86
686.443	32813.4
686.79	32729.11
687.138	32852.5
687.485	32742.67
687.832	32529.57
688.18	32656.34
688.527	32489.8
688.874	32506.97
689.221	32464.49
689.568	32398.27
689.915	32303.36
690.262	32251.16
690.609	32190.82
690.956	32107.88
691.303	31938.85
691.65	32028.34
691.997	31935.46
692.344	31594.45
692.69	31823.15
693.037	31581.57
693.383	31507.45
693.73	31608.91
694.077	31405.76
694.423	31450.27
694.769	31322.59
695.116	31207.57
695.462	31255.93
695.808	31097.52
696.155	31140.68
696.501	30848.03
696.847	30932.77
697.193	30684.65
697.539	30869.5
697.885	30607.59
698.231	30566.46
698.577	30483.52
698.923	30516.29
699.269	30351.55
699.614	30255.28
699.96	30183.19
700.306	30132.57
700.651	29948.17
700.997	29916.76
701.342	29889.86
701.688	29921.95
702.033	29689.42
702.379	29735.97
702.724	29619.81
703.069	29728.51
703.415	29411.68
703.76	29397.22
704.105	29392.93
704.45	29283.1
704.795	29017.57
705.14	29072.03
705.485	28990.68
705.83	28740.29
706.175	28885.6
706.52	28802.43
706.865	28661.2
707.209	28727.41
707.554	28500.52
707.899	28638.6
708.243	28552.27
708.588	28448.77
708.932	28367.64
709.277	28273.64
709.621	28313.86
709.966	28065.5
710.31	28244.94
710.654	27886.07
710.998	28056.47
711.342	27968.78
711.687	27922.23
712.031	27749.13
712.375	27724.95
712.719	27719.98
713.063	27799.52
713.407	27707.1
713.75	27695.35
714.094	27541.22
714.438	27554.11
714.782	27478.18
715.125	27304.62
715.469	27348.46
715.812	27175.13
716.156	27105.08
716.499	27172.87
716.843	27178.75
717.186	26874.58
717.53	27068.92
717.873	27078.86
718.216	26954.12
718.559	26884.75
718.902	26645.2
719.246	26766.33
719.589	26706.22
719.932	26580.8
720.275	26583.51
720.617	26692.89
720.96	26465.55
721.303	26474.59
721.646	26414.47
721.989	26211.09
722.331	26403.18
722.674	26392.33
723.016	26220.36
723.359	26196.18
723.701	26327.7
724.044	26030.76
724.386	25972.23
724.729	26047.7
725.071	26097.87
725.413	25999.8
725.755	25924.77
726.097	25877.54
726.439	25812
726.782	25643.87
727.124	25727.71
727.465	25792.57
727.807	25696.3
728.149	25620.37
728.491	25618.34
728.833	25607.49
729.175	25513.48
729.516	25468.29
729.858	25364.33
730.199	25386.93
730.541	25273.26
730.882	25349.42
731.224	25431.22
731.565	25160.27
731.906	25192.81
732.248	25181.51
732.589	25187.39
732.93	25035.75
733.271	25055.64
733.612	25073.95
733.953	25148.97
734.294	24978.13
734.635	24907.17
734.976	24960.73
735.317	24764.12
735.658	24838.47
735.999	24810.45
736.339	24609.32
736.68	24811.35
737.021	24726.61
737.361	24707.18
737.702	24638.02
738.042	24671.7
738.383	24688.64
738.723	24595.09
739.063	24499.27
739.404	24485.94
739.744	24456.56
740.084	24401.19
740.424	24348.09
740.764	24403.68
741.104	24410.69
741.444	24199.39
741.784	24152.84
742.124	24296.79
742.464	24123.46
742.804	24146.96
743.143	24177.92
743.483	24018.15
743.823	23928.66
744.162	23989.91
744.502	23981.09
744.841	23898.38
745.181	23902.45
745.52	23898.38
745.86	23815
746.199	23754.88
746.538	23727.99
746.877	23883.92
747.216	23740.19
747.556	23796.92
747.895	23696.58
748.234	23622.91
748.573	23682.12
748.911	23550.6
749.25	23533.87
749.589	23465.63
749.928	23546.98
750.267	23458.85
750.605	23479.64
750.944	23277.16
751.283	23175.46
751.621	23311.96
751.96	23172.75
752.298	23244.16
752.636	23199.64
752.975	23019.08
753.313	22978.18
753.651	23057.28
753.989	22874.46
754.327	22834
754.666	22630.62
755.004	22890.05
755.342	22789.26
755.679	22764.85
756.017	22680.11
756.355	22613.22
756.693	22495.26
757.031	22602.82
757.368	22465.43
757.706	22398.99
758.044	22373.23
758.381	22344.3
758.719	22216.39
759.056	22368.71
759.394	22267.47
759.731	22105.66
760.068	22094.59
760.405	21965.55
