Data from hue_180_FLMS001491_00042.txt Node
Date: Tue Feb 07 16:47:02 GMT 2017
User: dcchb
Spectrometer: FLMS00149
Trigger mode: 0
Integration Time (sec): 2.000000E-2
Scans to average: 10
Electric dark correction enabled: true
Nonlinearity correction enabled: false
Boxcar width: 0
XAxis mode: Wavelengths
Number of Pixels in Spectrum: 2048
>>>>>Begin Spectral Data<<<<<
341.393	-5.25
341.776	-5.25
342.16	-5.25
342.543	-53.16
342.927	-75.53
343.31	-56.33
343.693	-73.27
344.077	-75.99
344.46	-77.12
344.843	-42.99
345.226	-44.35
345.61	-47.96
345.993	-18.14
346.376	5.14
346.759	11.24
347.142	19.6
347.525	45.59
347.908	68.19
348.291	80.17
348.674	91.01
349.057	115.19
349.44	148.19
349.823	139.6
350.206	163.33
350.588	201.75
350.971	207.85
351.354	230.45
351.737	238.36
352.119	243.78
352.502	268.86
352.884	287.39
353.267	303.21
353.65	293.27
354.032	287.62
354.414	328.07
354.797	303.44
355.179	324
355.562	316.55
355.944	326.04
356.326	328.52
356.709	324
357.091	339.14
357.473	346.15
357.855	329.2
358.238	352.25
358.62	346.38
359.002	331.46
359.384	348.86
359.766	341.86
360.148	338.47
360.53	341.4
360.912	343.89
361.294	354.96
361.676	308.86
362.057	330.78
362.439	328.3
362.821	344.79
363.203	325.58
363.584	343.66
363.966	342.31
364.348	342.53
364.729	338.47
365.111	326.49
365.493	328.07
365.874	322.65
366.256	307.51
366.637	306.38
367.019	312.48
367.4	308.18
367.781	313.83
368.163	309.99
368.544	295.3
368.925	320.16
369.306	316.09
369.688	324.23
370.069	302.31
370.45	317.22
370.831	307.28
371.212	307.51
371.593	324.23
371.974	304.12
372.355	330.56
372.736	325.13
373.117	336.88
373.498	333.49
373.879	338.01
374.26	313.61
374.641	323.1
375.021	318.13
375.402	326.94
375.783	308.41
376.163	345.92
376.544	293.95
376.925	325.58
377.305	345.7
377.686	328.3
378.066	354.28
378.447	325.58
378.827	314.29
379.208	310.67
379.588	329.2
379.968	340.05
380.349	351.57
380.729	326.26
381.109	324.91
381.489	320.16
381.87	349.09
382.25	360.84
382.63	348.18
383.01	348.86
383.39	360.61
383.77	349.99
384.15	335.53
384.53	326.49
384.91	355.19
385.29	352.93
385.67	332.36
386.049	333.95
386.429	347.28
386.809	376.2
387.189	348.86
387.568	349.54
387.948	365.13
388.328	376.43
388.707	355.87
389.087	364.45
389.466	368.97
389.846	357.67
390.225	360.84
390.605	352.7
390.984	371.91
391.363	369.43
391.743	362.65
392.122	386.37
392.501	383.89
392.881	398.8
393.26	376.2
393.639	378.92
394.018	377.79
394.397	381.85
394.776	365.36
395.155	394.96
395.534	401.29
395.913	388.63
396.292	393.38
396.671	369.2
397.05	399.48
397.429	411.46
397.808	403.32
398.186	406.26
398.565	377.79
398.944	396.32
399.323	401.06
399.701	418.01
400.08	421.18
400.458	402.19
400.837	416.66
401.215	404.9
401.594	405.13
401.972	418.46
402.351	425.92
402.729	409.2
403.107	443.32
403.486	461.85
403.864	434.73
404.242	412.81
404.62	459.82
404.999	425.7
405.377	454.17
405.755	465.47
406.133	448.97
406.511	446.49
406.889	473.83
407.267	466.6
407.645	467.95
408.023	486.71
408.401	487.16
408.779	487.84
409.156	500.27
409.534	487.16
409.912	502.76
410.29	517.44
410.667	538.01
411.045	521.06
411.422	521.06
411.8	512.25
412.178	526.26
412.555	547.5
412.933	547.5
413.31	549.99
413.687	554.73
414.065	574.17
414.442	570.55
414.819	593.83
415.197	616.2
415.574	601.96
415.951	605.8
416.328	598.12
416.705	610.32
417.082	603.32
417.46	619.59
417.837	653.03
418.214	645.8
418.591	668.85
418.967	669.08
419.344	654.62
419.721	667.95
420.098	682.41
420.475	680.38
420.852	724.22
421.228	714.05
421.605	728.29
421.982	726.7
422.358	726.25
422.735	768.06
423.111	762.64
423.488	768.74
423.864	816.42
424.241	782.07
424.617	802.18
424.994	814.61
425.37	846.25
425.746	814.61
426.123	845.35
426.499	843.31
426.875	857.32
427.251	892.35
427.627	904.1
428.003	899.35
428.379	900.94
428.756	904.78
429.132	938.45
429.507	943.65
429.883	948.62
430.259	959.69
430.635	977.54
431.011	968.51
431.387	993.14
431.763	1018.67
432.138	1027.71
432.514	1026.81
432.89	1022.74
433.265	1057.54
433.641	1090.08
434.016	1094.38
434.392	1137.54
434.767	1149.52
435.143	1145
435.518	1152
435.894	1156.75
436.269	1192.68
436.644	1250.98
437.02	1254.83
437.395	1258.44
437.77	1283.3
438.145	1280.36
438.52	1327.37
438.895	1329.17
439.271	1310.64
439.646	1366.69
440.021	1393.35
440.395	1395.16
440.77	1408.04
441.145	1437.19
441.52	1455.27
441.895	1461.15
442.27	1470.41
442.645	1457.53
443.019	1489.4
443.394	1508.6
443.769	1530.3
444.143	1505.89
444.518	1547.7
444.892	1563.74
445.267	1577.3
445.641	1588.38
446.016	1580.24
446.39	1628.6
446.764	1633.12
447.139	1628.15
447.513	1638.77
447.887	1661.37
448.262	1688.49
448.636	1679.9
449.01	1709.5
449.384	1709.28
449.758	1732.78
450.132	1770.97
450.506	1775.94
450.88	1765.32
451.254	1776.39
451.628	1816.17
452.002	1855.26
452.376	1863.17
452.75	1877.63
453.123	1861.59
453.497	1905.88
453.871	1938.42
454.244	1962.15
454.618	1993.79
454.992	2014.81
455.365	2015.71
455.739	2063.84
456.112	2082.37
456.486	2107.23
456.859	2134.58
457.232	2163.73
457.606	2121.92
457.979	2180.68
458.352	2206.89
458.725	2264.97
459.099	2250.73
459.472	2287.79
459.845	2309.49
460.218	2333.89
460.591	2366.89
460.964	2403.95
461.337	2420.67
461.71	2483.27
462.083	2513.55
462.456	2518.52
462.829	2570.5
463.201	2581.57
463.574	2616.15
463.947	2682.81
464.32	2703.83
464.692	2725.97
465.065	2769.81
465.438	2775.01
465.81	2826.31
466.183	2914.22
466.555	2910.38
466.928	2974.1
467.3	2953.54
467.672	3041.67
468.045	3097.04
468.417	3102.69
468.789	3115.34
469.161	3202.12
469.534	3260.42
469.906	3307.2
470.278	3373.64
470.65	3369.12
471.022	3483.69
471.394	3558.04
471.766	3560.08
472.138	3627.19
472.51	3697.7
472.882	3792.39
473.253	3772.73
473.625	3844.14
473.997	3998.93
474.369	3961.65
474.74	4001.42
475.112	4106.05
475.484	4165.71
475.855	4247.29
476.227	4326.16
476.598	4438.7
476.97	4471.69
477.341	4625.58
477.713	4671.91
478.084	4663.1
478.455	4927.05
478.827	4944.22
479.198	5062.64
479.569	5091.79
479.94	5206.36
480.311	5244.33
480.682	5392.34
481.053	5486.8
481.424	5660.81
481.795	5735.39
482.166	5857.42
482.537	5874.59
482.908	6085.21
483.279	6082.04
483.65	6237.75
484.021	6360
484.391	6475.25
484.762	6505.08
485.133	6597.96
485.503	6700.11
485.874	6814.68
486.244	6889.93
486.615	7088.12
486.985	7165.18
487.356	7308.68
487.726	7460.31
488.097	7564.94
488.467	7579.86
488.837	7716.35
489.207	7876.12
489.578	7922.67
489.948	8006.96
490.318	8174.64
490.688	8233.85
491.058	8421.42
491.428	8491.47
491.798	8625.03
492.168	8740.96
492.538	8768.98
492.908	8837.9
493.278	8965.81
493.648	8947.28
494.017	9149.53
494.387	9241.28
494.757	9318.79
495.126	9466.14
495.496	9417.32
495.866	9488.28
496.235	9567.38
496.605	9635.85
496.974	9777.09
497.344	9807.37
497.713	9903.64
498.082	9912
498.452	10111.99
498.821	10075.84
499.19	10053.46
499.559	10222.05
499.928	10235.83
500.298	10297.98
500.667	10364.87
501.036	10331.88
501.405	10440.57
501.774	10503.4
502.143	10558.54
502.512	10558.99
502.88	10672.66
503.249	10663.39
503.618	10677.85
503.987	10749.49
504.356	10745.42
504.724	10894.35
505.093	10889.15
505.462	10865.19
505.83	10992.42
506.199	11021.8
506.567	11070.39
506.936	11107.45
507.304	11236.71
507.672	11212.08
508.041	11253.43
508.409	11298.18
508.777	11365.97
509.145	11363.03
509.514	11402.36
509.882	11481.9
510.25	11453.88
510.618	11454.11
510.986	11406.88
511.354	11551.73
511.722	11566.65
512.09	11666.53
512.458	11586.76
512.826	11643.48
513.193	11719.41
513.561	11745.62
513.929	11864.49
514.297	11864.72
514.664	11814.77
515.032	11859.29
515.4	11931.61
515.767	11884.15
516.135	11960.31
516.502	11784.04
516.869	12057.25
517.237	12092.96
517.604	11973.64
517.972	11992.62
518.339	12132.51
518.706	12023.36
519.073	12092.28
519.44	12130.47
519.808	12171.83
520.175	12100.19
520.542	12252.5
520.909	12162.79
521.276	12167.76
521.643	12223.58
522.009	12243.69
522.376	12258.83
522.743	12271.71
523.11	12320.75
523.477	12377.92
523.843	12497.02
524.21	12416.57
524.577	12419.73
524.943	12423.57
525.31	12446.4
525.676	12466.28
526.043	12495.89
526.409	12461.76
526.776	12519.84
527.142	12573.85
527.508	12546.28
527.874	12596.45
528.241	12584.7
528.607	12629.67
528.973	12589.89
529.339	12508.32
529.705	12602.55
530.071	12600.29
530.437	12596
530.803	12511.93
531.169	12516.9
531.535	12470.8
531.901	12443.23
532.267	12360.3
532.632	12481.2
532.998	12428.77
533.364	12445.72
533.73	12372.05
534.095	12381.54
534.461	12331.82
534.826	12357.36
535.192	12333.4
535.557	12344.03
535.923	12284.14
536.288	12237.36
536.653	12247.98
537.019	12037.37
537.384	12165.95
537.749	12076.01
538.114	12033.98
538.479	11997.37
538.845	11999.85
539.21	11906.75
539.575	11873.53
539.94	11894.77
540.305	11847.09
540.67	11786.75
541.034	11824.27
541.399	11698.62
541.764	11680.31
542.129	11641.45
542.494	11574.78
542.858	11586.76
543.223	11517.61
543.587	11523.71
543.952	11454.11
544.316	11412.3
544.681	11353.54
545.045	11373.66
545.41	11347.44
545.774	11271.29
546.138	11181.34
546.503	11167.56
546.867	11069.26
547.231	11092.76
547.595	11022.03
547.959	10964.85
548.324	10862.48
548.688	10924.85
549.052	10854.8
549.416	10815.25
549.779	10820.22
550.143	10751.07
550.507	10735.03
550.871	10693
551.235	10582.72
551.599	10584.07
551.962	10582.94
552.326	10532.55
552.689	10559.89
553.053	10390.63
553.417	10361.93
553.78	10497.75
554.143	10359.67
554.507	10326.45
554.87	10344.98
555.234	10436.73
555.597	10214.82
555.96	10240.13
556.323	10178.88
556.686	10206.68
557.05	10166.23
557.413	10146.34
557.776	10106.57
558.139	10081.71
558.502	10055.05
558.865	10083.52
559.228	10053.24
559.59	9992.9
559.953	10051.88
560.316	10151.99
560.679	9977.31
561.041	10107.47
561.404	10021.15
561.767	10073.58
562.129	9999
562.492	9971.88
562.854	9944.54
563.217	9892.79
563.579	9900.7
563.941	9963.07
564.304	9983.64
564.666	9923.75
565.028	9909.97
565.39	9928.72
565.753	9889.18
566.115	9860.93
566.477	9905.22
566.839	9919.68
567.201	9922.85
567.563	9862.51
567.925	9968.04
568.287	9947.48
568.648	9913.13
569.01	9962.62
569.372	10002.62
569.734	9951.77
570.095	9920.59
570.457	9965.33
570.819	9860.25
571.18	9879.01
571.542	9922.17
571.903	9887.59
572.265	9972.56
572.626	9946.35
572.987	9881.94
573.349	9910.42
573.71	10029.74
574.071	9973.69
574.432	10014.14
574.794	10030.19
575.155	9976.63
575.516	9938.89
575.877	9988.38
576.238	9975.95
576.599	9978.44
576.96	9985.67
577.32	9964.88
577.681	9943.86
578.042	9983.86
578.403	9959.23
578.763	9999
579.124	9965.78
579.485	9975.05
579.845	9932.56
580.206	9897.08
580.566	9942.05
580.927	9946.57
581.287	9947.93
581.648	9881.94
582.008	9870.42
582.368	9862.51
582.728	9939.12
583.089	9888.72
583.449	9865.22
583.809	9842.17
584.169	9898.21
584.529	9761.72
584.889	9891.21
585.249	9775.28
585.609	9816.41
585.969	9877.2
586.329	9770.76
586.688	9778.67
587.048	9769.63
587.408	9760.14
587.768	9728.95
588.127	9779.12
588.487	9695.96
588.846	9734.83
589.206	9715.62
589.565	9693.25
589.925	9745.9
590.284	9746.58
590.643	9693.47
591.003	9676.75
591.362	9748.84
591.721	9656.41
592.08	9754.26
592.44	9663.42
592.799	9668.62
593.158	9667.03
593.517	9685.11
593.876	9670.65
594.235	9624.55
594.593	9646.92
594.952	9611.44
595.311	9623.42
595.67	9667.94
596.029	9677.88
596.387	9639.46
596.746	9635.4
597.104	9564.66
597.463	9558.56
597.822	9606.7
598.18	9524.89
598.538	9504.55
598.897	9573.93
599.255	9452.35
599.613	9566.25
599.972	9524.44
600.33	9513.37
600.688	9549.97
601.046	9574.83
601.404	9570.77
601.762	9586.36
602.12	9572.57
602.478	9542.07
602.836	9522.86
603.194	9497.77
603.552	9565.57
603.91	9447.83
604.268	9489.64
604.625	9483.99
604.983	9539.35
605.341	9475.85
605.698	9550.65
606.056	9511.11
606.413	9481.95
606.771	9490.99
607.128	9496.42
607.485	9453.93
607.843	9493.71
608.2	9516.53
608.557	9514.72
608.914	9542.52
609.272	9595.62
609.629	9518.56
609.986	9565.34
610.343	9572.35
610.7	9621.61
611.057	9598.11
611.414	9578.45
611.771	9584.32
612.127	9545.91
612.484	9583.19
612.841	9580.93
613.198	9615.28
613.554	9589.07
613.911	9661.38
614.267	9640.14
614.624	9627.26
614.98	9603.53
615.337	9667.49
615.693	9678.33
616.05	9674.94
616.406	9615.28
616.762	9663.87
617.118	9644.89
617.475	9720.59
617.831	9650.54
618.187	9749.97
618.543	9684.21
618.899	9745
619.255	9731.89
619.611	9742.74
619.967	9688.95
620.323	9736.41
620.678	9754.94
621.034	9762.62
621.39	9655.28
621.746	9658.45
622.101	9766.92
622.457	9693.47
622.812	9695.06
623.168	9765.34
623.523	9701.84
623.879	9715.85
624.234	9681.72
624.589	9688.73
624.945	9730.99
625.3	9654.38
625.655	9687.15
626.01	9665.9
626.365	9650.09
626.72	9676.53
627.075	9702.74
627.43	9670.42
627.785	9661.16
628.14	9675.17
628.495	9718.11
628.85	9723.08
629.205	9697.09
629.559	9697.09
629.914	9637.88
630.269	9710.65
630.623	9648.5
630.978	9603.98
631.332	9620.71
631.687	9662.97
632.041	9625
632.396	9628.16
632.75	9553.82
633.104	9565.57
633.459	9546.59
633.813	9553.59
634.167	9522.18
634.521	9445.34
634.875	9540.71
635.229	9508.39
635.583	9405.35
635.937	9440.15
636.291	9463.42
636.645	9489.86
636.999	9470.65
637.352	9453.93
637.706	9363.99
638.06	9403.54
638.413	9411
638.767	9376.42
639.121	9393.59
639.474	9316.31
639.828	9369.41
640.181	9334.16
640.534	9400.6
640.888	9338.23
641.241	9300.26
641.594	9336.87
641.947	9301.85
642.301	9306.37
642.654	9398.34
643.007	9312.92
643.36	9340.04
643.713	9240.15
644.066	9265.46
644.419	9207.39
644.771	9260.04
645.124	9121.96
645.477	9060.72
645.83	8993.38
646.182	9030.67
646.535	8938.24
646.888	8942.08
647.24	8963.1
647.593	9011.01
647.945	8945.92
648.298	8903.89
648.65	8905.02
649.002	8939.37
649.355	8925.36
649.707	8870.9
650.059	9022.31
650.411	9046.03
650.763	9123.09
651.115	9159.7
651.467	9118.35
651.819	9156.31
652.171	9151.12
652.523	9148.63
652.875	9096.43
653.227	9114.96
653.578	9172.58
653.93	9163.54
654.282	9093.04
654.633	9134.84
654.985	9165.58
655.337	9167.61
655.688	9161.06
656.039	9194.28
656.391	9126.71
656.742	9161.06
657.094	9154.73
657.445	9187.27
657.796	9245.58
658.147	9215.52
658.498	9132.81
658.849	9145.01
659.2	9179.82
659.551	9168.74
659.902	9181.62
660.253	9166.71
660.604	9183.2
660.955	9100.27
661.306	9232.7
661.656	9160.15
662.007	9227.05
662.358	9222.98
662.708	9212.58
663.059	9190.21
663.409	9094.39
663.76	9260.94
664.11	9175.97
664.461	9321.73
664.811	9309.3
665.161	9311.79
665.511	9201.51
665.862	9297.1
666.212	9278.12
666.562	9306.14
666.912	9281.06
667.262	9217.55
667.612	9270.21
667.962	9264.33
668.312	9256.2
668.662	9226.82
669.011	9261.17
669.361	9268.4
669.711	9226.14
670.06	9208.06
670.41	9190.66
670.76	9203.54
671.109	9208.51
671.459	9166.71
671.808	9199.02
672.157	9210.1
672.507	9145.01
672.856	9217.55
673.205	9239.47
673.554	9136.88
673.904	9194.5
674.253	9189.08
674.602	9135.75
674.951	9055.07
675.3	9020.95
675.649	9121.51
675.998	9130.78
676.346	9128.29
676.695	9101.63
677.044	9064.11
677.393	9077.9
677.741	9094.17
678.09	9044.23
678.438	9065.47
678.787	9066.37
679.135	9030.21
679.484	8956.09
679.832	8968.97
680.181	8991.8
680.529	8972.36
680.877	8957.9
681.225	8906.38
681.573	8944.79
681.922	8918.35
682.27	8850.11
682.618	8891.24
682.966	8867.05
683.314	8846.94
683.661	8837.9
684.009	8789.99
684.357	8755.87
684.705	8776.44
685.053	8728.08
685.4	8751.13
685.748	8735.53
686.095	8657.12
686.443	8667.06
686.79	8603.11
687.138	8670.45
687.485	8598.36
687.832	8565.59
688.18	8574.63
688.527	8577.57
688.874	8463.9
689.221	8548.42
689.568	8431.59
689.915	8452.38
690.262	8441.08
690.609	8364.7
690.956	8356.79
691.303	8419.61
691.65	8331.25
691.997	8289.22
692.344	8222.55
692.69	8265.49
693.037	8224.13
693.383	8178.49
693.73	8164.25
694.077	8134.42
694.423	8162.89
694.769	8047.42
695.116	8086.96
695.462	8022.33
695.808	7997.93
696.155	8011.48
696.501	7859.62
696.847	7876.35
697.193	7879.51
697.539	7938.94
697.885	7856.23
698.231	7770.59
698.577	7810.13
698.923	7759.97
699.269	7698.72
699.614	7657.37
699.96	7650.82
700.306	7590.03
700.651	7577.6
700.997	7609.01
701.342	7535.11
701.688	7552.51
702.033	7511.38
702.379	7456.7
702.724	7475.45
703.069	7475
703.415	7351.39
703.76	7403.59
704.105	7333.99
704.45	7338.96
704.795	7255.8
705.14	7226.65
705.485	7179.19
705.83	7225.06
706.175	7196.14
706.52	7108.91
706.865	7145.52
707.209	7108.46
707.554	7136.71
707.899	7118.63
708.243	7021
708.588	7077.5
708.932	6999.31
709.277	6985.75
709.621	6992.75
709.966	7008.8
710.31	6974
710.654	6844.74
710.998	6922.7
711.342	6862.14
711.687	6863.94
712.031	6833.44
712.375	6848.13
712.719	6845.19
713.063	6838.41
713.407	6806.54
713.75	6711.86
714.094	6766.55
714.438	6712.08
714.782	6782.59
715.125	6746.21
715.469	6659.43
715.812	6694.68
716.156	6639.32
716.499	6698.98
716.843	6695.81
717.186	6632.31
717.53	6620.79
717.873	6671.41
718.216	6612.43
718.559	6582.6
718.902	6540.11
719.246	6550.51
719.589	6574.91
719.932	6509.15
720.275	6593.89
720.617	6571.07
720.96	6567
721.303	6533.11
721.646	6555.25
721.989	6499.66
722.331	6532.88
722.674	6522.26
723.016	6537.85
723.359	6503.5
723.701	6498.98
724.044	6462.37
724.386	6429.83
724.729	6447.46
725.071	6474.35
725.413	6470.73
725.755	6452.2
726.097	6449.27
726.439	6439.32
726.782	6357.29
727.124	6399.78
727.465	6426.67
727.807	6406.1
728.149	6387.8
728.491	6362.26
728.833	6409.94
729.175	6365.88
729.516	6396.16
729.858	6353.45
730.199	6396.16
730.541	6399.55
730.882	6381.7
731.224	6398.19
731.565	6378.53
731.906	6335.14
732.248	6352.32
732.589	6397.74
732.93	6375.14
733.271	6372.43
733.612	6364.3
733.953	6442.94
734.294	6329.72
734.635	6426.22
734.976	6397.97
735.317	6385.31
735.658	6428.48
735.999	6431.19
736.339	6404.52
736.68	6448.36
737.021	6412.88
737.361	6456.72
737.702	6468.47
738.042	6488.59
738.383	6470.06
738.723	6468.7
739.063	6448.36
739.404	6444.52
739.744	6471.41
740.084	6487.23
740.424	6536.49
740.764	6536.04
741.104	6552.54
741.444	6564.29
741.784	6508.47
742.124	6583.73
742.464	6610.17
742.804	6646.55
743.143	6656.04
743.483	6674.8
743.823	6605.19
744.162	6644.74
744.502	6712.76
744.841	6717.73
745.181	6743.04
745.52	6814.45
745.86	6824.4
746.199	6864.17
746.538	6879.31
746.877	6974.45
747.216	7023.94
747.556	7039.31
747.895	7133.99
748.234	7116.14
748.573	7148
748.911	7219.87
749.25	7331.28
749.589	7344.84
749.928	7426.41
750.267	7478.39
750.605	7587.54
750.944	7576.69
751.283	7760.87
751.621	7735.79
751.96	7865.05
752.298	7989.34
752.636	8023.46
752.975	8195.43
753.313	8298.93
753.651	8344.13
753.989	8435.2
754.327	8517.69
754.666	8634.07
755.004	8821.41
755.342	8879.71
755.679	9010.78
756.017	9158.35
756.355	9294.16
756.693	9362.86
757.031	9471.56
757.368	9665.23
757.706	9790.65
758.044	9948.16
758.381	10144.08
758.719	10231.09
759.056	10386.56
759.394	10599.44
759.731	10664.75
760.068	10908.36
760.405	11018.86
760.743	11146.77
761.08	11381.11
761.417	11535.69
761.754	11698.62
762.091	11928.44
762.428	11979.97
762.765	12076.46
763.102	12445.94
763.438	12524.59
763.775	12598.93
764.112	12897.23
764.449	13058.13
764.785	13215.42
765.122	13301.06
765.458	13435.75
765.795	13647.72
766.131	13838.45
