Data from hue_110_FLMS001491_00069.txt Node
Date: Tue Feb 07 17:01:40 GMT 2017
User: dcchb
Spectrometer: FLMS00149
Trigger mode: 0
Integration Time (sec): 2.000000E-2
Scans to average: 10
Electric dark correction enabled: true
Nonlinearity correction enabled: false
Boxcar width: 0
XAxis mode: Wavelengths
Number of Pixels in Spectrum: 2048
>>>>>Begin Spectral Data<<<<<
341.393	-19.08
341.776	-19.08
342.16	-19.08
342.543	-65.63
342.927	-62.02
343.31	-64.5
343.693	-65.86
344.077	-61.57
344.46	-59.53
344.843	-56.37
345.226	-29.7
345.61	-50.94
345.993	-22.7
346.376	-8.46
346.759	23.86
347.142	38.54
347.525	48.26
347.908	44.65
348.291	56.85
348.674	90.07
349.057	117.41
349.44	116.28
349.823	148.6
350.206	176.85
350.588	201.93
350.971	194.47
351.354	230.18
351.737	237.18
352.119	249.39
352.502	269.95
352.884	268.59
353.267	307.01
353.65	299.1
354.032	303.85
354.414	308.14
354.797	299.78
355.179	297.29
355.562	316.73
355.944	321.7
356.326	339.1
356.709	318.99
357.091	331.64
357.473	340.01
357.855	329.84
358.238	334.81
358.62	360.57
359.002	351.53
359.384	328.93
359.766	327.35
360.148	341.36
360.53	327.58
360.912	332.77
361.294	337.07
361.676	340.23
362.057	351.98
362.439	333.68
362.821	349.27
363.203	329.38
363.584	347.46
363.966	335.03
364.348	309.05
364.729	334.81
365.111	305.66
365.493	329.16
365.874	321.47
366.256	312.89
366.637	314.24
367.019	301.81
367.4	287.13
367.781	325.99
368.163	298.65
368.544	289.16
368.925	325.09
369.306	338.2
369.688	325.77
370.069	299.78
370.45	309.5
370.831	323.06
371.212	313.34
371.593	313.34
371.974	319.44
372.355	320.8
372.736	314.24
373.117	333.68
373.498	334.13
373.879	314.47
374.26	312.21
374.641	311.98
375.021	304.75
375.402	313.11
375.783	333.68
376.163	336.84
376.544	316.95
376.925	343.39
377.305	323.73
377.686	339.78
378.066	333.23
378.447	353.11
378.827	328.93
379.208	310.63
379.588	348.14
379.968	331.19
380.349	327.35
380.729	331.64
381.109	337.29
381.489	356.05
381.87	339.78
382.25	342.94
382.63	337.52
383.01	337.29
383.39	330.74
383.77	363.06
384.15	333.68
384.53	337.75
384.91	365.54
385.29	354.69
385.67	373.9
386.049	374.13
386.429	338.88
386.809	354.02
387.189	363.06
387.568	357.63
387.948	350.4
388.328	359.89
388.707	365.77
389.087	331.19
389.466	379.1
389.846	354.69
390.225	355.82
390.605	378.2
390.984	363.06
391.363	360.12
391.743	395.14
392.122	377.74
392.501	384.3
392.881	377.74
393.26	379.55
393.639	379.1
394.018	382.94
394.397	406.44
394.776	375.71
395.155	380.23
395.534	380
395.913	399.44
396.292	382.04
396.671	378.87
397.05	391.98
397.429	399.89
397.808	405.31
398.186	378.2
398.565	399.89
398.944	407.35
399.323	389.04
399.701	381.81
400.08	398.99
400.458	408.93
400.837	410.74
401.215	415.71
401.594	415.03
401.972	407.57
402.351	411.19
402.729	394.92
403.107	429.72
403.486	421.36
403.864	424.3
404.242	431.98
404.62	415.48
404.999	441.47
405.377	439.21
405.755	432.43
406.133	433.79
406.511	437.4
406.889	433.11
407.267	441.02
407.645	451.64
408.023	437.63
408.401	449.61
408.779	469.27
409.156	457.97
409.534	461.13
409.912	466.33
410.29	472.43
410.667	472.43
411.045	471.3
411.422	470.17
411.8	488.48
412.178	478.76
412.555	519.44
412.933	476.95
413.31	485.99
413.687	487.35
414.065	489.38
414.442	501.81
414.819	510.4
415.197	552.65
415.574	522.6
415.951	506.1
416.328	504.07
416.705	530.73
417.082	511.3
417.46	535.25
417.837	532.32
418.214	526.89
418.591	557.85
418.967	537.97
419.344	548.81
419.721	562.82
420.098	556.72
420.475	556.72
420.852	569.6
421.228	566.21
421.605	559.21
421.982	542.49
422.358	562.15
422.735	573.67
423.111	585.42
423.488	575.03
423.864	590.39
424.241	551.3
424.617	587.46
424.994	601.24
425.37	604.63
425.746	598.53
426.123	615.93
426.499	620.45
426.875	606.21
427.251	607.79
427.627	611.41
428.003	644.18
428.379	645.76
428.756	653.9
429.132	645.99
429.507	642.37
429.883	681.47
430.259	650.51
430.635	669.94
431.011	678.53
431.387	666.78
431.763	697.74
432.138	715.14
432.514	704.52
432.89	702.26
433.265	726.44
433.641	709.26
434.016	747
434.392	723.95
434.767	729.15
435.143	745.42
435.518	732.76
435.894	745.87
436.269	767.11
436.644	777.06
437.02	770.73
437.395	766.66
437.77	786.32
438.145	795.59
438.52	801.91
438.895	795.13
439.271	817.51
439.646	847.11
440.021	818.86
440.395	834.46
440.77	827
441.145	856.6
441.52	848.92
441.895	860.9
442.27	851.63
442.645	874.45
443.019	864.29
443.394	875.81
443.769	859.09
444.143	876.04
444.518	880.1
444.892	887.34
445.267	880.1
445.641	917.62
446.016	907
446.39	913.1
446.764	918.97
447.139	920.1
447.513	921.46
447.887	940.67
448.262	935.92
448.636	960.78
449.01	966.2
449.384	973.89
449.758	957.39
450.132	983.6
450.506	998.07
450.88	998.29
451.254	991.97
451.628	1031.29
452.002	1020.67
452.376	1050.04
452.75	1041.23
453.123	1021.34
453.497	1044.17
453.871	1090.72
454.244	1078.74
454.618	1090.27
454.992	1104.73
455.365	1122.81
455.739	1142.92
456.112	1147.67
456.486	1129.59
456.859	1117.84
457.232	1161
457.606	1176.59
457.979	1197.61
458.352	1240.55
458.725	1245.52
459.099	1226.99
459.472	1259.08
459.845	1273.09
460.218	1298.85
460.591	1310.15
460.964	1312.18
461.337	1335.46
461.71	1351.96
462.083	1363.48
462.456	1419.3
462.829	1381.79
463.201	1450.48
463.574	1427.21
463.947	1463.82
464.32	1493.87
464.692	1502.91
465.065	1514.89
465.438	1532.52
465.81	1584.27
466.183	1588.11
466.555	1604.15
466.928	1650.48
467.3	1652.51
467.672	1635.34
468.045	1690.93
468.417	1703.59
468.789	1739.74
469.161	1784.71
469.534	1817.48
469.906	1842.11
470.278	1881.43
470.65	1901.77
471.022	1943.13
471.394	1984.93
471.766	1998.94
472.138	2040.07
472.51	2114.87
472.882	2118.72
473.253	2151.48
473.625	2239.39
473.997	2304.7
474.369	2304.25
474.74	2401.65
475.112	2435.09
475.484	2473.06
475.855	2570
476.227	2569.33
476.598	2672.6
476.97	2702.43
477.341	2788.53
477.713	2859.71
478.084	2893.38
478.455	3021.52
478.827	3082.76
479.198	3179.03
479.569	3203.21
479.94	3335.63
480.311	3408.17
480.682	3477.78
481.053	3639.81
481.424	3692.46
481.795	3728.62
482.166	3852.91
482.537	3966.12
482.908	4112.56
483.279	4162.05
483.65	4311.65
484.021	4436.39
484.391	4528.82
484.762	4650.17
485.133	4713.68
485.503	4842.49
485.874	4976.27
486.244	5081.8
486.615	5235.02
486.985	5371.96
487.356	5506.42
487.726	5609.02
488.097	5787.32
488.467	5886.53
488.837	6067.99
489.207	6163.58
489.578	6400.86
489.948	6465.49
490.318	6572.84
490.688	6685.83
491.058	6856.67
491.428	7041.75
491.798	7223.21
492.168	7378.69
492.538	7477.67
492.908	7625.69
493.278	7807.15
493.648	7886.47
494.017	8083.3
494.387	8183.19
494.757	8338.66
495.126	8532.56
495.496	8578.21
495.866	8715.15
496.235	8804.42
496.605	8952.21
496.974	9107.91
497.344	9225.42
497.713	9384.29
498.082	9454.12
498.452	9675.13
498.821	9703.6
499.19	9860.43
499.559	10024.95
499.928	10082.12
500.298	10217.26
500.667	10330.02
501.036	10356.24
501.405	10545.39
501.774	10510.81
502.143	10693.86
502.512	10774.99
502.88	10952.83
503.249	10952.16
503.618	11076.9
503.987	11133.85
504.356	11332.48
504.724	11407.06
505.093	11480.05
505.462	11559.82
505.83	11557.79
506.199	11698.35
506.567	11970.43
506.936	11912.81
507.304	12119.58
507.672	12078.45
508.041	12210.65
508.409	12222.4
508.777	12407.48
509.145	12437.09
509.514	12446.81
509.882	12556.18
510.25	12588.72
510.618	12683.64
510.986	12764.99
511.354	12952.78
511.722	12978.77
512.09	13134.92
512.458	13103.74
512.826	13152.1
513.193	13170.4
513.561	13260.8
513.929	13343.73
514.297	13433.45
514.664	13509.15
515.032	13567.91
515.4	13587.57
515.767	13612.42
516.135	13749.82
516.502	13585.08
516.869	13765.19
517.237	13828.92
517.604	13751.4
517.972	13993.43
518.339	13934.45
518.706	13977.61
519.073	14067.55
519.44	14047.44
519.808	14204.5
520.175	14208.34
520.542	14356.36
520.909	14348
521.276	14305.51
521.643	14478.16
522.009	14523.14
522.376	14512.74
522.743	14627.77
523.11	14647.88
523.477	14673.19
523.843	14792.28
524.21	14933.29
524.577	14836.12
524.943	14926.29
525.31	14944.82
525.676	15060.07
526.043	15074.53
526.409	15115.44
526.776	15200.41
527.142	15172.16
527.508	15271.14
527.874	15316.79
528.241	15291.7
528.607	15348.2
528.973	15407.41
529.339	15286.5
529.705	15352.27
530.071	15512.26
530.437	15570.57
530.803	15548.19
531.169	15489.44
531.535	15484.92
531.901	15458.7
532.267	15496.89
532.632	15486.05
532.998	15513.62
533.364	15618.02
533.73	15569.21
534.095	15664.35
534.461	15574.63
534.826	15658.7
535.192	15512.04
535.557	15621.19
535.923	15538.48
536.288	15501.87
536.653	15527.63
537.019	15451.25
537.384	15468.42
537.749	15523.79
538.114	15525.14
538.479	15480.17
538.845	15411.93
539.21	15368.08
539.575	15423.22
539.94	15333.96
540.305	15446.27
540.67	15348.65
541.034	15352.72
541.399	15295.54
541.764	15296.9
542.129	15331.93
542.494	15253.06
542.858	15293.28
543.223	15232.72
543.587	15310.46
543.952	15196.11
544.316	15198.15
544.681	15014.42
545.045	15157.24
545.41	15147.3
545.774	15154.76
546.138	15006.06
546.503	15002.22
546.867	14961.77
547.231	15042.67
547.595	14996.34
547.959	14958.6
548.324	14929.9
548.688	14871.6
549.052	14862.34
549.416	14818.04
549.779	14789.12
550.143	14848.55
550.507	14776.69
550.871	14801.55
551.235	14675.22
551.599	14784.82
551.962	14682.68
552.326	14765.61
552.689	14786.63
553.053	14581.44
553.417	14657.14
553.78	14811.72
554.143	14653.98
554.507	14694.88
554.87	14597.71
555.234	14699.4
555.597	14577.82
555.96	14571.5
556.323	14602.46
556.686	14512.74
557.05	14552.51
557.413	14548.22
557.776	14530.59
558.139	14576.24
558.502	14515.68
558.865	14556.81
559.228	14599.29
559.59	14573.76
559.953	14603.13
560.316	14664.15
560.679	14617.6
561.041	14661.44
561.404	14599.07
561.767	14669.8
562.129	14603.36
562.492	14651.72
562.854	14677.93
563.217	14597.03
563.579	14616.24
563.941	14613.08
564.304	14708.21
564.666	14748.67
565.028	14741.89
565.39	14764.48
565.753	14806.74
566.115	14815.78
566.477	14824.14
566.839	14787.53
567.201	14807.42
567.563	14816.23
567.925	14876.35
568.287	14966.29
568.648	14965.16
569.01	14916.8
569.372	15014.87
569.734	14933.75
570.095	15003.8
570.457	15086.96
570.819	14964.25
571.18	15019.85
571.542	15120.41
571.903	14989.79
572.265	15079.5
572.626	15070.01
572.987	14988.21
573.349	15128.09
573.71	15172.38
574.071	15151.59
574.432	15226.39
574.794	15307.07
575.155	15167.41
575.516	15202.67
575.877	15239.73
576.238	15208.99
576.599	15292.61
576.96	15196.79
577.32	15220.29
577.681	15322.44
578.042	15293.96
578.403	15251.48
578.763	15285.37
579.124	15421.87
579.485	15346.16
579.845	15350.91
580.206	15312.72
580.566	15269.1
580.927	15270.46
581.287	15372.15
581.648	15241.53
582.008	15364.47
582.368	15257.81
582.728	15286.05
583.089	15162.67
583.449	15262.32
583.809	15125.15
584.169	15284.7
584.529	15263.45
584.889	15258.93
585.249	15201.54
585.609	15138.71
585.969	15265.71
586.329	15152.27
586.688	15260.29
587.048	15204.7
587.408	15204.93
587.768	15084.48
588.127	15138.94
588.487	15116.34
588.846	15263.91
589.206	15058.94
589.565	15086.28
589.925	15101.2
590.284	15109.79
590.643	15063.01
591.003	15158.37
591.362	15175.32
591.721	15032.95
592.08	15070.92
592.44	15089.67
592.799	15033.86
593.158	15070.92
593.517	14991.82
593.876	15126.06
594.235	15016.68
594.593	15009
594.952	14957.93
595.311	14914.76
595.67	15067.75
596.029	15012.84
596.387	15080.41
596.746	15143.23
597.104	15026.62
597.463	14998.83
597.822	14929
598.18	14913.86
598.538	14938.72
598.897	14932.84
599.255	14847.65
599.613	15119.96
599.972	14937.81
600.33	14988.43
600.688	14882.9
601.046	15000.86
601.404	15049
601.762	14992.28
602.12	15059.17
602.478	15007.19
602.836	15024.82
603.194	14868.66
603.552	15016.23
603.91	14899.4
604.268	14956.8
604.625	15031.14
604.983	15015.1
605.341	15019.17
605.698	14999.96
606.056	15110.92
606.413	14988.21
606.771	15034.53
607.128	15027.3
607.485	14974.65
607.843	15076.34
608.2	15029.56
608.557	15137.58
608.914	14959.96
609.272	15032.95
609.629	15101.65
609.986	15021.65
610.343	15016.46
610.7	15080.41
611.057	15115.44
611.414	15105.72
611.771	15115.89
612.127	15151.37
612.484	15086.28
612.841	15127.41
613.198	15191.59
613.554	15106.62
613.911	15203.8
614.267	15185.49
614.624	15170.12
614.98	15309.56
615.337	15327.63
615.693	15326.96
616.05	15261.19
616.406	15336.9
616.762	15312.94
617.118	15301.19
617.475	15415.54
617.831	15380.74
618.187	15388.42
618.543	15470.91
618.899	15439.04
619.255	15484.69
619.611	15449.89
619.967	15451.25
620.323	15508.42
620.678	15444.01
621.034	15370.12
621.39	15422.09
621.746	15417.57
622.101	15480.17
622.457	15354.07
622.812	15460.51
623.168	15420.96
623.523	15439.72
623.879	15522.88
624.234	15291.25
624.589	15406.28
624.945	15414.19
625.3	15493.96
625.655	15424.81
626.01	15415.32
626.365	15478.82
626.72	15399.04
627.075	15480.4
627.43	15479.27
627.785	15402.66
628.14	15399.72
628.495	15519.72
628.85	15369.89
629.205	15403.11
629.559	15494.18
629.914	15337.8
630.269	15376.67
630.623	15316.33
630.978	15404.92
631.332	15379.84
631.687	15440.17
632.041	15311.36
632.396	15321.31
632.75	15247.41
633.104	15250.57
633.459	15173.06
633.813	15124.93
634.167	15185.49
634.521	15166.28
634.875	15174.42
635.229	15113.85
635.583	15067.75
635.937	15059.39
636.291	15124.48
636.645	15080.18
636.999	15004.25
637.352	14992.95
637.706	14893.29
638.06	14994.31
638.413	15022.33
638.767	14973.52
639.121	14920.86
639.474	14865.72
639.828	14886.52
640.181	14932.39
640.534	14912.5
640.888	14889
641.241	14742.79
641.594	14837.7
641.947	14895.55
642.301	14791.15
642.654	14797.25
643.007	14827.53
643.36	14774.88
643.713	14724.03
644.066	14853.75
644.419	14713.19
644.771	14634.77
645.124	14522.68
645.477	14540.08
645.83	14411.95
646.182	14387.55
646.535	14276.59
646.888	14325.85
647.24	14248.57
647.593	14355.23
647.945	14263.48
648.298	14168.12
648.65	14228.68
649.002	14247.21
649.355	14340.32
649.707	14314.1
650.059	14315.68
650.411	14561.33
650.763	14510.71
651.115	14669.57
651.467	14580.99
651.819	14584.15
652.171	14597.48
652.523	14535.56
652.875	14461.44
653.227	14472.97
653.578	14630.7
653.93	14544.83
654.282	14463.48
654.633	14409.47
654.985	14517.49
655.337	14544.38
655.688	14672.28
656.039	14608.1
656.391	14553.87
656.742	14512.74
657.094	14512.29
657.445	14636.13
657.796	14604.26
658.147	14625.73
658.498	14532.63
658.849	14636.58
659.2	14623.7
659.551	14578.5
659.902	14675.67
660.253	14554.55
660.604	14629.12
660.955	14571.72
661.306	14598.39
661.656	14675.67
662.007	14615.79
662.358	14611.04
662.708	14637.71
663.059	14713.86
663.409	14541.44
663.76	14636.8
664.11	14629.35
664.461	14693.07
664.811	14585.96
665.161	14535.79
665.511	14657.14
665.862	14623.47
666.212	14596.81
666.562	14634.54
666.912	14659.4
667.262	14566.75
667.612	14603.36
667.962	14700.76
668.312	14556.58
668.662	14712.96
669.011	14627.09
669.361	14659.63
669.711	14578.5
670.06	14608.1
670.41	14555.68
670.76	14567.43
671.109	14610.36
671.459	14579.18
671.808	14506.41
672.157	14618.27
672.507	14488.56
672.856	14498.73
673.205	14491.72
673.554	14527.65
673.904	14614.43
674.253	14537.15
674.602	14514.77
674.951	14315.91
675.3	14253.31
675.649	14451.05
675.998	14394.1
676.346	14421.22
676.695	14406.08
677.044	14386.19
677.393	14366.98
677.741	14436.36
678.09	14303.93
678.438	14265.29
678.787	14307.1
679.135	14297.15
679.484	14151.62
679.832	14312.29
680.181	14112.07
680.529	14151.62
680.877	14154.33
681.225	14124.28
681.573	14151.62
681.922	14090.83
682.27	14061.9
682.618	14057.38
682.966	13951.4
683.314	14031.4
683.661	13994.34
684.009	13846.32
684.357	13950.72
684.705	13839.09
685.053	13972.64
685.4	13813.55
685.748	13746.66
686.095	13884.06
686.443	13813.55
686.79	13709.6
687.138	13785.75
687.485	13792.08
687.832	13623.5
688.18	13688.35
688.527	13480.68
688.874	13527
689.221	13495.37
689.568	13408.81
689.915	13459.66
690.262	13442.26
690.609	13393.45
690.956	13343.73
691.303	13360
691.65	13293.11
691.997	13252.89
692.344	13108.26
692.69	13121.82
693.037	13128.6
693.383	13049.05
693.73	13028.03
694.077	12893.35
694.423	12924.99
694.769	12889.96
695.116	12849.73
695.462	12846.57
695.808	12688.83
696.155	12693.58
696.501	12621.49
696.847	12619.91
697.193	12547.14
697.539	12587.37
697.885	12443.42
698.231	12472.12
698.577	12368.84
698.923	12335.62
699.269	12320.71
699.614	12195.06
699.96	12216.3
700.306	12205
700.651	12155.74
700.997	12140.82
701.342	12029.87
701.688	12054.73
702.033	12014.95
702.379	11965.24
702.724	11886.59
703.069	12013.14
703.415	11762.08
703.76	11753.72
704.105	11853.37
704.45	11716.66
704.795	11622.42
705.14	11608.64
705.485	11543.55
705.83	11562.31
706.175	11570.22
706.52	11419.26
706.865	11441.18
707.209	11389.43
707.554	11357.57
707.899	11380.62
708.243	11305.59
708.588	11213.39
708.932	11184.69
709.277	11181.53
709.621	11170.68
709.966	11047.52
710.31	11090.46
710.654	10996.9
710.998	11085.71
711.342	11073.28
711.687	10931.59
712.031	10911.7
712.375	10954.64
712.719	10922.55
713.063	10941.31
713.407	10889.78
713.75	10839.62
714.094	10826.96
714.438	10838.71
714.782	10864.47
715.125	10777.47
715.469	10784.02
715.812	10709.22
716.156	10714.42
716.499	10671.71
716.843	10712.39
717.186	10699.73
717.53	10658.15
717.873	10661.32
718.216	10662.22
718.559	10551.04
718.902	10559.85
719.246	10562.79
719.589	10513.3
719.932	10554.65
720.275	10510.59
720.617	10417.25
720.96	10473.75
721.303	10449.8
721.646	10406.63
721.989	10341.55
722.331	10530.47
722.674	10424.03
723.016	10400.31
723.359	10421.32
723.701	10424.03
724.044	10307.88
724.386	10309.46
724.729	10392.4
725.071	10351.95
725.413	10346.07
725.755	10326.18
726.097	10298.61
726.439	10145.17
726.782	10250.25
727.124	10318.27
727.465	10234.66
727.807	10214.32
728.149	10176.81
728.491	10192.85
728.833	10191.72
729.175	10174.55
729.516	10222.46
729.858	10178.16
730.199	10217.49
730.541	10144.49
730.882	10179.52
731.224	10231.27
731.565	10152.85
731.906	10198.95
732.248	10188.33
732.589	10117.15
732.93	10042.35
733.271	10143.82
733.612	10132.29
733.953	10157.37
734.294	10088.9
734.635	10099.07
734.976	10126.41
735.317	10123.02
735.658	10094.32
735.999	10158.73
736.339	10082.57
736.68	10182.01
737.021	10106.3
737.361	10107.88
737.702	10144.04
738.042	10140.65
738.383	10125.51
738.723	10194.89
739.063	10115.34
739.404	10193.31
739.744	10215.9
740.084	10249.35
740.424	10210.71
740.764	10246.86
741.104	10236.02
741.444	10232.85
741.784	10250.48
742.124	10264.04
742.464	10260.42
742.804	10250.48
743.143	10330.93
743.483	10364.37
743.823	10285.73
744.162	10411.15
744.502	10354.21
744.841	10439.63
745.181	10407.54
745.52	10397.59
745.86	10544.48
746.199	10569.11
746.538	10648.43
746.877	10654.76
747.216	10660.41
747.556	10759.84
747.895	10774.31
748.234	10831.25
748.573	10872.84
748.911	10980.63
749.25	11105.82
749.589	11050.68
749.928	11129.78
750.267	11298.36
750.605	11250
750.944	11320.96
751.283	11372.94
751.621	11489.32
751.96	11574.29
752.298	11646.6
752.636	11815.86
752.975	11848.4
753.313	11870.1
753.651	12047.04
753.989	12221.73
754.327	12335.17
754.666	12346.47
755.004	12496.3
755.342	12583.53
755.679	12709.85
756.017	12801.15
756.355	12952.78
