Data from hue_30_FLMS001491_34.txt Node
Date: Mon Feb 06 15:05:11 GMT 2017
User: dcchb
Spectrometer: FLMS00149
Trigger mode: 0
Integration Time (sec): 2.000000E-2
Scans to average: 10
Electric dark correction enabled: true
Nonlinearity correction enabled: false
Boxcar width: 0
XAxis mode: Wavelengths
Number of Pixels in Spectrum: 2048
>>>>>Begin Spectral Data<<<<<
341.393	9.36
341.776	9.36
342.16	9.36
342.543	-59.33
342.927	-70.86
343.31	-72.67
343.693	-66.34
344.077	-62.5
344.46	-52.78
344.843	-42.16
345.226	-56.62
345.61	-26.79
345.993	-8.94
346.376	-9.84
346.759	0.78
347.142	22.25
347.525	38.97
347.908	69.93
348.291	85.97
348.674	78.74
349.057	102.02
349.44	128.68
349.823	166.87
350.206	145.86
350.588	176.14
350.971	213.2
351.354	215.23
351.737	232.64
352.119	257.72
352.502	251.84
352.884	280.09
353.267	271.28
353.65	291.84
354.032	305.63
354.414	309.7
354.797	302.01
355.179	331.62
355.562	325.74
355.944	312.18
356.326	315.8
356.709	322.58
357.091	331.62
357.473	356.93
357.855	331.84
358.238	326.19
358.62	312.63
359.002	338.85
359.384	332.75
359.766	349.02
360.148	330.71
360.53	336.36
360.912	327.55
361.294	318.51
361.676	330.26
362.057	316.93
362.439	309.24
362.821	334.33
363.203	309.24
363.584	318.73
363.966	317.83
364.348	322.35
364.729	314.44
365.111	312.18
365.493	304.05
365.874	312.63
366.256	299.75
366.637	304.05
367.019	301.33
367.4	305.63
367.781	287.55
368.163	314.67
368.544	307.66
368.925	323.93
369.306	297.04
369.688	275.12
370.069	324.61
370.45	301.56
370.831	311.5
371.212	297.72
371.593	295.46
371.974	321.22
372.355	291.16
372.736	305.85
373.117	325.06
373.498	302.46
373.879	306.98
374.26	302.69
374.641	307.89
375.021	307.21
375.402	316.7
375.783	322.12
376.163	313.76
376.544	331.39
376.925	314.21
377.305	321.9
377.686	305.4
378.066	337.04
378.447	328.68
378.827	334.33
379.208	325.97
379.588	328.68
379.968	315.57
380.349	306.53
380.729	318.28
381.109	319.41
381.489	306.53
381.87	339.75
382.25	333.2
382.63	313.76
383.01	336.14
383.39	317.83
383.77	343.82
384.15	345.85
384.53	329.13
384.91	345.4
385.29	328.23
385.67	332.52
386.049	365.29
386.429	333.65
386.809	346.53
387.189	355.12
387.568	349.47
387.948	356.93
388.328	335.46
388.707	329.36
389.087	339.3
389.466	352.63
389.846	361.45
390.225	351.73
390.605	354.44
390.984	342.46
391.363	337.94
391.743	355.12
392.122	368.45
392.501	359.41
392.881	372.29
393.26	365.29
393.639	350.15
394.018	357.6
394.397	359.64
394.776	365.96
395.155	375
395.534	370.71
395.913	356.47
396.292	374.1
396.671	355.8
397.05	365.74
397.429	366.87
397.808	379.52
398.186	361.45
398.565	359.86
398.944	390.82
399.323	365.06
399.701	366.64
400.08	372.07
400.458	395.57
400.837	392.4
401.215	384.04
401.594	381.33
401.972	388.79
402.351	378.85
402.729	401.44
403.107	365.51
403.486	386.53
403.864	402.8
404.242	390.37
404.62	410.26
404.999	391.73
405.377	403.7
405.755	398.05
406.133	382.01
406.511	385.63
406.889	397.38
407.267	418.84
407.645	411.61
408.023	426.53
408.401	422.69
408.779	439.86
409.156	405.29
409.534	439.41
409.912	432.18
410.29	436.47
410.667	427.66
411.045	442.57
411.422	422.69
411.8	433.76
412.178	426.98
412.555	449.13
412.933	433.99
413.31	460.2
413.687	462.46
414.065	453.65
414.442	477.83
414.819	437.38
415.197	461.56
415.574	448.45
415.951	461.56
416.328	486.87
416.705	466.53
417.082	483.25
417.46	474.44
417.837	461.33
418.214	494.78
418.591	464.04
418.967	467.66
419.344	504.72
419.721	495.45
420.098	474.21
420.475	507.66
420.852	511.72
421.228	504.94
421.605	496.81
421.982	509.92
422.358	506.3
422.735	515.11
423.111	524.38
423.488	508.11
423.864	515.57
424.241	536.13
424.617	528.22
424.994	530.93
425.37	537.26
425.746	516.7
426.123	527.99
426.499	545.17
426.875	538.62
427.251	526.86
427.627	566.19
428.003	546.98
428.379	552.4
428.756	553.76
429.132	567.09
429.507	553.98
429.883	575.22
430.259	590.14
430.635	580.2
431.011	575
431.387	593.3
431.763	596.02
432.138	588.78
432.514	613.19
432.89	596.24
433.265	611.38
433.641	613.87
434.016	617.48
434.392	619.74
434.767	622.91
435.143	644.15
435.518	646.41
435.894	649.57
436.269	663.13
436.644	671.27
437.02	643.7
437.395	640.08
437.77	660.87
438.145	683.92
438.52	680.98
438.895	669.69
439.271	645.05
439.646	688.67
440.021	694.09
440.395	687.54
440.77	702.23
441.145	693.41
441.52	711.27
441.895	716.01
442.27	697.26
442.645	729.12
443.019	717.14
443.394	706.75
443.769	727.99
444.143	701.78
444.518	751.04
444.892	747.42
445.267	745.62
445.641	712.62
446.016	731.61
446.39	734.32
446.764	732.28
447.139	765.28
447.513	763.24
447.887	746.97
448.262	762.34
448.636	763.69
449.01	781.77
449.384	803.24
449.758	786.97
450.132	779.74
450.506	805.95
450.88	816.35
451.254	809.57
451.628	816.57
452.002	816.35
452.376	839.17
452.75	819.74
453.123	838.72
453.497	838.72
453.871	824.26
454.244	854.54
454.618	869
454.992	888.66
455.365	892.73
455.739	900.19
456.112	932.05
456.486	918.04
456.859	923.24
457.232	919.62
457.606	909.91
457.979	945.61
458.352	929.79
458.725	959.4
459.099	981.99
459.472	986.51
459.845	984.03
460.218	986.06
460.591	1021.54
460.964	1006.85
461.337	999.39
461.71	1009.56
462.083	1031.26
462.456	1060.18
462.829	1061.99
463.201	1077.58
463.574	1092.95
463.947	1104.93
464.32	1115.32
464.692	1104.93
465.065	1118.04
465.438	1130.46
465.81	1160.07
466.183	1168.88
466.555	1202.33
466.928	1193.74
467.3	1210.01
467.672	1206.39
468.045	1226.28
468.417	1231.48
468.789	1236.68
469.161	1291.82
469.534	1318.03
469.906	1313.51
470.278	1305.15
470.65	1318.03
471.022	1379.72
471.394	1378.59
471.766	1413.4
472.138	1419.95
472.51	1450
472.882	1447.74
473.253	1506.73
473.625	1499.27
473.997	1537.46
474.369	1534.07
474.74	1593.05
475.112	1638.02
475.484	1638.25
475.855	1665.82
476.227	1725.03
476.598	1771.35
476.97	1767.96
477.341	1777.45
477.713	1836.89
478.084	1859.71
478.455	1905.13
478.827	1931.12
479.198	1982.42
479.569	1994.62
479.94	2066.71
480.311	2101.51
480.682	2144.45
481.053	2181.51
481.424	2227.61
481.795	2245.24
482.166	2309.64
482.537	2356.2
482.908	2382.86
483.279	2440.71
483.65	2510.32
484.021	2565.68
484.391	2601.61
484.762	2625.57
485.133	2683.19
485.503	2717.99
485.874	2780.82
486.244	2843.64
486.615	2899.01
486.985	2914.37
487.356	3041.37
487.726	3045.67
488.097	3096.74
488.467	3157.98
488.837	3258.32
489.207	3307.36
489.578	3334.02
489.948	3410.4
490.318	3460.35
490.688	3454.02
491.058	3577.86
491.428	3652.21
491.798	3696.95
492.168	3755.93
492.538	3783.73
492.908	3821.24
493.278	3919.77
493.648	3900.11
494.017	3967.45
494.387	4047.22
494.757	4098.07
495.126	4089.48
495.496	4185.3
495.866	4194.79
496.235	4286.99
496.605	4337.39
496.974	4343.04
497.344	4464.84
497.713	4419.42
498.082	4484.5
498.452	4552.75
498.821	4602.01
499.19	4600.2
499.559	4698.28
499.928	4725.4
500.298	4740.09
500.667	4826.86
501.036	4860.76
501.405	4850.59
501.774	4857.37
502.143	4987.99
502.512	4953.41
502.88	5042
503.249	5072.73
503.618	5064.82
503.987	5105.73
504.356	5187.53
504.724	5181.88
505.093	5151.83
505.462	5258.27
505.83	5311.15
506.199	5324.48
506.567	5340.98
506.936	5392.73
507.304	5438.37
507.672	5483.57
508.041	5490.35
508.409	5570.57
508.777	5558.37
509.145	5587.3
509.514	5633.85
509.882	5672.27
510.25	5687.63
510.618	5749.1
510.986	5786.61
511.354	5777.57
511.722	5812.38
512.09	5876.78
512.458	5899.38
512.826	5974.86
513.193	5947.74
513.561	5954.29
513.929	5979.83
514.297	6086.49
514.664	6109.09
515.032	6140.5
515.4	6166.49
515.767	6173.5
516.135	6214.4
516.502	6192.48
516.869	6248.07
517.237	6267.05
517.604	6255.98
517.972	6370.78
518.339	6359.48
518.706	6374.85
519.073	6388.86
519.44	6444.9
519.808	6507.27
520.175	6476.76
520.542	6569.87
520.909	6595.18
521.276	6561.96
521.643	6630.43
522.009	6703.88
522.376	6697.55
522.743	6721.28
523.11	6842.4
523.477	6824.1
523.843	6886.7
524.21	6943.65
524.577	6948.16
524.943	6985
525.31	6980.71
525.676	7067.03
526.043	7169.18
526.409	7164.66
526.776	7267.03
527.142	7204.66
527.508	7268.83
527.874	7317.19
528.241	7286.69
528.607	7411.43
528.973	7506.79
529.339	7445.33
529.705	7486.68
530.071	7551.99
530.437	7557.19
530.803	7645.77
531.169	7649.62
531.535	7660.24
531.901	7657.07
532.267	7693.23
532.632	7773
532.998	7782.04
533.364	7850.51
533.73	7918.31
534.095	7979.55
534.461	7996.5
534.826	8026.1
535.192	8061.81
535.557	8159.88
535.923	8046.21
536.288	8145.42
536.653	8154.46
537.019	8160.34
537.384	8231.52
537.749	8267.9
538.114	8252.31
538.479	8315.81
538.845	8321.01
539.21	8289.37
539.575	8414.11
539.94	8430.84
540.305	8452.31
540.67	8429.71
541.034	8501.12
541.399	8545.18
541.764	8638.52
542.129	8657.27
542.494	8651.85
542.858	8718.06
543.223	8732.3
543.587	8785.4
543.952	8766.42
544.316	8837.15
544.681	8875.12
545.045	8877.15
545.41	8920.09
545.774	8893.2
546.138	8928.23
546.503	9010.03
546.867	9053.42
547.231	9025.62
547.595	9101.78
547.959	9119.63
548.324	9172.74
548.688	9244.15
549.052	9212.06
549.416	9267.65
549.779	9309.91
550.143	9363.92
550.507	9451.38
550.871	9406.18
551.235	9382.68
551.599	9450.7
551.962	9494.31
552.326	9523.24
552.689	9579.96
553.053	9539.96
553.417	9579.96
553.78	9744.25
554.143	9679.62
554.507	9743.8
554.87	9710.13
555.234	9825.38
555.597	9801.2
555.96	9857.01
556.323	9883.23
556.686	9845.49
557.05	9917.58
557.413	9969.33
557.776	10039.61
558.139	10110.34
558.502	10105.6
558.865	10103.56
559.228	10088.87
559.59	10172.94
559.953	10162.32
560.316	10225.14
560.679	10263.11
561.041	10312.37
561.404	10436.43
561.767	10498.81
562.129	10350.34
562.492	10504.23
562.854	10488.86
563.217	10495.19
563.579	10611.57
563.941	10602.53
564.304	10677.11
564.666	10692.93
565.028	10687.05
565.39	10774.96
565.753	10807.05
566.115	10803.43
566.477	10903.77
566.839	10918.68
567.201	10968.85
567.563	10920.26
567.925	11096.53
568.287	11053.37
568.648	11075.97
569.01	11155.74
569.372	11232.8
569.734	11111.22
570.095	11252.46
570.457	11358.22
570.819	11344.66
571.18	11376.52
571.542	11418.1
571.903	11523.86
572.265	11513.47
572.626	11591.88
572.987	11594.14
573.349	11649.96
573.71	11771.09
574.071	11789.62
574.432	11877.53
574.794	12007.24
575.155	11962.5
575.516	12072.55
575.877	12137.18
576.238	12266.22
576.599	12334.24
576.96	12420.34
577.32	12512.99
577.681	12544.18
578.042	12735.81
578.403	12687.67
578.763	12885.64
579.124	12973.77
579.485	13055.57
579.845	13194.33
580.206	13246.98
580.566	13364.27
580.927	13507.09
581.287	13772.17
581.648	13756.57
582.008	13980.3
582.368	14025.94
582.728	14251.93
583.089	14315.2
583.449	14489.21
583.809	14646.49
584.169	14882.65
584.529	14976.2
584.889	15253.94
585.249	15387.94
585.609	15481.73
585.969	15813.69
586.329	15944.09
586.688	16150.18
587.048	16290.74
587.408	16435.6
587.768	16717.17
588.127	16966.43
588.487	17092.76
588.846	17537.94
589.206	17514.44
589.565	17951.04
589.925	18085.27
590.284	18305.61
590.643	18605.94
591.003	18813.84
591.362	19100.39
591.721	19280.27
592.08	19547.61
592.44	19858.56
592.799	19997.54
593.158	20249.74
593.517	20529.73
593.876	20726.79
594.235	20997.96
594.593	21220.56
594.952	21610.83
595.311	21802.92
595.67	22002.68
596.029	22393.86
596.387	22702.55
596.746	22927.18
597.104	23017.8
597.463	23298.24
597.822	23587.05
598.18	23765.8
598.538	24006.02
598.897	24437.2
599.255	24408.5
599.613	25023.85
599.972	24925.55
600.33	25336.83
600.688	25505.64
601.046	25793.77
601.404	26152.41
601.762	26103.82
602.12	26506.97
602.478	26655.22
602.836	27037.81
603.194	27113.74
603.552	27306.5
603.91	27516.21
604.268	27900.38
604.625	27977.22
604.983	28277.77
605.341	28276.64
605.698	28625.11
606.056	28760.7
606.413	29001.14
606.771	29253.34
607.128	29525.88
607.485	29481.58
607.843	29663.5
608.2	30030.72
608.557	30249.47
608.914	30213.32
609.272	30555.68
609.629	30767.65
609.986	30828.89
610.343	30994.99
610.7	31459.16
611.057	31490.34
611.414	31702.09
611.771	31736.21
612.127	32108.63
612.484	32145.02
612.841	32411.22
613.198	32415.52
613.554	32493.71
613.911	32931.21
614.267	32963.07
614.624	32918.78
614.98	33076.07
615.337	33449.84
615.693	33526.45
616.05	33379.79
616.406	33809.61
616.762	33692.77
617.118	33964.4
617.475	34046.21
617.831	34107
618.187	34288.24
618.543	34400.78
618.899	34550.15
619.255	34662.24
619.611	34739.75
619.967	34937.26
620.323	35091.38
620.678	34977.26
621.034	34915.56
621.39	34951.95
621.746	35242.56
622.101	35609.11
622.457	35353.75
622.812	35527.3
623.168	35681.65
623.523	35681.42
623.879	35887.74
624.234	35720.06
624.589	35851.59
624.945	35952.6
625.3	36013.62
625.655	36096.78
626.01	36161.86
626.365	36188.07
626.72	36243.21
627.075	36362.98
627.43	36345.58
627.785	36333.15
628.14	36473.72
628.495	36581.28
628.85	36441.4
629.205	36420.38
629.559	36740.15
629.914	36569.08
630.269	36767.27
630.623	36649.3
630.978	36542.41
631.332	36733.82
631.687	36654.5
632.041	36677.33
632.396	36722.3
632.75	36499.48
633.104	36695.18
633.459	36542.41
633.813	36535.86
634.167	36619.47
634.521	36567.05
634.875	36724.33
635.229	36678
635.583	36453.6
635.937	36533.15
636.291	36586.26
636.645	36602.98
636.999	36582.41
637.352	36666.71
637.706	36509.42
638.06	36695.63
638.413	36619.93
638.767	36548.06
639.121	36591.91
639.474	36426.71
639.828	36522.98
640.181	36643.2
640.534	36554.39
640.888	36322.76
641.241	36272.82
641.594	36344.91
641.947	36502.64
642.301	36472.36
642.654	36562.98
643.007	36560.49
643.36	36395.3
643.713	36341.06
644.066	36499.25
644.419	36330.44
644.771	36023.78
645.124	35705.15
645.477	35749.89
645.83	35453.63
646.182	35378.15
646.535	35316.23
646.888	35299.51
647.24	35225.39
647.593	35283.24
647.945	35216.8
648.298	35137.71
648.65	34996.47
649.002	34952.4
649.355	35092.51
649.707	35010.48
650.059	35125.95
650.411	35641.65
650.763	35564.14
651.115	36077.79
651.467	35956.44
651.819	36028.98
652.171	36000.96
652.523	35832.15
652.875	35908.08
653.227	35725.26
653.578	35922.77
653.93	35948.98
654.282	35627.64
654.633	35638.26
654.985	35628.31
655.337	35775.2
655.688	35623.34
656.039	35692.04
656.391	35602.78
656.742	35598.48
657.094	35627.41
657.445	35750.35
657.796	35697.01
658.147	35574.98
658.498	35632.38
658.849	35654.98
659.2	35492.95
659.551	35381.32
659.902	35549.22
660.253	35666.28
660.604	35657.92
660.955	35358.04
661.306	35501.09
661.656	35544.48
662.007	35545.15
662.358	35363.69
662.708	35522.78
663.059	35553.51
663.409	35315.1
663.76	35531.14
664.11	35560.29
664.461	35489.11
664.811	35428.09
665.161	35466.74
665.511	35451.14
665.862	35369.34
666.212	35465.61
666.562	35480.97
666.912	35456.34
667.262	35421.09
667.612	35473.29
667.962	35414.76
668.312	35258.15
668.662	35540.18
669.011	35441.43
669.361	35235.56
669.711	35226.07
670.06	35154.65
670.41	35306.06
670.76	35149.01
671.109	35412.5
671.459	35268.78
671.808	35145.62
672.157	35221.09
672.507	35100.42
672.856	35183.58
673.205	35050.25
673.554	35237.82
673.904	35061.32
674.253	35257.7
674.602	35004.38
674.951	34671.73
675.3	34615.46
675.649	35105.39
675.998	34912.63
676.346	35030.36
676.695	35128.89
677.044	34868.56
677.393	34940.88
677.741	34854.78
678.09	34803.03
678.438	34828.11
678.787	34808.22
679.135	34829.92
679.484	34616.14
679.832	34775.68
680.181	34579.98
680.529	34769.58
680.877	34677.83
681.225	34466.76
681.573	34716.93
681.922	34434.22
682.27	34442.13
682.618	34375.47
682.966	34332.08
683.314	34332.3
683.661	34340.66
684.009	34124.63
684.357	34159.43
684.705	33944.97
685.053	34125.08
685.4	33991.07
685.748	33794.69
686.095	33871.75
686.443	33751.3
686.79	33772.32
687.138	33814.58
687.485	33711.98
687.832	33469.73
688.18	33567.58
688.527	33436.51
688.874	33414.36
689.221	33327.58
689.568	33215.27
689.915	33267.47
690.262	33256.17
690.609	33107.25
690.956	33079.23
691.303	32989.74
691.65	32894.38
691.997	32855.73
692.344	32541.62
692.69	32686.47
693.037	32598.56
693.383	32368.51
693.73	32504.1
694.077	32298.01
694.423	32354.5
694.769	32142.98
695.116	32100.72
695.462	32064.79
695.808	31987.51
696.155	32060.72
696.501	31781.41
696.847	31822.31
697.193	31534.18
697.539	31769.88
697.885	31407.86
698.231	31334.19
698.577	31349.78
698.923	31275.66
699.269	31114.99
699.614	31030.24
699.96	30891.94
700.306	31026.4
700.651	30830.25
700.997	30837.03
701.342	30668.67
701.688	30751.61
702.033	30624.6
702.379	30623.25
702.724	30476.13
703.069	30439.75
703.415	30201.56
703.76	30101.45
704.105	30147.78
704.45	30077.95
704.795	29858.07
705.14	29834.79
705.485	29753.67
705.83	29793.67
706.175	29746.66
706.52	29660.79
706.865	29557.51
707.209	29477.06
707.554	29423.73
707.899	29518.19
708.243	29400
708.588	29271.19
708.932	29122.5
709.277	29138.09
709.621	28972.22
709.966	28851.77
710.31	28952.56
710.654	28676.18
710.998	28804.99
711.342	28816.29
711.687	28689.74
712.031	28506.47
712.375	28507.82
712.719	28525.9
713.063	28405.68
713.407	28598.22
713.75	28336.75
714.094	28364.1
714.438	28305.34
714.782	28139.02
715.125	28094.28
715.469	28042.07
715.812	27908.07
716.156	27746.26
716.499	27786.03
716.843	27845.24
717.186	27642.31
717.53	27759.14
717.873	27746.26
718.216	27784.91
718.559	27581.75
718.902	27330.91
719.246	27452.26
719.589	27430.79
719.932	27297.91
720.275	27295.2
720.617	27276.9
720.96	27264.69
721.303	27170.01
721.646	27238.48
721.989	27016.56
722.331	27159.61
722.674	27060.86
723.016	27004.13
723.359	27017.92
723.701	26894.98
724.044	26785.38
724.386	26647.31
724.729	26838.94
725.071	26597.37
725.413	26686.63
725.755	26659.28
726.097	26588.78
726.439	26410.48
726.782	26475.56
727.124	26514.88
727.465	26399.18
727.807	26399.86
728.149	26299.97
728.491	26306.3
728.833	26254.55
729.175	26143.37
729.516	26137.04
729.858	26151.5
730.199	26135.23
730.541	26098.4
730.882	25911.73
731.224	26143.82
731.565	25888.46
731.906	25916.03
732.248	25923.71
732.589	25746.09
732.93	25770.49
733.271	25596.71
733.612	25718.52
733.953	25770.49
734.294	25589.48
734.635	25623.38
734.976	25752.42
735.317	25512.65
735.658	25439.88
735.999	25466.55
736.339	25489.6
736.68	25557.39
737.021	25426.77
737.361	25263.84
737.702	25364.18
738.042	25255.48
738.383	25295.7
738.723	25342.94
739.063	25047.12
739.404	25255.03
739.744	25201.92
740.084	25000.8
740.424	25089.83
740.764	24974.81
741.104	25059.55
741.444	24927.58
741.784	24804.64
742.124	24919.22
742.464	24936.17
742.804	24711.99
743.143	24716.51
743.483	24722.61
743.823	24608.94
744.162	24633.8
744.502	24689.85
744.841	24549.51
745.181	24727.13
745.52	24528.49
745.86	24598.77
746.199	24486.01
746.538	24548.83
746.877	24621.15
747.216	24468.38
747.556	24568.04
747.895	24299.12
748.234	24267.94
748.573	24209.86
748.911	24307.93
749.25	24244.89
749.589	24125.11
749.928	24143.42
750.267	24217.09
750.605	24189.29
750.944	24077.66
751.283	23979.36
751.621	23991.11
751.96	23762.64
752.298	23999.02
752.636	23886.02
752.975	23663.88
753.313	23574.39
753.651	23792.92
753.989	23605.58
754.327	23613.49
754.666	23538.69
755.004	23565.58
755.342	23641.96
755.679	23480.61
756.017	23320.16
756.355	23514.06
756.693	23282.42
757.031	23329.2
757.368	23192.48
757.706	23196.33
758.044	23135.99
758.381	23148.87
758.719	23106.16
759.056	23033.62
759.394	22989.55
759.731	22793.17
