Data from hue_10_FLMS001491_84.txt Node
Date: Mon Feb 06 15:32:41 GMT 2017
User: dcchb
Spectrometer: FLMS00149
Trigger mode: 0
Integration Time (sec): 2.000000E-2
Scans to average: 10
Electric dark correction enabled: true
Nonlinearity correction enabled: false
Boxcar width: 0
XAxis mode: Wavelengths
Number of Pixels in Spectrum: 2048
>>>>>Begin Spectral Data<<<<<
341.393	-9
341.776	-9
342.16	-9
342.543	-70.92
342.927	-69.56
343.31	-44.48
343.693	-68.88
344.077	-66.85
344.46	-61.65
344.843	-59.39
345.226	-46.96
345.61	-24.82
345.993	-10.13
346.376	-20.3
346.759	6.14
347.142	31.68
347.525	54.73
347.908	53.15
348.291	64
348.674	73.49
349.057	120.27
349.44	136.08
349.823	134.05
350.206	164.56
350.588	195.29
350.971	204.1
351.354	222.18
351.737	233.26
352.119	246.36
352.502	260.6
352.884	282.29
353.267	285.01
353.65	297.21
354.032	301.5
354.414	309.86
354.797	337.43
355.179	330.88
355.562	304.22
355.944	324.33
356.326	321.16
356.709	350.32
357.091	324.55
357.473	336.3
357.855	323.2
358.238	350.09
358.62	357.77
359.002	356.42
359.384	336.08
359.766	340.37
360.148	333.82
360.53	331.79
360.912	332.91
361.294	335.4
361.676	356.19
362.057	336.08
362.439	333.59
362.821	325.23
363.203	322.97
363.584	331.11
363.966	317.77
364.348	338.79
364.729	337.21
365.111	328.4
365.493	319.58
365.874	319.13
366.256	316.64
366.637	319.58
367.019	329.07
367.4	325.46
367.781	312.12
368.163	290.66
368.544	315.29
368.925	329.98
369.306	323.2
369.688	316.87
370.069	302.18
370.45	301.28
370.831	334.72
371.212	326.81
371.593	298.57
371.974	330.88
372.355	310.99
372.736	309.41
373.117	304.67
373.498	329.07
373.879	317.32
374.26	335.63
374.641	323.42
375.021	315.74
375.402	330.66
375.783	319.58
376.163	319.58
376.544	317.1
376.925	334.95
377.305	325.01
377.686	334.27
378.066	312.8
378.447	323.2
378.827	305.12
379.208	340.82
379.588	314.61
379.968	331.56
380.349	337.21
380.729	330.66
381.109	313.93
381.489	348.73
381.87	322.52
382.25	334.04
382.63	314.16
383.01	348.96
383.39	337.21
383.77	355.06
384.15	325.01
384.53	325.46
384.91	346.02
385.29	339.69
385.67	338.79
386.049	327.49
386.429	360.94
386.809	349.64
387.189	327.72
387.568	351.9
387.948	343.31
388.328	364.78
388.707	342.41
389.087	355.74
389.466	355.97
389.846	362.97
390.225	371.33
390.605	359.35
390.984	347.15
391.363	371.11
391.743	372.69
392.122	365.23
392.501	379.92
392.881	362.29
393.26	376.76
393.639	371.11
394.018	343.99
394.397	378.11
394.776	375.4
395.155	375.4
395.534	352.12
395.913	401.16
396.292	379.92
396.671	371.78
397.05	363.65
397.429	400.48
397.808	376.08
398.186	388.73
398.565	367.04
398.944	390.09
399.323	377.21
399.701	390.99
400.08	389.64
400.458	383.99
400.837	407.26
401.215	407.04
401.594	384.67
401.972	394.16
402.351	389.64
402.729	407.94
403.107	405.91
403.486	396.87
403.864	409.98
404.242	414.27
404.62	388.51
404.999	400.94
405.377	397.09
405.755	399.13
406.133	441.16
406.511	410.88
406.889	419.69
407.267	406.59
407.645	432.12
408.023	443.65
408.401	430.54
408.779	431.44
409.156	415.62
409.534	423.53
409.912	445.23
410.29	456.75
410.667	457.43
411.045	461.95
411.422	441.84
411.8	465.79
412.178	443.42
412.555	446.58
412.933	453.82
413.31	471.67
413.687	450.43
414.065	452.46
414.442	476.19
414.819	453.82
415.197	490.88
415.574	471.89
415.951	448.17
416.328	470.31
416.705	473.48
417.082	481.84
417.46	495.62
417.837	491.78
418.214	477.32
418.591	465.34
418.967	499.69
419.344	484.32
419.721	523.19
420.098	493.59
420.475	489.75
420.852	513.48
421.228	476.41
421.605	507.15
421.982	515.28
422.358	537.66
422.735	515.06
423.111	538.33
423.488	521.38
423.864	532.46
424.241	525.68
424.617	533.36
424.994	528.39
425.37	542.85
425.746	540.37
426.123	554.6
426.499	569.29
426.875	562.06
427.251	538.33
427.627	543.76
428.003	556.19
428.379	565.45
428.756	568.39
429.132	562.74
429.507	587.82
429.883	563.64
430.259	590.99
430.635	581.27
431.011	620.59
431.387	612.23
431.763	619.01
432.138	590.76
432.514	608.16
432.89	607.94
433.265	624.88
433.641	613.13
434.016	645.45
434.392	636.18
434.767	633.7
435.143	645.22
435.518	654.71
435.894	638.22
436.269	675.96
436.644	660.14
437.02	659.01
437.395	656.75
437.77	687.48
438.145	694.71
438.52	682.96
438.895	690.19
439.271	691.32
439.646	705.33
440.021	684.32
440.395	698.1
440.77	725.67
441.145	720.93
441.52	750.31
441.895	724.32
442.27	720.25
442.645	724.77
443.019	730.42
443.394	750.31
443.769	755.05
444.143	738.78
444.518	778.1
444.892	746.46
445.267	747.37
445.641	766.12
446.016	757.54
446.39	751.89
446.764	770.87
447.139	759.12
447.513	772.9
447.887	747.14
448.262	766.8
448.636	785.33
449.01	770.87
449.384	792.56
449.758	803.19
450.132	809.74
450.506	805.44
450.88	815.84
451.254	802.28
451.628	816.74
452.002	819.23
452.376	857.42
452.75	813.13
453.123	841.38
453.497	832.79
453.871	848.38
454.244	871.43
454.618	854.48
454.992	872.34
455.365	888.15
455.739	880.02
456.112	924.76
456.486	896.97
456.859	905.33
457.232	949.17
457.606	916.4
457.979	911.66
458.352	937.64
458.725	944.65
459.099	958.44
459.472	972.67
459.845	970.64
460.218	1008.83
460.591	984.2
460.964	1014.48
461.337	1026.68
461.71	1004.76
462.083	1010.41
462.456	1035.5
462.829	1036.17
463.201	1030.3
463.574	1054.25
463.947	1082.5
464.32	1082.73
464.692	1067.13
465.065	1083.63
465.438	1127.02
465.81	1121.59
466.183	1143.74
466.555	1153.91
466.928	1157.53
467.3	1185.55
467.672	1181.48
468.045	1211.76
468.417	1196.4
468.789	1214.93
469.161	1219.67
469.534	1270.07
469.906	1288.14
470.278	1279.78
470.65	1282.72
471.022	1291.31
471.394	1344.41
471.766	1364.98
472.138	1388.93
472.51	1404.07
472.882	1422.83
473.253	1428.25
473.625	1474.13
473.997	1475.71
474.369	1486.78
474.74	1515.48
475.112	1553
475.484	1534.01
475.855	1592.99
476.227	1611.98
476.598	1627.8
476.97	1657.63
477.341	1698.98
477.713	1718.64
478.084	1762.48
478.455	1792.76
478.827	1842.03
479.198	1866.43
479.569	1864.17
479.94	1925.19
480.311	1957.73
480.682	1977.17
481.053	2037.73
481.424	2044.96
481.795	2086.99
482.166	2125.86
482.537	2149.14
482.908	2218.29
483.279	2223.94
483.65	2258.51
484.021	2293.77
484.391	2355.69
484.762	2362.01
485.133	2374.44
485.503	2452.86
485.874	2486.53
486.244	2521.78
486.615	2542.35
486.985	2582.8
487.356	2645.17
487.726	2683.14
488.097	2730.59
488.467	2769.01
488.837	2815.11
489.207	2854.43
489.578	2880.64
489.948	2937.14
490.318	2970.13
490.688	2994.31
491.058	3067.98
491.428	3097.59
491.798	3129.68
492.168	3197.47
492.538	3207.64
492.908	3267.08
493.278	3298.49
493.648	3292.84
494.017	3345.94
494.387	3426.17
494.757	3417.58
495.126	3403.12
495.496	3480.85
495.866	3490.12
496.235	3587.52
496.605	3567.63
496.974	3607.41
497.344	3591.59
497.713	3660.74
498.082	3661.64
498.452	3753.84
498.821	3719.27
499.19	3784.35
499.559	3826.61
499.928	3819.6
500.298	3857.12
500.667	3882.43
501.036	3884.91
501.405	3945.25
501.774	3947.51
502.143	3983.21
502.512	4008.52
502.88	4018.69
503.249	4027.06
503.618	4093.27
503.987	4097.56
504.356	4059.82
504.724	4140.72
505.093	4150.89
505.462	4203.55
505.83	4176.43
506.199	4253.26
506.567	4307.95
506.936	4302.3
507.304	4325.8
507.672	4287.61
508.041	4325.13
508.409	4372.13
508.777	4385.01
509.145	4414.39
509.514	4448.06
509.882	4483.31
510.25	4471.79
510.618	4498.23
510.986	4486.7
511.354	4503.65
511.722	4558.11
512.09	4590.2
512.458	4562.63
512.826	4603.09
513.193	4631.56
513.561	4665.91
513.929	4693.48
514.297	4714.49
514.664	4717.43
515.032	4713.59
515.4	4789.52
515.767	4828.62
516.135	4792.23
516.502	4785
516.869	4856.86
517.237	4855.51
517.604	4826.36
517.972	4865.45
518.339	4872
518.706	4906.35
519.073	4911.1
519.44	4927.37
519.808	5046.69
520.175	4975.5
520.542	5050.76
520.909	5042.17
521.276	5042.17
521.643	5029.97
522.009	5026.12
522.376	5088.27
522.743	5168.04
523.11	5221.6
523.477	5208.72
523.843	5231.32
524.21	5300.47
524.577	5269.28
524.943	5331.88
525.31	5278.77
525.676	5352.67
526.043	5383.63
526.409	5374.36
526.776	5417.08
527.142	5489.84
527.508	5483.74
527.874	5519.45
528.241	5606.22
528.607	5589.27
528.973	5617.3
529.339	5622.04
529.705	5633.11
530.071	5706.11
530.437	5748.37
530.803	5789.27
531.169	5800.12
531.535	5799.66
531.901	5778.65
532.267	5838.98
532.632	5843.73
532.998	5884.63
533.364	5917.4
533.73	5921.69
534.095	5942.48
534.461	5954.24
534.826	6070.39
535.192	6053.44
535.557	6060.67
535.923	6139.09
536.288	6111.97
536.653	6085.76
537.019	6151.75
537.384	6146.1
537.749	6155.59
538.114	6195.13
538.479	6244.4
538.845	6237.17
539.21	6288.46
539.575	6280.1
539.94	6326.2
540.305	6389.25
540.67	6373.21
541.034	6411.63
541.399	6436.03
541.764	6464.96
542.129	6487.33
542.494	6520.55
542.858	6514
543.223	6585.63
543.587	6632.64
543.952	6606.65
544.316	6650.71
544.681	6659.3
545.045	6694.78
545.41	6698.62
545.774	6726.19
546.138	6768.9
546.503	6820.2
546.867	6779.07
547.231	6874.89
547.595	6876.02
547.959	6868.34
548.324	6901.78
548.688	6922.57
549.052	6952.85
549.416	6974.77
549.779	6973.19
550.143	7023.59
550.507	7088.9
550.871	7062.46
551.235	7127.54
551.599	7149.91
551.962	7167.09
552.326	7162.57
552.689	7176.12
553.053	7229.46
553.417	7162.57
553.78	7278.72
554.143	7324.82
554.507	7248.89
554.87	7337.02
555.234	7380.19
555.597	7350.36
555.96	7363.46
556.323	7461.54
556.686	7432.84
557.05	7481.2
557.413	7527.98
557.776	7500.18
558.139	7541.54
558.502	7529.79
558.865	7613.4
559.228	7645.72
559.59	7636.23
559.953	7658.6
560.316	7813.62
560.679	7762.78
561.041	7752.83
561.404	7808.42
561.767	7818.82
562.129	7804.81
562.492	7891.59
562.854	7901.53
563.217	7894.07
563.579	7951.02
563.941	7969.55
564.304	8018.59
564.666	8108.3
565.028	8016.55
565.39	8093.16
565.753	8074.63
566.115	8100.62
566.477	8195.31
566.839	8234.85
567.201	8259.26
567.563	8291.8
567.925	8268.98
568.287	8348.3
568.648	8360.27
569.01	8402.53
569.372	8452.25
569.734	8439.82
570.095	8510.33
570.457	8542.87
570.819	8553.72
571.18	8553.49
571.542	8634.84
571.903	8682.75
572.265	8722.98
572.626	8765.24
572.987	8841.17
573.349	8815.4
573.71	8931.78
574.071	8919.36
574.432	8985.34
574.794	9155.96
575.155	9143.08
575.516	9124.32
575.877	9252.23
576.238	9250.19
576.599	9309.18
576.96	9403.18
577.32	9457.65
577.681	9586.91
578.042	9593.91
578.403	9781.03
578.763	9810.18
579.124	9859.22
579.485	9986.67
579.845	10183.28
580.206	10203.39
580.566	10330.62
580.927	10368.13
581.287	10584.17
581.648	10583.72
582.008	10805.41
582.368	10918.85
582.728	11097.38
583.089	11213.53
583.449	11394.55
583.809	11519.51
584.169	11698.04
584.529	11830.01
584.889	12132.38
585.249	12167.63
585.609	12355.88
585.969	12690.1
586.329	12820.95
586.688	13043.09
587.048	13210.32
587.408	13375.28
587.768	13747.93
588.127	13857.76
588.487	14105.66
588.846	14466.33
589.206	14588.59
589.565	14815.7
589.925	15184.28
590.284	15368.23
590.643	15626.75
591.003	15987.19
591.362	16244.59
591.721	16471.7
592.08	16702.2
592.44	17064.45
592.799	17410.43
593.158	17705.11
593.517	17872.57
593.876	18243.4
594.235	18487.69
594.593	18742.15
594.952	19167.22
595.311	19388.01
595.67	19710.71
596.029	20085.39
596.387	20429.11
596.746	20824.35
597.104	20929.89
597.463	21298.24
597.822	21682.64
598.18	22030.88
598.538	22091.21
598.897	22647.13
599.255	22618.88
599.613	23352.65
599.972	23467.22
600.33	23924.16
600.688	24049.81
601.046	24401.43
601.404	24817.24
601.762	24998.48
602.12	25356.21
602.478	25726.15
602.836	25907.38
603.194	26111.67
603.552	26417.65
603.91	26559.34
604.268	27062.38
604.625	27174.24
604.983	27549.6
605.341	27630.28
605.698	27991.4
606.056	28422.57
606.413	28708.89
606.771	28942.33
607.128	29280.85
607.485	29260.97
607.843	29554.07
608.2	29997.67
608.557	30339.13
608.914	30334.39
609.272	30708.61
609.629	30892.11
609.986	31293.68
610.343	31321.48
610.7	31872.88
611.057	31966.66
611.414	32067.67
611.771	32419.53
612.127	32548.79
612.484	32851.38
612.841	32924.15
613.198	33108.32
613.554	33409.11
613.911	33735.65
614.267	33786.27
614.624	33932.48
614.98	34194.62
615.337	34535.63
615.693	34586.7
616.05	34663.76
616.406	34929.75
616.762	34988.5
617.118	35124.77
617.475	35345.1
617.831	35604.53
618.187	35794.13
618.543	36025.99
618.899	36065.31
619.255	36306.66
619.611	36286.09
619.967	36608.12
620.323	36792.07
620.678	36642.24
621.034	36628.01
621.39	36909.58
621.746	37048.56
622.101	37387.76
622.457	37153.64
622.812	37444.93
623.168	37540.52
623.523	37679.5
623.879	37902.1
624.234	37893.51
624.589	37972.6
624.945	38053.05
625.3	38132.6
625.655	38132.6
626.01	38328.75
626.365	38413.95
626.72	38371.46
627.075	38482.42
627.43	38474.96
627.785	38720.15
628.14	38716.09
628.495	38778.01
628.85	38756.31
629.205	38709.31
629.559	39070.43
629.914	38846.25
630.269	38940.26
630.623	38954.72
630.978	38918.12
631.332	39078.34
631.687	39257.77
632.041	38981.84
632.396	39145.68
632.75	39127.83
633.104	39200.59
633.459	39048.28
633.813	39191.55
634.167	39122.63
634.521	39142.52
634.875	39310.87
635.229	39191.1
635.583	39057.09
635.937	39104.32
636.291	39126.25
636.645	39105.23
636.999	39114.27
637.352	39238.11
637.706	39163.08
638.06	39213.25
638.413	39126.47
638.767	39153.59
639.121	39219.8
639.474	39062.97
639.828	39079.01
640.181	39140.03
640.534	39139.35
640.888	38975.97
641.241	38870.43
641.594	39090.77
641.947	39038.11
642.301	39069.75
642.654	39135.06
643.007	39004.21
643.36	39093.03
643.713	38957.44
644.066	39131.22
644.419	38821.62
644.771	38684.45
645.124	38353.84
645.477	38243.78
645.83	37973.96
646.182	38020.06
646.535	37943.68
646.888	37938.48
647.24	37789.78
647.593	37963.56
647.945	37867.97
648.298	37773.74
648.65	37802.66
649.002	37631.6
649.355	37759.05
649.707	37604.48
650.059	37843.79
650.411	38256.89
650.763	38406.04
651.115	38813.94
651.467	38615.75
651.819	38647.84
652.171	38468.18
652.523	38518.58
652.875	38377.56
653.227	38373.72
653.578	38630.21
653.93	38514.74
654.282	38241.07
654.633	38357.9
654.985	38307.74
655.337	38376.21
655.688	38253.27
656.039	38465.47
656.391	38195.42
656.742	38302.99
657.094	38275.19
657.445	38390.9
657.796	38221.86
658.147	38287.4
658.498	38277.91
658.849	38338.47
659.2	38204.01
659.551	38137.12
659.902	38259.15
660.253	38312.03
660.604	38297.11
660.955	38065.26
661.306	38264.57
661.656	38032.49
662.007	38173.5
662.358	38072.71
662.708	38032.26
663.059	38111.36
663.409	37759.95
663.76	38174.63
664.11	38157.91
664.461	38170.56
664.811	38124.92
665.161	38105.26
665.511	38066.39
665.862	37974.41
666.212	38156.1
666.562	38164.24
666.912	38046.5
667.262	38060.51
667.612	37961.98
667.962	38044.01
668.312	38016.44
668.662	38154.75
669.011	38046.73
669.361	37866.62
669.711	37967.41
670.06	37851.7
670.41	37934.86
670.76	37778.94
671.109	38027.74
671.459	37788.65
671.808	37854.19
672.157	37834.08
672.507	37634.08
672.856	37633.4
673.205	37789.33
673.554	37797.69
673.904	37712.5
674.253	37850.8
674.602	37735.1
674.951	37165.17
675.3	37025.51
675.649	37587.75
675.998	37619.84
676.346	37635.66
676.695	37610.58
677.044	37467.98
677.393	37540.3
677.741	37592.27
678.09	37557.7
678.438	37342.11
678.787	37491.49
679.135	37440.87
679.484	37169.23
679.832	37390.25
680.181	37051.5
680.529	37382.11
680.877	37129.69
681.225	37058.28
681.573	37390.02
681.922	37159.52
682.27	36924.72
682.618	37010.82
682.966	36867.1
683.314	36982.35
683.661	37003.59
684.009	36690.38
684.357	36590.72
684.705	36538.97
685.053	36524.96
685.4	36519.31
685.748	36349.37
686.095	36344.4
686.443	36196.38
686.79	36171.75
687.138	36232.31
687.485	36246.09
687.832	36069.6
688.18	36066.66
688.527	35916.84
688.874	35897.18
689.221	35799.78
689.568	35840.68
689.915	35590.07
690.262	35651.31
690.609	35524.31
690.956	35476.17
691.303	35349.4
691.65	35140.14
691.997	35300.81
692.344	34932.23
692.69	35166.8
693.037	35027.6
693.383	34734.95
693.73	34854.27
694.077	34633.26
694.423	34698.57
694.769	34587.38
695.116	34514.62
695.462	34421.51
695.808	34354.39
696.155	34436.65
696.501	34241.4
696.847	34130.22
697.193	33857.23
697.539	34040.73
697.885	33806.61
698.231	33734.97
698.577	33692.49
698.923	33719.61
699.269	33497.24
699.614	33430.8
699.96	33261.77
700.306	33311.03
700.651	33181.09
700.997	33005.73
701.342	33018.38
701.688	32912.62
702.033	32849.35
702.379	32839.4
702.724	32778.84
703.069	32746.07
703.415	32525.29
703.76	32478.28
704.105	32339.08
704.45	32314.45
704.795	32111.51
705.14	32113.77
705.485	32039.65
705.83	31951.29
706.175	31973.89
706.52	31972.99
706.865	31716.04
707.209	31623.39
707.554	31688.93
707.899	31670.85
708.243	31640.79
708.588	31461.81
708.932	31274.25
709.277	31228.83
709.621	31186.79
709.966	31095.95
710.31	31020.02
710.654	30907.7
710.998	31010.07
711.342	30944.99
711.687	30863.86
712.031	30702.51
712.375	30594.04
712.719	30446.7
713.063	30639.91
713.407	30617.54
713.75	30456.19
714.094	30451.22
714.438	30270.88
714.782	30266.82
715.125	30157.44
715.469	30178.46
715.812	30175.07
716.156	29836.09
716.499	30053.94
716.843	29939.59
717.186	29884
717.53	30025.92
717.873	30079.03
718.216	29738.47
718.559	29637
718.902	29525.82
719.246	29616.21
719.589	29505.71
719.932	29410.34
720.275	29443.11
720.617	29386.39
720.96	29372.15
721.303	29303.9
721.646	29215.09
721.989	29010.13
722.331	29272.27
722.674	29119.05
723.016	29095.32
723.359	28999.28
723.701	29066.62
724.044	28747.76
724.386	28682.45
724.729	28836.12
725.071	28659.4
725.413	28658.72
725.755	28725.39
726.097	28588.22
726.439	28398.62
726.782	28377.6
727.124	28584.6
727.465	28303.93
727.807	28383.25
728.149	28268
728.491	28288.56
728.833	28297.38
729.175	28198.85
729.516	28131.51
729.858	28136.03
730.199	28145.74
730.541	27943.71
730.882	27929.48
731.224	27936.71
731.565	27819.2
731.906	27879.76
732.248	27844.96
732.589	27643.61
732.93	27562.26
733.271	27709.82
733.612	27566.32
733.953	27602.03
734.294	27581.69
734.635	27521.35
734.976	27550.05
735.317	27282.49
735.658	27392.77
735.999	27334.69
736.339	27299.89
736.68	27348.7
737.021	27174.92
737.361	27210.4
737.702	27270.29
738.042	27155.03
738.383	27232.55
738.723	27123.85
739.063	27088.6
739.404	27079.78
739.744	27092.89
740.084	26950.29
740.424	26932.22
740.764	26780.13
741.104	26974.93
741.444	26725.89
741.784	26773.58
742.124	26790.75
742.464	26744.42
742.804	26564.09
743.143	26671.88
743.483	26717.53
743.823	26464.43
744.162	26449.97
744.502	26513.7
744.841	26386.47
745.181	26585.11
745.52	26311.89
745.86	26446.13
746.199	26320.48
746.538	26210.2
746.877	26383.3
747.216	26228.05
747.556	26039.36
747.895	26223.53
748.234	26201.16
748.573	26018.34
748.911	26041.84
749.25	26037.78
749.589	25861.06
749.928	25815.63
750.267	25998.91
750.605	25862.19
750.944	25808.18
751.283	25677.56
751.621	25700.38
751.96	25632.59
752.298	25618.35
752.636	25619.93
752.975	25469.66
753.313	25427.4
753.651	25515.76
753.989	25437.79
754.327	25292.26
754.666	25221.07
755.004	25351.47
755.342	25226.95
755.679	25119.38
756.017	25017.69
756.355	24969.1
756.693	24907.41
757.031	24950.12
757.368	24811.14
757.706	24801.42
758.044	24815.21
758.381	24793.97
758.719	24586.29
759.056	24732.27
759.394	24610.47
759.731	24380.64
760.068	24390.59
760.405	24222.23
760.743	24191.95
761.08	24185.17
