Data from hue_30_FLMS001491_78.txt Node
Date: Mon Feb 06 15:05:56 GMT 2017
User: dcchb
Spectrometer: FLMS00149
Trigger mode: 0
Integration Time (sec): 2.000000E-2
Scans to average: 10
Electric dark correction enabled: true
Nonlinearity correction enabled: false
Boxcar width: 0
XAxis mode: Wavelengths
Number of Pixels in Spectrum: 2048
>>>>>Begin Spectral Data<<<<<
341.393	10.66
341.776	10.66
342.16	10.66
342.543	-58.26
342.927	-65.72
343.31	-68.43
343.693	-72.5
344.077	-50.35
344.46	-70.46
344.843	-38.6
345.226	-56.68
345.61	-8.54
345.993	-30.24
346.376	-18.94
346.759	2.98
347.142	21.51
347.525	54.96
347.908	73.71
348.291	53.15
348.674	98.8
349.057	109.64
349.44	136.31
349.823	144.22
350.206	154.39
350.588	179.02
350.971	207.49
351.354	232.35
351.737	241.17
352.119	232.8
352.502	288.17
352.884	271.22
353.267	285.01
353.65	298.57
354.032	302.63
354.414	300.15
354.797	324.55
355.179	309.64
355.562	332.69
355.944	319.13
356.326	339.02
356.709	359.13
357.091	338.34
357.473	334.95
357.855	338.34
358.238	357.55
358.62	336.53
359.002	341.73
359.384	347.38
359.766	342.63
360.148	322.75
360.53	327.94
360.912	335.85
361.294	347.6
361.676	330.88
362.057	318.9
362.439	330.43
362.821	358
363.203	332.69
363.584	325.46
363.966	330.66
364.348	317.1
364.729	303.99
365.111	328.17
365.493	325.01
365.874	311.67
366.256	336.53
366.637	315.06
367.019	310.09
367.4	329.98
367.781	323.65
368.163	322.29
368.544	310.32
368.925	318
369.306	333.37
369.688	317.1
370.069	292.46
370.45	306.47
370.831	308.96
371.212	317.1
371.593	315.97
371.974	306.25
372.355	309.64
372.736	324.55
373.117	330.88
373.498	316.87
373.879	317.77
374.26	325.68
374.641	323.2
375.021	322.97
375.402	320.94
375.783	316.42
376.163	322.52
376.544	326.14
376.925	334.95
377.305	310.99
377.686	336.3
378.066	328.85
378.447	335.85
378.827	324.1
379.208	344.21
379.588	335.85
379.968	316.64
380.349	343.31
380.729	340.82
381.109	329.3
381.489	353.48
381.87	354.16
382.25	341.5
382.63	337.66
383.01	331.11
383.39	346.7
383.77	341.73
384.15	366.81
384.53	350.54
384.91	356.19
385.29	342.41
385.67	359.35
386.049	328.62
386.429	342.63
386.809	362.29
387.189	335.63
387.568	350.99
387.948	376.3
388.328	368.85
388.707	343.76
389.087	357.32
389.466	354.61
389.846	370.2
390.225	364.78
390.605	384.89
390.984	371.33
391.363	373.14
391.743	358.45
392.122	365.46
392.501	378.11
392.881	376.08
393.26	359.58
393.639	389.86
394.018	391.44
394.397	360.48
394.776	376.98
395.155	403.65
395.534	389.18
395.913	390.99
396.292	394.38
396.671	373.37
397.05	393.03
397.429	407.94
397.808	362.07
398.186	405.91
398.565	415.4
398.944	368.17
399.323	407.72
399.701	366.59
400.08	366.13
400.458	411.11
400.837	406.13
401.215	395.74
401.594	404.33
401.972	417.43
402.351	396.64
402.729	386.7
403.107	405.91
403.486	425.12
403.864	410.88
404.242	416.53
404.62	416.3
404.999	411.11
405.377	405
405.755	429.18
406.133	420.14
406.511	424.89
406.889	430.31
407.267	435.74
407.645	445.45
408.023	452.69
408.401	433.93
408.779	445.68
409.156	468.28
409.534	458.34
409.912	446.81
410.29	472.57
410.667	469.86
411.045	457.66
411.422	477.77
411.8	452.69
412.178	443.42
412.555	466.92
412.933	494.49
413.31	468.73
413.687	487.26
414.065	458.34
414.442	485.23
414.819	495.17
415.197	505.34
415.574	509.86
415.951	491.33
416.328	521.61
416.705	535.4
417.082	517.99
417.46	478.67
417.837	500.14
418.214	494.94
418.591	512.12
418.967	530.65
419.344	520.93
419.721	516.19
420.098	541.27
420.475	543.76
420.852	521.84
421.228	519.35
421.605	529.97
421.982	531.33
422.358	532.23
422.735	528.39
423.111	544.66
423.488	553.93
423.864	554.6
424.241	581.27
424.617	584.66
424.994	571.78
425.37	569.74
425.746	565.23
426.123	585.11
426.499	557.09
426.875	589.18
427.251	572.23
427.627	575.85
428.003	620.37
428.379	610.2
428.756	632.79
429.132	618.78
429.507	608.84
429.883	629.63
430.259	618.56
430.635	650.87
431.011	657.65
431.387	634.6
431.763	654.26
432.138	641.16
432.514	647.48
432.89	671.44
433.265	656.07
433.641	682.96
434.016	685
434.392	683.87
434.767	679.57
435.143	697.65
435.518	688.84
435.894	699.23
436.269	717.09
436.644	704.88
437.02	726.58
437.395	736.75
437.77	726.58
438.145	760.93
438.52	733.13
438.895	753.24
439.271	741.49
439.646	771.1
440.021	773.81
440.395	772.45
440.77	779.23
441.145	770.42
441.52	778.55
441.895	800.02
442.27	774.94
442.645	791.43
443.019	797.76
443.394	828.72
443.769	812
444.143	801.83
444.518	835.5
444.892	804.99
445.267	837.53
445.641	823.07
446.016	840.92
446.39	841.38
446.764	851.32
447.139	847.7
447.513	848.16
447.887	873.47
448.262	852.9
448.636	873.24
449.01	868.95
449.384	871.88
449.758	884.54
450.132	900.58
450.506	879.34
450.88	898.1
451.254	907.82
451.628	909.17
452.002	899
452.376	938.1
452.75	919.57
453.123	929.74
453.497	953.92
453.871	963.63
454.244	957.76
454.618	985.78
454.992	973.12
455.365	991.43
455.739	987.36
456.112	1007.25
456.486	1023.29
456.859	1009.28
457.232	1024.42
457.606	1049.28
457.979	1059.22
458.352	1066.91
458.725	1086.12
459.099	1072.78
459.472	1079.56
459.845	1109.84
460.218	1128.37
460.591	1161.82
460.964	1157.75
461.337	1146.9
461.71	1201.59
462.083	1188.26
462.456	1191.65
462.829	1204.98
463.201	1215.6
463.574	1239.33
463.947	1245.21
464.32	1268.26
464.692	1218.54
465.065	1286.79
465.438	1287.01
465.81	1346.45
466.183	1363.17
466.555	1358.88
466.928	1360.01
467.3	1372.89
467.672	1397.75
468.045	1381.25
468.417	1439.78
468.789	1412.21
469.161	1448.37
469.534	1475.03
469.906	1512.54
470.278	1523.62
470.65	1546.44
471.022	1556.16
471.394	1607.68
471.766	1578.76
472.138	1626.89
472.51	1668.25
472.882	1670.28
473.253	1701.92
473.625	1712.54
473.997	1764.74
474.369	1790.5
474.74	1811.29
475.112	1840.22
475.484	1863.95
475.855	1903.04
476.227	1951.4
476.598	1962.7
476.97	2010.16
477.341	2098.07
477.713	2100.55
478.084	2142.13
478.455	2207.89
478.827	2199.98
479.198	2296.03
479.569	2291.73
479.94	2349.36
480.311	2366.99
480.682	2410.6
481.053	2529.69
481.424	2536.25
481.795	2626.19
482.166	2691.72
482.537	2721.1
482.908	2783.25
483.279	2815.11
483.65	2867.76
484.021	2957.03
484.391	2998.16
484.762	3048.1
485.133	3076.8
485.503	3157.02
485.874	3238.15
486.244	3245.38
486.615	3361.99
486.985	3405.83
487.356	3472.95
487.726	3539.38
488.097	3637.46
488.467	3637.23
488.837	3760.17
489.207	3816.67
489.578	3862.09
489.948	3930.56
490.318	3928.98
490.688	3993.38
491.058	4133.27
491.428	4195.86
491.798	4291.45
492.168	4339.82
492.538	4382.07
492.908	4462.52
493.278	4496.42
493.648	4505.23
494.017	4618.23
494.387	4665
494.757	4720.37
495.126	4758.56
495.496	4833.36
495.866	4843.76
496.235	4945.45
496.605	5013.7
496.974	5072
497.344	5105.44
497.713	5170.08
498.082	5175.27
498.452	5285.78
498.821	5317.42
499.19	5345.44
499.559	5442.61
499.928	5446.68
500.298	5474.47
500.667	5502.5
501.036	5628.82
501.405	5648.71
501.774	5644.64
502.143	5738.2
502.512	5754.69
502.88	5856.39
503.249	5843.5
503.618	5854.8
503.987	5869.04
504.356	5955.14
504.724	6009.6
505.093	6047.12
505.462	6085.98
505.83	6156.04
506.199	6184.29
506.567	6292.53
506.936	6236.94
507.304	6317.16
507.672	6323.72
508.041	6378.41
508.409	6401.68
508.777	6472.19
509.145	6449.82
509.514	6489.82
509.882	6580.66
510.25	6551.96
510.618	6638.06
510.986	6609.13
511.354	6758.06
511.722	6784.04
512.09	6799.64
512.458	6812.29
512.826	6890.71
513.193	6904.95
513.561	6911.5
513.929	6981.33
514.297	7037.15
514.664	7029.69
515.032	7064.94
515.4	7153.07
515.767	7158.05
516.135	7192.4
516.502	7167.54
516.869	7288.89
517.237	7289.57
517.604	7263.81
517.972	7370.02
518.339	7328.44
518.706	7409.34
519.073	7407.98
519.44	7520.52
519.808	7478.04
520.175	7500.86
520.542	7622.67
520.909	7613.63
521.276	7664.7
521.643	7650.46
522.009	7714.64
522.376	7778.37
522.743	7825.37
523.11	7905.15
523.477	7941.08
523.843	7969.78
524.21	8078.7
524.577	8110.34
524.943	8097.91
525.31	8150.11
525.676	8172.26
526.043	8241.18
526.409	8267.62
526.776	8327.73
527.142	8376.09
527.508	8395.08
527.874	8464.68
528.241	8499.71
528.607	8528.86
528.973	8609.31
529.339	8548.52
529.705	8692.24
530.071	8732.92
530.437	8736.99
530.803	8885.46
531.169	8925.01
531.535	8860.15
531.901	8901.5
532.267	8985.79
532.632	9004.1
532.998	9049.3
533.364	9055.4
533.73	9125
534.095	9198.22
534.461	9246.13
534.826	9323.87
535.192	9348.05
535.557	9395.28
535.923	9380.36
536.288	9434.82
536.653	9449.96
537.019	9481.15
537.384	9580.58
537.749	9593.91
538.114	9580.81
538.479	9660.13
538.845	9678.88
539.21	9684.08
539.575	9734.48
539.94	9786.9
540.305	9799.11
540.67	9811.31
541.034	9888.82
541.399	9974.7
541.764	9896.73
542.129	9996.62
542.494	10074.58
542.858	10079.55
543.223	10056.73
543.587	10143.73
543.952	10180.79
544.316	10224.18
544.681	10199.32
545.045	10259.89
545.41	10349.6
545.774	10362.71
546.138	10444.06
546.503	10515.7
546.867	10489.94
547.231	10594.57
547.595	10532.65
547.959	10686.99
548.324	10688.12
548.688	10652.19
549.052	10688.12
549.416	10777.61
549.779	10815.8
550.143	10792.53
550.507	10889.02
550.871	10993.65
551.235	10955.91
551.599	11015.57
551.962	11066.19
552.326	11039.75
552.689	11150.26
553.053	11126.76
553.417	11134.21
553.78	11294.21
554.143	11178.51
554.507	11258.5
554.87	11297.37
555.234	11457.59
555.597	11401.32
555.96	11417.37
556.323	11457.14
556.686	11386.86
557.05	11524.26
557.413	11614.43
557.776	11595.44
558.139	11632.96
558.502	11669.34
558.865	11624.14
559.228	11766.06
559.59	11837.25
559.953	11843.35
560.316	11910.69
560.679	11927.19
561.041	11993.63
561.404	12009.44
561.767	12115.43
562.129	12074.75
562.492	12193.85
562.854	12166.28
563.217	12148.88
563.579	12300.51
563.941	12326.95
564.304	12341.64
564.666	12415.76
565.028	12420.05
565.39	12431.58
565.753	12609.43
566.115	12604
566.477	12654.17
566.839	12695.3
567.201	12693.95
567.563	12719.26
567.925	12889.42
568.287	12793.15
568.648	12887.16
569.01	12982.75
569.372	13078.57
569.734	12978.68
570.095	13063.65
570.457	13209.41
570.819	13189.75
571.18	13251.45
571.542	13307.49
571.903	13344.78
572.265	13388.16
572.626	13479.24
572.987	13485.56
573.349	13616.18
573.71	13765.56
574.071	13819.11
574.432	13770.98
574.794	13961.48
575.155	13999.45
575.516	13939.79
575.877	14158.31
576.238	14180.46
576.599	14373.45
576.96	14354.02
577.32	14501.36
577.681	14610.73
578.042	14674.23
578.403	14815.47
578.763	14901.57
579.124	15018.4
579.485	15180.89
579.845	15288.91
580.206	15347.89
580.566	15515.79
580.927	15746.07
581.287	15933.18
581.648	15921.43
582.008	16267.41
582.368	16346.28
582.728	16552.38
583.089	16690.9
583.449	16860.16
583.809	17023.78
584.169	17318.91
584.529	17410.66
584.889	17751.21
585.249	17956.41
585.609	18071.21
585.969	18450.18
586.329	18516.84
586.688	18745.31
587.048	18993.89
587.408	19309.37
587.768	19531.05
588.127	19775.57
588.487	19945.96
588.846	20266.63
589.206	20331.03
589.565	20780.96
589.925	20978.47
590.284	21187.96
590.643	21544.11
591.003	21926.02
591.362	22231.1
591.721	22333.24
592.08	22654.36
592.44	22994.01
592.799	23217.96
593.158	23485.53
593.517	23861.56
593.876	24149.01
594.235	24390.59
594.593	24521.43
594.952	25066.73
595.311	25074.19
595.67	25571.8
596.029	25942.86
596.387	26269.63
596.746	26578.33
597.104	26636.86
597.463	27022.16
597.822	27319.32
598.18	27484.74
598.538	27760.67
598.897	28174.67
599.255	28305.06
599.613	28961.31
599.972	29055.55
600.33	29368.54
600.688	29498.48
601.046	29785.7
601.404	30234.73
601.762	30292.35
602.12	30792
602.478	31022.28
602.836	31178.88
603.194	31284.19
603.552	31532.09
603.91	31718.53
604.268	32145.41
604.625	32375.91
604.983	32589.02
605.341	32626.76
605.698	33037.37
606.056	33356.23
606.413	33494.08
606.771	33838.7
607.128	34062.65
607.485	34051.58
607.843	34258.35
608.2	34740.15
608.557	35020.14
608.914	34978.56
609.272	35355.04
609.629	35529.05
609.986	35844.07
610.343	35863.51
610.7	36305.98
611.057	36385.3
611.414	36557.05
611.771	36629.81
612.127	36899.41
612.484	37039.29
612.841	37321.32
613.198	37412.62
613.554	37421.43
613.911	37843.57
614.267	37860.06
614.624	38123.11
614.98	38089.66
615.337	38566.71
615.693	38507.5
616.05	38543.44
616.406	38897.32
616.762	38871.79
617.118	39065.68
617.475	38999.02
617.831	39281.95
618.187	39462.28
618.543	39607.36
618.899	39861.59
619.255	40020.68
619.611	40160.34
619.967	40258.42
620.323	40305.2
620.678	40396.95
621.034	40355.14
621.39	40453.67
621.746	40444.18
622.101	41022.92
622.457	40711.74
622.812	40924.16
623.168	40912.86
623.523	41035.8
623.879	41247.55
624.234	41082.35
624.589	41168
624.945	41200.77
625.3	41413.42
625.655	41350.82
626.01	41466.52
626.365	41583.36
626.72	41679.85
627.075	41626.52
627.43	41673.07
627.785	41700.87
628.14	41844.37
628.495	41819.96
628.85	42031.71
629.205	41825.84
629.559	42181.08
629.914	41903.12
630.269	41992.38
630.623	41873.52
630.978	41909.45
631.332	42019.05
631.687	42239.38
632.041	42061.54
632.396	42066.73
632.75	42068.09
633.104	42171.14
633.459	41969.56
633.813	42054.3
634.167	42083.68
634.521	42044.81
634.875	42145.6
635.229	42056.79
635.583	41935.66
635.937	41994.64
636.291	41932.27
636.645	41956.68
636.999	41827.42
637.352	42010.01
637.706	41890.92
638.06	42023.34
638.413	41937.47
638.767	41671.49
639.121	41863.12
639.474	41807.3
639.828	41683.92
640.181	41860.64
640.534	41883.46
640.888	41751.71
641.241	41611.83
641.594	41730.47
641.947	41801.43
642.301	41594.43
642.654	41730.24
643.007	41673.97
643.36	41747.65
643.713	41599.17
644.066	41666.29
644.419	41606.18
644.771	41400.76
645.124	40807.33
645.477	41063.37
645.83	40559.43
646.182	40635.81
646.535	40319.89
646.888	40587.45
647.24	40343.61
647.593	40542.71
647.945	40427.45
648.298	40361.47
648.65	40276.27
649.002	40203.28
649.355	40364.63
649.707	40238.76
650.059	40527.79
650.411	40936.37
650.763	40873.77
651.115	41284.15
651.467	41187.89
651.819	41129.58
652.171	40956.93
652.523	41036.93
652.875	40993.77
653.227	40797.84
653.578	41204.83
653.93	41106.76
654.282	40928.46
654.633	40798.74
654.985	40795.81
655.337	40857.95
655.688	40786.09
656.039	40980.66
656.391	40483.5
656.742	40774.34
657.094	40752.19
657.445	40853.88
657.796	40788.8
658.147	40580.44
658.498	40691.63
658.849	40755.58
659.2	40716.26
659.551	40637.39
659.902	40758.52
660.253	40679.88
660.604	40786.77
660.955	40569.6
661.306	40620.9
661.656	40593.55
662.007	40722.36
662.358	40617.28
662.708	40732.76
663.059	40602.14
663.409	40473.33
663.76	40647.79
664.11	40654.34
664.461	40739.99
664.811	40746.09
665.161	40579.77
665.511	40660.89
665.862	40485.98
666.212	40627.9
666.562	40746.54
666.912	40593.78
667.262	40499.09
667.612	40394.01
667.962	40568.47
668.312	40433.33
668.662	40617.96
669.011	40553.1
669.361	40416.61
669.711	40459.32
670.06	40374.8
670.41	40233.33
670.76	40331.41
671.109	40390.39
671.459	40356.27
671.808	40337.06
672.157	40523.95
672.507	40005.32
672.856	40090.06
673.205	40160.57
673.554	40237.18
673.904	40167.57
674.253	40339.32
674.602	40145.88
674.951	39669.73
675.3	39436.52
675.649	40215.26
675.998	40063.17
676.346	40085.32
676.695	40342.26
677.044	39915.6
677.393	40072.44
677.741	40175.71
678.09	39953.34
678.438	39851.42
678.787	39949.27
679.135	39893.46
679.484	39652.79
679.832	39852.55
680.181	39571.88
680.529	39792.89
680.877	39574.82
681.225	39579.34
681.573	39775.72
681.922	39438.55
682.27	39375.05
682.618	39319.69
682.966	39297.99
683.314	39227.03
683.661	39314.26
684.009	39062.52
684.357	39020.26
684.705	39054.38
685.053	39068.39
685.4	39037.66
685.748	38681.51
686.095	38777.1
686.443	38603.55
686.79	38676.09
687.138	38646.71
687.485	38731.45
687.832	38556.32
688.18	38516.77
688.527	38398.58
688.874	38281.52
689.221	38200.85
689.568	38176.67
689.915	38088.76
690.262	37989.33
690.609	37923.79
690.956	37838.6
691.303	37706.4
691.65	37650.8
691.997	37646.96
692.344	37347.99
692.69	37359.74
693.037	37455.78
693.383	37128.78
693.73	37276.8
694.077	36959.52
694.423	36999.97
694.769	36889.02
695.116	36796.14
695.462	36774.44
695.808	36585.75
696.155	36696.48
696.501	36473.89
696.847	36489.7
697.193	36093.33
697.539	36326.77
697.885	36069.83
698.231	35926.78
698.577	35978.76
698.923	35828.93
699.269	35750.29
699.614	35493.57
699.96	35526.57
700.306	35502.61
700.651	35351.66
700.997	35258.55
701.342	35211.32
701.688	35009.07
702.033	35019.91
702.379	35052.91
702.724	34891.78
703.069	34900.14
703.415	34557.55
703.76	34633.26
704.105	34636.65
704.45	34461.51
704.795	34328.18
705.14	34204.79
705.485	34292.7
705.83	34106.72
706.175	34199.14
706.52	34023.78
706.865	33970.67
707.209	33765.48
707.554	33758.02
707.899	33890.45
708.243	33711.47
708.588	33658.14
708.932	33363.23
709.277	33477.81
709.621	33326.4
709.966	33018.38
710.31	33266.96
710.654	32892.51
710.998	32950.81
711.342	33042.11
711.687	32904.71
712.031	32780.2
712.375	32602.35
712.719	32627.43
713.063	32567.77
713.407	32651.61
713.75	32440.77
714.094	32471.28
714.438	32377.27
714.782	32352.19
715.125	32186.99
715.469	32308.8
715.812	32076.04
716.156	31907.68
716.499	31959.88
716.843	31983.61
717.186	31887.79
717.53	31910.84
717.873	31842.82
718.216	31747.68
718.559	31535.03
718.902	31462.27
719.246	31632.88
719.589	31282.84
719.932	31385.66
720.275	31408.03
720.617	31357.64
720.96	31210.3
721.303	31243.74
721.646	31167.13
721.989	30977.08
722.331	31044.88
722.674	30978.44
723.016	30975.5
723.359	30854.6
723.701	30853.24
724.044	30675.62
724.386	30625.23
724.729	30712.68
725.071	30649.18
725.413	30654.6
725.755	30551.78
726.097	30467.94
726.439	30314.05
726.782	30316.76
727.124	30565.79
727.465	30280.38
727.807	30222.52
728.149	30233.37
728.491	30200.15
728.833	30197.21
729.175	29988.41
729.516	30032.47
729.858	29974.62
730.199	29959.93
730.541	29912.02
730.882	29847.62
731.224	29821.41
731.565	29771.46
731.906	29799.94
732.248	29758.58
732.589	29538.7
732.93	29453.96
733.271	29536.67
733.612	29629.77
733.953	29444.24
734.294	29376.67
734.635	29279.72
734.976	29418.48
735.317	29228.2
735.658	29270.69
735.999	29255.32
736.339	29127.19
736.68	29100.52
737.021	29094.64
737.361	29122.44
737.702	29138.03
738.042	28999.51
738.383	28899.4
738.723	29043.35
739.063	28822.56
739.404	28869.34
739.744	28749.79
740.084	28795.9
740.424	28765.39
740.764	28676.12
741.104	28751.83
741.444	28510.48
741.784	28501.67
742.124	28549.8
742.464	28419.41
742.804	28355.91
743.143	28236.81
743.483	28348.45
743.823	28096.03
744.162	28272.29
744.502	28230.26
744.841	28108.68
745.181	28224.16
745.52	28038.63
745.86	28119.08
746.199	27989.81
746.538	27991.17
746.877	28007.89
747.216	27962.24
747.556	27818.75
747.895	27901
748.234	27779.88
748.573	27665.76
748.911	27773.55
749.25	27614.01
749.589	27502.82
749.928	27598.41
750.267	27674.79
750.605	27502.14
750.944	27400.68
751.283	27279.1
751.621	27496.72
751.96	27300.12
752.298	27204.52
752.636	27337.63
752.975	27248.37
753.313	27078.88
753.651	27190.74
753.989	26989.84
754.327	26883.63
754.666	26893.12
755.004	26927.24
755.342	26873.91
755.679	26675.95
756.017	26769.96
756.355	26672.56
756.693	26738.1
757.031	26656.52
757.368	26486.13
757.706	26525.45
758.044	26323.87
758.381	26445.9
758.719	26253.82
