Data from hue_330_FLMS001491_23.txt Node
Date: Mon Feb 06 15:45:09 GMT 2017
User: dcchb
Spectrometer: FLMS00149
Trigger mode: 0
Integration Time (sec): 2.000000E-2
Scans to average: 10
Electric dark correction enabled: true
Nonlinearity correction enabled: false
Boxcar width: 0
XAxis mode: Wavelengths
Number of Pixels in Spectrum: 2048
>>>>>Begin Spectral Data<<<<<
341.393	-11.1
341.776	-11.1
342.16	-11.1
342.543	-69.4
342.927	-69.4
343.31	-45
343.693	-60.14
344.077	-82.74
344.46	-66.69
344.843	-47.26
345.226	-40.93
345.61	-22.63
345.993	-26.02
346.376	0.88
346.759	20.31
347.142	-1.38
347.525	31.61
347.908	64.83
348.291	77.48
348.674	85.17
349.057	112.51
349.44	139.18
349.823	144.37
350.206	138.05
350.588	190.48
350.971	212.62
351.354	211.72
351.737	246.52
352.119	264.82
352.502	261.66
352.884	281.32
353.267	277.03
353.65	277.48
354.032	301.88
354.414	291.72
354.797	306.4
355.179	317.93
355.562	319.06
355.944	303.47
356.326	326.74
356.709	320.42
357.091	310.47
357.473	346.18
357.855	322.68
358.238	333.3
358.62	330.81
359.002	335.78
359.384	326.97
359.766	344.6
360.148	340.98
360.53	341.21
360.912	325.84
361.294	325.61
361.676	335.56
362.057	339.17
362.439	318.61
362.821	326.29
363.203	326.52
363.584	312.28
363.966	315.9
364.348	332.17
364.729	327.65
365.111	312.96
365.493	322.22
365.874	316.12
366.256	312.05
366.637	296.91
367.019	311.6
367.4	316.57
367.781	314.31
368.163	321.77
368.544	309.57
368.925	296.91
369.306	297.82
369.688	326.06
370.069	306.86
370.45	317.7
370.831	315.9
371.212	287.87
371.593	320.19
371.974	312.51
372.355	314.31
372.736	299.62
373.117	309.79
373.498	314.54
373.879	309.34
374.26	321.32
374.641	294.88
375.021	287.65
375.402	325.61
375.783	316.12
376.163	305.5
376.544	306.86
376.925	330.81
377.305	313.64
377.686	310.7
378.066	337.14
378.447	345.5
378.827	332.39
379.208	332.17
379.588	338.27
379.968	319.06
380.349	322.22
380.729	328.1
381.109	341.66
381.489	331.04
381.87	319.51
382.25	353.41
382.63	349.34
383.01	344.37
383.39	353.18
383.77	341.21
384.15	337.36
384.53	338.49
384.91	347.08
385.29	343.92
385.67	343.69
386.049	346.18
386.429	342.34
386.809	348.44
387.189	344.6
387.568	351.37
387.948	347.31
388.328	344.82
388.707	353.18
389.087	362
389.466	349.57
389.846	371.04
390.225	357.25
390.605	351.83
390.984	376.91
391.363	355.44
391.743	369.23
392.122	357.25
392.501	344.37
392.881	362.9
393.26	355.89
393.639	362.9
394.018	376.46
394.397	380.3
394.776	392.28
395.155	374.65
395.534	373.75
395.913	369.45
396.292	390.47
396.671	376.91
397.05	368.1
397.429	377.81
397.808	369.68
398.186	390.47
398.565	371.49
398.944	377.59
399.323	389.79
399.701	379.85
400.08	389.11
400.458	395.44
400.837	407.64
401.215	397.02
401.594	382.11
401.972	411.49
402.351	423.69
402.729	413.29
403.107	413.29
403.486	425.5
403.864	419.85
404.242	398.61
404.62	430.02
404.999	433.18
405.377	414.2
405.755	430.47
406.133	420.98
406.511	419.85
406.889	421.43
407.267	432.95
407.645	430.69
408.023	445.61
408.401	440.19
408.779	450.13
409.156	451.03
409.534	475.44
409.912	461.88
410.29	476.8
410.667	477.02
411.045	478.83
411.422	494.2
411.8	469.34
412.178	475.89
412.555	513.4
412.933	518.6
413.31	530.58
413.687	523.8
414.065	510.92
414.442	532.16
414.819	523.35
415.197	524.48
415.574	536.45
415.951	525.83
416.328	564.93
416.705	553.86
417.082	563.35
417.46	559.73
417.837	552.05
418.214	584.59
418.591	581.88
418.967	576.23
419.344	592.95
419.721	590.69
420.098	604.02
420.475	622.78
420.852	604.25
421.228	618.03
421.605	601.76
421.982	613.51
422.358	619.84
422.735	634.53
423.111	658.26
423.488	660.97
423.864	659.84
424.241	669.33
424.617	661.2
424.994	682.89
425.37	680.41
425.746	679.28
426.123	677.69
426.499	712.95
426.875	713.85
427.251	710.01
427.627	722.66
428.003	738.94
428.379	729.9
428.756	718.82
429.132	754.98
429.507	746.39
429.883	772.83
430.259	770.57
430.635	772.15
431.011	803.11
431.387	814.64
431.763	804.24
432.138	803.34
432.514	816.67
432.89	824.81
433.265	825.49
433.641	843.79
434.016	839.95
434.392	869.1
434.767	886.5
435.143	888.08
435.518	876.33
435.894	901.19
436.269	885.82
436.644	928.53
437.02	912.94
437.395	923.34
437.77	945.03
438.145	963.56
438.52	936.9
438.895	964.69
439.271	950.68
439.646	965.37
440.021	980.96
440.395	958.14
440.77	971.7
441.145	969.89
441.52	1019.83
441.895	1008.53
442.27	1006.5
442.645	1000.62
443.019	1031.81
443.394	1014.18
443.769	1043.79
444.143	1011.92
444.518	1065.03
444.892	1049.44
445.267	1050.57
445.641	1074.52
446.016	1071.58
446.39	1051.02
446.764	1071.36
447.139	1057.12
447.513	1089.21
447.887	1084.91
448.262	1087.63
448.636	1075.65
449.01	1091.24
449.384	1079.27
449.758	1115.42
450.132	1114.07
450.506	1098.02
450.88	1137.57
451.254	1133.95
451.628	1126.04
452.002	1159.26
452.376	1137.34
452.75	1137.57
453.123	1151.13
453.497	1152.48
453.871	1182.99
454.244	1193.39
454.618	1205.59
454.992	1225.48
455.365	1216.89
455.739	1199.04
456.112	1247.62
456.486	1233.84
456.859	1245.81
457.232	1272.48
457.606	1274.51
457.979	1270.22
458.352	1309.32
458.725	1315.64
459.099	1311.35
459.472	1349.31
459.845	1347.96
460.218	1331.69
460.591	1325.59
460.964	1334.17
461.337	1378.24
461.71	1378.92
462.083	1403.78
462.456	1408.75
462.829	1417.34
463.201	1449.2
463.574	1426.6
463.947	1438.13
464.32	1469.99
464.692	1482.42
465.065	1474.28
465.438	1495.3
465.81	1484.45
466.183	1524.68
466.555	1538.01
466.928	1533.72
467.3	1530.1
467.672	1580.95
468.045	1610.78
468.417	1611
468.789	1618.91
469.161	1641.06
469.534	1649.87
469.906	1699.59
470.278	1678.8
470.65	1702.98
471.022	1714.05
471.394	1723.77
471.766	1747.72
472.138	1736.2
472.51	1805.8
472.882	1836.76
473.253	1813.03
473.625	1856.87
473.997	1892.35
474.369	1923.09
474.74	1923.99
475.112	1938.68
475.484	1954.04
475.855	2024.55
476.227	2020.71
476.598	2038.56
476.97	2072.91
477.341	2081.05
477.713	2114.49
478.084	2137.32
478.455	2179.8
478.827	2200.14
479.198	2241.95
479.569	2234.94
479.94	2300.25
480.311	2283.08
480.682	2342.96
481.053	2385.67
481.424	2409.63
481.795	2426.8
482.166	2476.97
482.537	2474.93
482.908	2527.36
483.279	2544.54
483.65	2561.71
484.021	2632.22
484.391	2673.35
484.762	2690.75
485.133	2742.72
485.503	2709.51
485.874	2775.27
486.244	2794.02
486.615	2816.17
486.985	2846.9
487.356	2916.05
487.726	2913.12
488.097	2962.15
488.467	3022.49
488.837	3032.43
489.207	3022.49
489.578	3148.59
489.948	3123.51
490.318	3161.24
490.688	3171.87
491.058	3204.41
491.428	3249.15
491.798	3287.34
492.168	3333.9
492.538	3347
492.908	3352.2
493.278	3372.09
493.648	3410.28
494.017	3445.08
494.387	3421.8
494.757	3472.2
495.126	3526.66
495.496	3539.99
495.866	3528.47
496.235	3603.27
496.605	3612.98
496.974	3619.99
497.344	3675.36
497.713	3628.12
498.082	3688.46
498.452	3747.9
498.821	3744.51
499.19	3723.04
499.559	3786.54
499.928	3803.26
500.298	3812.75
500.667	3813.2
501.036	3824.05
501.405	3883.26
501.774	3867.21
502.143	3878.29
502.512	3927.33
502.88	3945.86
503.249	3951.05
503.618	3985.86
503.987	4001.67
504.356	3990.83
504.724	4036.48
505.093	4053.65
505.462	4000.77
505.83	4021.56
506.199	4087.55
506.567	4097.94
506.936	4106.08
507.304	4144.04
507.672	4167.09
508.041	4142.46
508.409	4214.55
508.777	4184.95
509.145	4183.59
509.514	4223.82
509.882	4232.63
510.25	4248.22
510.618	4266.07
510.986	4280.76
511.354	4262.23
511.722	4337.48
512.09	4375.9
512.458	4336.35
512.826	4337.71
513.193	4354.89
513.561	4390.14
513.929	4388.33
514.297	4401.44
514.664	4399.18
515.032	4446.63
515.4	4510.81
515.767	4542.45
516.135	4464.94
516.502	4466.52
516.869	4533.19
517.237	4569.57
517.604	4538.61
517.972	4563.02
518.339	4578.16
518.706	4549.91
519.073	4605.5
519.44	4640.98
519.808	4616.57
520.175	4623.58
520.542	4651.37
520.909	4705.84
521.276	4691.37
521.643	4729.56
522.009	4698.83
522.376	4728.21
522.743	4776.12
523.11	4809.11
523.477	4880.07
523.843	4820.86
524.21	4906.96
524.577	4910.35
524.943	4878.04
525.31	4920.52
525.676	4981.99
526.043	4970.46
526.409	5039.61
526.776	5055.43
527.142	5026.96
527.508	5090.23
527.874	5070.57
528.241	5125.94
528.607	5126.84
528.973	5129.33
529.339	5170.68
529.705	5252.04
530.071	5226.95
530.437	5254.52
530.803	5253.84
531.169	5318.02
531.535	5284.58
531.901	5313.05
532.267	5322.77
532.632	5352.37
532.998	5454.74
533.364	5458.59
533.73	5473.27
534.095	5515.31
534.461	5445.7
534.826	5565.93
535.192	5534.52
535.557	5595.53
535.923	5602.99
536.288	5646.6
536.653	5640.73
537.019	5605.93
537.384	5680.5
537.749	5693.16
538.114	5736.09
538.479	5772.93
538.845	5773.15
539.21	5766.15
539.575	5787.84
539.94	5786.26
540.305	5866.94
540.67	5850.44
541.034	5864.68
541.399	5906.71
541.764	5935.63
542.129	5968.4
542.494	5999.36
542.858	5981.96
543.223	6060.38
543.587	6098.34
543.952	6056.08
544.316	6071.9
544.681	6113.48
545.045	6123.2
545.41	6147.83
545.774	6196.64
546.138	6190.77
546.503	6252.46
546.867	6242.75
547.231	6317.09
547.595	6301.5
547.959	6342.63
548.324	6367.04
548.688	6313.03
549.052	6369.97
549.416	6408.16
549.779	6403.87
550.143	6381.27
550.507	6519.8
550.871	6505.56
551.235	6512.79
551.599	6598.44
551.962	6580.82
552.326	6563.41
552.689	6581.04
553.053	6582.85
553.417	6626.46
553.78	6691.1
554.143	6639.35
554.507	6687.25
554.87	6694.71
555.234	6764.99
555.597	6758.21
555.96	6692.9
556.323	6746.46
556.686	6774.48
557.05	6819.23
557.413	6853.8
557.776	6838.44
558.139	6865.1
558.502	6917.08
558.865	6914.37
559.228	6964.53
559.59	6967.7
559.953	6981.03
560.316	7057.64
560.679	7073.23
561.041	7104.42
561.404	7053.35
561.767	7157.75
562.129	7162.04
562.492	7240.01
562.854	7237.52
563.217	7191.42
563.579	7209.95
563.941	7253.79
564.304	7249.72
564.666	7332.89
565.028	7335.82
565.39	7320.91
565.753	7376.05
566.115	7416.73
566.477	7440
566.839	7399.33
567.201	7498.31
567.563	7479.78
567.925	7560.45
568.287	7527.68
568.648	7574.01
569.01	7601.81
569.372	7677.96
569.734	7686.78
570.095	7739.43
570.457	7715.25
570.819	7812.65
571.18	7817.39
571.542	7830.27
571.903	7839.99
572.265	7951.63
572.626	7988.69
572.987	8028.69
573.349	8011.96
573.71	8048.57
574.071	8133.77
574.432	8205.86
574.794	8254.67
575.155	8298.06
575.516	8323.59
575.877	8330.6
576.238	8411.73
576.599	8513.65
576.96	8575.11
577.32	8599.52
577.681	8708.9
578.042	8851.26
578.403	8913.18
578.763	8960.19
579.124	9056
579.485	9178.49
579.845	9320.4
580.206	9395.66
580.566	9517.01
580.927	9557.69
581.287	9818.02
581.648	9822.99
582.008	9928.75
582.368	10133.72
582.728	10309.08
583.089	10447.15
583.449	10541.16
583.809	10741.16
584.169	10901.83
584.529	11031.55
584.889	11316.06
585.249	11302.27
585.609	11581.81
585.969	11780.68
586.329	11987.68
586.688	12165.3
587.048	12422.02
587.408	12608.23
587.768	12850.03
588.127	13093.86
588.487	13290.24
588.846	13603
589.206	13748.76
589.565	13940.62
589.925	14300.39
590.284	14539.25
590.643	14769.75
591.003	15081.38
591.362	15346.01
591.721	15614.25
592.08	15841.14
592.44	16137.17
592.799	16420.1
593.158	16688.12
593.517	16907.1
593.876	17272.51
594.235	17528.55
594.593	17807.19
594.952	18135.77
595.311	18360.39
595.67	18736.88
596.029	19063.88
596.387	19263.87
596.746	19648.49
597.104	19900.24
597.463	20244.64
597.822	20448.02
598.18	20602.59
598.538	20954
598.897	21279.64
599.255	21495.68
599.613	22015.66
599.972	22156.9
600.33	22522.77
600.688	22649.55
601.046	23018.8
601.404	23388.74
601.762	23584.21
602.12	24031.88
602.478	24200.92
602.836	24360.69
603.194	24590.96
603.552	24918.86
603.91	25016.72
604.268	25326.54
604.625	25581.45
604.983	25966.29
605.341	26002.23
605.698	26426.62
606.056	26743
606.413	26898.25
606.771	27155.19
607.128	27433.15
607.485	27582.3
607.843	27779.81
608.2	28143.41
608.557	28504.08
608.914	28441.03
609.272	28800.8
609.629	29179.09
609.986	29254.8
610.343	29344.96
610.7	29703.82
611.057	29872.41
611.414	29922.8
611.771	30253.19
612.127	30595.78
612.484	30577.47
612.841	30991.93
613.198	30925.94
613.554	31134.75
613.911	31559.37
614.267	31512.82
614.624	31742.64
614.98	31898.12
615.337	32186.7
615.693	32220.37
616.05	32331.33
616.406	32570.87
616.762	32754.14
617.118	32855.61
617.475	32881.37
617.831	33125.88
618.187	33292.43
618.543	33418.98
618.899	33802.92
619.255	33736.49
619.611	33848.12
619.967	34061.45
620.323	34203.82
620.678	34244.95
621.034	34163.14
621.39	34340.54
621.746	34518.39
622.101	34873.18
622.457	34742.79
622.812	34947.3
623.168	35006.28
623.523	35102.1
623.879	35159.27
624.234	35276.11
624.589	35377.8
624.945	35472.26
625.3	35547.74
625.655	35623.89
626.01	35686.72
626.365	35724.68
626.72	35731.24
627.075	35811.01
627.43	35954.73
627.785	35857.33
628.14	36063.43
628.495	36160.15
628.85	36126.71
629.205	36089.42
629.559	36418.22
629.914	36228.4
630.269	36380.26
630.623	36237.89
630.978	36212.35
631.332	36517.66
631.687	36669.52
632.041	36467.04
632.396	36639.23
632.75	36436.08
633.104	36612.57
633.459	36511.55
633.813	36593.36
634.167	36569.86
634.521	36609.63
634.875	36624.77
635.229	36523.98
635.583	36359.47
635.937	36584.32
636.291	36545
636.645	36575.96
636.999	36597.88
637.352	36795.16
637.706	36458
638.06	36811.21
638.413	36759.46
638.767	36561.27
639.121	36653.25
639.474	36408.28
639.828	36494.83
640.181	36603.98
640.534	36545.9
640.888	36545.23
641.241	36369.64
641.594	36602.63
641.947	36595.62
642.301	36356.76
642.654	36612.79
643.007	36530.54
643.36	36453.25
643.713	36366.47
644.066	36569.86
644.419	36352.24
644.771	36128.97
645.124	35772.59
645.477	35900.72
645.83	35550.9
646.182	35383.67
646.535	35369.44
646.888	35579.15
647.24	35259.38
647.593	35568.08
647.945	35317.69
648.298	35307.07
648.65	35174.19
649.002	35231.14
649.355	35349.55
649.707	35166.5
650.059	35360.4
650.411	35856.2
650.763	35992.92
651.115	36359.69
651.467	36213.03
651.819	36091
652.171	36192.92
652.523	35880.61
652.875	36139.81
653.227	36064.79
653.578	36289.41
653.93	36084.9
654.282	35981.85
654.633	35912.25
654.985	36085.58
655.337	36044.22
655.688	35924
656.039	36059.59
656.391	35791.57
656.742	35881.51
657.094	35893.49
657.445	36017.78
657.796	35937.78
658.147	35796.32
658.498	35801.52
658.849	35916.09
659.2	35814.17
659.551	35672.48
659.902	35886.71
660.253	35710.67
660.604	35884
660.955	35626.15
661.306	35768.07
661.656	35772.59
662.007	35741.4
662.358	35614.4
662.708	35756.32
663.059	35715.87
663.409	35444.69
663.76	35713.38
664.11	35769.65
664.461	35749.77
664.811	35739.15
665.161	35846.71
665.511	35730.11
665.862	35718.13
666.212	35745.02
666.562	35797.22
666.912	35697.56
667.262	35602.65
667.612	35678.81
667.962	35637.23
668.312	35515.2
668.662	35868.86
669.011	35642.2
669.361	35622.09
669.711	35634.97
670.06	35405.37
670.41	35437.46
670.76	35470.68
671.109	35688.52
671.459	35483.56
671.808	35456.89
672.157	35569.88
672.507	35402.2
672.856	35450.34
673.205	35371.25
673.554	35524.01
673.904	35409.89
674.253	35580.51
674.602	35506.83
674.951	34910.47
675.3	34712.05
675.649	35340.96
675.998	35283.11
676.346	35284.47
676.695	35384.13
677.044	35172.83
677.393	35226.16
677.741	35404.46
678.09	35278.59
678.438	35112.27
678.787	35211.25
679.135	35156.34
679.484	34972.61
679.832	35062.1
680.181	34884.25
680.529	35030.46
680.877	34905.72
681.225	35024.14
681.573	35052.16
681.922	34785.27
682.27	34816.91
682.618	34876.57
682.966	34573.98
683.314	34727.42
683.661	34637.25
684.009	34516.58
684.357	34483.58
684.705	34383.93
685.053	34498.27
685.4	34422.8
685.748	34312.52
686.095	34346.41
686.443	34043.37
686.79	34073.2
687.138	34212.63
687.485	34149.36
687.832	33919.76
688.18	34009.25
688.527	33829.36
688.874	33797.5
689.221	33706.43
689.568	33750.95
689.915	33692.19
690.262	33484.29
690.609	33459.88
690.956	33380.56
691.303	33404.74
691.65	33227.8
691.997	33228.93
692.344	33025.54
692.69	32965.43
693.037	33084.75
693.383	32723.86
693.73	32874.36
694.077	32615.61
694.423	32645.44
694.769	32612.67
695.116	32559.57
695.462	32494.48
695.808	32357.77
696.155	32497.87
696.501	32096.3
696.847	32267.37
697.193	32070.54
697.539	32092.91
697.885	31770.44
698.231	31814.5
698.577	31820.15
698.923	31857.89
699.269	31549.42
699.614	31374.97
699.96	31404.57
700.306	31627.61
700.651	31307.85
700.997	31203.22
701.342	31075.76
701.688	31101.3
702.033	30971.36
702.379	30965.71
702.724	30871.25
703.069	30853.17
703.415	30504.71
703.76	30621.54
704.105	30588.32
704.45	30536.8
704.795	30419.96
705.14	30233.3
705.485	30334.99
705.83	30167.31
706.175	30158.27
706.52	30092.29
706.865	30001.89
707.209	29945.17
707.554	29852.97
707.899	29953.76
708.243	29808
708.588	29700.43
708.932	29574.56
709.277	29526.2
709.621	29548.35
709.966	29256.15
710.31	29273.55
710.654	29146.78
710.998	29168.24
711.342	29204.63
711.687	29013.67
712.031	28912.43
712.375	28828.82
712.719	28941.58
713.063	28867.91
713.407	29048.47
713.75	28776.39
714.094	28757.41
714.438	28553.12
714.782	28638.77
715.125	28396.51
715.469	28370.75
715.812	28343.18
716.156	28253.24
716.499	28258.89
716.843	28452.56
717.186	28132.11
717.53	28168.72
717.873	28261.6
718.216	28103.19
718.559	28016.86
718.902	27901.61
719.246	28027.71
719.589	27859.35
719.932	27719.02
720.275	27789.52
720.617	27774.61
720.96	27759.47
721.303	27607.83
721.646	27578
721.989	27516.76
722.331	27529.64
722.674	27376.88
723.016	27413.04
723.359	27409.19
723.701	27395.18
724.044	27274.73
724.386	27068.41
724.729	27195.87
725.071	27123.33
725.413	26998.13
725.755	27134.4
726.097	27041.75
726.439	26936.21
726.782	26983.44
727.124	27003.56
727.465	26812.6
727.807	26893.95
728.149	26737.35
728.491	26624.36
728.833	26761.08
729.175	26560.4
729.516	26626.84
729.858	26518.82
730.199	26578.93
730.541	26438.6
730.882	26472.04
731.224	26492.83
731.565	26336.23
731.906	26289.68
732.248	26281.54
732.589	26301.43
732.93	25999.29
733.271	26077.7
733.612	26161.09
733.953	26088.1
734.294	26043.35
734.635	26019.17
734.976	26007.42
735.317	25907.77
735.658	25922.23
735.999	25781.44
736.339	25798.39
736.68	25921.55
737.021	25719.97
737.361	25737.37
737.702	25801.1
738.042	25727.66
738.383	25706.41
738.723	25622.35
739.063	25545.97
739.404	25513.43
739.744	25603.37
740.084	25350.49
740.424	25435.24
740.764	25382.13
741.104	25434.33
741.444	25337.61
741.784	25234.79
742.124	25271.85
742.464	25315.46
742.804	25120.44
743.143	25041.12
743.483	25162.47
743.823	25049.48
744.162	25124.73
744.502	25001.57
744.841	24978.98
745.181	24957.96
745.52	24958.64
745.86	24969.26
746.199	24830.51
746.538	24786.89
746.877	24798.19
747.216	24796.83
747.556	24703.05
747.895	24642.26
748.234	24486.11
748.573	24568.82
748.911	24490.4
749.25	24522.04
749.589	24424.19
749.928	24399.1
750.267	24367.01
750.605	24255.61
750.944	24270.52
751.283	24198.88
751.621	24106.23
751.96	24152.78
752.298	24069.62
752.636	24070.98
752.975	23955.27
753.313	23936.52
753.651	23942.17
753.989	23837.31
754.327	23877.76
754.666	23705.56
755.004	23688.84
755.342	23681.38
755.679	23677.99
756.017	23401.16
756.355	23625.79
756.693	23358.91
757.031	23432.35
757.368	23389.41
757.706	23337.44
758.044	23228.06
758.381	23251.79
758.719	23099.25
759.056	23176.31
759.394	23089.53
759.731	22864.68
760.068	22961.85
760.405	22819.48
