Data from hue_220_FLMS001491_00068.txt Node
Date: Tue Feb 07 16:39:48 GMT 2017
User: dcchb
Spectrometer: FLMS00149
Trigger mode: 0
Integration Time (sec): 2.000000E-2
Scans to average: 10
Electric dark correction enabled: true
Nonlinearity correction enabled: false
Boxcar width: 0
XAxis mode: Wavelengths
Number of Pixels in Spectrum: 2048
>>>>>Begin Spectral Data<<<<<
341.393	-24.94
341.776	-24.94
342.16	-24.94
342.543	-52.29
342.927	-71.5
343.31	-67.88
343.693	-63.36
344.077	-58.39
344.46	-63.36
344.843	-71.5
345.226	-53.64
345.61	-29.24
345.993	-21.1
346.376	-12.74
346.759	9.18
347.142	29.52
347.525	49.63
347.908	73.81
348.291	77.2
348.674	84.21
349.057	117.65
349.44	126.69
349.823	147.03
350.206	166.92
350.588	185.9
350.971	206.24
351.354	236.52
351.737	228.61
352.119	255.5
352.502	254.37
352.884	272.9
353.267	298.66
353.65	295.73
354.032	301.6
354.414	312
354.797	334.14
355.179	321.71
355.562	320.81
355.944	333.47
356.326	314.03
356.709	336.86
357.091	327.36
357.473	348.38
357.855	341.83
358.238	338.44
358.62	349.28
359.002	335.27
359.384	334.37
359.766	351.09
360.148	338.21
360.53	347.93
360.912	333.24
361.294	335.27
361.676	322.39
362.057	318.78
362.439	338.66
362.821	335.05
363.203	333.47
363.584	339.57
363.966	325.1
364.348	306.12
364.729	314.48
365.111	309.74
365.493	335.05
365.874	295.05
366.256	307.7
366.637	308.38
367.019	280.13
367.4	305.22
367.781	307.7
368.163	324.43
368.544	300.7
368.925	312.68
369.306	304.77
369.688	301.6
370.069	291.66
370.45	305.44
370.831	289.85
371.212	291.88
371.593	298.44
371.974	323.97
372.355	330.75
372.736	309.74
373.117	311.55
373.498	313.13
373.879	313.58
374.26	314.03
374.641	318.32
375.021	308.16
375.402	315.84
375.783	302.05
376.163	336.4
376.544	332.11
376.925	349.74
377.305	310.42
377.686	329.62
378.066	306.35
378.447	316.97
378.827	318.32
379.208	311.77
379.588	312.9
379.968	340.92
380.349	329.17
380.729	348.38
381.109	319.45
381.489	309.74
381.87	329.85
382.25	316.52
382.63	340.02
383.01	326.91
383.39	339.34
383.77	358.32
384.15	332.56
384.53	336.4
384.91	338.89
385.29	336.4
385.67	352.67
386.049	342.73
386.429	341.6
386.809	345.44
387.189	345.67
387.568	337.99
387.948	348.83
388.328	330.75
388.707	336.86
389.087	365.78
389.466	354.93
389.846	349.74
390.225	349.74
390.605	360.81
390.984	366.91
391.363	368.95
391.743	368.95
392.122	371.66
392.501	361.71
392.881	369.85
393.26	367.36
393.639	382.96
394.018	396.29
394.397	361.71
394.776	358.55
395.155	366.91
395.534	382.05
395.913	373.24
396.292	394.71
396.671	392.22
397.05	377.98
397.429	387.93
397.808	385.22
398.186	389.28
398.565	394.26
398.944	386.35
399.323	414.82
399.701	387.93
400.08	392.67
400.458	399.23
400.837	384.54
401.215	416.63
401.594	419.11
401.972	426.57
402.351	393.8
402.729	403.75
403.107	431.99
403.486	408.04
403.864	412.11
404.242	408.27
404.62	438.1
404.999	429.96
405.377	422.28
405.755	429.73
406.133	447.59
406.511	446.46
406.889	432.9
407.267	467.47
407.645	476.06
408.023	469.06
408.401	469.51
408.779	445.33
409.156	449.39
409.534	486.68
409.912	499.79
410.29	512.44
410.667	512.22
411.045	511.54
411.422	527.81
411.8	521.71
412.178	527.13
412.555	545.66
412.933	546.57
413.31	565.1
413.687	552.22
414.065	594.93
414.442	583.85
414.819	594.02
415.197	596.96
415.574	596.96
415.951	603.06
416.328	640.8
416.705	613.01
417.082	631.31
417.46	630.63
417.837	646.68
418.214	631.09
418.591	676.73
418.967	693
419.344	643.06
419.721	698.65
420.098	706.79
420.475	699.33
420.852	702.95
421.228	708.15
421.605	733.46
421.982	759.9
422.358	755.6
422.735	768.48
423.111	759.9
423.488	800.57
423.864	804.41
424.241	793.57
424.617	832.44
424.994	849.84
425.37	860.23
425.746	850.74
426.123	861.59
426.499	881.02
426.875	894.36
427.251	936.61
427.627	934.35
428.003	937.52
428.379	945.2
428.756	962.38
429.132	963.28
429.507	992.43
429.883	1026.1
430.259	1010.51
430.635	1015.48
431.011	1010.28
431.387	1069.27
431.763	1064.52
432.138	1087.57
432.514	1088.47
432.89	1098.42
433.265	1143.16
433.641	1136.38
434.016	1154.46
434.392	1170.96
434.767	1219.32
435.143	1205.53
435.518	1253.67
435.894	1253.22
436.269	1288.24
436.644	1301.12
437.02	1326.43
437.395	1337.73
437.77	1348.81
438.145	1359.88
438.52	1427.9
438.895	1429.93
439.271	1400.56
439.646	1469.71
440.021	1488.46
440.395	1509.93
440.77	1505.64
441.145	1544.73
441.52	1539.76
441.895	1559.2
442.27	1590.38
442.645	1576.14
443.019	1631.28
443.394	1644.62
443.769	1655.46
444.143	1651.85
444.518	1664.96
444.892	1676.71
445.267	1696.59
445.641	1680.1
446.016	1719.87
446.39	1732.3
446.764	1742.47
447.139	1758.74
447.513	1791.96
447.887	1797.16
448.262	1782.24
448.636	1780.66
449.01	1840.09
449.384	1856.36
449.758	1848.91
450.132	1862.24
450.506	1883.26
450.88	1907.44
451.254	1887.1
451.628	1939.75
452.002	1942.24
452.376	1981.56
452.75	1957.38
453.123	1997.15
453.497	2014.33
453.871	2077.37
454.244	2071.95
454.618	2062.23
454.992	2116.02
455.365	2105.62
455.739	2170.71
456.112	2174.32
456.486	2196.02
456.859	2197.37
457.232	2253.42
457.606	2242.57
457.979	2277.37
458.352	2329.35
458.725	2332.74
459.099	2326.41
459.472	2381.77
459.845	2391.72
460.218	2414.32
460.591	2429.23
460.964	2469.91
461.337	2524.37
461.71	2539.28
462.083	2599.39
462.456	2565.05
462.829	2583.8
463.201	2610.24
463.574	2663.57
463.947	2663.8
464.32	2707.64
464.692	2725.27
465.065	2774.53
465.438	2772.27
465.81	2810.69
466.183	2850.91
466.555	2903.34
466.928	2885.04
467.3	2909.44
467.672	2979.27
468.045	3035.54
468.417	3014.75
468.789	3071.92
469.161	3140.17
469.534	3130
469.906	3167.06
470.278	3242.54
470.65	3242.77
471.022	3328.42
471.394	3338.58
471.766	3413.61
472.138	3398.24
472.51	3460.84
472.882	3531.8
473.253	3519.37
473.625	3586.71
473.997	3655.41
474.369	3703.77
474.74	3688.41
475.112	3770.44
475.484	3849.98
475.855	3856.54
476.227	3882.3
476.598	4016.98
476.97	3994.84
477.341	4173.59
477.713	4124.55
478.084	4192.12
478.455	4289.75
478.827	4281.16
479.198	4402.96
479.569	4376.07
479.94	4528.61
480.311	4543.3
480.682	4635.05
481.053	4717.76
481.424	4765.44
481.795	4819.45
482.166	4855.15
482.537	4920.92
482.908	4995.04
483.279	5030.52
483.65	5089.72
484.021	5216.05
484.391	5273.67
484.762	5276.84
485.133	5317.74
485.503	5388.47
485.874	5488.13
486.244	5509.15
486.615	5591.63
486.985	5648.81
487.356	5705.75
487.726	5766.09
488.097	5905.52
488.467	5846.32
488.837	6047.21
489.207	6035.24
489.578	6141.9
489.948	6155.69
490.318	6212.63
490.688	6267.32
491.058	6329.01
491.428	6329.24
491.798	6465.51
492.168	6490.14
492.538	6477.94
492.908	6599.06
493.278	6620.31
493.648	6650.14
494.017	6686.07
494.387	6796.8
494.757	6854.2
495.126	6922.9
495.496	6889.23
495.866	6921.32
496.235	7005.83
496.605	7047.41
496.974	7076.79
497.344	7134.64
497.713	7079.05
498.082	7160.4
498.452	7209.9
498.821	7276.33
499.19	7205.38
499.559	7292.83
499.928	7358.59
500.298	7335.99
500.667	7427.52
501.036	7455.31
501.405	7488.98
501.774	7447.86
502.143	7519.04
502.512	7572.82
502.88	7520.4
503.249	7531.47
503.618	7606.72
503.987	7666.83
504.356	7653.73
504.724	7641.3
505.093	7661.18
505.462	7650.34
505.83	7705.93
506.199	7695.98
506.567	7845.81
506.936	7783.44
507.304	7879.26
507.672	7892.36
508.041	7899.37
508.409	7934.17
508.777	7882.65
509.145	7983.43
509.514	7918.13
509.882	8006.48
510.25	8017.33
510.618	7971.46
510.986	8055.07
511.354	8018.91
511.722	8064.79
512.09	8117.67
512.458	8135.07
512.826	8100.72
513.193	8178.46
513.561	8217.33
513.929	8131.23
514.297	8212.13
514.664	8188.4
515.032	8277.89
515.4	8271.11
515.767	8219.81
516.135	8197.89
516.502	8119.7
516.869	8234.5
517.237	8260.49
517.604	8185.24
517.972	8284.44
518.339	8297.55
518.706	8245.12
519.073	8324.44
519.44	8310.88
519.808	8328.51
520.175	8253.03
520.542	8359.47
520.909	8391.33
521.276	8354.27
521.643	8280.83
522.009	8421.16
522.376	8397.21
522.743	8501.84
523.11	8413.93
523.477	8452.8
523.843	8451.9
524.21	8489.64
524.577	8507.71
524.943	8498
525.31	8512.91
525.676	8525.79
526.043	8472.69
526.409	8536.19
526.776	8574.83
527.142	8526.47
527.508	8532.8
527.874	8534.15
528.241	8510.88
528.607	8561.27
528.973	8533.48
529.339	8545.68
529.705	8612.12
530.071	8559.69
530.437	8562.85
530.803	8575.96
531.169	8536.64
531.535	8533.48
531.901	8471.78
532.267	8453.7
532.632	8521.05
532.998	8480.14
533.364	8441.5
533.73	8472.91
534.095	8463.42
534.461	8465.91
534.826	8441.5
535.192	8479.69
535.557	8425.23
535.923	8398.34
536.288	8458.22
536.653	8393.37
537.019	8340.26
537.384	8334.16
537.749	8329.41
538.114	8360.37
538.479	8284.9
538.845	8270.43
539.21	8200.38
539.575	8224.78
539.94	8242.64
540.305	8177.1
540.67	8154.5
541.034	8177.1
541.399	8139.36
541.764	8140.94
542.129	8120.38
542.494	8045.35
542.858	8054.17
543.223	8034.96
543.587	8026.37
543.952	8008.07
544.316	7956.54
544.681	7952.93
545.045	7926.26
545.41	7902.76
545.774	7912.7
546.138	7840.84
546.503	7823.89
546.867	7795.19
547.231	7827.51
547.595	7752.48
547.959	7754.06
548.324	7711.12
548.688	7663.67
549.052	7648.08
549.416	7632.48
549.779	7647.62
550.143	7659.15
550.507	7611.92
550.871	7597.46
551.235	7532.37
551.599	7577.12
551.962	7557.23
552.326	7516.78
552.689	7469.32
553.053	7455.54
553.417	7409.44
553.78	7448.76
554.143	7482.2
554.507	7383.45
554.87	7422.09
555.234	7435.43
555.597	7394.07
555.96	7355.65
556.323	7363.11
556.686	7312.94
557.05	7350
557.413	7283.79
557.776	7263.68
558.139	7338.25
558.502	7313.4
558.865	7282.44
559.228	7268.2
559.59	7259.84
559.953	7281.98
560.316	7284.02
560.679	7297.58
561.041	7295.54
561.404	7319.72
561.767	7321.98
562.129	7289.22
562.492	7336.9
562.854	7259.39
563.217	7201.76
563.579	7308.42
563.941	7271.14
564.304	7233.62
564.666	7300.29
565.028	7271.81
565.39	7337.35
565.753	7331.25
566.115	7350.68
566.477	7359.95
566.839	7351.81
567.201	7411.25
567.563	7309.33
567.925	7386.84
568.287	7376.44
568.648	7373.96
569.01	7441.08
569.372	7437.46
569.734	7451.92
570.095	7446.05
570.457	7414.86
570.819	7481.98
571.18	7387.07
571.542	7445.6
571.903	7441.08
572.265	7437.23
572.626	7503.9
572.987	7493.28
573.349	7542.54
573.71	7496.89
574.071	7533.05
574.432	7574.41
574.794	7566.5
575.155	7590.68
575.516	7561.3
575.877	7622.09
576.238	7610.56
576.599	7626.83
576.96	7656.21
577.32	7613.27
577.681	7632.03
578.042	7678.36
578.403	7704.12
578.763	7670.9
579.124	7714.29
579.485	7776.89
579.845	7718.36
580.206	7730.33
580.566	7746.6
580.927	7798.35
581.287	7778.69
581.648	7774.85
582.008	7783.21
582.368	7782.08
582.728	7798.13
583.089	7867.05
583.449	7850.1
583.809	7879.03
584.169	7870.44
584.529	7888.52
584.889	7970.1
585.249	7936.88
585.609	7850.78
585.969	7898.46
586.329	7933.27
586.688	7963.55
587.048	7993.15
587.408	7936.88
587.768	8008.29
588.127	7971.91
588.487	7960.38
588.846	8135.75
589.206	7991.57
589.565	8010.33
589.925	8024.79
590.284	8045.13
590.643	8059.14
591.003	8130.55
591.362	8121.06
591.721	8109.53
592.08	8084.45
592.44	8132.13
592.799	8154.05
593.158	8169.64
593.517	8133.26
593.876	8134.62
594.235	8166.48
594.593	8157.67
594.952	8162.19
595.311	8209.42
595.67	8143.43
596.029	8287.61
596.387	8206.71
596.746	8255.52
597.104	8189.3
597.463	8201.51
597.822	8196.99
598.18	8251.68
598.538	8178.68
598.897	8236.53
599.255	8174.62
599.613	8293.26
599.972	8236.99
600.33	8270.66
600.688	8305.46
601.046	8308.62
601.404	8373.25
601.762	8340.03
602.12	8352.69
602.478	8328.28
602.836	8381.62
603.194	8362.63
603.552	8390.88
603.91	8333.93
604.268	8348.17
604.625	8261.84
604.983	8355.18
605.341	8291.9
605.698	8358.34
606.056	8392.46
606.413	8373.71
606.771	8407.15
607.128	8395.85
607.485	8394.5
607.843	8416.87
608.2	8389.07
608.557	8485.12
608.914	8441.5
609.272	8520.37
609.629	8502.52
609.986	8504.32
610.343	8462.74
610.7	8553.36
611.057	8535.74
611.414	8528.73
611.771	8526.92
612.127	8561.5
612.484	8523.31
612.841	8552.46
613.198	8510.2
613.554	8551.78
613.911	8493.03
614.267	8613.93
614.624	8592.68
614.98	8555.85
615.337	8618.9
615.693	8556.3
616.05	8623.87
616.406	8635.39
616.762	8522.85
617.118	8662.06
617.475	8574.83
617.831	8630.65
618.187	8723.98
618.543	8637.65
618.899	8695.05
619.255	8704.32
619.611	8653.92
619.967	8691.21
620.323	8746.35
620.678	8762.85
621.034	8653.02
621.39	8706.58
621.746	8657.09
622.101	8752
622.457	8700.93
622.812	8697.54
623.168	8681.72
623.523	8747.48
623.879	8699.12
624.234	8662.51
624.589	8662.29
624.945	8726.24
625.3	8660.48
625.655	8744.32
626.01	8744.54
626.365	8712
626.72	8639.01
627.075	8714.94
627.43	8706.58
627.785	8630.87
628.14	8683.53
628.495	8677.2
628.85	8677.88
629.205	8654.15
629.559	8727.37
629.914	8580.48
630.269	8676.52
630.623	8617.77
630.978	8650.31
631.332	8646.47
631.687	8581.61
632.041	8617.32
632.396	8699.12
632.75	8627.49
633.104	8600.14
633.459	8550.42
633.813	8513.36
634.167	8482.4
634.521	8535.28
634.875	8535.51
635.229	8524.44
635.583	8448.51
635.937	8520.14
636.291	8514.04
636.645	8429.98
636.999	8440.82
637.352	8499.13
637.706	8418
638.06	8447.38
638.413	8449.18
638.767	8408.96
639.121	8429.75
639.474	8448.96
639.828	8379.36
640.181	8356.98
640.534	8385.46
640.888	8379.36
641.241	8353.59
641.594	8388.62
641.947	8364.22
642.301	8352.46
642.654	8327.83
643.007	8312.47
643.36	8396.53
643.713	8277.21
644.066	8350.88
644.419	8284.9
644.771	8204.22
645.124	8212.58
645.477	8190.66
645.83	8092.13
646.182	8129.19
646.535	8081.06
646.888	8137.55
647.24	8021.63
647.593	8107.05
647.945	8099.14
648.298	8083.09
648.65	8033.6
649.002	8042.42
649.355	8110.89
649.707	8069.53
650.059	8118.35
650.411	8151.34
650.763	8214.61
651.115	8258.91
651.467	8272.69
651.819	8243.31
652.171	8262.75
652.523	8181.62
652.875	8250.55
653.227	8205.12
653.578	8248.74
653.93	8208.74
654.282	8181.62
654.633	8201.96
654.985	8210.77
655.337	8196.99
655.688	8228.4
656.039	8220.72
656.391	8206.03
656.742	8213.71
657.094	8273.82
657.445	8262.07
657.796	8253.26
658.147	8227.27
658.498	8266.36
658.849	8245.57
659.2	8230.89
659.551	8263.43
659.902	8260.71
660.253	8281.96
660.604	8244.67
660.955	8225.46
661.306	8275.63
661.656	8225.01
662.007	8266.82
662.358	8281.05
662.708	8293.71
663.059	8309.75
663.409	8285.12
663.76	8339.13
664.11	8230.66
664.461	8329.87
664.811	8273.82
665.161	8240.6
665.511	8202.41
665.862	8336.87
666.212	8326.25
666.562	8333.26
666.912	8343.65
667.262	8369.64
667.612	8264.78
667.962	8363.99
668.312	8282.41
668.662	8361.73
669.011	8346.81
669.361	8300.94
669.711	8334.84
670.06	8293.93
670.41	8275.86
670.76	8327.83
671.109	8333.71
671.459	8295.06
671.808	8250.09
672.157	8299.81
672.507	8191.11
672.856	8213.03
673.205	8274.05
673.554	8270.66
673.904	8229.08
674.253	8307.72
674.602	8259.59
674.951	8137.55
675.3	8123.32
675.649	8198.57
675.998	8225.24
676.346	8173.94
676.695	8232.02
677.044	8135.75
677.393	8185.69
677.741	8180.94
678.09	8128.74
678.438	8092.58
678.787	8125.35
679.135	8136.88
679.484	8109.98
679.832	8118.12
680.181	8085.58
680.529	8072.02
680.877	8065.24
681.225	8075.18
681.573	8040.61
681.922	8037.9
682.27	7992.7
682.618	8008.97
682.966	7994.28
683.314	7987.95
683.661	7935.98
684.009	7875.41
684.357	7926.49
684.705	7873.15
685.053	7895.3
685.4	7884.91
685.748	7846.26
686.095	7806.72
686.443	7809.88
686.79	7700.05
687.138	7776.21
687.485	7758.81
687.832	7748.64
688.18	7786.38
688.527	7703.22
688.874	7683.78
689.221	7701.18
689.568	7566.5
689.915	7594.52
690.262	7611.92
690.609	7566.04
690.956	7507.29
691.303	7550.23
691.65	7498.02
691.997	7516.55
692.344	7449.21
692.69	7440.17
693.037	7404.01
693.383	7376.22
693.73	7392.26
694.077	7305.49
694.423	7353.62
694.769	7302.1
695.116	7266.62
695.462	7254.64
695.808	7207.18
696.155	7230.01
696.501	7128.99
696.847	7173.29
697.193	7087.41
697.539	7161.53
697.885	7034.08
698.231	7085.38
698.577	7030.69
698.923	7005.15
699.269	6974.87
699.614	6947.3
699.96	6893.52
700.306	6924.93
700.651	6843.58
700.997	6848.32
701.342	6828.21
701.688	6792.51
702.033	6835.44
702.379	6754.77
702.724	6732.85
703.069	6749.12
703.415	6612.62
703.76	6639.74
704.105	6615.79
704.45	6666.86
704.795	6547.31
705.14	6584.6
705.485	6565.62
705.83	6576.69
706.175	6519.29
706.52	6535.79
706.865	6502.12
707.209	6422.57
707.554	6451.27
707.899	6472.29
708.243	6402.23
708.588	6346.42
708.932	6288.56
709.277	6334.66
709.621	6299.18
709.966	6331.27
710.31	6289.47
710.654	6280.43
710.998	6282.46
711.342	6204.95
711.687	6200.43
712.031	6226.64
712.375	6203.37
712.719	6227.1
713.063	6147.55
713.407	6187.78
713.75	6116.59
714.094	6170.15
714.438	6117.27
714.782	6104.16
715.125	6101
715.469	6128.57
715.812	6068.46
716.156	6053.09
716.499	6042.02
716.843	6037.04
717.186	6008.57
717.53	6022.58
717.873	6141.22
718.216	6050.15
718.559	5976.71
718.902	5957.27
719.246	6021.9
719.589	5975.58
719.932	5905.97
720.275	6007.89
720.617	5964.5
720.96	5943.94
721.303	5934.9
721.646	5934.22
721.989	5926.54
722.331	5962.92
722.674	5890.38
723.016	5908.91
723.359	5907.56
723.701	5893.55
724.044	5889.25
724.386	5859.87
724.729	5894.68
725.071	5883.6
725.413	5901.91
725.755	5892.19
726.097	5867.11
726.439	5820.33
726.782	5868.91
727.124	5858.97
727.465	5844.06
727.807	5853.32
728.149	5865.75
728.491	5827.56
728.833	5868.46
729.175	5841.57
729.516	5847.22
729.858	5770.16
730.199	5892.64
730.541	5789.59
730.882	5816.49
731.224	5806.77
731.565	5764.06
731.906	5859.42
732.248	5840.89
732.589	5807.9
732.93	5800.89
733.271	5816.94
733.612	5829.59
733.953	5884.28
734.294	5860.78
734.635	5768.8
734.976	5800.67
735.317	5823.26
735.658	5827.11
735.999	5813.77
736.339	5768.58
736.68	5832.76
737.021	5844.51
737.361	5884.28
737.702	5832.98
738.042	5832.76
738.383	5847.67
738.723	5856.03
739.063	5872.98
739.404	5928.35
739.744	5904.62
740.084	5891.74
740.424	5947.1
740.764	5934.22
741.104	5955.01
741.444	5912.75
741.784	5931.06
742.124	6023.49
742.464	5952.3
742.804	6036.82
743.143	6032.3
743.483	6058.06
743.823	5995.24
744.162	6046.54
744.502	6083.82
744.841	6115.01
745.181	6148.68
745.52	6149.81
745.86	6234.33
746.199	6200.43
746.538	6263.25
746.877	6331.73
747.216	6385.51
747.556	6359.3
747.895	6433.42
748.234	6427.09
748.573	6559.29
748.911	6593.19
749.25	6636.12
749.589	6714.09
749.928	6756.57
750.267	6816.46
750.605	6869.57
750.944	6915.44
751.283	6975.55
751.621	7075.21
751.96	7142.33
752.298	7238.59
752.636	7356.11
752.975	7426.16
753.313	7498.93
753.651	7628.42
753.989	7695.53
754.327	7769.88
754.666	7905.47
755.004	8041.96
755.342	8109.53
755.679	8257.33
756.017	8329.87
756.355	8549.97
756.693	8614.15
757.031	8716.75
757.368	8877.65
757.706	9054.59
758.044	9165.78
758.381	9318.31
758.719	9446.45
759.056	9623.62
759.394	9771.41
759.731	9906.55
760.068	10056.83
760.405	10178.63
760.743	10340.43
761.08	10642.57
761.417	10670.37
761.754	10881.21
762.091	11078.49
762.428	11158.72
762.765	11334.98
763.102	11559.61
763.438	11675.99
763.775	11813.16
764.112	12005.25
764.449	12226.03
764.785	12312.81
765.122	12493.82
765.458	12623.99
765.795	12800.03
766.131	13051.32
766.467	13060.36
766.804	13155.95
767.14	13356.85
767.476	13566.34
767.812	13661.48
768.148	13803.85
768.485	13888.36
768.821	14032.09
