Data from hue_90_FLMS001491_23.txt Node
Date: Mon Feb 06 15:24:53 GMT 2017
User: dcchb
Spectrometer: FLMS00149
Trigger mode: 0
Integration Time (sec): 2.000000E-2
Scans to average: 10
Electric dark correction enabled: true
Nonlinearity correction enabled: false
Boxcar width: 0
XAxis mode: Wavelengths
Number of Pixels in Spectrum: 2048
>>>>>Begin Spectral Data<<<<<
341.393	-24
341.776	-24
342.16	-24
342.543	-51.11
342.927	-89.31
343.31	-87.27
343.693	-53.83
344.077	-57.22
344.46	-47.95
344.843	-58.12
345.226	-24
345.61	-37.56
345.993	-28.74
346.376	-2.3
346.759	16.23
347.142	10.13
347.525	27.75
347.908	61.65
348.291	61.88
348.674	86.28
349.057	133.06
349.44	142.33
349.823	147.07
350.206	145.04
350.588	213.74
350.971	206.28
351.354	230.46
351.737	247.63
352.119	232.95
352.502	251.48
352.884	276.33
353.267	280.63
353.65	279.72
354.032	297.58
354.414	308.42
354.797	304.36
355.179	316.11
355.562	307.52
355.944	331.7
356.326	328.54
356.709	318.14
357.091	322.21
357.473	344.13
357.855	324.24
358.238	337.58
358.62	342.1
359.002	340.06
359.384	350
359.766	335.54
360.148	320.18
360.53	350
360.912	334.41
361.294	331.7
361.676	330.34
362.057	351.59
362.439	338.71
362.821	324.92
363.203	325.82
363.584	336.9
363.966	333.73
364.348	333.51
364.729	318.59
365.111	328.99
365.493	307.97
365.874	311.36
366.256	325.37
366.637	313.85
367.019	324.47
367.4	317.01
367.781	326.73
368.163	305.94
368.544	326.95
368.925	306.16
369.306	321.31
369.688	331.7
370.069	316.79
370.45	310.23
370.831	296
371.212	311.59
371.593	298.03
371.974	314.3
372.355	315.88
372.736	309.78
373.117	319.95
373.498	328.08
373.879	312.72
374.26	311.59
374.641	294.41
375.021	304.81
375.402	337.35
375.783	332.6
376.163	335.32
376.544	317.01
376.925	337.35
377.305	337.12
377.686	345.03
378.066	330.8
378.447	335.77
378.827	330.34
379.208	314.3
379.588	354.3
379.968	341.42
380.349	339.84
380.729	328.54
381.109	349.55
381.489	330.34
381.87	332.38
382.25	332.15
382.63	341.19
383.01	368.31
383.39	371.47
383.77	337.35
384.15	347.97
384.53	354.3
384.91	342.77
385.29	357.91
385.67	340.97
386.049	348.2
386.429	342.1
386.809	359.04
387.189	360.17
387.568	368.76
387.948	339.61
388.328	347.52
388.707	332.6
389.087	379.83
389.466	361.76
389.846	363.11
390.225	368.76
390.605	341.64
390.984	373.06
391.363	372.83
391.743	389.33
392.122	385.48
392.501	389.33
392.881	387.07
393.26	378.93
393.639	377.12
394.018	380.96
394.397	371.7
394.776	378.48
395.155	392.49
395.534	386.39
395.913	384.35
396.292	387.97
396.671	389.78
397.05	406.95
397.429	400.63
397.808	399.04
398.186	403.56
398.565	420.29
398.944	414.86
399.323	407.4
399.701	405.14
400.08	400.85
400.458	395.88
400.837	406.73
401.215	413.28
401.594	415.77
401.972	386.61
402.351	432.04
402.729	418.7
403.107	409.21
403.486	415.77
403.864	409.44
404.242	430
404.62	415.09
404.999	440.17
405.377	431.36
405.755	442.21
406.133	427.97
406.511	455.54
406.889	446.95
407.267	447.63
407.645	445.14
408.023	445.6
408.401	442.21
408.779	466.84
409.156	471.36
409.534	474.97
409.912	472.49
410.29	475.43
410.667	508.87
411.045	480.85
411.422	462.09
411.8	473.39
412.178	491.24
412.555	488.76
412.933	474.52
413.31	503.67
413.687	502.32
414.065	524.92
414.442	489.66
414.819	490.34
415.197	490.79
415.574	522.43
415.951	504.58
416.328	514.07
416.705	534.41
417.082	519.04
417.46	536.67
417.837	547.74
418.214	534.18
418.591	528.98
418.967	531.7
419.344	548.19
419.721	544.58
420.098	554.97
420.475	548.87
420.852	571.92
421.228	553.62
421.605	540.51
421.982	558.36
422.358	557.23
422.735	583.22
423.111	569.43
423.488	590.68
423.864	591.58
424.241	599.26
424.617	596.55
424.994	616.44
425.37	597.68
425.746	607.63
426.123	595.2
426.499	594.74
426.875	633.84
427.251	616.89
427.627	622.54
428.003	661.64
428.379	647.62
428.756	659.83
429.132	634.07
429.507	668.64
429.883	670.67
430.259	649.21
430.635	678.58
431.011	661.18
431.387	712.71
431.763	704.8
432.138	700.05
432.514	714.29
432.89	706.61
433.265	736.44
433.641	730.79
434.016	719.94
434.392	731.92
434.767	743.44
435.143	723.78
435.518	764.91
435.894	769.2
436.269	775.53
436.644	772.59
437.02	767.4
437.395	800.61
437.77	785.47
438.145	799.71
438.52	787.28
438.895	807.85
439.271	820.05
439.646	818.47
440.021	810.56
440.395	841.74
440.77	847.84
441.145	846.26
441.52	859.14
441.895	860.5
442.27	860.95
442.645	864.34
443.019	882.87
443.394	851.91
443.769	885.58
444.143	868.41
444.518	885.36
444.892	905.47
445.267	880.61
445.641	931.46
446.016	918.8
446.39	902.53
446.764	935.53
447.139	924.68
447.513	929.88
447.887	942.08
448.262	921.74
448.636	938.01
449.01	941.18
449.384	980.5
449.758	966.26
450.132	981.4
450.506	997.45
450.88	967.62
451.254	994.28
451.628	989.99
452.002	1013.04
452.376	1007.61
452.75	1026.15
453.123	1044.22
453.497	1041.51
453.871	1030.21
454.244	1079.25
454.618	1099.59
454.992	1121.51
455.365	1099.36
455.739	1130.78
456.112	1142.98
456.486	1139.36
456.859	1145.01
457.232	1172.13
457.606	1173.49
457.979	1181.85
458.352	1215.97
458.725	1215.74
459.099	1235.86
459.472	1247.38
459.845	1255.07
460.218	1263.2
460.591	1287.61
460.964	1280.15
461.337	1297.78
461.71	1337.55
462.083	1365.12
462.456	1375.29
462.829	1371.22
463.201	1395.4
463.574	1403.76
463.947	1428.85
464.32	1449.86
464.692	1467.04
465.065	1486.92
465.438	1509.07
465.81	1543.42
466.183	1563.76
466.555	1617.77
466.928	1627.94
467.3	1609.86
467.672	1656.86
468.045	1667.03
468.417	1702.06
468.789	1676.52
469.161	1756.3
469.534	1779.8
469.906	1816.86
470.278	1811.21
470.65	1847.59
471.022	1863.86
471.394	1940.02
471.766	1961.71
472.138	2011.2
472.51	2034.71
472.882	2097.3
473.253	2115.61
473.625	2153.8
473.997	2233.8
474.369	2251.42
474.74	2294.59
475.112	2347.24
475.484	2377.07
475.855	2456.84
476.227	2459.1
476.598	2561.92
476.97	2591.08
477.341	2685.54
477.713	2721.92
478.084	2727.57
478.455	2849.15
478.827	2947.9
479.198	3009.82
479.569	3051.4
479.94	3191.29
480.311	3256.14
480.682	3340.89
481.053	3439.19
481.424	3510.15
481.795	3590.82
482.166	3697.26
482.537	3735.9
482.908	3829.46
483.279	3992.4
483.65	4052.96
484.021	4221.99
484.391	4305.83
484.762	4348.09
485.133	4414.53
485.503	4594.41
485.874	4644.13
486.244	4817.68
486.615	4929.77
486.985	5028.3
487.356	5195.75
487.726	5240.5
488.097	5406.82
488.467	5525.01
488.837	5659.47
489.207	5842.97
489.578	5921.38
489.948	6018.56
490.318	6155.95
490.688	6204.99
491.058	6428.49
491.428	6546.45
491.798	6708.03
492.168	6873
492.538	6939.89
492.908	7095.14
493.278	7268.24
493.648	7284.74
494.017	7467.56
494.387	7613.54
494.757	7716.59
495.126	7816.93
495.496	7905.29
495.866	8073.42
496.235	8207.65
496.605	8350.02
496.974	8450.13
497.344	8507.08
497.713	8620.52
498.082	8764.92
498.452	8878.37
498.821	8973.28
499.19	8970.34
499.559	9123.56
499.928	9217.12
500.298	9361.52
500.667	9490.78
501.036	9477.22
501.405	9663.43
501.774	9729.65
502.143	9842.18
502.512	9881.51
502.88	9996.98
503.249	9999.02
503.618	10191.33
503.987	10250.54
504.356	10330.53
504.724	10428.84
505.093	10456.18
505.462	10545.22
505.83	10588.61
506.199	10771.65
506.567	10811.42
506.936	10909.05
507.304	11066.33
507.672	11058.65
508.041	11124.64
508.409	11220.91
508.777	11300.45
509.145	11350.17
509.514	11381.58
509.882	11468.13
510.25	11527.34
510.618	11606.88
510.986	11643.95
511.354	11728.69
511.722	11841.91
512.09	11961
512.458	11893.43
512.826	12013.2
513.193	12022.01
513.561	12012.07
513.929	12053.88
514.297	12224.49
514.664	12251.16
515.032	12286.41
515.4	12346.53
515.767	12466.75
516.135	12480.31
516.502	12383.59
516.869	12650.25
517.237	12613.64
517.604	12602.56
517.972	12643.02
518.339	12664.26
518.706	12729.11
519.073	12769.57
519.44	12815.89
519.808	12860.86
520.175	12828.55
520.542	13061.76
520.909	13073.29
521.276	13038.48
521.643	13171.59
522.009	13160.52
522.376	13167.75
522.743	13262.66
523.11	13358.7
523.477	13340.85
523.843	13474.63
524.21	13513.5
524.577	13554.18
524.943	13512.14
525.31	13511.69
525.676	13658.81
526.043	13623.33
526.409	13679.82
526.776	13725.02
527.142	13749.88
527.508	13800.27
527.874	13833.72
528.241	13865.81
528.607	13862.87
528.973	13932.02
529.339	13918.24
529.705	13932.02
530.071	14019.25
530.437	14002.53
530.803	14155.52
531.169	14081.85
531.535	14041.85
531.901	14062.19
532.267	14090.43
532.632	14110.1
532.998	14026.48
533.364	14041.85
533.73	14109.42
534.095	14137.66
534.461	14148.96
534.826	14150.55
535.192	14115.97
535.557	14177.21
535.923	14164.1
536.288	14083.2
536.653	14122.07
537.019	14034.84
537.384	14046.82
537.749	14112.35
538.114	14147.61
538.479	14019.02
538.845	14020.38
539.21	13977.9
539.575	13956.88
539.94	13921.85
540.305	13944.68
540.67	13922.08
541.034	13956.88
541.399	13933.15
541.764	13922.3
542.129	13814.06
542.494	13869.65
542.858	13834.85
543.223	13840.72
543.587	13901.96
543.952	13750.33
544.316	13801.63
544.681	13758.01
545.045	13745.36
545.41	13851.34
545.774	13725.7
546.138	13674.63
546.503	13725.7
546.867	13654.74
547.231	13595.53
547.595	13608.64
547.959	13600.73
548.324	13550.34
548.688	13555.53
549.052	13496.1
549.416	13553.05
549.779	13575.19
550.143	13537.45
550.507	13541.3
550.871	13423.79
551.235	13471.02
551.599	13564.35
551.962	13496.78
552.326	13381.75
552.689	13515.08
553.053	13329.1
553.417	13398.7
553.78	13497
554.143	13464.91
554.507	13402.32
554.87	13363.9
555.234	13360.74
555.597	13351.24
555.96	13329.32
556.323	13353.5
556.686	13321.19
557.05	13417.46
557.413	13283.45
557.776	13332.49
558.139	13370.45
558.502	13268.54
558.865	13293.39
559.228	13350.34
559.59	13332.26
559.953	13376.33
560.316	13477.12
560.679	13431.24
561.041	13391.02
561.404	13446.84
561.767	13451.13
562.129	13294.07
562.492	13548.3
562.854	13426.95
563.217	13507.4
563.579	13453.84
563.941	13483.9
564.304	13509.88
564.666	13621.29
565.028	13580.84
565.39	13587.62
565.753	13592.14
566.115	13488.64
566.477	13624.68
566.839	13682.31
567.201	13624.01
567.563	13730.44
567.925	13709.43
568.287	13747.39
568.648	13750.33
569.01	13831.91
569.372	13790.1
569.734	13734.51
570.095	13865.81
570.457	13900.16
570.819	13870.78
571.18	13856.54
571.542	13889.08
571.903	13979.48
572.265	13945.35
572.626	13998.23
572.987	13988.29
573.349	14075.29
573.71	14012.24
574.071	14021.06
574.432	14060.83
574.794	14125.69
575.155	14076.88
575.516	13994.39
575.877	14184.22
576.238	14138.57
576.599	14147.16
576.96	14159.36
577.32	14150.55
577.681	14116.42
578.042	14190.09
578.403	14160.49
578.763	14131.56
579.124	14237.78
579.485	14287.94
579.845	14277.1
580.206	14192.58
580.566	14148.74
580.927	14193.03
581.287	14238.68
581.648	14186.03
582.008	14235.06
582.368	14208.62
582.728	14169.3
583.089	14193.93
583.449	14153.03
583.809	14155.07
584.169	14013.15
584.529	14162.52
584.889	14252.46
585.249	14166.82
585.609	14021.51
585.969	14179.7
586.329	14092.02
586.688	14142.86
587.048	14108.51
587.408	14144.9
587.768	14123.2
588.127	14084.33
588.487	14058.57
588.846	14148.51
589.206	14068.06
589.565	14065.58
589.925	14173.37
590.284	14076.88
590.643	14103.77
591.003	14092.02
591.362	14124.56
591.721	14075.07
592.08	14059.02
592.44	14039.59
592.799	14053.37
593.158	13959.59
593.517	14000.72
593.876	13919.82
594.235	13995.52
594.593	13997.78
594.952	14004.56
595.311	13885.92
595.67	13962.98
596.029	14129.3
596.387	14121.39
596.746	14083.43
597.104	13940.16
597.463	13948.52
597.822	14049.53
598.18	13922.3
598.538	13990.55
598.897	13998.91
599.255	13917.33
599.613	14100.83
599.972	13977.22
600.33	13997.1
600.688	13913.49
601.046	14043.66
601.404	14002.98
601.762	14019.93
602.12	14056.99
602.478	14047.05
602.836	14055.18
603.194	13904.68
603.552	14067.16
603.91	13964.11
604.268	13962.75
604.625	13958.01
604.983	14060.15
605.341	13929.08
605.698	14008.4
606.056	14121.62
606.413	14046.37
606.771	14043.2
607.128	14037.33
607.485	13981.74
607.843	14022.41
608.2	14073.26
608.557	14054.73
608.914	14065.35
609.272	14097.44
609.629	14047.5
609.986	14219.24
610.343	14060.6
610.7	14219.47
611.057	14120.04
611.414	14216.08
611.771	14194.84
612.127	14314.16
612.484	14222.41
612.841	14231.45
613.198	14225.12
613.554	14150.55
613.911	14243.42
614.267	14279.81
614.624	14217.21
614.98	14287.94
615.337	14423.31
615.693	14365.46
616.05	14322.74
616.406	14351.22
616.762	14293.14
617.118	14245.91
617.475	14283.2
617.831	14328.62
618.187	14375.17
618.543	14423.08
618.899	14521.61
619.255	14448.62
619.611	14331.33
619.967	14515.28
620.323	14510.54
620.678	14464.89
621.034	14433.25
621.39	14386.25
621.746	14358.9
622.101	14550.31
622.457	14417.66
622.812	14372.46
623.168	14429.41
623.523	14485.68
623.879	14545.34
624.234	14376.53
624.589	14466.24
624.945	14432.8
625.3	14461.5
625.655	14432.12
626.01	14516.41
626.365	14448.39
626.72	14500.14
627.075	14508.05
627.43	14438.22
627.785	14341.95
628.14	14506.47
628.495	14477.32
628.85	14376.08
629.205	14396.64
629.559	14462.4
629.914	14445
630.269	14371.56
630.623	14408.39
630.978	14312.8
631.332	14347.6
631.687	14312.8
632.041	14286.36
632.396	14293.59
632.75	14319.36
633.104	14323.42
633.459	14191.67
633.813	14268.73
634.167	14233.03
634.521	14218.79
634.875	14190.77
635.229	14204.33
635.583	14099.25
635.937	14108.06
636.291	14056.99
636.645	14094.95
636.999	14068.97
637.352	14176.53
637.706	13985.58
638.06	14030.78
638.413	14044.79
638.767	13989.19
639.121	14035.52
639.474	13854.51
639.828	13914.17
640.181	13928.18
640.534	13920.95
640.888	13833.49
641.241	13768.18
641.594	13816.32
641.947	13942.42
642.301	13842.53
642.654	13940.83
643.007	13890.67
643.36	13800.27
643.713	13809.54
644.066	13884.56
644.419	13796.66
644.771	13652.03
645.124	13604.57
645.477	13572.26
645.83	13449.55
646.182	13416.55
646.535	13388.76
646.888	13394.41
647.24	13280.74
647.593	13419.94
647.945	13357.8
648.298	13316.9
648.65	13331.58
649.002	13201.64
649.355	13270.12
649.707	13231.93
650.059	13392.15
650.411	13549.43
650.763	13602.76
651.115	13689.09
651.467	13650.67
651.819	13694.51
652.171	13661.29
652.523	13613.16
652.875	13603.67
653.227	13558.02
653.578	13678.02
653.93	13728.18
654.282	13635.53
654.633	13522.09
654.985	13599.15
655.337	13591.24
655.688	13590.79
656.039	13660.39
656.391	13579.26
656.742	13601.86
657.094	13590.56
657.445	13651.12
657.796	13512.82
658.147	13568.64
658.498	13591.92
658.849	13583.1
659.2	13550.11
659.551	13499.04
659.902	13549.88
660.253	13606.15
660.604	13602.54
660.955	13467.63
661.306	13565.25
661.656	13548.98
662.007	13528.19
662.358	13556.44
662.708	13679.15
663.059	13620.16
663.409	13588.07
663.76	13654.29
664.11	13577.45
664.461	13658.36
664.811	13568.87
665.161	13624.68
665.511	13650.9
665.862	13638.47
666.212	13678.02
666.562	13654.74
666.912	13610.22
667.262	13636.21
667.612	13610
667.962	13599.83
668.312	13600.73
668.662	13613.38
669.011	13747.84
669.361	13595.98
669.711	13556.44
670.06	13587.4
670.41	13518.47
670.76	13485.25
671.109	13590.33
671.459	13583.1
671.808	13525.93
672.157	13510.56
672.507	13485.03
672.856	13480.28
673.205	13518.7
673.554	13547.85
673.904	13478.7
674.253	13538.58
674.602	13544.01
674.951	13240.74
675.3	13265.37
675.649	13388.76
675.998	13410.68
676.346	13441.86
676.695	13459.49
677.044	13306.73
677.393	13357.57
677.741	13418.59
678.09	13329.78
678.438	13323
678.787	13360.96
679.135	13324.13
679.484	13266.28
679.832	13207.75
680.181	13279.83
680.529	13263.11
680.877	13165.04
681.225	13215.66
681.573	13238.93
681.922	13156
682.27	12988.99
682.618	13022.89
682.966	13052.72
683.314	13064.02
683.661	12959.39
684.009	12963.68
684.357	12938.37
684.705	12942.67
685.053	12930.24
685.4	12896.79
685.748	12811.15
686.095	12834.87
686.443	12805.95
686.79	12745.39
687.138	12785.16
687.485	12790.36
687.832	12800.3
688.18	12640.76
688.527	12623.35
688.874	12644.37
689.221	12620.19
689.568	12502.45
689.915	12527.09
690.262	12549.91
690.609	12442.57
690.956	12438.73
691.303	12439.86
691.65	12317.15
691.997	12287.32
692.344	12230.82
692.69	12193.31
693.037	12222.24
693.383	12045.06
693.73	12131.84
694.077	11965.97
694.423	12073.31
694.769	12052.3
695.116	11940.89
695.462	11941.34
695.808	11836.48
696.155	11883.49
696.501	11819.53
696.847	11754.68
697.193	11638.52
697.539	11677.84
697.885	11637.17
698.231	11523.27
698.577	11574.34
698.923	11520.56
699.269	11457.28
699.614	11341.35
699.96	11354.24
700.306	11364.4
700.651	11372.54
700.997	11236.5
701.342	11202.15
701.688	11218.42
702.033	11190.62
702.379	11189.95
702.724	11164.41
703.069	11127.57
703.415	10967.8
703.76	11035.83
704.105	11058.2
704.45	11031.31
704.795	10907.47
705.14	10894.13
705.485	10821.14
705.83	10842.38
706.175	10808.04
706.52	10742.05
706.865	10737.08
707.209	10681.26
707.554	10620.92
707.899	10763.97
708.243	10639.9
708.588	10603.52
708.932	10519.68
709.277	10474.48
709.621	10471.09
709.966	10437.42
710.31	10455.73
710.654	10300.7
710.998	10366.69
711.342	10289.86
711.687	10361.27
712.031	10274.94
712.375	10251.21
712.719	10282.4
713.063	10232.68
713.407	10249.41
713.75	10171.44
714.094	10153.59
714.438	10076.3
714.782	10125.34
715.125	10057.32
715.469	10100.93
715.812	9998.79
716.156	9933.26
716.499	10053.93
716.843	10010.32
717.186	9964.67
717.53	9940.71
717.873	9952.69
718.216	9961.5
718.559	9865.01
718.902	9804.67
719.246	9871.56
719.589	9848.06
719.932	9815.29
720.275	9809.42
720.617	9813.48
720.96	9807.84
721.303	9825.69
721.646	9783.43
721.989	9746.82
722.331	9806.93
722.674	9759.48
723.016	9815.74
723.359	9800.15
723.701	9723.09
724.044	9692.58
724.386	9659.82
724.729	9649.87
725.071	9622.76
725.413	9675.18
725.755	9621.17
726.097	9624.56
726.439	9560.84
726.782	9626.15
727.124	9548.63
727.465	9583.43
727.807	9606.48
728.149	9555.41
728.491	9587.05
728.833	9562.87
729.175	9545.92
729.516	9486.49
729.858	9512.93
730.199	9553.83
730.541	9529.2
730.882	9519.03
731.224	9545.92
731.565	9494.85
731.906	9481.29
732.248	9516.32
732.589	9414.85
732.93	9397
733.271	9510.22
733.612	9451.23
733.953	9501.85
734.294	9500.05
734.635	9482.42
734.976	9440.84
735.317	9456.43
735.658	9459.37
735.999	9450.33
736.339	9419.37
736.68	9455.75
737.021	9437
737.361	9416.21
737.702	9423.44
738.042	9415.76
738.383	9502.98
738.723	9472.25
739.063	9431.35
739.404	9411.24
739.744	9490.78
740.084	9456.21
740.424	9463.66
740.764	9473.61
741.104	9508.86
741.444	9507.28
741.784	9490.78
742.124	9522.19
742.464	9582.3
742.804	9553.6
743.143	9567.84
743.483	9600.38
743.823	9477.9
744.162	9576.88
744.502	9601.51
744.841	9693.94
745.181	9684.67
745.52	9668.18
745.86	9710.21
746.199	9769.87
746.538	9712.7
746.877	9806.48
747.216	9922.18
747.556	9825.91
747.895	9905.46
748.234	9850.77
748.573	9899.81
748.911	10008.28
749.25	10103.87
749.589	10052.57
749.928	10168.5
750.267	10245.79
750.605	10293.7
750.944	10339.35
751.283	10333.7
751.621	10533.24
751.96	10566.01
752.298	10600.58
752.636	10659.56
752.975	10734.59
753.313	10775.49
753.651	10924.42
753.989	10985.88
754.327	11129.83
754.666	11208.02
755.004	11346.1
755.342	11490.5
755.679	11501.8
756.017	11573.89
756.355	11724.4
756.693	11804.17
757.031	11946.99
757.368	12063.82
757.706	12170.26
758.044	12255
758.381	12426.07
758.719	12538.39
