Data from hue_34_FLMS001491_00100.txt Node
Date: Tue Feb 07 17:26:29 GMT 2017
User: dcchb
Spectrometer: FLMS00149
Trigger mode: 0
Integration Time (sec): 2.000000E-2
Scans to average: 10
Electric dark correction enabled: true
Nonlinearity correction enabled: false
Boxcar width: 0
XAxis mode: Wavelengths
Number of Pixels in Spectrum: 2048
>>>>>Begin Spectral Data<<<<<
341.393	-23.67
341.776	-23.67
342.16	-23.67
342.543	-44.46
342.927	-46.72
343.31	-48.98
343.693	-71.13
344.077	-62.09
344.46	-60.05
344.843	-67.51
345.226	-51.02
345.61	-26.16
345.993	-19.6
346.376	-2.66
346.759	12.49
347.142	21.75
347.525	29.43
347.908	61.07
348.291	76.44
348.674	94.29
349.057	113.73
349.44	115.53
349.823	154.63
350.206	173.84
350.588	211.12
350.971	221.75
351.354	228.98
351.737	240.28
352.119	258.35
352.502	248.41
352.884	292.03
353.267	308.07
353.65	277.56
354.032	290.9
354.414	293.61
354.797	326.15
355.179	331.35
355.562	306.94
355.944	335.19
356.326	336.77
356.709	355.98
357.091	333.61
357.473	334.51
357.855	347.17
358.238	351.69
358.62	366.83
359.002	327.73
359.384	343.55
359.766	348.3
360.148	326.83
360.53	350.56
360.912	356.43
361.294	332.7
361.676	346.04
362.057	348.52
362.439	354.85
362.821	334.74
363.203	338.13
363.584	340.39
363.966	332.7
364.348	356.88
364.729	322.08
365.111	315.98
365.493	323.21
365.874	325.25
366.256	323.66
366.637	318.47
367.019	328.18
367.4	313.95
367.781	326.15
368.163	308.07
368.544	307.17
368.925	301.97
369.306	334.74
369.688	318.92
370.069	315.3
370.45	294.74
370.831	298.58
371.212	336.54
371.593	322.08
371.974	312.14
372.355	316.43
372.736	311.46
373.117	331.8
373.498	326.6
373.879	329.99
374.26	311.23
374.641	305.81
375.021	308.3
375.402	336.32
375.783	322.31
376.163	322.08
376.544	338.13
376.925	332.93
377.305	342.65
377.686	332.48
378.066	318.47
378.447	335.87
378.827	337.22
379.208	314.4
379.588	336.54
379.968	346.26
380.349	333.38
380.729	332.7
381.109	329.54
381.489	347.17
381.87	344.91
382.25	333.38
382.63	323.21
383.01	335.19
383.39	347.84
383.77	342.19
384.15	337.22
384.53	361.63
384.91	347.84
385.29	354.85
385.67	363.44
386.049	369.76
386.429	362.31
386.809	363.21
387.189	330.9
387.568	353.72
387.948	367.05
388.328	379.93
388.707	335.19
389.087	360.72
389.466	369.54
389.846	358.92
390.225	363.21
390.605	374.28
390.984	341.52
391.363	364.79
391.743	372.7
392.122	369.09
392.501	357.11
392.881	381.52
393.26	382.87
393.639	377.67
394.018	373.61
394.397	389.65
394.776	380.61
395.155	390.55
395.534	362.76
395.913	400.27
396.292	397.33
396.671	377
397.05	388.07
397.429	387.62
397.808	384
398.186	406.83
398.565	386.94
398.944	391.46
399.323	399.14
399.701	388.29
400.08	384.68
400.458	407.05
400.837	412.93
401.215	421.29
401.594	423.1
401.972	406.37
402.351	412.7
402.729	400.72
403.107	411.35
403.486	400.95
403.864	408.63
404.242	409.54
404.62	402.98
404.999	419.93
405.377	402.53
405.755	422.19
406.133	414.06
406.511	415.41
406.889	417.22
407.267	422.64
407.645	421.06
408.023	446.37
408.401	449.08
408.779	429.88
409.156	451.57
409.534	421.97
409.912	452.02
410.29	454.73
410.667	453.15
411.045	418.12
411.422	452.7
411.8	447.28
412.178	434.85
412.555	467.61
412.933	438.92
413.31	456.32
413.687	484.11
414.065	472.36
414.442	454.06
414.819	462.42
415.197	463.55
415.574	495.18
415.951	477.78
416.328	494.96
416.705	487.73
417.082	502.64
417.46	482.76
417.837	488.86
418.214	525.92
418.591	495.64
418.967	500.61
419.344	506.48
419.721	494.96
420.098	511.91
420.475	521.4
420.852	506.94
421.228	495.41
421.605	509.42
421.982	517.56
422.358	523.21
422.735	535.41
423.111	544
423.488	551.91
423.864	513.26
424.241	543.55
424.617	530.66
424.994	532.47
425.37	558.01
425.746	561.17
426.123	550.55
426.499	585.35
426.875	562.75
427.251	554.84
427.627	571.11
428.003	574.5
428.379	576.99
428.756	598.68
429.132	572.7
429.507	607.05
429.883	602.98
430.259	623.32
430.635	588.52
431.011	640.04
431.387	625.12
431.763	620.15
432.138	625.8
432.514	644.33
432.89	645.69
433.265	641.85
433.641	633.49
434.016	654.5
434.392	664.67
434.767	670.77
435.143	661.28
435.518	662.19
435.894	680.26
436.269	676.87
436.644	693.15
437.02	705.35
437.395	687.72
437.77	700.6
438.145	678
438.52	691.34
438.895	716.65
439.271	701.28
439.646	710.77
440.021	723.88
440.395	734.95
440.77	719.13
441.145	716.87
441.52	728.62
441.895	741.51
442.27	759.36
442.645	735.86
443.019	749.42
443.394	732.01
443.769	777.44
444.143	788.06
444.518	763.88
444.892	798.23
445.267	772.47
445.641	774.05
446.016	793.26
446.39	786.48
446.764	795.29
447.139	772.92
447.513	807.27
447.887	827.83
448.262	798.45
448.636	806.81
449.01	826.7
449.384	809.98
449.758	829.19
450.132	819.47
450.506	847.27
450.88	864.44
451.254	833.48
451.628	836.19
452.002	865.34
452.376	861.05
452.75	874.61
453.123	902.41
453.497	864.21
453.871	879.58
454.244	920.48
454.618	911.44
454.992	902.86
455.365	930.88
455.739	942.18
456.112	962.07
456.486	959.13
456.859	946.7
457.232	981.27
457.606	966.36
457.979	993.93
458.352	1005.45
458.725	985.79
459.099	1002.74
459.472	1005
459.845	1038.67
460.218	1058.79
460.591	1068.28
460.964	1045.23
461.337	1089.07
461.71	1088.16
462.083	1076.86
462.456	1133.81
462.829	1115.51
463.201	1147.14
463.574	1146.92
463.947	1141.95
464.32	1165.9
464.692	1175.62
465.065	1188.05
465.438	1234.37
465.81	1237.76
466.183	1236.63
466.555	1243.87
466.928	1272.11
467.3	1284.54
467.672	1292.9
468.045	1328.61
468.417	1373.81
468.789	1341.72
469.161	1371.77
469.534	1398.66
469.906	1414.03
470.278	1425.33
470.65	1440.24
471.022	1496.97
471.394	1492.45
471.766	1524.76
472.138	1569.73
472.51	1600.92
472.882	1633.91
473.253	1649.05
473.625	1653.8
473.997	1702.61
474.369	1705.32
474.74	1743.51
475.112	1804.98
475.484	1821.7
475.855	1881.14
476.227	1893.57
476.598	1988.25
476.97	1998.87
477.341	2051.98
477.713	2077.52
478.084	2103.28
478.455	2161.36
478.827	2210.39
479.198	2255.82
479.569	2280.22
479.94	2355.02
480.311	2418.3
480.682	2513.66
481.053	2519.31
481.424	2620.55
481.795	2639.76
482.166	2712.53
482.537	2782.81
482.908	2898.96
483.279	2931.5
483.65	3016.47
484.021	3054.89
484.391	3109.35
484.762	3188.67
485.133	3243.36
485.503	3314.77
485.874	3441.32
486.244	3483.58
486.615	3600.64
486.985	3656.23
487.356	3749.11
487.726	3811.26
488.097	3934.19
488.467	3989.56
488.837	4091.7
489.207	4181.19
489.578	4243.56
489.948	4290.34
490.318	4428.87
490.688	4484.23
491.058	4610.56
491.428	4676.09
491.798	4740.95
492.168	4867.5
492.538	4914.28
492.908	5052.35
493.278	5148.62
493.648	5215.74
494.017	5295.96
494.387	5339.13
494.757	5417.32
495.126	5507.26
495.496	5574.15
495.866	5649.85
496.235	5750.64
496.605	5808.49
496.974	5881.94
497.344	6035.6
497.713	6057.07
498.082	6147.69
498.452	6215.71
498.821	6261.59
499.19	6347.01
499.559	6424.52
499.928	6483.73
500.298	6516.5
500.667	6677.62
501.036	6633.78
501.405	6762.14
501.774	6754.91
502.143	6866.54
502.512	6918.74
502.88	6996.26
503.249	6972.98
503.618	7097.5
503.987	7138.4
504.356	7226.99
504.724	7313.76
505.093	7404.61
505.462	7339.07
505.83	7474.44
506.199	7508.33
506.567	7576.81
506.936	7624.26
507.304	7766.86
507.672	7764.15
508.041	7855.22
508.409	7963.01
508.777	7989.68
509.145	8034.42
509.514	8040.52
509.882	8100.41
510.25	8219.28
510.618	8206.39
510.986	8318.26
511.354	8367.75
511.722	8439.61
512.09	8488.42
512.458	8465.6
512.826	8559.38
513.193	8574.97
513.561	8613.84
513.929	8687.29
514.297	8799.83
514.664	8864.68
515.032	8875.3
515.4	8936.54
515.767	8959.37
516.135	9025.58
516.502	8951.91
516.869	9112.36
517.237	9122.53
517.604	9160.49
517.972	9252.02
518.339	9281.39
518.706	9311.22
519.073	9407.49
519.44	9391
519.808	9532.24
520.175	9493.59
520.542	9589.41
520.909	9680.48
521.276	9587.15
521.643	9770.87
522.009	9799.8
522.376	9933.81
522.743	9929.96
523.11	9983.75
523.477	10049.06
523.843	10091.09
524.21	10203.18
524.577	10305.55
524.943	10325.21
525.31	10417.41
525.676	10448.6
526.043	10432.1
526.409	10620.34
526.776	10686.33
527.142	10628.7
527.508	10755.03
527.874	10790.51
528.241	10901.46
528.607	10933.33
528.973	10990.28
529.339	11057.62
529.705	11135.58
530.071	11115.02
530.437	11190.04
530.803	11367.67
531.169	11397.04
531.535	11352.75
531.901	11452.86
532.267	11460.55
532.632	11560.88
532.998	11493.77
533.364	11647.89
533.73	11672.07
534.095	11739.41
534.461	11728.34
534.826	11788
535.192	11896.92
535.557	11966.97
535.923	11910.25
536.288	11986.18
536.653	12058.5
537.019	12021.21
537.384	12207.65
537.749	12231.6
538.114	12238.6
538.479	12272.5
538.845	12388.43
539.21	12309.11
539.575	12429.33
539.94	12456.23
540.305	12570.12
540.67	12505.04
541.034	12555.21
541.399	12701.64
541.764	12694.64
542.129	12744.13
542.494	12778.7
542.858	12875.2
543.223	12903.67
543.587	12996.1
543.952	12998.58
544.316	13057.79
544.681	13131.01
545.045	13130.56
545.41	13193.16
545.774	13225.7
546.138	13272.7
546.503	13425.69
546.867	13383.43
547.231	13485.13
547.595	13497.33
547.959	13552.47
548.324	13533.71
548.688	13603.77
549.052	13688.51
549.416	13796.08
549.779	13724.44
550.143	13748.62
550.507	13894.38
550.871	13854.61
551.235	13944.32
551.599	13975.06
551.962	14070.42
552.326	14037.88
552.689	14216.18
553.053	14159.01
553.417	14203.98
553.78	14320.13
554.143	14266.8
554.507	14335.95
554.87	14466.34
555.234	14561.71
555.597	14461.6
555.96	14575.27
556.323	14532.1
556.686	14646
557.05	14752.44
557.413	14687.58
557.776	14796.73
558.139	14780.91
558.502	14874.69
558.865	14899.78
559.228	15010.96
559.59	15083.5
559.953	15092.99
560.316	15180.9
560.679	15234.46
561.041	15235.59
561.404	15365.98
561.767	15484.62
562.129	15466.32
562.492	15581.34
562.854	15548.12
563.217	15565.75
563.579	15613.43
563.941	15692.98
564.304	15742.92
564.666	15817.27
565.028	15857.49
565.39	15939.75
565.753	16009.13
566.115	16079.41
566.477	16130.48
566.839	16205.51
567.201	16336.12
567.563	16309.46
567.925	16489.57
568.287	16444.6
568.648	16403.47
569.01	16587.19
569.372	16647.75
569.734	16628.32
570.095	16751.71
570.457	16740.86
570.819	16852.95
571.18	16916.45
571.542	16960.74
571.903	16977.69
572.265	17065.6
572.626	17230.56
572.987	17278.02
573.349	17342.88
573.71	17416.1
574.071	17466.94
574.432	17568.63
574.794	17786.71
575.155	17845.69
575.516	17780.61
575.877	18017.66
576.238	18075.74
576.599	18189.18
576.96	18256.98
577.32	18359.8
577.681	18556.86
578.042	18694.48
578.403	18788.49
578.763	18841.37
579.124	19098.31
579.485	19272.32
579.845	19427.12
580.206	19577.17
580.566	19649.94
580.927	19793.43
581.287	19993.2
581.648	20080.43
582.008	20246.53
582.368	20437.03
582.728	20671.83
583.089	20746.86
583.449	21020.75
583.809	21156.79
584.169	21364.24
584.529	21528.3
584.889	21903.66
585.249	21971.46
585.609	22176.65
585.969	22438.11
586.329	22484.89
586.688	22853.69
587.048	23188.15
587.408	23193.12
587.768	23403.06
588.127	23599.89
588.487	23800.56
588.846	24373.2
589.206	24308.12
589.565	24699.07
589.925	24976.12
590.284	25099.28
590.643	25401.87
591.003	25663.79
591.362	26075.3
591.721	26226.94
592.08	26414.96
592.44	26742.63
592.799	27052.9
593.158	27217.87
593.517	27509.39
593.876	27669.39
594.235	28048.36
594.593	28096.72
594.952	28508.69
595.311	28689.25
595.67	29025.73
596.029	29334.65
596.387	29678.15
596.746	29993.84
597.104	29929.44
597.463	30230.9
597.822	30597.9
598.18	30683.09
598.538	30818.91
598.897	31348.38
599.255	31313.58
599.613	31855.94
599.972	31859.78
600.33	32245.54
600.688	32363.05
601.046	32660.89
601.404	32989.02
601.762	33100.88
602.12	33453.64
602.478	33632.62
602.836	33758.04
603.194	33788.77
603.552	34108.54
603.91	33990.12
604.268	34364.12
604.625	34611.35
604.983	34941.74
605.341	34921.85
605.698	35194.16
606.056	35437.77
606.413	35569.52
606.771	35835.5
607.128	35958.66
607.485	36001.82
607.843	36174.47
608.2	36383.96
608.557	36747.34
608.914	36686.55
609.272	36964.73
609.629	37286.76
609.986	37272.07
610.343	37376.93
610.7	37755.22
611.057	37943.47
611.414	37927.42
611.771	38116.57
612.127	38364.02
612.484	38350.69
612.841	38538.7
613.198	38549.78
613.554	38636.33
613.911	39099.59
614.267	39194.73
614.624	39258.91
614.98	39358.12
615.337	39728.28
615.693	39682.4
616.05	39672.01
616.406	39938.44
616.762	39785.45
617.118	39856.86
617.475	40126.01
617.831	40284.65
618.187	40513.57
618.543	40465.43
618.899	40718.08
619.255	40758.53
619.611	40785.88
619.967	40935.48
620.323	41025.42
620.678	41078.07
621.034	40984.97
621.39	41007.57
621.746	40980.45
622.101	41523.71
622.457	41455.24
622.812	41530.04
623.168	41661.33
623.523	41694.1
623.879	41840.76
624.234	41526.42
624.589	41753.31
624.945	41887.54
625.3	42033.98
625.655	41963.25
626.01	42059.29
626.365	42042.57
626.72	42073.3
627.075	42243.24
627.43	42131.6
627.785	42106.75
628.14	42176.57
628.495	42227.19
628.85	42290.47
629.205	42007.09
629.559	42371.15
629.914	42143.36
630.269	42421.54
630.623	42149.23
630.978	42168.89
631.332	42360.07
631.687	42616.34
632.041	42303.12
632.396	42497.7
632.75	42371.82
633.104	42389.68
633.459	42191.49
633.813	42246.86
634.167	42353.97
634.521	42312.16
634.875	42425.83
635.229	42481.43
635.583	42207.08
635.937	42242.11
636.291	42357.36
636.645	42468.09
636.999	42157.82
637.352	42240.3
637.706	42221.77
638.06	42385.16
638.413	42419.96
638.767	42120.53
639.121	42253.63
639.474	42038.73
639.828	42035.34
640.181	42088.89
640.534	42161.43
640.888	42062.68
641.241	41880.09
641.594	42070.81
641.947	42111.27
642.301	41988.78
642.654	42040.76
643.007	41977.03
643.36	41882.8
643.713	41919.86
644.066	42018.84
644.419	41832.18
644.771	41483.26
645.124	41186.54
645.477	41194.23
645.83	40936.16
646.182	40724.41
646.535	40650.97
646.888	40772.54
647.24	40512.44
647.593	40734.8
647.945	40748.36
648.298	40499.78
648.65	40536.39
649.002	40461.14
649.355	40564.87
649.707	40428.37
650.059	40714.01
650.411	41150.61
650.763	41147.22
651.115	41586.31
651.467	41372.53
651.819	41495.46
652.171	41314
652.523	41303.6
652.875	41330.5
653.227	41085.98
653.578	41361.23
653.93	41433.54
654.282	41173.44
654.633	41180.67
654.985	41244.85
655.337	41272.19
655.688	41172.31
656.039	41377.27
656.391	41030.62
656.742	41147.45
657.094	41093.89
657.445	41210.95
657.796	41093.67
658.147	41059.09
658.498	41042.14
658.849	41243.94
659.2	41047.34
659.551	40952.65
659.902	41157.39
660.253	41151.97
660.604	41138.64
660.955	40979.32
661.306	40907.91
661.656	41007.11
662.007	41070.16
662.358	40976.15
662.708	40958.08
663.059	41000.56
663.409	40773.22
663.76	41054.57
664.11	40883.95
664.461	41041.46
664.811	41037.4
665.161	40915.36
665.511	40829.94
665.862	40780.23
666.212	40953.56
666.562	40852.77
666.912	40768.48
667.262	40745.43
667.612	40794.46
667.962	40915.14
668.312	40833.33
668.662	40938.87
669.011	40922.6
669.361	40857.51
669.711	40783.39
670.06	40702.04
670.41	40677.86
670.76	40606.22
671.109	40740.91
671.459	40641.25
671.808	40692.09
672.157	40747.91
672.507	40452.55
672.856	40483.96
673.205	40603.06
673.554	40582.27
673.904	40599.21
674.253	40846.44
674.602	40593.57
674.951	39982.28
675.3	39767.37
675.649	40527.35
675.998	40411.2
676.346	40504.75
676.695	40429.73
677.044	40157.64
677.393	40385.66
677.741	40418.65
678.09	40286.91
678.438	40231.99
678.787	40419.56
679.135	40381.14
679.484	40068.38
679.832	40153.58
680.181	39983.19
680.529	40037.42
680.877	39849.86
681.225	39925.56
681.573	39996.97
681.922	39940.7
682.27	39857.31
682.618	39711.78
682.966	39627.94
683.314	39763.53
683.661	39618.22
684.009	39490.09
684.357	39380.04
684.705	39320.38
685.053	39444.9
685.4	39296.2
685.748	39108.41
686.095	39067.73
686.443	39032.93
686.79	38912.03
687.138	39149.99
687.485	38994.29
687.832	39012.36
688.18	38901.63
688.527	38799.71
688.874	38750.22
689.221	38640.4
689.568	38474.75
689.915	38508.2
690.262	38506.84
690.609	38300.74
690.956	38259.84
691.303	38174.19
691.65	38082.44
691.997	37829.12
692.344	37818.95
692.69	37836.12
693.037	37814.2
693.383	37512.06
693.73	37657.82
694.077	37410.15
694.423	37547.09
694.769	37335.8
695.116	37297.15
695.462	37206.99
695.808	37003.83
696.155	37151.62
696.501	36805.64
696.847	36910.95
697.193	36733.78
697.539	36916.15
697.885	36544.63
698.231	36522.26
698.577	36443.84
698.923	36534.92
699.269	36250.63
699.614	36102.38
699.96	36055.38
700.306	35974.48
700.651	35847.02
700.997	35743.52
701.342	35561.61
701.688	35710.98
702.033	35533.13
702.379	35452.23
702.724	35452.01
703.069	35408.39
703.415	34987.16
703.76	35090.43
704.105	35080.94
704.45	34920.27
704.795	34631.01
705.14	34712.36
705.485	34537
705.83	34530.9
706.175	34532.26
706.52	34399.6
706.865	34275.54
707.209	34325.03
707.554	34211.36
707.899	34145.83
708.243	34009.78
708.588	33903.12
708.932	33771.37
709.277	33856.57
709.621	33751.03
709.966	33589.46
710.31	33711.03
710.654	33270.82
710.998	33444.37
711.342	33497.71
711.687	33291.84
712.031	33209.35
712.375	33086.64
712.719	33150.37
713.063	33123.48
713.407	33214.1
713.75	32896.82
714.094	32949.47
714.438	32878.51
714.782	32904.95
715.125	32646.43
715.469	32699.54
715.812	32513.55
716.156	32321.24
716.499	32451.63
716.843	32481.24
717.186	32367.57
717.53	32525.75
717.873	32412.54
718.216	32259.55
718.559	32120.57
718.902	31831.76
719.246	31863.17
719.589	31994.02
719.932	31662.5
720.275	31864.3
720.617	31720.13
720.96	31772.55
721.303	31738.21
721.646	31608.04
721.989	31530.07
722.331	31618.89
722.674	31523.75
723.016	31463.41
723.359	31321.04
723.701	31470.87
724.044	31168.95
724.386	31045.12
724.729	31288.73
725.071	31204.89
725.413	31074.72
725.755	31053.48
726.097	31051.44
726.439	30803.99
726.782	30780.94
727.124	30888.51
727.465	30717.44
727.807	30666.37
728.149	30686.48
728.491	30660.04
728.833	30689.19
729.175	30621.4
729.516	30577.78
729.858	30549.99
730.199	30414.17
730.541	30334.17
730.882	30238.13
731.224	30278.36
731.565	30231.58
731.906	30158.81
732.248	30156.78
732.589	30084.24
732.93	29804.47
733.271	29918.37
733.612	30044.46
733.953	30012.15
734.294	29857.12
734.635	29848.31
734.976	29944.13
735.317	29776
735.658	29660.97
735.999	29793.4
736.339	29521.09
736.68	29750.46
737.021	29615.77
737.361	29367.19
737.702	29586.17
738.042	29418.27
738.383	29421.88
738.723	29497.13
739.063	29409.23
739.404	29380.53
739.744	29333.75
740.084	29169.23
740.424	29176.92
740.764	29133.3
741.104	29216.69
741.444	28957.49
741.784	28920.43
742.124	29122.23
742.464	29032.97
742.804	28843.14
743.143	28801.11
743.483	28940.76
743.823	28689.25
744.162	28761.11
744.502	28703.71
744.841	28540.77
745.181	28698.51
745.52	28452.42
745.86	28573.09
746.199	28527.44
746.538	28465.97
746.877	28414.22
747.216	28459.87
747.556	28314.57
747.895	28457.16
748.234	28117.28
748.573	28246.77
748.911	28119.09
749.25	28135.59
749.589	28031.64
749.928	28013.56
750.267	28003.16
750.605	28080.67
750.944	27911.41
751.283	27720.01
751.621	27886.78
751.96	27659.44
752.298	27688.37
752.636	27713.68
752.975	27525.89
753.313	27516.62
753.651	27543.74
753.989	27426.45
754.327	27440.69
754.666	27305.55
755.004	27244.76
755.342	27397.08
755.679	27196.4
756.017	27121.83
756.355	27272.79
756.693	27053.36
757.031	26910.31
757.368	26874.38
757.706	26831.67
