Data from hue_170_FLMS001491_00036.txt Node
Date: Tue Feb 07 16:48:36 GMT 2017
User: dcchb
Spectrometer: FLMS00149
Trigger mode: 0
Integration Time (sec): 2.000000E-2
Scans to average: 10
Electric dark correction enabled: true
Nonlinearity correction enabled: false
Boxcar width: 0
XAxis mode: Wavelengths
Number of Pixels in Spectrum: 2048
>>>>>Begin Spectral Data<<<<<
341.393	6.72
341.776	6.72
342.16	6.72
342.543	-48.87
342.927	-74.18
343.31	-57.46
343.693	-69.66
344.077	-65.14
344.46	-54.97
344.843	-68.76
345.226	-52.26
345.61	-27.4
345.993	-4.8
346.376	-12.71
346.759	-9.1
347.142	31.58
347.525	41.52
347.908	51.47
348.291	86.04
348.674	97.34
349.057	114.29
349.44	137.12
349.823	140.28
350.206	152.93
350.588	164.68
350.971	187.74
351.354	220.05
351.737	224.12
352.119	236.55
352.502	268.19
352.884	273.83
353.267	259.15
353.65	288.3
354.032	312.03
354.414	307.28
354.797	306.38
355.179	314.06
355.562	324.91
355.944	309.77
356.326	328.75
356.709	322.19
357.091	338.92
357.473	328.75
357.855	320.61
358.238	331.46
358.62	338.92
359.002	336.43
359.384	349.99
359.766	330.78
360.148	327.17
360.53	321.52
360.912	328.97
361.294	339.6
361.676	325.58
362.057	323.55
362.439	335.3
362.821	333.95
363.203	318.81
363.584	337.11
363.966	304.79
364.348	314.06
364.729	328.97
365.111	331.91
365.493	323.55
365.874	327.39
366.256	314.06
366.637	282.42
367.019	307.28
367.4	294.4
367.781	308.86
368.163	304.79
368.544	308.18
368.925	306.15
369.306	318.35
369.688	310.44
370.069	312.48
370.45	298.01
370.831	314.06
371.212	317.22
371.593	325.36
371.974	302.08
372.355	320.39
372.736	305.02
373.117	322.42
373.498	285.81
373.879	313.83
374.26	327.62
374.641	311.35
375.021	312.93
375.402	306.38
375.783	309.54
376.163	307.73
376.544	333.04
376.925	314.06
377.305	316.55
377.686	332.36
378.066	323.32
378.447	345.47
378.827	317
379.208	329.2
379.588	324
379.968	328.97
380.349	328.07
380.729	332.36
381.109	330.1
381.489	318.81
381.87	334.4
382.25	347.5
382.63	333.04
383.01	316.32
383.39	334.17
383.77	340.05
384.15	345.92
384.53	345.7
384.91	352.7
385.29	337.79
385.67	349.76
386.049	339.82
386.429	330.78
386.809	348.18
387.189	346.83
387.568	338.24
387.948	336.21
388.328	357
388.707	366.04
389.087	366.49
389.466	345.7
389.846	353.83
390.225	363.32
390.605	354.74
390.984	352.02
391.363	380.72
391.743	372.36
392.122	375.07
392.501	361.06
392.881	372.36
393.26	390.67
393.639	377.11
394.018	377.56
394.397	385.47
394.776	363.78
395.155	370.56
395.534	388.18
395.913	368.75
396.292	394.51
396.671	375.98
397.05	394.06
397.429	375.75
397.808	367.17
398.186	391.57
398.565	396.54
398.944	382.98
399.323	408.29
399.701	380.05
400.08	400.16
400.458	373.49
400.837	397.22
401.215	390.22
401.594	437.45
401.972	402.19
402.351	413.94
402.729	411.23
403.107	415.75
403.486	413.49
403.864	418.24
404.242	415.07
404.62	423.66
404.999	406.03
405.377	448.07
405.755	432.47
406.133	424.34
406.511	435.64
406.889	434.96
407.267	444.9
407.645	439.03
408.023	439.71
408.401	470.21
408.779	468.86
409.156	480.61
409.534	458.46
409.912	473.6
410.29	492.81
410.667	488.97
411.045	497.78
411.422	500.5
411.8	489.65
412.178	511.57
412.555	508.86
412.933	521.51
413.31	499.59
413.687	543.88
414.065	512.02
414.442	525.13
414.819	537.78
415.197	542.3
415.574	525.58
415.951	559.02
416.328	568.97
416.705	584.11
417.082	547.5
417.46	582.08
417.837	569.65
418.214	561.28
418.591	608.06
418.967	582.53
419.344	570.32
419.721	588.18
420.098	609.19
420.475	608.74
420.852	611.45
421.228	611.45
421.605	620.49
421.982	619.14
422.358	641.51
422.735	656.65
423.111	642.19
423.488	659.59
423.864	685.8
424.241	679.47
424.617	671.79
424.994	678.34
425.37	691.9
425.746	699.36
426.123	708.85
426.499	684.22
426.875	715.86
427.251	735.29
427.627	696.2
428.003	739.13
428.379	761.28
428.756	742.3
429.132	762.86
429.507	770.77
429.883	768.51
430.259	793.82
430.635	808.06
431.011	789.75
431.387	826.81
431.763	828.62
432.138	824.33
432.514	851.45
432.89	842.63
433.265	861.39
433.641	855.51
434.016	892.8
434.392	856.87
434.767	919.47
435.143	907.04
435.518	921.5
435.894	915.17
436.269	937.77
436.644	969.86
437.02	977.77
437.395	961.27
437.77	959.69
438.145	996.3
438.52	1007.83
438.895	1023.65
439.271	1030.2
439.646	1048.73
440.021	1057.99
440.395	1091.44
440.77	1097.77
441.145	1071.78
441.52	1105.23
441.895	1110.65
442.27	1125.56
442.645	1106.13
443.019	1135.28
443.394	1139.35
443.769	1143.19
444.143	1151.55
444.518	1169.86
444.892	1175.28
445.267	1168.27
445.641	1189.74
446.016	1193.58
446.39	1215.5
446.764	1218.67
447.139	1220.25
447.513	1257.09
447.887	1222.51
448.262	1266.12
448.636	1280.81
449.01	1276.75
449.384	1261.83
449.758	1278.1
450.132	1297.54
450.506	1332.56
450.88	1323.98
451.254	1331.43
451.628	1330.98
452.002	1361.04
452.376	1370.98
452.75	1391.09
453.123	1410.75
453.497	1420.7
453.871	1407.14
454.244	1446.23
454.618	1470.64
454.992	1479
455.365	1464.09
455.739	1520.58
456.112	1526.68
456.486	1567.36
456.859	1566
457.232	1602.39
457.606	1581.37
457.979	1591.99
458.352	1645.78
458.725	1660.92
459.099	1680.8
459.472	1720.35
459.845	1738.65
460.218	1766.45
460.591	1744.08
460.964	1770.52
461.337	1823.4
461.71	1881.7
462.083	1890.97
462.456	1856.17
462.829	1890.52
463.201	1968.48
463.574	1967.8
463.947	1966.9
464.32	2029.27
464.692	2031.08
465.065	2064.07
465.438	2086.22
465.81	2123.96
466.183	2152.2
466.555	2178.64
466.928	2228.36
467.3	2229.04
467.672	2263.16
468.045	2356.27
468.417	2357.85
468.789	2369.6
469.161	2395.81
469.534	2457.05
469.906	2519.65
470.278	2588.8
470.65	2561.68
471.022	2614.56
471.394	2706.76
471.766	2706.99
472.138	2778.85
472.51	2820.21
472.882	2890.04
473.253	2917.15
473.625	2998.06
473.997	3054.78
474.369	3085.74
474.74	3143.36
475.112	3219.52
475.484	3306.3
475.855	3396.24
476.227	3398.05
476.598	3568.44
476.97	3556.01
477.341	3675.33
477.713	3720.98
478.084	3765.04
478.455	3933.17
478.827	3985.38
479.198	4089.1
479.569	4163.68
479.94	4278.25
480.311	4346.5
480.682	4475.08
481.053	4599.37
481.424	4680.72
481.795	4792.13
482.166	4882.53
482.537	4952.81
482.908	5066.48
483.279	5226.47
483.65	5345.11
484.021	5480.93
484.391	5498.78
484.762	5651.09
485.133	5749.85
485.503	5885.44
485.874	5970.41
486.244	6091.08
486.615	6211.31
486.985	6367.01
487.356	6509.83
487.726	6579.88
488.097	6807.22
488.467	6806.09
488.837	6983.94
489.207	7132.86
489.578	7273.42
489.948	7337.15
490.318	7505.28
490.688	7589.57
491.058	7752.28
491.428	7892.84
491.798	7947.08
492.168	8077.7
492.538	8216.22
492.908	8378.25
493.278	8535.54
493.648	8560.17
494.017	8740.5
494.387	8832.48
494.757	8911.12
495.126	9107.95
495.496	9083.09
495.866	9217.78
496.235	9344.1
496.605	9449.64
496.974	9498.68
497.344	9644.89
497.713	9706.58
498.082	9795.84
498.452	9917.65
498.821	9933.69
499.19	10027.7
499.559	10165.55
499.928	10261.59
500.298	10271.99
500.667	10412.33
501.036	10392.66
501.405	10456.39
501.774	10563.06
502.143	10561.02
502.512	10685.09
502.88	10735.93
503.249	10794.01
503.618	10866.1
503.987	10947
504.356	11015.25
504.724	10982.93
505.093	11077.62
505.462	11151.29
505.83	11229.48
506.199	11229.03
506.567	11449.13
506.936	11431.06
507.304	11467.44
507.672	11545.4
508.041	11491.62
508.409	11614.55
508.777	11721.9
509.145	11758.5
509.514	11804.15
509.882	11847.77
510.25	11892.06
510.618	11950.59
510.986	11991.49
511.354	11950.82
511.722	12154.65
512.09	12204.14
512.458	12145.61
512.826	12237.36
513.193	12214.99
513.561	12251.15
513.929	12300.19
514.297	12441.42
514.664	12482.1
515.032	12394.42
515.4	12537.01
515.767	12538.6
516.135	12586.96
516.502	12408.66
516.869	12636.45
517.237	12651.81
517.604	12656.79
517.972	12699.27
518.339	12736.33
518.706	12702.21
519.073	12783.56
519.44	12866.27
519.808	12896.33
520.175	12841.19
520.542	12939.49
520.909	12926.38
521.276	12903.79
521.643	12944.69
522.009	12990.56
522.376	13067.85
522.743	13107.17
523.11	13045.48
523.477	13131.35
523.843	13190.33
524.21	13229.65
524.577	13308.75
524.943	13327.05
525.31	13302.19
525.676	13438.01
526.043	13445.69
526.409	13359.37
526.776	13543.99
527.142	13421.51
527.508	13519.59
527.874	13427.84
528.241	13467.61
528.607	13487.27
528.973	13527.72
529.339	13462.64
529.705	13537.67
530.071	13531.11
530.437	13578.12
530.803	13467.16
531.169	13517.78
531.535	13414.28
531.901	13511.23
532.267	13446.82
532.632	13555.75
532.998	13483.88
533.364	13476.65
533.73	13495.86
534.095	13525.92
534.461	13499.25
534.826	13521.85
535.192	13405.69
535.557	13382.19
535.923	13314.62
536.288	13332.25
536.653	13416.54
537.019	13203.44
537.384	13275.3
537.749	13256.54
538.114	13200.95
538.479	13206.38
538.845	13243.21
539.21	13118.24
539.575	13124.57
539.94	13122.31
540.305	13124.34
540.67	12977.46
541.034	12995.31
541.399	12985.14
541.764	12951.47
542.129	12977
542.494	12922.77
542.858	12877.8
543.223	12848.65
543.587	12790.34
543.952	12711.93
544.316	12717.8
544.681	12603.68
545.045	12636.22
545.41	12643.9
545.774	12590.12
546.138	12502.21
546.503	12454.76
546.867	12417.24
547.231	12507.86
547.595	12404.36
547.959	12366.62
548.324	12303.8
548.688	12320.98
549.052	12225.84
549.416	12255.67
549.779	12092.73
550.143	12208.89
550.507	12164.37
550.871	12049.12
551.235	12073.07
551.599	12162.56
551.962	12017.03
552.326	12049.34
552.689	12070.81
553.053	11927.77
553.417	11981.55
553.78	12005.28
554.143	11870.82
554.507	11874.89
554.87	11862.23
555.234	11932.29
555.597	11776.36
555.96	11758.05
556.323	11784.94
556.686	11742.01
557.05	11806.64
557.413	11730.26
557.776	11739.07
558.139	11728.9
558.502	11727.77
558.865	11681.9
559.228	11755.11
559.59	11740.43
559.953	11678.96
560.316	11762.8
560.679	11664.5
561.041	11687.77
561.404	11792.4
561.767	11814.1
562.129	11622.01
562.492	11705.62
562.854	11655.23
563.217	11676.7
563.579	11653.65
563.941	11700.43
564.304	11726.87
564.666	11756.7
565.028	11717.15
565.39	11666.3
565.753	11734.32
566.115	11734.1
566.477	11737.94
566.839	11718.96
567.201	11854.32
567.563	11831.72
567.925	11833.3
568.287	11785.17
568.648	11819.07
569.01	11788.56
569.372	11872.63
569.734	11816.36
570.095	11810.25
570.457	11890.93
570.819	11843.25
571.18	11798.73
571.542	11809.12
571.903	11890.48
572.265	11835.79
572.626	11847.54
572.987	11931.61
573.349	11848.9
573.71	11944.49
574.071	11907.43
574.432	11921.89
574.794	11951.04
575.155	11936.13
575.516	11884.83
575.877	11943.81
576.238	11932.51
576.599	12016.12
576.96	11972.28
577.32	11887.54
577.681	12003.47
578.042	11933.42
578.403	11939.52
578.763	11958.05
579.124	11955.79
579.485	12036.46
579.845	12039.4
580.206	11955.56
580.566	11972.74
580.927	11971.38
581.287	12001.66
581.648	11907.88
582.008	11994.66
582.368	11941.32
582.728	11861.33
583.089	11859.52
583.449	11932.06
583.809	11932.06
584.169	11922.12
584.529	11845.06
584.889	11944.26
585.249	11828.33
585.609	11817.71
585.969	11929.8
586.329	11809.58
586.688	11908.78
587.048	11819.29
587.408	11839.18
587.768	11814.55
588.127	11760.54
588.487	11837.15
588.846	11843.7
589.206	11757.15
589.565	11827.88
589.925	11843.7
590.284	11783.59
590.643	11806.41
591.003	11753.98
591.362	11805.28
591.721	11733.42
592.08	11672.86
592.44	11782.68
592.799	11736.36
593.158	11659.3
593.517	11726.64
593.876	11665.85
594.235	11660.65
594.593	11621.33
594.952	11731.16
595.311	11595.57
595.67	11647.09
596.029	11675.34
596.387	11718.51
596.746	11709.92
597.104	11605.97
597.463	11602.8
597.822	11644.61
598.18	11625.4
598.538	11572.97
598.897	11679.18
599.255	11620.65
599.613	11781.78
599.972	11583.82
600.33	11624.72
600.688	11643.93
601.046	11646.87
601.404	11685.74
601.762	11606.64
602.12	11730.03
602.478	11648.68
602.836	11631.28
603.194	11551.05
603.552	11655
603.91	11575.68
604.268	11648.68
604.625	11511.28
604.983	11527.78
605.341	11500.88
605.698	11572.07
606.056	11509.47
606.413	11482.81
606.771	11544.5
607.128	11584.72
607.485	11550.6
607.843	11547.44
608.2	11594.89
608.557	11640.99
608.914	11549.47
609.272	11720.99
609.629	11669.69
609.986	11741.78
610.343	11719.18
610.7	11717.15
611.057	11682.57
611.414	11709.24
611.771	11748.11
612.127	11759.86
612.484	11648.68
612.841	11765.28
613.198	11661.78
613.554	11673.76
613.911	11739.3
614.267	11738.62
614.624	11708.79
614.98	11791.72
615.337	11824.94
615.693	11793.98
616.05	11857.71
616.406	11907.65
616.762	11828.79
617.118	11779.75
617.475	11834.21
617.831	11780.88
618.187	11880.99
618.543	11801.44
618.899	11903.59
619.255	11861.55
619.611	11904.72
619.967	11853.87
620.323	11943.36
620.678	11903.13
621.034	11884.6
621.39	11877.6
621.746	11850.03
622.101	12003.47
622.457	11836.02
622.812	11875.11
623.168	11913.08
623.523	11889.35
623.879	11939.74
624.234	11854.32
624.589	11860.65
624.945	11891.16
625.3	11930.03
625.655	11879.18
626.01	11863.81
626.365	11915.56
626.72	11829.24
627.075	11862.46
627.43	11850.93
627.785	11840.76
628.14	11893.19
628.495	11853.19
628.85	11819.07
629.205	11765.51
629.559	11838.73
629.914	11790.59
630.269	11800.09
630.623	11846.41
630.978	11714.66
631.332	11744.04
631.687	11831.27
632.041	11727.32
632.396	11826.07
632.75	11774.1
633.104	11719.86
633.459	11661.33
633.813	11658.85
634.167	11648.68
634.521	11653.87
634.875	11627.89
635.229	11617.04
635.583	11539.53
635.937	11558.74
636.291	11550.15
636.645	11571.39
636.999	11510.15
637.352	11604.38
637.706	11513.09
638.06	11494.33
638.413	11487.33
638.767	11556.48
639.121	11491.84
639.474	11488.91
639.828	11458.85
640.181	11459.98
640.534	11449.59
640.888	11369.59
641.241	11385.41
641.594	11329.14
641.947	11389.02
642.301	11381.79
642.654	11457.27
643.007	11363.49
643.36	11381.57
643.713	11364.84
644.066	11405.07
644.419	11337.95
644.771	11328.46
645.124	11125.75
645.477	11105.87
645.83	11085.98
646.182	11033.55
646.535	11037.62
646.888	11026.55
647.24	10973.67
647.593	11103.61
647.945	11050.5
648.298	10995.59
648.65	10932.99
649.002	10991.52
649.355	10987.23
649.707	10979.32
650.059	10995.59
650.411	11149.48
650.763	11172.08
651.115	11181.57
651.467	11219.99
651.819	11204.85
652.171	11247.56
652.523	11178.41
652.875	11146.54
653.227	11079.88
653.578	11288.69
653.93	11181.8
654.282	11108.58
654.633	11148.12
654.985	11111.06
655.337	11147.45
655.688	11211.17
656.039	11191.97
656.391	11184.28
656.742	11192.42
657.094	11174.79
657.445	11143.61
657.796	11211.17
658.147	11208.01
658.498	11160.78
658.849	11255.69
659.2	11154.68
659.551	11113.78
659.902	11203.04
660.253	11219.76
660.604	11231.06
660.955	11286.65
661.306	11276.26
661.656	11252.3
662.007	11257.05
662.358	11204.85
662.708	11266.54
663.059	11172.31
663.409	11175.24
663.76	11292.98
664.11	11203.26
664.461	11315.8
664.811	11333.66
665.161	11281.23
665.511	11258.4
665.862	11254.34
666.212	11353.54
666.562	11282.36
666.912	11278.97
667.262	11344.5
667.612	11284.62
667.962	11302.47
668.312	11250.27
668.662	11391.96
669.011	11301.12
669.361	11301.12
669.711	11279.65
670.06	11303.38
670.41	11244.39
670.76	11182.02
671.109	11246.65
671.459	11197.84
671.808	11233.55
672.157	11213.43
672.507	11181.34
672.856	11118.3
673.205	11146.54
673.554	11195.13
673.904	11123.04
674.253	11219.76
674.602	11149.03
674.951	11016.83
675.3	10963.5
675.649	11180.44
675.998	11120.1
676.346	11129.59
676.695	11102.25
677.044	11031.52
677.393	11042.37
677.741	11122.59
678.09	11058.64
678.438	11054.34
678.787	11070.84
679.135	11046.21
679.484	11012.31
679.832	10977.28
680.181	10994.91
680.529	10967.11
680.877	10933.22
681.225	10920.79
681.573	10979.54
681.922	10847.79
682.27	10795.37
682.618	10843.73
682.966	10836.04
683.314	10843.95
683.661	10754.01
684.009	10744.97
684.357	10680.57
684.705	10699.1
685.053	10734.8
685.4	10686.44
685.748	10611.42
686.095	10625.65
686.443	10572.32
686.79	10500.91
687.138	10570.74
687.485	10554.92
687.832	10515.83
688.18	10459.1
688.527	10351.76
688.874	10354.7
689.221	10425.43
689.568	10340.24
689.915	10302.95
690.262	10326.45
690.609	10225.44
690.956	10263.63
691.303	10192.22
691.65	10252.33
691.997	10180.01
692.344	10089.62
692.69	10038.55
693.037	10093.01
693.383	9949.29
693.73	10058.89
694.077	9882.62
694.423	9918.33
694.769	9958.1
695.116	9839.68
695.462	9892.34
695.808	9837.65
696.155	9819.8
696.501	9737.09
696.847	9694.15
697.193	9604.66
697.539	9629.52
697.885	9593.59
698.231	9552.91
698.577	9510.88
698.923	9507.26
699.269	9452.8
699.614	9480.15
699.96	9418.23
700.306	9388.4
700.651	9300.94
700.997	9342.52
701.342	9295.29
701.688	9256.2
702.033	9193.37
702.379	9184.56
702.724	9160.15
703.069	9215.97
703.415	9088.97
703.76	9029.99
704.105	9026.15
704.45	9068.63
704.795	8949.99
705.14	8878.13
705.485	8853.95
705.83	8848.52
706.175	8876.55
706.52	8878.58
706.865	8788.41
707.209	8818.92
707.554	8756.1
707.899	8773.95
708.243	8745.93
708.588	8704.35
708.932	8630
709.277	8613.28
709.621	8668.87
709.966	8551.36
710.31	8501.87
710.654	8485.37
710.998	8486.05
711.342	8477.23
711.687	8491.7
712.031	8449.66
712.375	8361.08
712.719	8361.76
713.063	8433.39
713.407	8360.85
713.75	8327.86
714.094	8331.48
714.438	8321.76
714.782	8352.27
715.125	8255.32
715.469	8315.88
715.812	8288.09
716.156	8256.45
716.499	8145.27
716.843	8187.3
717.186	8179.16
717.53	8172.61
717.873	8200.41
718.216	8138.26
718.559	8083.8
718.902	8163.34
719.246	8174.42
719.589	8014.2
719.932	8017.59
720.275	8037.25
720.617	8024.82
720.96	8021.88
721.303	8079.51
721.646	8011.48
721.989	7963.58
722.331	8030.69
722.674	7989.79
723.016	8008.09
723.359	7994.54
723.701	7974.88
724.044	8031.82
724.386	7902.33
724.729	7948.89
725.071	7954.54
725.413	7897.36
725.755	7940.07
726.097	7852.84
726.439	7879.74
726.782	7884.26
727.124	7913.18
727.465	7894.88
727.807	7894.43
728.149	7896.69
728.491	7940.07
728.833	7925.61
729.175	7903.92
729.516	7885.16
729.858	7854.88
730.199	7859.4
730.541	7843.35
730.882	7807.42
731.224	7882
731.565	7821.66
731.906	7781.21
732.248	7827.53
732.589	7766.29
732.93	7803.81
733.271	7823.47
733.612	7804.26
733.953	7796.57
734.294	7776.01
734.635	7842.45
734.976	7823.01
735.317	7852.84
735.658	7818.04
735.999	7850.36
736.339	7793.41
736.68	7835.9
737.021	7867.31
737.361	7802.22
737.702	7860.53
738.042	7858.27
738.383	7857.14
738.723	7869.79
739.063	7903.24
739.404	7962.9
739.744	7896.69
740.084	7950.92
740.424	7913.18
740.764	7915.44
741.104	7977.81
741.444	7952.95
741.784	7888.78
742.124	8007.42
742.464	7993.41
742.804	8032.05
743.143	8032.05
743.483	8093.29
743.823	8062.56
744.162	8092.84
744.502	8165.6
744.841	8143.91
745.181	8165.15
745.52	8227.3
745.86	8227.07
746.199	8239.73
746.538	8298.03
746.877	8352.94
747.216	8471.13
747.556	8517.23
747.895	8491.25
748.234	8520.4
748.573	8527.63
748.911	8632.71
749.25	8669.77
749.589	8777.57
749.928	8846.72
750.267	8869.99
750.605	8933.49
750.944	9016.88
751.283	9092.13
751.621	9210.55
751.96	9247.38
752.298	9352.69
752.636	9349.08
752.975	9523.76
753.313	9593.14
753.651	9730.99
753.989	9875.84
754.327	9879.01
754.666	10017.99
755.004	10078.55
755.342	10251.65
755.679	10385.89
756.017	10482.15
756.355	10663.39
756.693	10763.95
757.031	10888.02
757.368	10998.07
757.706	11163.72
758.044	11254.11
758.381	11527.32
758.719	11582.92
759.056	11758.05
