Data from hue_140_FLMS001491_00029.txt Node
Date: Tue Feb 07 16:55:40 GMT 2017
User: dcchb
Spectrometer: FLMS00149
Trigger mode: 0
Integration Time (sec): 2.000000E-2
Scans to average: 10
Electric dark correction enabled: true
Nonlinearity correction enabled: false
Boxcar width: 0
XAxis mode: Wavelengths
Number of Pixels in Spectrum: 2048
>>>>>Begin Spectral Data<<<<<
341.393	-18.45
341.776	-18.45
342.16	-18.45
342.543	-71.55
342.927	-79.01
343.31	-69.29
343.693	-76.75
344.077	-53.7
344.46	-67.03
344.843	-65.68
345.226	-24.32
345.61	-23.42
345.993	-16.19
346.376	-8.73
346.759	17.03
347.142	25.85
347.525	43.7
347.908	63.36
348.291	64.26
348.674	86.41
349.057	104.49
349.44	122.79
349.823	159.18
350.206	172.74
350.588	187.65
350.971	200.98
351.354	230.14
351.737	224.03
352.119	246.63
352.502	247.76
352.884	269.46
353.267	273.3
353.65	284.82
354.032	307.65
354.414	300.87
354.797	307.65
355.179	326.18
355.562	313.3
355.944	295.22
356.326	334.31
356.709	335.44
357.091	332.96
357.473	338.61
357.855	332.96
358.238	337.7
358.62	342.67
359.002	342
359.384	328.44
359.766	349
360.148	354.65
360.53	331.83
360.912	345.84
361.294	338.38
361.676	329.12
362.057	320.98
362.439	323.92
362.821	327.31
363.203	324.37
363.584	328.66
363.966	312.62
364.348	313.52
364.729	306.07
365.111	305.16
365.493	290.47
365.874	319.85
366.256	303.58
366.637	300.87
367.019	334.09
367.4	317.36
367.781	321.21
368.163	317.82
368.544	320.53
368.925	308.55
369.306	292.96
369.688	302
370.069	329.12
370.45	299.74
370.831	306.07
371.212	309.23
371.593	304.94
371.974	304.03
372.355	294.99
372.736	317.82
373.117	318.72
373.498	332.05
373.879	325.05
374.26	321.21
374.641	308.1
375.021	314.2
375.402	294.09
375.783	315.78
376.163	320.53
376.544	327.31
376.925	318.72
377.305	315.56
377.686	319.17
378.066	340.41
378.447	318.95
378.827	335.9
379.208	320.08
379.588	328.66
379.968	327.08
380.349	342.9
380.729	332.96
381.109	329.34
381.489	332.51
381.87	337.7
382.25	341.77
382.63	341.09
383.01	338.15
383.39	346.29
383.77	339.96
384.15	335.9
384.53	333.18
384.91	341.09
385.29	336.57
385.67	346.29
386.049	364.37
386.429	354.43
386.809	357.82
387.189	347.65
387.568	364.37
387.948	346.52
388.328	349.23
388.707	343.8
389.087	362.79
389.466	353.07
389.846	348.55
390.225	342
390.605	364.59
390.984	368.89
391.363	372.05
391.743	349.91
392.122	364.14
392.501	358.95
392.881	364.37
393.26	391.26
393.639	357.36
394.018	385.16
394.397	369.57
394.776	382.67
395.155	384.48
395.534	369.34
395.913	367.98
396.292	391.94
396.671	388.1
397.05	373.63
397.429	382
397.808	381.77
398.186	401.66
398.565	378.38
398.944	402.56
399.323	392.39
399.701	406.18
400.08	390.36
400.458	394.42
400.837	409.57
401.215	406.4
401.594	409.11
401.972	391.26
402.351	412.28
402.729	426.29
403.107	417.25
403.486	415.22
403.864	409.79
404.242	425.16
404.62	417.93
404.999	412.96
405.377	419.28
405.755	447.08
406.133	417.7
406.511	428.1
406.889	418.15
407.267	432.62
407.645	442.33
408.023	422.9
408.401	454.31
408.779	444.59
409.156	448.66
409.534	447.76
409.912	454.08
410.29	459.06
410.667	463.35
411.045	442.11
411.422	464.93
411.8	470.35
412.178	483.01
412.555	473.52
412.933	493.63
413.31	476.46
413.687	474.2
414.065	481.2
414.442	496.12
414.819	506.96
415.197	499.51
415.574	515.33
415.951	483.91
416.328	501.99
416.705	495.44
417.082	492.28
417.46	506.74
417.837	527.3
418.214	513.52
418.591	516.68
418.967	511.03
419.344	535.89
419.721	514.87
420.098	534.99
420.475	561.65
420.852	540.18
421.228	530.92
421.605	544.93
421.982	541.77
422.358	543.57
422.735	545.83
423.111	553.52
423.488	567.08
423.864	581.99
424.241	567.75
424.617	578.37
424.994	584.93
425.37	568.43
425.746	565.72
426.123	575.21
426.499	583.57
426.875	598.49
427.251	585.83
427.627	605.94
428.003	603.46
428.379	607.07
428.756	612.05
429.132	626.06
429.507	629.22
429.883	616.11
430.259	638.03
430.635	629.22
431.011	622.89
431.387	650.46
431.763	648.66
432.138	687.98
432.514	653.85
432.89	664.93
433.265	656.56
433.641	666.06
434.016	685.72
434.392	708.09
434.767	701.76
435.143	680.07
435.518	727.98
435.894	722.1
436.269	726.39
436.644	733.62
437.02	730.24
437.395	725.49
437.77	738.6
438.145	759.84
438.52	743.79
438.895	767.52
439.271	761.65
439.646	785.83
440.021	754.87
440.395	796.9
440.77	768.65
441.145	791.48
441.52	799.39
441.895	791.48
442.27	812.27
442.645	804.58
443.019	813.17
443.394	841.87
443.769	820.85
444.143	814.53
444.518	850.01
444.892	852.72
445.267	831.25
445.641	846.16
446.016	884.58
446.39	877.58
446.764	876.67
447.139	850.68
447.513	889.1
447.887	885.49
448.262	876.45
448.636	893.62
449.01	903.56
449.384	941.53
449.758	912.38
450.132	916.9
450.506	911.7
450.88	937.24
451.254	923
451.628	943.11
452.002	964.13
452.376	972.26
452.75	960.96
453.123	971.58
453.497	975.88
453.871	988.76
454.244	1024.01
454.618	1004.58
454.992	1015.88
455.365	1039.15
455.739	1057.46
456.112	1049.77
456.486	1058.14
456.859	1087.06
457.232	1105.59
457.606	1106.04
457.979	1126.61
458.352	1151.47
458.725	1146.27
459.099	1177.91
459.472	1178.13
459.845	1180.84
460.218	1198.47
460.591	1199.15
460.964	1212.93
461.337	1217
461.71	1239.37
462.083	1279.83
462.456	1310.33
462.829	1275.76
463.201	1306.72
463.574	1308.75
463.947	1361.4
464.32	1350.11
464.692	1384
465.065	1381.07
465.438	1422.19
465.81	1421.06
466.183	1480.05
466.555	1480.95
466.928	1500.61
467.3	1478.24
467.672	1540.38
468.045	1555.52
468.417	1571.34
468.789	1571.79
469.161	1641.17
469.534	1644.34
469.906	1711.23
470.278	1691.34
470.65	1738.12
471.022	1755.29
471.394	1802.75
471.766	1824.9
472.138	1847.04
472.51	1936.31
472.882	1964.55
473.253	1983.08
473.625	2032.8
473.997	2078.67
474.369	2108.96
474.74	2122.97
475.112	2240.03
475.484	2282.51
475.855	2279.57
476.227	2339.23
476.598	2418.1
476.97	2494.71
477.341	2515.5
477.713	2590.98
478.084	2636.63
478.455	2720.01
478.827	2758.66
479.198	2901.03
479.569	2907.35
479.94	3019.21
480.311	3069.83
480.682	3138.76
481.053	3271.86
481.424	3327.45
481.795	3388.7
482.166	3502.14
482.537	3582.14
482.908	3712.76
483.279	3830.49
483.65	3856.25
484.021	3978.06
484.391	4065.29
484.762	4150.48
485.133	4273.42
485.503	4382.79
485.874	4517.71
486.244	4620.53
486.615	4748.66
486.985	4861.88
487.356	4968.54
487.726	5112.94
488.097	5221.42
488.467	5370.57
488.837	5460.28
489.207	5640.16
489.578	5778.01
489.948	5889.2
490.318	5960.83
490.688	6071.56
491.058	6227.72
491.428	6399.24
491.798	6513.13
492.168	6731.21
492.538	6811.43
492.908	6889.4
493.278	7158.54
493.648	7202.38
494.017	7367.35
494.387	7449.83
494.757	7612.31
495.126	7747
495.496	7877.84
495.866	7883.72
496.235	8043.49
496.605	8205.74
496.974	8407.32
497.344	8466.08
497.713	8539.75
498.082	8661.55
498.452	8804.6
498.821	8896.35
499.19	8996.91
499.559	9191.71
499.928	9219.73
500.298	9352.16
500.667	9483.68
501.036	9554.41
501.405	9637.12
501.774	9741.75
502.143	9800.73
502.512	9864.01
502.88	10028.3
503.249	10097.45
503.618	10187.84
503.987	10300.6
504.356	10364.11
504.724	10396.87
505.093	10541.05
505.462	10537.66
505.83	10641.61
506.199	10795.96
506.567	10909.63
506.936	10881.15
507.304	11047.93
507.672	11133.58
508.041	11167.02
508.409	11265.33
508.777	11392.78
509.145	11355.94
509.514	11438.2
509.882	11506.22
510.25	11568.59
510.618	11600.68
510.986	11691.53
511.354	11824.63
511.722	11915.03
512.09	11947.57
512.458	12027.34
512.826	11997.74
513.193	12009.71
513.561	12132.65
513.929	12163.15
514.297	12242.02
514.664	12356.37
515.032	12424.62
515.4	12413.54
515.767	12465.97
516.135	12545.97
516.502	12425.52
516.869	12640.88
517.237	12608.11
517.604	12581.67
517.972	12677.27
518.339	12673.88
518.706	12685.17
519.073	12747.32
519.44	12851.05
519.808	12961.78
520.175	12852.4
520.542	13004.71
520.909	12965.17
521.276	12976.24
521.643	13089.01
522.009	13158.16
522.376	13186.18
522.743	13206.07
523.11	13298.94
523.477	13387.08
523.843	13356.8
524.21	13508.2
524.577	13466.17
524.943	13555.43
525.31	13474.76
525.676	13662.78
526.043	13679.95
526.409	13599.05
526.776	13700.06
527.142	13704.58
527.508	13692.83
527.874	13781.87
528.241	13761.76
528.607	13714.07
528.973	13883.79
529.339	13831.59
529.705	13805.6
530.071	13891.7
530.437	13852.15
530.803	13960.85
531.169	13873.84
531.535	13905.48
531.901	13825.94
532.267	13871.36
532.632	13884.92
532.998	13890.57
533.364	13924.69
533.73	13869.1
534.095	13929.89
534.461	13974.86
534.826	13891.47
535.192	13898.25
535.557	13971.47
535.923	13870.91
536.288	13812.83
536.653	13799.04
537.019	13813.28
537.384	13746.84
537.749	13811.47
538.114	13668.2
538.479	13694.41
538.845	13746.39
539.21	13612.61
539.575	13629.1
539.94	13636.11
540.305	13639.27
540.67	13624.81
541.034	13532.38
541.399	13555.89
541.764	13570.35
542.129	13442.44
542.494	13478.15
542.858	13536.23
543.223	13470.92
543.587	13443.57
543.952	13397.47
544.316	13374.65
544.681	13278.15
545.045	13303.92
545.41	13272.96
545.774	13292.16
546.138	13164.94
546.503	13240.41
546.867	13093.98
547.231	13145.95
547.595	13121.32
547.959	13106.18
548.324	13060.53
548.688	13035
549.052	13063.47
549.416	12974.43
549.779	12926.07
550.143	12961.1
550.507	12947.09
550.871	12905.28
551.235	12879.75
551.599	12914.77
551.962	12831.84
552.326	12824.15
552.689	12836.36
553.053	12687.21
553.417	12781.67
553.78	12833.65
554.143	12696.93
554.507	12797.04
554.87	12713.2
555.234	12788.45
555.597	12584.39
555.96	12644.27
556.323	12718.85
556.686	12606.31
557.05	12600.66
557.413	12732.18
557.776	12627.1
558.139	12653.54
558.502	12597.04
558.865	12543.03
559.228	12605.85
559.59	12604.73
559.953	12612.86
560.316	12738.73
560.679	12682.01
561.041	12676.81
561.404	12717.94
561.767	12741.9
562.129	12680.2
562.492	12656.48
562.854	12648.57
563.217	12635.46
563.579	12625.52
563.941	12748
564.304	12754.55
564.666	12807.21
565.028	12763.36
565.39	12757.04
565.753	12836.81
566.115	12845.4
566.477	12795.68
566.839	12806.98
567.201	12893.98
567.563	12838.62
567.925	12880.88
568.287	12865.74
568.648	12858.05
569.01	12870.48
569.372	12994.55
569.734	12899.86
570.095	12953.64
570.457	12986.86
570.819	13024.15
571.18	13033.87
571.542	12997.48
571.903	12980.99
572.265	13051.27
572.626	13100.76
572.987	12980.53
573.349	13139.85
573.71	13049.01
574.071	13108.21
574.432	13095.56
574.794	13191.6
575.155	13169.68
575.516	13089.01
575.877	13190.02
576.238	13169.23
576.599	13185.73
576.96	13204.26
577.32	13141.89
577.681	13152.51
578.042	13199.74
578.403	13240.41
578.763	13215.56
579.124	13248.78
579.485	13256.01
579.845	13210.36
580.206	13253.3
580.566	13205.84
580.927	13244.93
581.287	13287.87
581.648	13143.47
582.008	13279.51
582.368	13192.51
582.728	13243.8
583.089	13285.16
583.449	13162
583.809	13223.47
584.169	13175.78
584.529	13126.97
584.889	13183.24
585.249	13110.02
585.609	13194.09
585.969	13185.73
586.329	13124.71
586.688	13147.99
587.048	13087.42
587.408	13103.24
587.768	13126.75
588.127	13075
588.487	12992.74
588.846	13199.51
589.206	13019.63
589.565	13108.89
589.925	13091.94
590.284	13026.63
590.643	13058.27
591.003	13024.6
591.362	13048.1
591.721	13097.14
592.08	13092.62
592.44	13115.45
592.799	13095.79
593.158	13015.11
593.517	12969.01
593.876	13037.71
594.235	12940.99
594.593	12996.81
594.952	12940.08
595.311	12909.35
595.67	12967.88
596.029	13096.01
596.387	13101.44
596.746	13024.38
597.104	12950.93
597.463	12894.21
597.822	12946.64
598.18	12865.96
598.538	12905.96
598.897	13018.05
599.255	12947.77
599.613	13051.04
599.972	12975.34
600.33	13008.1
600.688	12851.72
601.046	12975.79
601.404	13047.43
601.762	12993.87
602.12	13090.36
602.478	13028.67
602.836	12973.3
603.194	12943.93
603.552	12999.97
603.91	12900.54
604.268	12947.09
604.625	12972.4
604.983	12959.29
605.341	12931.95
605.698	12936.24
606.056	13001.32
606.413	13001.32
606.771	13012.62
607.128	12985.96
607.485	12978.27
607.843	12985.28
608.2	13006.52
608.557	13059.63
608.914	12971.95
609.272	13060.53
609.629	13110.93
609.986	13068.44
610.343	13065.28
610.7	13107.76
611.057	13100.31
611.414	13137.59
611.771	13118.84
612.127	13197.93
612.484	13156.35
612.841	13188.89
613.198	13143.02
613.554	13177.14
613.911	13186.18
614.267	13265.95
614.624	13230.02
614.98	13236.35
615.337	13283.35
615.693	13247.42
616.05	13202.22
616.406	13253.07
616.762	13263.24
617.118	13270.02
617.475	13385.72
617.831	13320.19
618.187	13411.94
618.543	13377.81
618.899	13419.17
619.255	13357.47
619.611	13416.46
619.967	13379.17
620.323	13337.81
620.678	13365.16
621.034	13317.93
621.39	13301.88
621.746	13364.25
622.101	13415.78
622.457	13333.97
622.812	13460.52
623.168	13410.13
623.523	13440.41
623.879	13471.14
624.234	13333.97
624.589	13439.73
624.945	13400.86
625.3	13422.78
625.655	13421.2
626.01	13478.15
626.365	13282.22
626.72	13324.03
627.075	13374.42
627.43	13406.96
627.785	13371.26
628.14	13309.34
628.495	13321.09
628.85	13351.37
629.205	13242.9
629.559	13355.67
629.914	13303.46
630.269	13324.03
630.623	13261.2
630.978	13259.17
631.332	13274.99
631.687	13274.09
632.041	13223.01
632.396	13326.06
632.75	13201.32
633.104	13261.88
633.459	13084.49
633.813	13211.94
634.167	13147.76
634.521	13238.61
634.875	13242
635.229	13132.39
635.583	13107.76
635.937	13107.54
636.291	13091.72
636.645	13088.55
636.999	12965.17
637.352	13030.02
637.706	12976.92
638.06	13014.66
638.413	12927.65
638.767	12885.17
639.121	12854.21
639.474	12814.89
639.828	12974.66
640.181	12898.28
640.534	12937.6
640.888	12783.03
641.241	12903.47
641.594	12845.17
641.947	12877.26
642.301	12816.02
642.654	12809.47
643.007	12871.61
643.36	12772.86
643.713	12739.41
644.066	12819.18
644.419	12754.33
644.771	12692.63
645.124	12550.49
645.477	12565.63
645.83	12485.41
646.182	12411.74
646.535	12385.3
646.888	12336.48
647.24	12329.48
647.593	12410.15
647.945	12386.43
648.298	12333.09
648.65	12234.79
649.002	12257.62
649.355	12314.56
649.707	12380.55
650.059	12351.62
650.411	12584.16
650.763	12571.73
651.115	12662.12
651.467	12608.11
651.819	12691.73
652.171	12733.31
652.523	12574.44
652.875	12650.37
653.227	12556.36
653.578	12645.4
653.93	12571.51
654.282	12594.1
654.633	12499.87
654.985	12530.38
655.337	12639.75
655.688	12591.62
656.039	12631.17
656.391	12518.17
656.742	12547.1
657.094	12522.24
657.445	12677.49
657.796	12615.35
658.147	12616.93
658.498	12640.66
658.849	12704.38
659.2	12581.9
659.551	12582.58
659.902	12643.14
660.253	12564.5
660.604	12588.45
660.955	12492.19
661.306	12680.88
661.656	12528.79
662.007	12694.67
662.358	12609.92
662.708	12660.09
663.059	12623.48
663.409	12614.89
663.76	12712.52
664.11	12616.7
664.461	12687.89
664.811	12635.68
665.161	12647.66
665.511	12612.63
665.862	12686.53
666.212	12628.68
666.562	12676.36
666.912	12648.11
667.262	12683.37
667.612	12616.48
667.962	12673.88
668.312	12615.35
668.662	12746.42
669.011	12612.41
669.361	12616.25
669.711	12669.58
670.06	12604.5
670.41	12591.62
670.76	12532.41
671.109	12517.27
671.459	12535.8
671.808	12543.03
672.157	12567.21
672.507	12498.29
672.856	12443.83
673.205	12563.6
673.554	12503.03
673.904	12504.61
674.253	12520.43
674.602	12540.77
674.951	12330.61
675.3	12278.41
675.649	12460.32
675.998	12449.25
676.346	12477.72
676.695	12542.58
677.044	12414.22
677.393	12446.31
677.741	12456.93
678.09	12351.17
678.438	12383.71
678.787	12390.72
679.135	12369.7
679.484	12276.6
679.832	12302.36
680.181	12263.72
680.529	12263.04
680.877	12262.81
681.225	12195.24
681.573	12288.8
681.922	12140.56
682.27	12140.1
682.618	12190.5
682.966	12107.56
683.314	12151.18
683.661	12137.84
684.009	12042.25
684.357	12009.26
684.705	12073.67
685.053	11967
685.4	11972.43
685.748	11937.62
686.095	11938.08
686.443	11897.85
686.79	11832.09
687.138	11828.02
687.485	11903.27
687.832	11724.75
688.18	11843.39
688.527	11751.87
688.874	11772.2
689.221	11671.64
689.568	11661.47
689.915	11672.55
690.262	11518.65
690.609	11586.22
690.956	11489.27
691.303	11462.16
691.65	11440.46
691.997	11393.23
692.344	11355.27
692.69	11385.32
693.037	11331.99
693.383	11302.84
693.73	11273.91
694.077	11197.53
694.423	11177.42
694.769	11169.28
695.116	11127.48
695.462	11090.19
695.808	11011.32
696.155	10953.47
696.501	10878.44
696.847	11012.22
697.193	10896.97
697.539	10842.06
697.885	10840.7
698.231	10758.9
698.577	10786.02
698.923	10708.5
699.269	10671.67
699.614	10569.98
699.96	10582.63
700.306	10591.9
700.651	10501.28
700.997	10522.75
701.342	10437.55
701.688	10461.96
702.033	10373.82
702.379	10356.2
702.724	10340.6
703.069	10283.2
703.415	10185.35
703.76	10224.45
704.105	10171.34
704.45	10242.98
704.795	10154.85
705.14	9992.82
705.485	10027.62
705.83	9934.51
706.175	9979.94
706.52	9948.98
706.865	9915.76
707.209	9932.48
707.554	9900.62
707.899	9967.51
708.243	9918.02
708.588	9794.4
708.932	9698.13
709.277	9743.11
709.621	9746.04
709.966	9719.6
710.31	9722.54
710.654	9615.88
710.998	9660.85
711.342	9675.31
711.687	9661.53
712.031	9553.05
712.375	9547.86
712.719	9495.88
713.063	9486.16
713.407	9555.77
713.75	9489.78
714.094	9463.34
714.438	9447.29
714.782	9405.49
715.125	9368.88
715.469	9393.06
715.812	9332.72
716.156	9333.17
716.499	9379.27
716.843	9369.78
717.186	9238.71
717.53	9284.13
717.873	9314.87
718.216	9288.43
718.559	9271.71
718.902	9106.06
719.246	9161.43
719.589	9118.72
719.932	9160.97
720.275	9077.13
720.617	9110.35
720.96	9094.76
721.303	9115.1
721.646	9092.5
721.989	9099.05
722.331	9063.12
722.674	9081.88
723.016	9017.7
723.359	9096.34
723.701	9091.82
724.044	8987.65
724.386	8882.11
724.729	8993.75
725.071	9006.18
725.413	8952.84
725.755	8971.6
726.097	8913.52
726.439	8828.33
726.782	8878.95
727.124	8956.01
727.465	8903.13
727.807	8883.69
728.149	8881.89
728.491	8843.47
728.833	8829.68
729.175	8852.96
729.516	8821.77
729.858	8898.83
730.199	8810.93
730.541	8851.83
730.882	8908.55
731.224	8940.87
731.565	8870.59
731.906	8864.94
732.248	8819.29
732.589	8798.05
732.93	8778.39
733.271	8852.28
733.612	8772.74
733.953	8807.76
734.294	8762.79
734.635	8799.85
734.976	8796.46
735.317	8753.07
735.658	8785.39
735.999	8794.43
736.339	8807.76
736.68	8840.98
737.021	8771.38
737.361	8778.61
737.702	8876.24
738.042	8859.74
738.383	8752.62
738.723	8818.61
739.063	8777.03
739.404	8802.34
739.744	8884.37
740.084	8798.27
740.424	8809.57
740.764	8880.3
741.104	8948.1
741.444	8851.38
741.784	8867.2
742.124	8954.43
742.464	8979.74
742.804	8965.05
743.143	9013.63
743.483	8993.52
743.823	8999.62
744.162	9043.91
744.502	9113.97
744.841	9037.81
745.181	9076
745.52	9150.8
745.86	9149
746.199	9150.8
746.538	9231.48
746.877	9279.39
747.216	9298.15
747.556	9312.38
747.895	9418.59
748.234	9428.09
748.573	9476.22
748.911	9529.55
749.25	9563.22
749.589	9605.71
749.928	9753.5
750.267	9796.21
750.605	9832.14
750.944	9884.8
751.283	9956.21
751.621	10071.23
751.96	10157.78
752.298	10116.2
752.636	10271.45
752.975	10367.5
753.313	10478
753.651	10563.65
753.989	10592.12
754.327	10728.62
754.666	10845.45
755.004	10917.76
755.342	11129.74
755.679	11198.21
756.017	11273.23
756.355	11480.23
756.693	11513.45
757.031	11670.96
757.368	11836.84
757.706	11898.75
758.044	12051.75
758.381	12205.64
758.719	12389.36
759.056	12522.24
759.394	12675.46
