Data from hue_290_FLMS001491_00049.txt Node
Date: Tue Feb 07 15:52:48 GMT 2017
User: dcchb
Spectrometer: FLMS00149
Trigger mode: 0
Integration Time (sec): 2.000000E-2
Scans to average: 10
Electric dark correction enabled: true
Nonlinearity correction enabled: false
Boxcar width: 0
XAxis mode: Wavelengths
Number of Pixels in Spectrum: 2048
>>>>>Begin Spectral Data<<<<<
341.393	8.11
341.776	8.11
342.16	8.11
342.543	-78.22
342.927	-68.28
343.31	-60.59
343.693	-91.1
344.077	-57.65
344.46	-55.62
344.843	-52.23
345.226	-37.99
345.61	-40.71
345.993	-18.78
346.376	-3.42
346.759	6.98
347.142	16.02
347.525	34.55
347.908	59.63
348.291	77.94
348.674	93.08
349.057	129.91
349.44	113.19
349.823	143.47
350.206	169.46
350.588	190.48
350.971	202
351.354	209.68
351.737	234.54
352.119	227.54
352.502	266.86
352.884	273.41
353.267	289.23
353.65	284.48
354.032	291.94
354.414	278.38
354.797	298.04
355.179	318.83
355.562	313.64
355.944	316.8
356.326	308.44
356.709	313.18
357.091	316.57
357.473	323.35
357.855	336.23
358.238	350.47
358.62	319.74
359.002	322.68
359.384	346.4
359.766	342.56
360.148	336.91
360.53	332.39
360.912	321.55
361.294	348.89
361.676	336.46
362.057	333.07
362.439	315.44
362.821	342.56
363.203	307.31
363.584	336.91
363.966	330.81
364.348	326.06
364.729	296.46
365.111	316.35
365.493	321.55
365.874	323.13
366.256	308.66
366.637	312.73
367.019	312.73
367.4	310.47
367.781	328.55
368.163	302.56
368.544	307.08
368.925	309.57
369.306	312.96
369.688	326.52
370.069	312.73
370.45	318.83
370.831	303.69
371.212	293.98
371.593	298.72
371.974	309.34
372.355	312.73
372.736	322.45
373.117	324.71
373.498	322.68
373.879	329.45
374.26	313.18
374.641	317.7
375.021	311.6
375.402	315.44
375.783	324.93
376.163	342.11
376.544	334.65
376.925	319.29
377.305	336.23
377.686	338.49
378.066	334.88
378.447	319.96
378.827	324.03
379.208	333.3
379.588	338.27
379.968	347.76
380.349	315.67
380.729	325.16
381.109	334.2
381.489	338.49
381.87	313.64
382.25	341.43
382.63	327.42
383.01	336.23
383.39	370.36
383.77	376.91
384.15	371.49
384.53	330.13
384.91	359.51
385.29	339.17
385.67	342.56
386.049	354.54
386.429	349.57
386.809	353.86
387.189	370.13
387.568	349.57
387.948	364.48
388.328	365.84
388.707	371.04
389.087	372.39
389.466	384.14
389.846	374.88
390.225	387.98
390.605	359.28
390.984	379.85
391.363	354.76
391.743	386.4
392.122	377.14
392.501	374.2
392.881	395.44
393.26	390.7
393.639	383.92
394.018	400.64
394.397	386.4
394.776	379.17
395.155	387.76
395.534	387.08
395.913	399.06
396.292	395.22
396.671	420.53
397.05	419.17
397.429	402.9
397.808	413.29
398.186	393.86
398.565	433.63
398.944	420.75
399.323	410.81
399.701	425.95
400.08	420.75
400.458	447.42
400.837	425.72
401.215	418.94
401.594	436.12
401.972	413.29
402.351	420.53
402.729	449
403.107	440.41
403.486	440.41
403.864	459.85
404.242	436.12
404.62	458.49
404.999	446.06
405.377	463.91
405.755	473.18
406.133	460.52
406.511	462.33
406.889	478.6
407.267	468.89
407.645	497.81
408.023	491.71
408.401	503.91
408.779	490.35
409.156	500.52
409.534	514.76
409.912	539.17
410.29	536.68
410.667	539.84
411.045	544.82
411.422	546.85
411.8	553.63
412.178	564.93
412.555	591.82
412.933	575.32
413.31	591.82
413.687	609.9
414.065	586.85
414.442	630.46
414.819	627.07
415.197	632.27
415.574	658.71
415.951	657.36
416.328	648.54
416.705	648.32
417.082	657.81
417.46	659.16
417.837	684.25
418.214	702.33
418.591	678.37
418.967	719.27
419.344	722.89
419.721	740.52
420.098	725.6
420.475	732.38
420.852	759.95
421.228	756.56
421.605	753.17
421.982	763.79
422.358	798.37
422.735	787.97
423.111	798.59
423.488	824.13
423.864	811.93
424.241	829.33
424.617	837.46
424.994	839.72
425.37	888.54
425.746	851.25
426.123	852.15
426.499	895.99
426.875	906.84
427.251	900.06
427.627	892.83
428.003	916.33
428.379	923.34
428.756	947.29
429.132	954.07
429.507	974.18
429.883	983
430.259	996.78
430.635	1010.79
431.011	1017.8
431.387	1038.14
431.763	1044.92
432.138	1095.99
432.514	1065.25
432.89	1101.64
433.265	1118.81
433.641	1130.34
434.016	1116.55
434.392	1144.57
434.767	1196.55
435.143	1168.3
435.518	1180.05
435.894	1206.72
436.269	1208.08
436.644	1224.57
437.02	1227.74
437.395	1243.55
437.77	1259.37
438.145	1268.19
438.52	1314.97
438.895	1302.54
439.271	1321.07
439.646	1349.77
440.021	1337.56
440.395	1354.51
440.77	1345.02
441.145	1370.11
441.52	1378.69
441.895	1397.9
442.27	1401.52
442.645	1402.87
443.019	1419.37
443.394	1398.58
443.769	1433.38
444.143	1448.3
444.518	1463.44
444.892	1460.05
445.267	1445.58
445.641	1477.67
446.016	1463.89
446.39	1485.81
446.764	1515.86
447.139	1482.64
447.513	1513.6
447.887	1522.64
448.262	1507.5
448.636	1542.08
449.01	1541.85
449.384	1539.37
449.758	1551.34
450.132	1570.55
450.506	1575.75
450.88	1577.11
451.254	1574.39
451.628	1591.57
452.002	1608.74
452.376	1629.76
452.75	1642.64
453.123	1626.6
453.497	1691.68
453.871	1659.36
454.244	1699.59
454.618	1678.57
454.992	1740.72
455.365	1702.3
455.739	1753.82
456.112	1762.64
456.486	1764.45
456.859	1817.78
457.232	1808.06
457.606	1808.06
457.979	1841.51
458.352	1855.06
458.725	1856.42
459.099	1890.54
459.472	1883.99
459.845	1898.68
460.218	1947.04
460.591	1918.79
460.964	1941.62
461.337	1982.52
461.71	2005.79
462.083	2041.5
462.456	2020.94
462.829	2042.4
463.201	2041.5
463.574	2033.82
463.947	2072.46
464.32	2133.47
464.692	2143.42
465.065	2152.91
465.438	2174.6
465.81	2213.92
466.183	2231.55
466.555	2257.54
466.928	2264.77
467.3	2265.45
467.672	2296.86
468.045	2313.36
468.417	2383.64
468.789	2360.59
469.161	2355.16
469.534	2411.43
469.906	2437.2
470.278	2456.86
470.65	2477.65
471.022	2538.66
471.394	2541.83
471.766	2569.17
472.138	2545.22
472.51	2646.46
472.882	2660.47
473.253	2654.37
473.625	2700.47
473.997	2719.45
474.369	2743.4
474.74	2740.01
475.112	2800.58
475.484	2844.19
475.855	2902.49
476.227	2914.47
476.598	2938.43
476.97	2974.81
477.341	2985.88
477.713	3046.9
478.084	3054.13
478.455	3164.18
478.827	3164.41
479.198	3224.52
479.569	3244.18
479.94	3305.87
480.311	3317.17
480.682	3354.69
481.053	3430.84
481.424	3420.22
481.795	3510.16
482.166	3508.35
482.537	3508.13
482.908	3619.09
483.279	3641.23
483.65	3674
484.021	3711.74
484.391	3769.82
484.762	3781.79
485.133	3864.73
485.503	3839.87
485.874	3936.14
486.244	3939.53
486.615	4043.03
486.985	4070.37
487.356	4078.96
487.726	4141.33
488.097	4181.1
488.467	4193.31
488.837	4260.42
489.207	4314.66
489.578	4380.87
489.948	4384.49
490.318	4421.32
490.688	4425.39
491.058	4476.69
491.428	4550.81
491.798	4531.38
492.168	4582.9
492.538	4661.32
492.908	4743.58
493.278	4764.37
493.648	4732.05
494.017	4824.03
494.387	4840.75
494.757	4869.67
495.126	4864.93
495.496	4915.77
495.866	4967.75
496.235	4989.67
496.605	4995.09
496.974	5002.55
497.344	5025.6
497.713	5081.87
498.082	5088.88
498.452	5160.51
498.821	5152.6
499.19	5193.06
499.559	5194.64
499.928	5222.66
500.298	5247.29
500.667	5332.94
501.036	5257.46
501.405	5339.72
501.774	5388.98
502.143	5373.39
502.512	5396.44
502.88	5440.05
503.249	5443.22
503.618	5482.31
503.987	5438.02
504.356	5520.28
504.724	5544.46
505.093	5567.28
505.462	5553.5
505.83	5579.03
506.199	5584.01
506.567	5664.68
506.936	5594.17
507.304	5700.84
507.672	5747.84
508.041	5714.17
508.409	5762.08
508.777	5731.8
509.145	5841.17
509.514	5823.32
509.882	5806.82
510.25	5833.72
510.618	5871.23
510.986	5858.8
511.354	5899.25
511.722	5957.78
512.09	5982.87
512.458	5958.01
512.826	6058.34
513.193	6015.63
513.561	6048.4
513.929	6147.38
514.297	6142.64
514.664	6183.76
515.032	6135.18
515.4	6215.18
515.767	6181.96
516.135	6223.76
516.502	6191.22
516.869	6317.32
517.237	6300.82
517.604	6245.91
517.972	6309.41
518.339	6390.54
518.706	6314.83
519.073	6366.81
519.44	6396.64
519.808	6482.29
520.175	6423.98
520.542	6490.2
520.909	6530.65
521.276	6475.06
521.643	6532.23
522.009	6559.35
522.376	6694.94
522.743	6631.44
523.11	6703.07
523.477	6681.6
523.843	6727.93
524.21	6843.63
524.577	6816.06
524.943	6862.84
525.31	6915.72
525.676	6957.98
526.043	6947.81
526.409	6946
526.776	7011.54
527.142	7084.08
527.508	7053.57
527.874	7072.55
528.241	7136.73
528.607	7174.92
528.973	7165.43
529.339	7155.94
529.705	7271.19
530.071	7288.59
530.437	7283.17
530.803	7400.23
531.169	7412.66
531.535	7405.2
531.901	7451.75
532.267	7452.88
532.632	7457.18
532.998	7463.05
533.364	7538.98
533.73	7496.27
534.095	7646.78
534.461	7597.06
534.826	7660.56
535.192	7689.94
535.557	7714.12
535.923	7740.33
536.288	7745.98
536.653	7858.97
537.019	7745.53
537.384	7814.23
537.749	7821.69
538.114	7893.78
538.479	7901.91
538.845	7876.6
539.21	7875.7
539.575	7963.15
539.94	7901.68
540.305	7985.3
540.67	7985.3
541.034	8014.22
541.399	8010.38
541.764	8064.17
542.129	8121.57
542.494	8186.2
542.858	8122.92
543.223	8131.96
543.587	8241.11
543.952	8222.81
544.316	8288.57
544.681	8230.04
545.045	8278.85
545.41	8359.98
545.774	8275.23
546.138	8293.54
546.503	8383.48
546.867	8343.93
547.231	8396.59
547.595	8427.09
547.959	8491.27
548.324	8467.32
548.688	8505.51
549.052	8438.17
549.416	8549.58
549.779	8549.13
550.143	8569.92
550.507	8631.16
550.871	8543.93
551.235	8609.01
551.599	8657.15
551.962	8675.9
552.326	8691.49
552.689	8738.05
553.053	8691.72
553.417	8711.16
553.78	8832.28
554.143	8774.66
554.507	8757.71
554.87	8847.2
555.234	8901.43
555.597	8837.93
555.96	8917.25
556.323	8937.36
556.686	8950.47
557.05	8973.97
557.413	9045.16
557.776	9045.84
558.139	9005.61
558.502	9053.52
558.865	9044.93
559.228	9028.66
559.59	9049.45
559.953	9146.4
560.316	9235.21
560.679	9231.37
561.041	9293.29
561.404	9251.48
561.767	9316.11
562.129	9321.99
562.492	9375.54
562.854	9427.52
563.217	9363.12
563.579	9430.46
563.941	9460.97
564.304	9496.45
564.666	9571.25
565.028	9632.94
565.39	9575.99
565.753	9611.92
566.115	9629.1
566.477	9681.75
566.839	9707.29
567.201	9743.9
567.563	9784.57
567.925	9892.37
568.287	9806.27
568.648	9910.45
569.01	9919.71
569.372	9947.28
569.734	10030.67
570.095	10072.7
570.457	10081.29
570.819	10109.31
571.18	10166.03
571.542	10210.55
571.903	10188.63
572.265	10196.31
572.626	10217.33
572.987	10281.51
573.349	10401.96
573.71	10402.41
574.071	10423.88
574.432	10424.1
574.794	10515.4
575.155	10558.34
575.516	10584.33
575.877	10695.06
576.238	10759.46
576.599	10705
576.96	10829.29
577.32	10887.82
577.681	10872.91
578.042	10928.72
578.403	10977.08
578.763	11053.24
579.124	11131.66
579.485	11187.47
579.845	11297.53
580.206	11366
580.566	11359.22
580.927	11509.95
581.287	11629.5
581.648	11598.08
582.008	11799.44
582.368	11797.18
582.728	11882.15
583.089	11963.72
583.449	12057.28
583.809	12223.61
584.169	12356.71
584.529	12389.25
584.889	12489.13
585.249	12607.55
585.609	12663.82
585.969	12794.66
586.329	12902.01
586.688	13026.97
587.048	13166.18
587.408	13205.27
587.768	13266.29
588.127	13485.49
588.487	13557.13
588.846	13830.12
589.206	13817.46
589.565	13990.79
589.925	14167.96
590.284	14321.86
590.643	14486.14
591.003	14636.2
591.362	14713.03
591.721	14904.66
592.08	14985.11
592.44	15226.92
592.799	15319.12
593.158	15336.52
593.517	15531.99
593.876	15702.16
594.235	15871.42
594.593	15893.11
594.952	16185.31
595.311	16171.75
595.67	16366.77
596.029	16617.16
596.387	16636.6
596.746	16844.05
597.104	16851.28
597.463	17133.31
597.822	17253.08
598.18	17278.61
598.538	17351.83
598.897	17549.79
599.255	17536.91
599.613	17956.11
599.972	17905.04
600.33	18089.44
600.688	18137.8
601.046	18280.85
601.404	18499.37
601.762	18401.97
602.12	18677.22
602.478	18704.56
602.836	18895.75
603.194	18881.51
603.552	19003.31
603.91	18984.56
604.268	19193.37
604.625	19273.59
604.983	19428.61
605.341	19510.42
605.698	19612.11
606.056	19668.38
606.413	19704.99
606.771	19877.64
607.128	19968.03
607.485	20002.61
607.843	20056.39
608.2	20124.41
608.557	20345.65
608.914	20417.74
609.272	20574.8
609.629	20602.14
609.986	20808.92
610.343	20678.75
610.7	20977.27
611.057	20993.77
611.414	20944.05
611.771	21064.95
612.127	21184.5
612.484	21179.08
612.841	21293.65
613.198	21279.64
613.554	21403.25
613.911	21522.8
614.267	21596.92
614.624	21552.17
614.98	21752.17
615.337	21866.29
615.693	21809.79
616.05	21857.02
616.406	22006.62
616.762	21942.22
617.118	22118.94
617.475	22114.87
617.831	22187.18
618.187	22250.23
618.543	22309.44
618.899	22461.75
619.255	22372.72
619.611	22343.34
619.967	22403.9
620.323	22525.93
620.678	22481.19
621.034	22479.15
621.39	22559.83
621.746	22638.92
622.101	22923.66
622.457	22634.63
622.812	22739.94
623.168	22901.06
623.523	22815.19
623.879	22925.47
624.234	22685.7
624.589	22893.83
624.945	22891.35
625.3	22940.61
625.655	22963.89
626.01	23013.38
626.365	22966.83
626.72	23023.77
627.075	23028.97
627.43	22993.27
627.785	22990.1
628.14	22908.3
628.495	23067.39
628.85	23010.21
629.205	22929.99
629.559	23151.91
629.914	22951.46
630.269	23100.61
630.623	22953.72
630.978	23062.87
631.332	23087.05
631.687	23137.67
632.041	22970.44
632.396	23128.4
632.75	22921.18
633.104	23035.3
633.459	22991.01
633.813	22991.91
634.167	22979.25
634.521	22951.91
634.875	22989.42
635.229	22942.42
635.583	22947.39
635.937	22924.57
636.291	22841.41
636.645	22935.19
636.999	22826.04
637.352	22966.15
637.706	22798.02
638.06	22948.75
638.413	22796.43
638.767	22792.37
639.121	22871.23
639.474	22822.87
639.828	22803.67
640.181	22815.87
640.534	22706.72
640.888	22704.69
641.241	22554.86
641.594	22711.92
641.947	22788.53
642.301	22748.98
642.654	22682.99
643.007	22678.47
643.36	22680.05
643.713	22713.27
644.066	22637.79
644.419	22598.7
644.771	22533.62
645.124	22252.04
645.477	22199.84
645.83	22004.14
646.182	21941.77
646.535	21906.97
646.888	22114.87
647.24	21873.52
647.593	22001.2
647.945	21848.21
648.298	21928.43
648.65	21849.79
649.002	21785.84
649.355	21964.37
649.707	21918.72
650.059	22004.59
650.411	22299.05
650.763	22227.86
651.115	22550.11
651.467	22359.61
651.819	22440.96
652.171	22464.47
652.523	22436.67
652.875	22376.56
653.227	22241.87
653.578	22440.29
653.93	22518.93
654.282	22332.94
654.633	22322.1
654.985	22337.46
655.337	22401.42
655.688	22370.91
656.039	22413.62
656.391	22258.37
656.742	22388.99
657.094	22356.22
657.445	22447.52
657.796	22351.47
658.147	22390.12
658.498	22398.48
658.849	22458.59
659.2	22422.43
659.551	22371.59
659.902	22555.99
660.253	22435.77
660.604	22497.23
660.955	22382.89
661.306	22464.92
661.656	22426.95
662.007	22444.35
662.358	22447.52
662.708	22470.57
663.059	22485.03
663.409	22420.63
663.76	22530.23
664.11	22445.26
664.461	22409.78
664.811	22553.5
665.161	22522.54
665.511	22373.17
665.862	22418.82
666.212	22563.22
666.562	22498.36
666.912	22521.64
667.262	22447.52
667.612	22445.26
667.962	22433.51
668.312	22495.2
668.662	22499.27
669.011	22516.67
669.361	22488.19
669.711	22529.55
670.06	22378.37
670.41	22404.13
670.76	22346.05
671.109	22449.32
671.459	22492.94
671.808	22313.96
672.157	22388.54
672.507	22273.96
672.856	22264.7
673.205	22334.3
673.554	22363.68
673.904	22211.37
674.253	22440.51
674.602	22234.19
674.951	21969.11
675.3	21937.7
675.649	22331.59
675.998	22221.08
676.346	22162.33
676.695	22210.01
677.044	22003.24
677.393	22134.53
677.741	22243.45
678.09	22113.74
678.438	22097.47
678.787	22174.3
679.135	21993.29
679.484	21877.81
679.832	22010.92
680.181	21822.9
680.529	21900.41
680.877	21877.81
681.225	21739.74
681.573	22017.92
681.922	21789.68
682.27	21802.56
682.618	21717.82
682.966	21779.51
683.314	21765.95
683.661	21653.87
684.009	21511.72
684.357	21604.83
684.705	21562.79
685.053	21612.74
685.4	21412.29
685.748	21317.6
686.095	21338.17
686.443	21249.58
686.79	21223.59
687.138	21193.99
687.485	21193.31
687.832	21091.39
688.18	21169.13
688.527	20975.47
688.874	21027.67
689.221	20876.26
689.568	20853.21
689.915	20826.54
690.262	20784.06
690.609	20679.43
690.956	20671.52
691.303	20531.18
691.65	20476.5
691.997	20522.14
692.344	20366.67
692.69	20330.51
693.037	20264.3
693.383	20147.92
693.73	20171.87
694.077	20162.61
694.423	19975.49
694.769	20029.73
695.116	20031.76
695.462	19877.64
695.808	19913.57
696.155	19857.98
696.501	19734.59
696.847	19736.4
697.193	19468.61
697.539	19680.81
697.885	19510.87
698.231	19336.19
698.577	19397.88
698.923	19303.64
699.269	19160.15
699.614	19120.6
699.96	19060.71
700.306	19026.36
700.651	19044.67
700.997	18910.21
701.342	18863.66
701.688	18797.22
702.033	18751.34
702.379	18764.9
702.724	18792.47
703.069	18682.19
703.415	18549.54
703.76	18396.55
704.105	18516.77
704.45	18409.88
704.795	18292.6
705.14	18187.06
705.485	18143.22
705.83	18146.39
706.175	18078.14
706.52	18032.72
706.865	17902.55
707.209	17988.88
707.554	17891.7
707.899	17928.54
708.243	17800.63
708.588	17799.28
708.932	17665.95
709.277	17669.79
709.621	17739.84
709.966	17416.24
710.31	17543.69
710.654	17378.95
710.998	17351.61
711.342	17411.94
711.687	17397.03
712.031	17267.77
712.375	17227.99
712.719	17232.74
713.063	17203.59
713.407	17186.64
713.75	17174.66
714.094	17157.71
714.438	16972.86
714.782	17059.18
715.125	16884.95
715.469	16954.78
715.812	16916.82
716.156	16738.29
716.499	16842.92
716.843	16915.01
717.186	16820.09
717.53	16875.69
717.873	16809.02
718.216	16802.92
718.559	16680.21
718.902	16638.4
719.246	16578.97
719.589	16550.72
719.932	16484.51
720.275	16507.33
720.617	16540.55
720.96	16421.01
721.303	16553.43
721.646	16465.75
721.989	16337.17
722.331	16495.13
722.674	16371.74
723.016	16509.82
723.359	16383.72
723.701	16342.37
724.044	16308.02
724.386	16223.27
724.729	16380.11
725.071	16252.43
725.413	16251.07
725.755	16215.59
726.097	16129.49
726.439	16035.93
726.782	16068.93
727.124	16191.41
727.465	16053.56
727.807	16091.07
728.149	16014.69
728.491	15993
728.833	15996.39
729.175	16053.56
729.516	15937.86
729.858	16035.26
730.199	16013.56
730.541	16001.81
730.882	15978.08
731.224	16001.36
731.565	15974.47
731.906	15957.97
732.248	15975.82
732.589	15915.94
732.93	15836.17
733.271	15855.37
733.612	15889.27
733.953	15879.33
734.294	15856.96
734.635	15845.88
734.976	15775.38
735.317	15814.25
735.658	15845.88
735.999	15807.47
736.339	15715.49
736.68	15829.16
737.021	15726.11
737.361	15659.67
737.702	15865.09
738.042	15732.67
738.383	15856.96
738.723	15793.45
739.063	15794.13
739.404	15855.6
739.744	15755.72
740.084	15811.31
740.424	15820.35
740.764	15824.41
741.104	15835.49
741.444	15896.28
741.784	15857.41
742.124	15862.15
742.464	15902.83
742.804	15867.8
743.143	15822.38
743.483	15941.25
743.823	15838.43
744.162	15869.84
744.502	15897.41
744.841	15939.21
745.181	16014.24
745.52	15965.88
745.86	16048.14
746.199	15998.87
746.538	16150.51
746.877	16241.35
747.216	16198.19
747.556	16240.9
747.895	16282.93
748.234	16268.02
748.573	16371.29
748.911	16464.17
749.25	16457.39
749.589	16571.74
749.928	16612.64
750.267	16703.26
750.605	16764.73
750.944	16811.73
751.283	16836.14
751.621	17000.65
751.96	16935.57
752.298	17079.3
752.636	17260.76
752.975	17259.86
753.313	17330.59
753.651	17510.92
753.989	17569
754.327	17505.27
754.666	17633.41
755.004	17741.88
755.342	17966.5
755.679	17885.38
756.017	18091.93
756.355	18208.31
756.693	18255.76
757.031	18460.28
757.368	18405.59
757.706	18548.18
758.044	18674.73
758.381	18766.71
