Data from hue_180_FLMS001491_00003.txt Node
Date: Tue Feb 07 16:46:28 GMT 2017
User: dcchb
Spectrometer: FLMS00149
Trigger mode: 0
Integration Time (sec): 2.000000E-2
Scans to average: 10
Electric dark correction enabled: true
Nonlinearity correction enabled: false
Boxcar width: 0
XAxis mode: Wavelengths
Number of Pixels in Spectrum: 2048
>>>>>Begin Spectral Data<<<<<
341.393	-10.11
341.776	-10.11
342.16	-10.11
342.543	-58.25
342.927	-60.96
343.31	-71.35
343.693	-54.86
344.077	-84.46
344.46	-60.51
344.843	-49.21
345.226	-43.33
345.61	-44.69
345.993	-15.08
346.376	-20.51
346.759	10.23
347.142	24.46
347.525	42.09
347.908	66.95
348.291	100.17
348.674	72.37
349.057	127.74
349.44	128.19
349.823	139.49
350.206	155.98
350.588	197.79
350.971	210.67
351.354	247.06
351.737	244.57
352.119	278.02
352.502	266.49
352.884	269.2
353.267	254.51
353.65	293.61
354.032	280.95
354.414	304.23
354.797	316.88
355.179	343.1
355.562	322.76
355.944	334.51
356.326	326.83
356.709	325.47
357.091	358.24
357.473	338.13
357.855	351.46
358.238	344.91
358.62	348.07
359.002	359.6
359.384	335.87
359.766	339.48
360.148	329.09
360.53	338.8
360.912	329.31
361.294	338.58
361.676	322.53
362.057	327.51
362.439	341.06
362.821	324.79
363.203	341.74
363.584	344
363.966	319.37
364.348	331.57
364.729	324.34
365.111	311.23
365.493	331.8
365.874	332.03
366.256	311.46
366.637	315.98
367.019	279.15
367.4	324.34
367.781	309.43
368.163	320.73
368.544	314.17
368.925	321.86
369.306	329.99
369.688	300.39
370.069	314.4
370.45	313.95
370.831	309.2
371.212	321.63
371.593	312.36
371.974	334.06
372.355	312.14
372.736	320.5
373.117	310.56
373.498	320.73
373.879	311.91
374.26	327.51
374.641	334.96
375.021	320.27
375.402	319.82
375.783	332.25
376.163	340.39
376.544	336.54
376.925	325.92
377.305	335.87
377.686	325.02
378.066	331.35
378.447	336.77
378.827	343.55
379.208	327.73
379.588	311.23
379.968	340.39
380.349	318.01
380.729	336.54
381.109	330.67
381.489	340.61
381.87	335.19
382.25	339.26
382.63	344
383.01	326.38
383.39	344
383.77	338.35
384.15	349.2
384.53	349.88
384.91	354.17
385.29	377.22
385.67	338.8
386.049	346.71
386.429	350.1
386.809	365.92
387.189	383.55
387.568	360.95
387.948	339.93
388.328	357.34
388.707	357.11
389.087	354.17
389.466	361.63
389.846	366.37
390.225	361.85
390.605	358.69
390.984	387.39
391.363	369.76
391.743	379.71
392.122	380.16
392.501	385.58
392.881	396.66
393.26	367.28
393.639	395.75
394.018	392.81
394.397	400.95
394.776	395.75
395.155	380.39
395.534	408.18
395.913	400.27
396.292	391.91
396.671	379.03
397.05	380.61
397.429	394.17
397.808	384.68
398.186	403.66
398.565	412.02
398.944	399.59
399.323	411.35
399.701	419.93
400.08	393.27
400.458	429.65
400.837	428.29
401.215	410.89
401.594	419.03
401.972	424
402.351	431.68
402.729	414.06
403.107	422.42
403.486	437.11
403.864	445.47
404.242	438.69
404.62	436.66
404.999	457.9
405.377	469.2
405.755	441.4
406.133	461.51
406.511	464
406.889	470.55
407.267	496.99
407.645	484.34
408.023	505.35
408.401	504.68
408.779	508.97
409.156	520.27
409.534	508.29
409.912	504
410.29	531.57
410.667	547.61
411.045	548.06
411.422	568.18
411.8	546.71
412.178	583.09
412.555	580.15
412.933	571.57
413.31	592.13
413.687	597.55
414.065	600.27
414.442	595.97
414.819	626.03
415.197	646.82
415.574	645.46
415.951	645.69
416.328	660.15
416.705	650.66
417.082	674.39
417.46	672.36
417.837	694.95
418.214	685.01
418.591	716.2
418.967	725.69
419.344	721.39
419.721	748.29
420.098	749.19
420.475	729.98
420.852	753.48
421.228	758.23
421.605	776.76
421.982	782.41
422.358	804.1
422.735	812.24
423.111	804.33
423.488	838.68
423.864	866.47
424.241	856.98
424.617	890.43
424.994	902.63
425.37	909.41
425.746	895.17
426.123	925
426.499	927.49
426.875	932.24
427.251	943.99
427.627	960.48
428.003	969.3
428.379	999.13
428.756	988.28
429.132	1006.58
429.507	1035.28
429.883	1034.61
430.259	1062.4
430.635	1079.8
431.011	1075.73
431.387	1093.81
431.763	1117.77
432.138	1130.2
432.514	1129.52
432.89	1140.37
433.265	1179.01
433.641	1212.45
434.016	1181.95
434.392	1221.72
434.767	1250.87
435.143	1291.1
435.518	1282.06
435.894	1287.48
436.269	1329.97
436.644	1339.46
437.02	1374.94
437.395	1387.59
437.77	1407.7
438.145	1431.88
438.52	1475.72
438.895	1459
439.271	1492.22
439.646	1529.51
440.021	1524.76
440.395	1557.98
440.77	1549.17
441.145	1560.92
441.52	1614.25
441.895	1624.87
442.27	1645.44
442.645	1654.7
443.019	1649.96
443.394	1664.19
443.769	1684.53
444.143	1700.58
444.518	1740.35
444.892	1694.7
445.267	1721.59
445.641	1781.25
446.016	1779.67
446.39	1777.41
446.764	1798.2
447.139	1761.37
447.513	1829.61
447.887	1804.08
448.262	1841.82
448.636	1842.72
449.01	1902.83
449.384	1923.4
449.758	1938.08
450.132	1966.11
450.506	1951.87
450.88	1969.27
451.254	2015.37
451.628	2000
452.002	2040.45
452.376	2065.76
452.75	2059.66
453.123	2090.4
453.497	2149.15
453.871	2115.26
454.244	2184.63
454.618	2191.64
454.992	2235.93
455.365	2244.07
455.739	2291.07
456.112	2327
456.486	2327.9
456.859	2343.27
457.232	2385.08
457.606	2409.03
457.979	2424.17
458.352	2485.64
458.725	2522.7
459.099	2547.11
459.472	2561.12
459.845	2591.17
460.218	2629.14
460.591	2642.25
460.964	2674.11
461.337	2723.6
461.71	2795.92
462.083	2796.14
462.456	2844.28
462.829	2844.95
463.201	2918.17
463.574	2941
463.947	2965.18
464.32	3041.78
464.692	3080.65
465.065	3110.48
465.438	3085.63
465.81	3185.96
466.183	3189.8
466.555	3289.01
466.928	3312.51
467.3	3308.67
467.672	3409.01
468.045	3482
468.417	3481.09
468.789	3519.96
469.161	3592.28
469.534	3651.71
469.906	3744.36
470.278	3792.27
470.65	3825.27
471.022	3867.53
471.394	3944.59
471.766	3972.61
472.138	4059.38
472.51	4129.21
472.882	4217.12
473.253	4258.02
473.625	4340.06
473.997	4454.4
474.369	4459.15
474.74	4545.25
475.112	4608.97
475.484	4721.51
475.855	4819.82
476.227	4865.69
476.598	4974.84
476.97	5095.52
477.341	5229.98
477.713	5255.51
478.084	5337.32
478.455	5485.56
478.827	5583.41
479.198	5715.16
479.569	5775.05
479.94	5916.06
480.311	6001.25
480.682	6082.61
481.053	6267.69
481.424	6356.95
481.795	6408.93
482.166	6531.18
482.537	6656.83
482.908	6844.4
483.279	6879.2
483.65	7041.68
484.021	7280.32
484.391	7341.56
484.762	7410.03
485.133	7490.71
485.503	7578.84
485.874	7844.6
486.244	7897.48
486.615	8059.96
486.985	8206.85
487.356	8293.85
487.726	8480.74
488.097	8563.22
488.467	8643.22
488.837	8829.65
489.207	8904.91
489.578	9050.44
489.948	9181.51
490.318	9308.96
490.688	9345.35
491.058	9528.85
491.428	9662.4
491.798	9808.61
492.168	9973.58
492.538	9946.24
492.908	10112.56
493.278	10279.56
493.648	10263.52
494.017	10432.32
494.387	10506.67
494.757	10592.77
495.126	10806.1
495.496	10759.77
495.866	10843.39
496.235	10953.89
496.605	11128.58
496.974	11155.7
497.344	11186.88
497.713	11258.74
498.082	11420.77
498.452	11440.43
498.821	11554.55
499.19	11550.04
499.559	11690.82
499.928	11693.53
500.298	11820.54
500.667	11795.68
501.036	11864.15
501.405	11961.1
501.774	11978.72
502.143	12064.37
502.512	11999.74
502.88	12182.34
503.249	12189.34
503.618	12253.07
503.987	12318.83
504.356	12383.23
504.724	12373.29
505.093	12420.29
505.462	12509.56
505.83	12522.89
506.199	12581.42
506.567	12793.17
506.936	12702.55
507.304	12805.37
507.672	12809.89
508.041	12909.1
508.409	12899.6
508.777	12996.1
509.145	13041.52
509.514	13094.18
509.882	13124.01
510.25	13036.78
510.618	13135.53
510.986	13136.43
511.354	13244
511.722	13261.63
512.09	13292.14
512.458	13270.44
512.826	13436.31
513.193	13404.45
513.561	13398.12
513.929	13477.44
514.297	13475.86
514.664	13617.78
515.032	13546.82
515.4	13579.36
515.767	13621.17
516.135	13675.4
516.502	13548.63
516.869	13759.47
517.237	13702.52
517.604	13650.32
517.972	13771.67
518.339	13658
518.706	13757.43
519.073	13743.42
519.44	13770.54
519.808	13751.33
520.175	13676.53
520.542	13846.92
520.909	13980.71
521.276	13848.73
521.643	13905.68
522.009	13983.64
522.376	13975.96
522.743	13893.25
523.11	13963.98
523.477	13974.15
523.843	13977.99
524.21	14153.36
524.577	14096.18
524.943	14024.32
525.31	14031.55
525.676	14223.64
526.043	14069.97
526.409	14141.15
526.776	14193.81
527.142	14149.74
527.508	14155.39
527.874	14221.6
528.241	14211.89
528.607	14146.35
528.973	14198.1
529.339	14131.89
529.705	14239
530.071	14227.03
530.437	14162.4
530.803	14119.91
531.169	14234.71
531.535	14070.87
531.901	14068.39
532.267	13924.89
532.632	14040.14
532.998	13929.63
533.364	13950.88
533.73	13974.6
534.095	13902.29
534.461	13982.06
534.826	13942.97
535.192	13779.13
535.557	13893.48
535.923	13831.11
536.288	13766.02
536.653	13713.37
537.019	13588.63
537.384	13598.57
537.749	13569.64
538.114	13533.94
538.479	13457.78
538.845	13469.53
539.21	13361.29
539.575	13378.24
539.94	13232.48
540.305	13269.31
540.67	13154.74
541.034	13135.3
541.399	13130.56
541.764	13066.61
542.129	13018.02
542.494	12988.42
542.858	12918.81
543.223	12906.38
543.587	12805.37
543.952	12756.78
544.316	12707.29
544.681	12645.6
545.045	12684.47
545.41	12646.96
545.774	12537.81
546.138	12441.09
546.503	12361.77
546.867	12341.88
547.231	12376.91
547.595	12255.33
547.959	12263.24
548.324	12146.18
548.688	12082
549.052	12053.3
549.416	12039.74
549.779	11884.26
550.143	11901.21
550.507	11900.76
550.871	11920.87
551.235	11792.97
551.599	11831.38
551.962	11722.69
552.326	11772.4
552.689	11632.74
553.053	11610.82
553.417	11560.88
553.78	11647.66
554.143	11541.45
554.507	11520.43
554.87	11477.72
555.234	11469.81
555.597	11392.3
555.96	11334.22
556.323	11285.64
556.686	11280.21
557.05	11317.73
557.413	11197.05
557.776	11268.46
558.139	11163.6
558.502	11169.93
558.865	11140.33
559.228	11156.83
559.59	11090.84
559.953	11159.99
560.316	11126.54
560.679	11044.29
561.041	10991.86
561.404	11089.26
561.767	11070.73
562.129	11060.56
562.492	11035.7
562.854	10979.43
563.217	10957.06
563.579	10941.69
563.941	11088.58
564.304	10964.29
564.666	11000.67
565.028	10926.77
565.39	10976.27
565.753	10921.58
566.115	10964.97
566.477	10966.77
566.839	10957.06
567.201	10972.2
567.563	10903.95
567.925	11012.2
568.287	10995.7
568.648	11033.66
569.01	11050.39
569.372	10995.02
569.734	10960.22
570.095	11016.94
570.457	10999.99
570.819	10973.55
571.18	10949.6
571.542	11007
571.903	11013.55
572.265	11035.02
572.626	10988.69
572.987	11071.63
573.349	11029.82
573.71	11030.95
574.071	10941.24
574.432	11057.62
574.794	11023.95
575.155	11014.68
575.516	11014.23
575.877	11058.07
576.238	11011.07
576.599	10996.6
576.96	11038.41
577.32	11009.03
577.681	11066.43
578.042	11044.96
578.403	10952.31
578.763	10990.05
579.124	11017.39
579.485	11030.73
579.845	11068.69
580.206	11024.63
580.566	11046.09
580.927	10975.14
581.287	10928.58
581.648	10963.84
582.008	10995.02
582.368	10956.6
582.728	10996.38
583.089	10977.85
583.449	10900.79
583.809	10943.5
584.169	10915.7
584.529	10874.57
584.889	10940.33
585.249	10816.5
585.609	10805.2
585.969	10894.23
586.329	10840.9
586.688	10820.79
587.048	10818.08
587.408	10770.85
587.768	10751.19
588.127	10756.61
588.487	10773.78
588.846	10873.67
589.206	10718.42
589.565	10750.28
589.925	10812.2
590.284	10740.79
590.643	10826.21
591.003	10755.71
591.362	10791.64
591.721	10725.42
592.08	10694.46
592.44	10667.57
592.799	10655.82
593.158	10764.07
593.517	10648.82
593.876	10684.75
594.235	10611.98
594.593	10591.87
594.952	10654.69
595.311	10589.83
595.67	10626.9
596.029	10595.26
596.387	10675.48
596.746	10688.36
597.104	10527.24
597.463	10597.52
597.822	10615.14
598.18	10570.17
598.538	10503.51
598.897	10621.02
599.255	10543.06
599.613	10556.39
599.972	10505.99
600.33	10542.6
600.688	10512.1
601.046	10510.29
601.404	10554.81
601.762	10571.3
602.12	10597.29
602.478	10585.31
602.836	10477.07
603.194	10490.85
603.552	10519.55
603.91	10484.75
604.268	10488.37
604.625	10503.51
604.983	10540.8
605.341	10501.48
605.698	10505.77
606.056	10598.87
606.413	10461.02
606.771	10576.73
607.128	10568.59
607.485	10444.75
607.843	10482.49
608.2	10580.34
608.557	10522.94
608.914	10567.01
609.272	10569.04
609.629	10653.11
609.986	10550.29
610.343	10543.06
610.7	10675.93
611.057	10620.34
611.414	10567.91
611.771	10560.46
612.127	10622.15
612.484	10658.76
612.841	10651.75
613.198	10569.5
613.554	10573.56
613.911	10655.14
614.267	10615.37
614.624	10640.91
614.98	10662.6
615.337	10698.76
615.693	10642.49
616.05	10625.09
616.406	10707.35
616.762	10722.71
617.118	10706.89
617.475	10629.61
617.831	10662.6
618.187	10743.28
618.543	10684.07
618.899	10770.62
619.255	10759.32
619.611	10693.11
619.967	10753.45
620.323	10738.98
620.678	10704.63
621.034	10713.45
621.39	10709.83
621.746	10700.79
622.101	10800.22
622.457	10775.59
622.812	10689.94
623.168	10778.08
623.523	10802.03
623.879	10759.77
624.234	10649.04
624.589	10770.39
624.945	10755.25
625.3	10770.62
625.655	10686.56
626.01	10742.82
626.365	10743.73
626.72	10738.08
627.075	10657.86
627.43	10621.02
627.785	10703.28
628.14	10704.63
628.495	10672.77
628.85	10692.2
629.205	10675.03
629.559	10727.46
629.914	10626.44
630.269	10660.12
630.623	10635.48
630.978	10586.22
631.332	10551.19
631.687	10612.66
632.041	10567.01
632.396	10649.04
632.75	10540.12
633.104	10579.44
633.459	10521.36
633.813	10464.41
634.167	10574.69
634.521	10480.91
634.875	10550.51
635.229	10511.42
635.583	10418.09
635.937	10482.04
636.291	10469.84
636.645	10424.19
636.999	10415.15
637.352	10475.94
637.706	10416.96
638.06	10462.38
638.413	10385.77
638.767	10282.05
639.121	10396.85
639.474	10300.8
639.828	10335.15
640.181	10354.13
640.534	10384.87
640.888	10243.85
641.241	10173.35
641.594	10278.66
641.947	10303.97
642.301	10260.58
642.654	10329.28
643.007	10291.54
643.36	10292.89
643.713	10275.94
644.066	10223.74
644.419	10200.92
644.771	10140.13
645.124	10038.21
645.477	10046.57
645.83	10000.25
646.182	9912.56
646.535	9914.37
646.888	9979.23
647.24	9832.79
647.593	9903.52
647.945	9910.76
648.298	9854.03
648.65	9874.37
649.002	9768.61
649.355	9907.37
649.707	9831.89
650.059	9992.79
650.411	10073.69
650.763	9997.08
651.115	10195.04
651.467	10103.07
651.819	10144.65
652.171	10101.49
652.523	10143.97
652.875	10093.35
653.227	10064.42
653.578	10090.19
653.93	10100.81
654.282	10061.71
654.633	9991.21
654.985	10024.65
655.337	10122.95
655.688	10123.18
656.039	10085.89
656.391	10077.08
656.742	10124.99
657.094	10061.94
657.445	10146
657.796	10160.02
658.147	10074.14
658.498	10170.64
658.849	10163.86
659.2	10172.22
659.551	10147.59
659.902	10154.14
660.253	10197.3
660.604	10177.42
660.955	10120.69
661.306	10123.86
661.656	10139.45
662.007	10204.76
662.358	10197.98
662.708	10147.59
663.059	10213.57
663.409	10179
663.76	10174.25
664.11	10227.13
664.461	10240.47
664.811	10240.47
665.161	10170.64
665.511	10187.36
665.862	10160.92
666.212	10270.52
666.562	10264.19
666.912	10204.76
667.262	10237.3
667.612	10236.17
667.962	10235.27
668.312	10229.17
668.662	10272.55
669.011	10204.99
669.361	10215.16
669.711	10166.34
670.06	10163.63
670.41	10202.05
670.76	10201.82
671.109	10193.46
671.459	10231.88
671.808	10129.73
672.157	10193.46
672.507	10179.68
672.856	10154.14
673.205	10193.69
673.554	10160.92
673.904	10149.17
674.253	10209.28
674.602	10176.74
674.951	9966.8
675.3	9931.77
675.649	10132.67
675.998	10105.78
676.346	10119.11
676.695	10137.87
677.044	10084.99
677.393	10073.69
677.741	10032.79
678.09	10087.7
678.438	10058.55
678.787	10042.96
679.135	10031.66
679.484	9936.97
679.832	9992.79
680.181	9953.69
680.529	9936.74
680.877	9826.69
681.225	9892.23
681.573	9925.45
681.922	9785.56
682.27	9824.2
682.618	9780.59
682.966	9747.37
683.314	9823.53
683.661	9742.63
684.009	9669.41
684.357	9660.82
684.705	9673.25
685.053	9650.88
685.4	9676.19
685.748	9590.54
686.095	9616.07
686.443	9565.91
686.79	9573.36
687.138	9582.4
687.485	9515.06
687.832	9579.47
688.18	9491.78
688.527	9419.47
688.874	9440.03
689.221	9391.67
689.568	9378.11
689.915	9356.65
690.262	9311.45
690.609	9263.09
690.956	9246.37
691.303	9247.5
691.65	9223.77
691.997	9167.5
692.344	9154.17
692.69	9109.2
693.037	9076.65
693.383	8941.52
693.73	9040.5
694.077	9018.8
694.423	8919.82
694.769	8959.37
695.116	8909.65
695.462	8880.27
695.808	8890.22
696.155	8871.24
696.501	8766.83
696.847	8774.06
697.193	8620.39
697.539	8666.04
697.885	8615.42
698.231	8622.65
698.577	8644.57
698.923	8581.53
699.269	8575.42
699.614	8479.38
699.96	8488.87
700.306	8432.83
700.651	8433.51
700.997	8434.64
701.342	8377.01
701.688	8301.99
702.033	8280.29
702.379	8311.7
702.724	8224.92
703.069	8212.72
703.415	8132.95
703.76	8144.25
704.105	8167.3
704.45	8088.66
704.795	8048.43
705.14	7999.62
705.485	7981.99
705.83	7965.27
706.175	7988.55
706.52	7888.89
706.865	7910.81
707.209	7865.61
707.554	7869.91
707.899	7920.75
708.243	7764.37
708.588	7821.55
708.932	7729.12
709.277	7752.4
709.621	7720.53
709.966	7656.35
710.31	7700.64
710.654	7638.73
710.998	7634.66
711.342	7625.62
711.687	7584.04
712.031	7599.63
712.375	7516.47
712.719	7589.69
713.063	7527.32
713.407	7533.64
713.75	7462.01
714.094	7471.27
714.438	7462.46
714.782	7421.1
715.125	7442.8
715.469	7436.92
715.812	7427.43
716.156	7415.68
716.499	7349.24
716.843	7398.73
717.186	7334.55
717.53	7353.76
717.873	7373.42
718.216	7320.77
718.559	7342.01
718.902	7282.35
719.246	7220.88
719.589	7252.3
719.932	7269.92
720.275	7308.34
720.617	7248
720.96	7243.48
721.303	7246.42
721.646	7168.91
721.989	7224.73
722.331	7211.17
722.674	7178.85
723.016	7194.9
723.359	7179.75
723.701	7170.72
724.044	7154.9
724.386	7171.85
724.729	7154.22
725.071	7221.34
725.413	7197.83
725.755	7197.61
726.097	7114.67
726.439	7054.79
726.782	7122.36
727.124	7120.77
727.465	7135.24
727.807	7098.17
728.149	7096.82
728.491	7078.74
728.833	7129.59
729.175	7074.9
729.516	7083.26
729.858	7091.17
730.199	7115.12
730.541	7022.02
730.882	7063.83
731.224	7083.94
731.565	7015.92
731.906	7170.04
732.248	7140.21
732.589	7067.22
732.93	7035.8
733.271	7127.33
733.612	7081.68
733.953	7125.74
734.294	7095.92
734.635	7095.92
734.976	7132.75
735.317	7079.64
735.658	7163.94
735.999	7110.6
736.339	7091.85
736.68	7121.23
737.021	7138.17
737.361	7094.79
737.702	7074.9
738.042	7168.23
738.383	7186.31
738.723	7224.5
739.063	7181.34
739.404	7183.82
739.744	7203.48
740.084	7138.4
740.424	7212.75
740.764	7206.65
741.104	7282.35
741.444	7276.93
741.784	7265.85
742.124	7319.64
742.464	7283.03
742.804	7364.61
743.143	7333.65
743.483	7382.69
743.823	7434.66
744.162	7440.31
744.502	7462.69
744.841	7451.16
745.181	7520.76
745.52	7589.46
745.86	7582.68
746.199	7643.92
746.538	7663.81
746.877	7727.76
747.216	7819.51
747.556	7797.59
747.895	7836.01
748.234	7902
748.573	7979.51
748.911	8024.48
749.25	8065.16
749.589	8147.19
749.928	8172.5
750.267	8261.99
750.605	8331.36
750.944	8436.9
751.283	8503.11
751.621	8664.01
751.96	8732.71
752.298	8858.13
752.636	8970.89
752.975	9097.22
753.313	9055.41
753.651	9259.02
753.989	9323.65
754.327	9446.36
754.666	9564.55
755.004	9691.33
755.342	9948.27
755.679	10003.41
756.017	10195.04
756.355	10375.6
756.693	10461.48
757.031	10678.87
757.368	10740.11
757.706	10971.52
758.044	11110.27
758.381	11299.42
758.719	11536.48
759.056	11641.56
759.394	11838.84
759.731	11998.84
