Data from hue_270_FLMS001491_00016.txt Node
Date: Tue Feb 07 15:56:50 GMT 2017
User: dcchb
Spectrometer: FLMS00149
Trigger mode: 0
Integration Time (sec): 2.000000E-2
Scans to average: 10
Electric dark correction enabled: true
Nonlinearity correction enabled: false
Boxcar width: 0
XAxis mode: Wavelengths
Number of Pixels in Spectrum: 2048
>>>>>Begin Spectral Data<<<<<
341.393	-22.3
341.776	-22.3
342.16	-22.3
342.543	-71.79
342.927	-70.89
343.31	-60.72
343.693	-67.5
344.077	-63.2
344.46	-68.18
344.843	-41.74
345.226	-52.13
345.61	-42.64
345.993	-22.75
346.376	-10.1
346.759	15.21
347.142	22.67
347.525	56.79
347.908	56.11
348.291	71.48
348.674	104.02
349.057	102.67
349.44	117.81
349.823	147.86
350.206	165.26
350.588	192.38
350.971	207.52
351.354	205.94
351.737	236.22
352.119	236.45
352.502	240.74
352.884	275.77
353.267	269.67
353.65	283
354.032	295.66
354.414	285.94
354.797	303.11
355.179	313.51
355.562	324.58
355.944	327.52
356.326	305.15
356.709	336.11
357.091	341.3
357.473	348.76
357.855	321.87
358.238	336.11
358.62	341.3
359.002	305.83
359.384	332.04
359.766	332.04
360.148	332.94
360.53	319.84
360.912	351.02
361.294	342.66
361.676	331.81
362.057	336.33
362.439	335.2
362.821	321.19
363.203	309.67
363.584	320.06
363.966	311.02
364.348	313.96
364.729	325.03
365.111	310.57
365.493	319.61
365.874	306.96
366.256	307.41
366.637	309.22
367.019	301.98
367.4	314.19
367.781	292.27
368.163	310.12
368.544	322.1
368.925	309.44
369.306	314.86
369.688	310.12
370.069	310.12
370.45	311.93
370.831	319.61
371.212	322.32
371.593	307.18
371.974	304.24
372.355	314.19
372.736	320.06
373.117	303.57
373.498	323
373.879	299.72
374.26	325.26
374.641	298.59
375.021	304.02
375.402	328.42
375.783	332.04
376.163	320.51
376.544	330.23
376.925	315.99
377.305	318.48
377.686	307.41
378.066	335.88
378.447	313.28
378.827	344.47
379.208	324.81
379.588	317.12
379.968	330.46
380.349	323.9
380.729	311.25
381.109	333.62
381.489	321.42
381.87	337.69
382.25	328.88
382.63	347.41
383.01	335.2
383.39	335.88
383.77	354.19
384.15	338.37
384.53	333.62
384.91	318.93
385.29	338.14
385.67	368.42
386.049	344.02
386.429	337.01
386.809	358.03
387.189	371.36
387.568	331.36
387.948	352.6
388.328	363.68
388.707	369.55
389.087	384.92
389.466	361.42
389.846	358.48
390.225	380.63
390.605	368.42
390.984	375.2
391.363	354.41
391.743	382.89
392.122	360.97
392.501	387.63
392.881	379.5
393.26	371.81
393.639	369.33
394.018	393.51
394.397	372.49
394.776	381.08
395.155	374.52
395.534	382.89
395.913	381.98
396.292	388.53
396.671	385.37
397.05	415.88
397.429	409.1
397.808	387.63
398.186	388.31
398.565	411.36
398.944	397.8
399.323	411.59
399.701	406.16
400.08	400.74
400.458	425.82
400.837	430.79
401.215	414.52
401.594	434.64
401.972	418.14
402.351	450
402.729	428.08
403.107	446.39
403.486	452.26
403.864	452.71
404.242	449.1
404.62	453.17
404.999	436.22
405.377	443.67
405.755	452.94
406.133	482.54
406.511	464.92
406.889	436.44
407.267	460.62
407.645	489.1
408.023	478.7
408.401	478.7
408.779	473.73
409.156	476.89
409.534	509.89
409.912	481.87
410.29	506.95
410.667	508.08
411.045	508.98
411.422	543.79
411.8	545.82
412.178	549.66
412.555	557.57
412.933	562.99
413.31	550.56
413.687	566.16
414.065	579.04
414.442	576.78
414.819	599.15
415.197	618.81
415.574	585.37
415.951	605.25
416.328	617
416.705	622.2
417.082	618.13
417.46	661.52
417.837	651.13
418.214	649.32
418.591	657.68
418.967	651.58
419.344	670.56
419.721	690.22
420.098	669.88
420.475	690.45
420.852	676.21
421.228	731.58
421.605	713.95
421.982	727.51
422.358	728.19
422.735	759.6
423.111	757.34
423.488	763.21
423.864	790.78
424.241	800.05
424.617	791.69
424.994	803.21
425.37	804.57
425.746	831.69
426.123	839.6
426.499	847.28
426.875	867.84
427.251	875.3
427.627	860.84
428.003	871.23
428.379	881.86
428.756	914.62
429.132	919.59
429.507	918.46
429.883	953.49
430.259	952.81
430.635	979.03
431.011	950.78
431.387	973.38
431.763	1000.72
432.138	1005.02
432.514	1010.67
432.89	1052.92
433.265	1025.13
433.641	1077.33
434.016	1098.35
434.392	1087.05
434.767	1126.82
435.143	1121.62
435.518	1134.73
435.894	1165.01
436.269	1170.66
436.644	1181.96
437.02	1202.52
437.395	1240.04
437.77	1224.67
438.145	1266.25
438.52	1269.64
438.895	1287.04
439.271	1310.09
439.646	1328.85
440.021	1339.92
440.395	1339.92
440.77	1359.13
441.145	1358.68
441.52	1397.55
441.895	1406.14
442.27	1405.68
442.645	1429.41
443.019	1409.75
443.394	1437.32
443.769	1459.47
444.143	1464.44
444.518	1468.51
444.892	1468.51
445.267	1489.97
445.641	1487.94
446.016	1494.72
446.39	1505.79
446.764	1560.26
447.139	1545.57
447.513	1565
447.887	1570.88
448.262	1552.35
448.636	1574.49
449.01	1568.62
449.384	1589.18
449.758	1633.47
450.132	1627.37
450.506	1603.87
450.88	1637.99
451.254	1676.18
451.628	1717.77
452.002	1679.12
452.376	1696.07
452.75	1715.05
453.123	1724.09
453.497	1722.51
453.871	1740.82
454.244	1767.48
454.618	1747.6
454.992	1810.87
455.365	1810.64
455.739	1845.67
456.112	1869.4
456.486	1861.49
456.859	1837.08
457.232	1942.84
457.606	1901.49
457.979	1946.69
458.352	1970.41
458.725	1982.84
459.099	1983.97
459.472	1988.49
459.845	2035.05
460.218	2054.48
460.591	2058.1
460.964	2060.81
461.337	2098.55
461.71	2149.62
462.083	2187.36
462.456	2150.75
462.829	2164.08
463.201	2192.78
463.574	2201.59
463.947	2233.46
464.32	2260.35
464.692	2302.38
465.065	2306.68
465.438	2316.39
465.81	2358.88
466.183	2362.49
466.555	2419.22
466.928	2415.6
467.3	2448.82
467.672	2466.67
468.045	2509.38
468.417	2497.41
468.789	2516.84
469.161	2559.33
469.534	2599.78
469.906	2620.11
470.278	2669.15
470.65	2687.01
471.022	2712.99
471.394	2748.25
471.766	2784.18
472.138	2804.52
472.51	2839.32
472.882	2894.68
473.253	2881.58
473.625	2949.37
473.997	3005.87
474.369	2994.79
474.74	3024.62
475.112	3097.84
475.484	3137.84
475.855	3188.91
476.227	3188.69
476.598	3287.67
476.97	3239.99
477.341	3269.59
477.713	3329.25
478.084	3382.58
478.455	3444.73
478.827	3449.7
479.198	3531.73
479.569	3569.92
479.94	3602.46
480.311	3634.78
480.682	3738.73
481.053	3773.08
481.424	3825.05
481.795	3877.03
482.166	3844.72
482.537	3911.83
482.908	3978.72
483.279	4001.32
483.65	4057.82
484.021	4140.53
484.391	4165.61
484.762	4198.83
485.133	4243.8
485.503	4287.19
485.874	4336.91
486.244	4374.64
486.615	4424.81
486.985	4453.29
487.356	4515.88
487.726	4550.23
488.097	4624.81
488.467	4641.08
488.837	4714.07
489.207	4788.19
489.578	4814.18
489.948	4861.64
490.318	4898.92
490.688	4874.29
491.058	4958.81
491.428	4999.26
491.798	5024.8
492.168	5140.05
492.538	5149.77
492.908	5217.79
493.278	5246.49
493.648	5256.2
494.017	5284.9
494.387	5306.6
494.757	5309.76
495.126	5442.19
495.496	5435.86
495.866	5463.43
496.235	5499.59
496.605	5531.45
496.974	5571.45
497.344	5655.97
497.713	5576.65
498.082	5641.5
498.452	5653.93
498.821	5697.32
499.19	5637.66
499.559	5756.08
499.928	5778.68
500.298	5822.97
500.667	5810.31
501.036	5831.1
501.405	5886.47
501.774	5819.58
502.143	5910.42
502.512	5853.7
502.88	5970.08
503.249	5992.46
503.618	5993.36
503.987	5978.9
504.356	6009.63
504.724	6060.93
505.093	6072.45
505.462	6020.93
505.83	6101.83
506.199	6112.23
506.567	6170.3
506.936	6176.86
507.304	6205.56
507.672	6195.84
508.041	6203.07
508.409	6240.13
508.777	6274.03
509.145	6330.53
509.514	6291.43
509.882	6390.86
510.25	6334.37
510.618	6365.1
510.986	6387.93
511.354	6400.35
511.722	6442.61
512.09	6477.19
512.458	6477.87
512.826	6486.68
513.193	6488.26
513.561	6451.65
513.929	6541.82
514.297	6550.63
514.664	6589.28
515.032	6574.59
515.4	6625.89
515.767	6610.52
516.135	6635.15
516.502	6540.01
516.869	6674.02
517.237	6699.33
517.604	6638.99
517.972	6686
518.339	6714.02
518.706	6710.18
519.073	6747.01
519.44	6706.11
519.808	6708.14
520.175	6733
520.542	6824.3
520.909	6870.85
521.276	6798.99
521.643	6874.69
522.009	6870.62
522.376	6925.31
522.743	6907.91
523.11	6930.96
523.477	7001.92
523.843	7001.24
524.21	6988.59
524.577	7032.88
524.943	7047.57
525.31	7071.75
525.676	7087.57
526.043	7083.73
526.409	7193.1
526.776	7145.19
527.142	7191.97
527.508	7180.9
527.874	7232.87
528.241	7231.29
528.607	7229.71
528.973	7316.71
529.339	7276.94
529.705	7350.39
530.071	7419.08
530.437	7317.84
530.803	7383.83
531.169	7444.39
531.535	7386.09
531.901	7368.92
532.267	7404.17
532.632	7472.42
532.998	7448.01
533.364	7521.91
533.73	7530.49
534.095	7511.06
534.461	7537.95
534.826	7543.83
535.192	7523.94
535.557	7594.67
535.923	7583.37
536.288	7554.9
536.653	7608.23
537.019	7572.3
537.384	7621.34
537.749	7621.34
538.114	7617.05
538.479	7606.65
538.845	7648.01
539.21	7566.65
539.575	7594.22
539.94	7631.28
540.305	7708.12
540.67	7679.19
541.034	7666.54
541.399	7731.39
541.764	7673.09
542.129	7735.46
542.494	7662.24
542.858	7668.57
543.223	7681.68
543.587	7751.73
543.952	7701.11
544.316	7753.99
544.681	7778.62
545.045	7776.14
545.41	7783.14
545.774	7762.35
546.138	7757.83
546.503	7820.43
546.867	7776.36
547.231	7772.52
547.595	7783.37
547.959	7811.62
548.324	7757.83
548.688	7832.86
549.052	7836.47
549.416	7801
549.779	7770.26
550.143	7789.7
550.507	7825.63
550.871	7830.6
551.235	7866.76
551.599	7864.95
551.962	7838.28
552.326	7906.98
552.689	7897.72
553.053	7880.77
553.417	7904.95
553.78	7964.83
554.143	7956.02
554.507	7948.34
554.87	7978.39
555.234	8038.28
555.597	7920.54
555.96	7960.77
556.323	7974.1
556.686	8025.17
557.05	8043.02
557.413	8055.9
557.776	8053.19
558.139	8100.65
558.502	8079.86
558.865	8134.55
559.228	8086.64
559.59	8167.31
559.953	8185.39
560.316	8172.74
560.679	8213.19
561.041	8271.27
561.404	8266.07
561.767	8278.72
562.129	8235.79
562.492	8368.89
562.854	8304.26
563.217	8327.76
563.579	8386.74
563.941	8425.39
564.304	8433.97
564.666	8545.83
565.028	8489.11
565.39	8491.37
565.753	8554.2
566.115	8561.2
566.477	8599.39
566.839	8550.58
567.201	8659.96
567.563	8592.39
567.925	8701.76
568.287	8737.92
568.648	8766.85
569.01	8746.73
569.372	8840.97
569.734	8751.7
570.095	8853.17
570.457	8902.89
570.819	8904.7
571.18	8923.23
571.542	8983.79
571.903	8964.58
572.265	9040.06
572.626	9052.71
572.987	9079.83
573.349	9014.3
573.71	9093.62
574.071	9125.71
574.432	9148.53
574.794	9240.28
575.155	9234.18
575.516	9280.73
575.877	9289.32
576.238	9317.79
576.599	9343.33
576.96	9354.85
577.32	9387.17
577.681	9475.08
578.042	9458.8
578.403	9500.16
578.763	9425.81
579.124	9511.46
579.485	9539.93
579.845	9551.46
580.206	9599.37
580.566	9569.08
580.927	9639.82
581.287	9714.39
581.648	9676.2
582.008	9814.95
582.368	9763.2
582.728	9811.34
583.089	9794.39
583.449	9833.48
583.809	9780.6
584.169	9917.32
584.529	9951.45
584.889	9959.81
585.249	9907.15
585.609	9977.21
585.969	10016.76
586.329	9972.01
586.688	10073.25
587.048	10089.75
587.408	10025.8
587.768	10062.86
588.127	10139.01
588.487	10145.79
588.846	10161.61
589.206	10178.33
589.565	10240.93
589.925	10276.41
590.284	10258.11
590.643	10278.44
591.003	10436.86
591.362	10387.59
591.721	10363.87
592.08	10359.8
592.44	10413.13
592.799	10457.2
593.158	10419.23
593.517	10491.32
593.876	10412.23
594.235	10442.28
594.593	10440.47
594.952	10462.17
595.311	10478.21
595.67	10501.72
596.029	10591.66
596.387	10580.58
596.746	10634.82
597.104	10606.12
597.463	10611.32
597.822	10626.46
598.18	10664.65
598.538	10751.2
598.897	10731.77
599.255	10623.07
599.613	10830.75
599.972	10705.33
600.33	10785.32
600.688	10769.96
601.046	10788.49
601.404	10853.34
601.762	10881.59
602.12	10867.36
602.478	10872.55
602.836	10878.43
603.194	10863.51
603.552	10882.04
603.91	10858.54
604.268	10930.4
604.625	10895.15
604.983	10936.05
605.341	10853.8
605.698	11022.15
606.056	10949.39
606.413	10956.62
606.771	10916.17
607.128	11039.55
607.485	10958.65
607.843	10974.25
608.2	11016.05
608.557	11056.05
608.914	10991.19
609.272	11116.16
609.629	11102.38
609.986	11164.52
610.343	11098.99
610.7	11171.53
611.057	11138.76
611.414	11224.41
611.771	11182.83
612.127	11208.59
612.484	11178.76
612.841	11266.22
613.198	11244.07
613.554	11271.86
613.911	11272.99
614.267	11271.19
614.624	11252.2
614.98	11296.04
615.337	11287.46
615.693	11355.25
616.05	11306.67
616.406	11360.68
616.762	11326.33
617.118	11341.24
617.475	11292.88
617.831	11290.62
618.187	11357.29
618.543	11327
618.899	11440.45
619.255	11399.54
619.611	11345.99
619.967	11389.6
620.323	11470.28
620.678	11408.13
621.034	11417.17
621.39	11377.62
621.746	11452.2
622.101	11546.66
622.457	11486.32
622.812	11390.28
623.168	11446.32
623.523	11491.07
623.879	11508.02
624.234	11437.28
624.589	11482.48
624.945	11442.03
625.3	11458.07
625.655	11471.18
626.01	11423.05
626.365	11521.12
626.72	11463.27
627.075	11468.7
627.43	11455.36
627.785	11433.44
628.14	11483.61
628.495	11414.91
628.85	11515.93
629.205	11332.43
629.559	11451.97
629.914	11405.42
630.269	11421.24
630.623	11397.51
630.978	11409.71
631.332	11442.48
631.687	11362.94
632.041	11297.63
632.396	11377.62
632.75	11313.45
633.104	11309.83
633.459	11307.57
633.813	11231.19
634.167	11229.15
634.521	11260.79
634.875	11301.24
635.229	11225.99
635.583	11199.55
635.937	11195.03
636.291	11168.59
636.645	11211.08
636.999	11127.01
637.352	11179.21
637.706	11168.14
638.06	11109.83
638.413	11088.59
638.767	11083.17
639.121	11157.97
639.474	11037.07
639.828	11109.61
640.181	11045.2
640.534	11046.56
640.888	11031.42
641.241	11038.65
641.594	11029.16
641.947	11051.53
642.301	10975.6
642.654	10984.41
643.007	10943.29
643.36	10955.71
643.713	10979.89
644.066	11085.2
644.419	10938.99
644.771	10874.36
645.124	10781.71
645.477	10678.43
645.83	10696.96
646.182	10647.93
646.535	10659
646.888	10620.36
647.24	10570.87
647.593	10670.52
647.945	10547.14
648.298	10525.67
648.65	10565.44
649.002	10510.53
649.355	10560.24
649.707	10543.97
650.059	10574.71
650.411	10694.25
650.763	10727.47
651.115	10896.73
651.467	10847.47
651.819	10825.77
652.171	10748.04
652.523	10764.99
652.875	10764.53
653.227	10764.53
653.578	10770.41
653.93	10782.39
654.282	10803.18
654.633	10744.19
654.985	10788.04
655.337	10801.14
655.688	10754.36
656.039	10781.48
656.391	10765.44
656.742	10776.06
657.094	10836.85
657.445	10793.01
657.796	10785.55
658.147	10812.44
658.498	10753.91
658.849	10797.98
659.2	10777.87
659.551	10753.69
659.902	10879.11
660.253	10769.96
660.604	10766.34
660.955	10718.88
661.306	10802.27
661.656	10764.08
662.007	10798.88
662.358	10873.68
662.708	10757.3
663.059	10770.41
663.409	10689.51
663.76	10855.83
664.11	10809.96
664.461	10740.81
664.811	10833.68
665.161	10796.4
665.511	10752.56
665.862	10776.06
666.212	10815.15
666.562	10870.75
666.912	10761.82
667.262	10749.62
667.612	10771.31
667.962	10817.87
668.312	10809.5
668.662	10847.24
669.011	10792.56
669.361	10767.02
669.711	10745.78
670.06	10758.88
670.41	10689.28
670.76	10730.86
671.109	10755.49
671.459	10712.78
671.808	10674.14
672.157	10754.14
672.507	10625.55
672.856	10659
673.205	10757.08
673.554	10713.46
673.904	10637.53
674.253	10733.35
674.602	10631.66
674.951	10515.73
675.3	10514.82
675.649	10676.63
675.998	10616.29
676.346	10628.27
676.695	10677.08
677.044	10592.11
677.393	10586.46
677.741	10542.17
678.09	10563.18
678.438	10536.06
678.787	10595.5
679.135	10563.63
679.484	10493.35
679.832	10476.41
680.181	10442.51
680.529	10493.81
680.877	10451.32
681.225	10407.48
681.573	10462.62
681.922	10424.2
682.27	10326.35
682.618	10381.72
682.966	10264.21
683.314	10405.67
683.661	10385.79
684.009	10270.31
684.357	10275.73
684.705	10176.53
685.053	10214.94
685.4	10281.38
685.748	10206.58
686.095	10251.1
686.443	10164.55
686.79	10174.49
687.138	10088.39
687.485	10086.13
687.832	10063.31
688.18	10051.11
688.527	10047.26
688.874	9932.92
689.221	9974.72
689.568	9967.94
689.915	9874.61
690.262	9933.14
690.609	9830.55
690.956	9813.6
691.303	9758.68
691.65	9735.86
691.997	9719.14
692.344	9694.96
692.69	9626.48
693.037	9711.45
693.383	9584.45
693.73	9586.94
694.077	9506.26
694.423	9472.14
694.769	9491.12
695.116	9461.52
695.462	9395.3
695.808	9382.87
696.155	9382.2
696.501	9308.3
696.847	9317.57
697.193	9221.52
697.539	9270.11
697.885	9255.65
698.231	9210
698.577	9153.95
698.923	9182.43
699.269	9162.32
699.614	9078.93
699.96	8967.29
700.306	9010.68
700.651	8982.66
700.997	8908.31
701.342	8889.33
701.688	8898.14
702.033	8826.05
702.379	8843.45
702.724	8806.84
703.069	8751.25
703.415	8731.59
703.76	8699.05
704.105	8699.05
704.45	8650.69
704.795	8676.45
705.14	8577.47
705.485	8554.2
705.83	8619.5
706.175	8552.39
706.52	8518.94
706.865	8517.36
707.209	8432.17
707.554	8414.54
707.899	8425.61
708.243	8408.21
708.588	8388.55
708.932	8341.09
709.277	8351.72
709.621	8365.73
709.966	8223.13
710.31	8294.77
710.654	8225.84
710.998	8268.78
711.342	8193.75
711.687	8212.28
712.031	8194.88
712.375	8165.51
712.719	8123.02
713.063	8172.51
713.407	8127.09
713.75	8074.89
714.094	8060.2
714.438	8053.87
714.782	8011.39
715.125	8011.84
715.469	7976.58
715.812	7964.83
716.156	7932.07
716.499	7884.38
716.843	7936.81
717.186	7870.15
717.53	8005.96
717.873	7936.36
718.216	7970.03
718.559	7864.5
718.902	7785.18
719.246	7814.33
719.589	7865.63
719.932	7767.1
720.275	7772.97
720.617	7728.23
720.96	7822.46
721.303	7763.03
721.646	7796.93
721.989	7764.61
722.331	7748.12
722.674	7755.12
723.016	7710.83
723.359	7746.53
723.701	7725.97
724.044	7701.34
724.386	7639.42
724.729	7760.09
725.071	7627.21
725.413	7668.34
725.755	7648.01
726.097	7639.42
726.439	7602.13
726.782	7641.45
727.124	7695.69
727.465	7657.5
727.807	7626.99
728.149	7636.71
728.491	7599.87
728.833	7619.98
729.175	7598.29
729.516	7504.73
729.858	7570.72
730.199	7605.75
730.541	7568.91
730.882	7548.35
731.224	7623.37
731.565	7553.09
731.906	7557.61
732.248	7638.74
732.589	7489.37
732.93	7501.12
733.271	7542.7
733.612	7520.55
733.953	7504.05
734.294	7526.2
734.635	7550.15
734.976	7547.89
735.317	7510.61
735.658	7568.69
735.999	7512.64
736.339	7538.86
736.68	7559.87
737.021	7524.84
737.361	7529.14
737.702	7550.61
738.042	7565.75
738.383	7603.03
738.723	7594.67
739.063	7507.44
739.404	7636.93
739.744	7600.1
740.084	7573.43
740.424	7589.25
740.764	7607.1
741.104	7646.65
741.444	7634.22
741.784	7602.58
742.124	7588.12
742.464	7670.15
742.804	7633.32
743.143	7726.65
743.483	7719.42
743.823	7668.57
744.162	7659.53
744.502	7722.13
744.841	7753.54
745.181	7834.44
745.52	7831.28
745.86	7827.21
746.199	7887.32
746.538	7934.55
746.877	8021.33
747.216	8026.3
747.556	8062.91
747.895	8055
748.234	8076.24
748.573	8108.11
748.911	8208.22
749.25	8190.82
749.589	8275.56
749.928	8381.77
750.267	8365.27
750.605	8411.15
750.944	8471.94
751.283	8579.51
751.621	8641.65
751.96	8695.66
752.298	8756.22
752.636	8843
752.975	8884.81
753.313	8988.99
753.651	9067.63
753.989	9098.14
754.327	9293.39
754.666	9344.01
755.004	9474.4
755.342	9654.05
755.679	9758.46
756.017	9787.61
756.355	9930.43
756.693	10102.4
757.031	10152.57
757.368	10281.16
757.706	10450.64
758.044	10583.97
758.381	10709.85
758.719	10836.62
759.056	10964.08
759.394	11068.48
759.731	11269.6
760.068	11378.75
760.405	11580.78
760.743	11615.81
761.08	11887.89
761.417	11957.04
761.754	12070.26
762.091	12237.94
762.428	12455.79
762.765	12512.51
763.102	12705.05
763.438	12838.83
