Data from hue_190_FLMS001491_00012.txt Node
Date: Tue Feb 07 16:44:54 GMT 2017
User: dcchb
Spectrometer: FLMS00149
Trigger mode: 0
Integration Time (sec): 2.000000E-2
Scans to average: 10
Electric dark correction enabled: true
Nonlinearity correction enabled: false
Boxcar width: 0
XAxis mode: Wavelengths
Number of Pixels in Spectrum: 2048
>>>>>Begin Spectral Data<<<<<
341.393	-1.58
341.776	-1.58
342.16	-1.58
342.543	-65.54
342.927	-59.43
343.31	-75.7
343.693	-79.77
344.077	-74.8
344.46	-57.85
344.843	-48.81
345.226	-32.32
345.61	-49.04
345.993	-31.64
346.376	-9.49
346.759	37.74
347.142	11.53
347.525	48.81
347.908	72.54
348.291	82.03
348.674	91.75
349.057	115.03
349.44	131.52
349.823	152.76
350.206	133.1
350.588	193.44
350.971	207.23
351.354	225.98
351.737	239.09
352.119	258.3
352.502	246.77
352.884	276.83
353.267	278.18
353.65	297.39
354.032	308.01
354.414	297.39
354.797	330.16
355.179	328.58
355.562	322.48
355.944	329.48
356.326	324.06
356.709	326.77
357.091	331.29
357.473	357.05
357.855	317.05
358.238	309.14
358.62	338.52
359.002	347.11
359.384	349.6
359.766	350.05
360.148	329.03
360.53	334.45
360.912	352.53
361.294	323.83
361.676	316.83
362.057	324.51
362.439	321.8
362.821	325.19
363.203	332.42
363.584	343.72
363.966	341.01
364.348	321.57
364.729	324.96
365.111	309.82
365.493	330.84
365.874	313.66
366.256	307.11
366.637	302.36
367.019	286.09
367.4	289.94
367.781	315.7
368.163	307.56
368.544	315.02
368.925	340.56
369.306	312.53
369.688	291.74
370.069	309.6
370.45	317.73
370.831	307.56
371.212	335.58
371.593	313.44
371.974	317.51
372.355	317.73
372.736	310.05
373.117	316.6
373.498	321.35
373.879	321.12
374.26	307.34
374.641	310.95
375.021	308.69
375.402	305.08
375.783	315.92
376.163	320.22
376.544	337.84
376.925	353.66
377.305	325.87
377.686	303.72
378.066	335.13
378.447	337.84
378.827	327.45
379.208	314.12
379.588	331.06
379.968	354.57
380.349	338.97
380.729	317.51
381.109	333.32
381.489	348.47
381.87	323.61
382.25	350.95
382.63	345.98
383.01	335.36
383.39	322.03
383.77	370.16
384.15	339.88
384.53	350.5
384.91	340.1
385.29	344.17
385.67	346.88
386.049	368.13
386.429	345.3
386.809	341.46
387.189	357.73
387.568	363.61
387.948	340.78
388.328	376.49
388.707	343.49
389.087	368.35
389.466	374.68
389.846	378.75
390.225	364.51
390.605	367.9
390.984	360.44
391.363	385.98
391.743	356.6
392.122	378.52
392.501	370.61
392.881	382.81
393.26	360.44
393.639	367.67
394.018	376.94
394.397	396.37
394.776	387.11
395.155	394.57
395.534	401.8
395.913	392.53
396.292	414.23
396.671	384.4
397.05	373.1
397.429	404.06
397.808	409.93
398.186	399.09
398.565	403.38
398.944	395.02
399.323	401.57
399.701	417.39
400.08	407.22
400.458	414
400.837	416.71
401.215	439.31
401.594	427.11
401.972	417.84
402.351	430.72
402.729	423.27
403.107	455.58
403.486	446.09
403.864	437.05
404.242	432.08
404.62	430.95
404.999	450.84
405.377	479.08
405.755	469.82
406.133	453.1
406.511	457.16
406.889	461.23
407.267	478.18
407.645	476.6
408.023	484.06
408.401	495.81
408.779	503.72
409.156	501.91
409.534	513.88
409.912	521.12
410.29	540.32
410.667	520.66
411.045	542.13
411.422	529.03
411.8	553.66
412.178	571.96
412.555	592.98
412.933	569.7
413.31	597.27
413.687	603.37
414.065	604.73
414.442	600.66
414.819	591.85
415.197	624.16
415.574	627.55
415.951	650.38
416.328	656.93
416.705	635.01
417.082	663.03
417.46	680.43
417.837	674.33
418.214	689.47
418.591	710.04
418.967	712.75
419.344	712.98
419.721	714.11
420.098	704.16
420.475	738.96
420.852	751.39
421.228	773.99
421.605	761.56
421.982	772.86
422.358	794.78
422.735	801.56
423.111	831.84
423.488	832.07
423.864	866.19
424.241	867.1
424.617	874.33
424.994	913.65
425.37	928.79
425.746	914.78
426.123	921.11
426.499	949.35
426.875	961.56
427.251	959.07
427.627	951.84
428.003	987.54
428.379	1002.91
428.756	1000.43
429.132	1049.69
429.507	1034.78
429.883	1056.24
430.259	1074.1
430.635	1074.77
431.011	1081.78
431.387	1113.42
431.763	1129.69
432.138	1109.12
432.514	1125.85
432.89	1164.94
433.265	1187.77
433.641	1216.47
434.016	1220.08
434.392	1243.13
434.767	1271.15
435.143	1288.78
435.518	1312.06
435.894	1347.54
436.269	1374.2
436.644	1358.16
437.02	1405.39
437.395	1409
437.77	1448.32
438.145	1469.11
438.52	1494.65
438.895	1489.45
439.271	1535.55
439.646	1611.71
440.021	1590.69
440.395	1620.07
440.77	1585.27
441.145	1649.22
441.52	1651.93
441.895	1653.06
442.27	1686.74
442.645	1700.52
443.019	1726.96
443.394	1733.29
443.769	1757.92
444.143	1735.1
444.518	1811.93
444.892	1788.88
445.267	1822.32
445.641	1843.57
446.016	1853.74
446.39	1888.76
446.764	1885.83
447.139	1847.64
447.513	1907.75
447.887	1907.29
448.262	1949.33
448.636	1967.41
449.01	1983
449.384	1987.52
449.758	1991.59
450.132	2039.72
450.506	2055.54
450.88	2048.08
451.254	2055.31
451.628	2150.45
452.002	2127.85
452.376	2126.05
452.75	2175.31
453.123	2189.09
453.497	2216.89
453.871	2243.1
454.244	2283.56
454.618	2313.16
454.992	2333.72
455.365	2364.91
455.739	2419.82
456.112	2388.41
456.486	2445.13
456.859	2490.78
457.232	2463.89
457.606	2525.36
457.979	2533.94
458.352	2589.99
458.725	2627.5
459.099	2621.85
459.472	2726.03
459.845	2677.9
460.218	2755.41
460.591	2770.77
460.964	2785.92
461.337	2848.06
461.71	2878.57
462.083	2921.51
462.456	2929.19
462.829	2907.49
463.201	2987.27
463.574	3030.43
463.947	3096.42
464.32	3146.58
464.692	3157.21
465.065	3189.07
465.438	3185
465.81	3276.07
466.183	3315.39
466.555	3409.63
466.928	3399.68
467.3	3424.32
467.672	3479.68
468.045	3561.26
468.417	3542.28
468.789	3648.72
469.161	3650.53
469.534	3709.73
469.906	3793.12
470.278	3835.38
470.65	3884.87
471.022	3931.2
471.394	4022.72
471.766	4078.99
472.138	4105.2
472.51	4202.15
472.882	4240.57
473.253	4308.14
473.625	4363.28
473.997	4431.97
474.369	4478.3
474.74	4544.97
475.112	4640.1
475.484	4735.69
475.855	4807.11
476.227	4855.69
476.598	4926.88
476.97	5007.33
477.341	5104.27
477.713	5190.15
478.084	5242.57
478.455	5394.21
478.827	5471.72
479.198	5636.24
479.569	5629
479.94	5706.74
480.311	5867.87
480.682	5921.65
481.053	6027.19
481.424	6212.72
481.795	6267.18
482.166	6350.34
482.537	6423.11
482.908	6562.09
483.279	6645.02
483.65	6766.6
484.021	6894.28
484.391	6934.96
484.762	7039.81
485.133	7092.69
485.503	7190.77
485.874	7349.19
486.244	7365.91
486.615	7563.42
486.985	7623.3
487.356	7761.6
487.726	7824.2
488.097	7999.34
488.467	8018.55
488.837	8206.11
489.207	8287.24
489.578	8453.11
489.948	8473.68
490.318	8614.01
490.688	8608.81
491.058	8708.25
491.428	8850.84
491.798	8963.83
492.168	9038.86
492.538	9130.38
492.908	9170.61
493.278	9319.53
493.648	9386.42
494.017	9441.33
494.387	9511.84
494.757	9568.34
495.126	9665.06
495.496	9688.56
495.866	9780.99
496.235	9882.68
496.605	9941.21
496.974	9989.34
497.344	10083.35
497.713	10118.38
498.082	10164.25
498.452	10301.2
498.821	10254.87
499.19	10346.39
499.559	10356.34
499.928	10458.71
500.298	10512.49
500.667	10549.55
501.036	10524.7
501.405	10645.6
501.774	10616.9
502.143	10709.77
502.512	10670.68
502.88	10849.21
503.249	10787.06
503.618	10810.11
503.987	10870.45
504.356	10927.85
504.724	10848.98
505.093	10944.8
505.462	10969.66
505.83	11031.57
506.199	11121.06
506.567	11178.46
506.936	11143.66
507.304	11310.44
507.672	11225.92
508.041	11222.3
508.409	11259.59
508.777	11363.09
509.145	11368.29
509.514	11461.62
509.882	11469.08
510.25	11422.3
510.618	11469.3
510.986	11459.59
511.354	11560.83
511.722	11570.09
512.09	11691.44
512.458	11571
512.826	11686.47
513.193	11716.08
513.561	11679.01
513.929	11762.85
514.297	11787.26
514.664	11827.03
515.032	11839.24
515.4	11873.59
515.767	11784.55
516.135	11763.31
516.502	11753.59
516.869	11935.28
517.237	11954.49
517.604	11904.32
517.972	11923.53
518.339	11964.21
518.706	11885.79
519.073	11809.86
519.44	11875.17
519.808	12001.49
520.175	11900.7
520.542	12038.33
520.909	11980.02
521.276	11987.26
521.643	12070.64
522.009	12029.97
522.376	12083.98
522.743	12098.44
523.11	12118.1
523.477	12053.47
523.843	12164.2
524.21	12193.13
524.577	12224.09
524.943	12190.64
525.31	12159.68
525.676	12259.79
526.043	12263.18
526.409	12230.86
526.776	12246.01
527.142	12295.04
527.508	12265.44
527.874	12177.76
528.241	12248.27
528.607	12326.46
528.973	12201.94
529.339	12234.93
529.705	12202.39
530.071	12206.46
530.437	12169.17
530.803	12182.96
531.169	12207.14
531.535	12055.5
531.901	12038.78
532.267	12047.59
532.632	12032.9
532.998	12008.5
533.364	12023.19
533.73	11922.85
534.095	11987.26
534.461	11978.22
534.826	11935.73
535.192	11872.46
535.557	11892.34
535.923	11830.65
536.288	11797.43
536.653	11714.49
537.019	11660.03
537.384	11607.6
537.749	11636.98
538.114	11488.51
538.479	11534.84
538.845	11581.16
539.21	11443.99
539.575	11467.95
539.94	11379.14
540.305	11377.78
540.67	11261.17
541.034	11256.65
541.399	11212.36
541.764	11127.17
542.129	11176.66
542.494	11065.25
542.858	10993.38
543.223	10970.56
543.587	10900.5
543.952	10845.14
544.316	10825.03
544.681	10794.52
545.045	10791.81
545.41	10723.79
545.774	10638.59
546.138	10656.67
546.503	10569.67
546.867	10526.95
547.231	10507.07
547.595	10431.82
547.959	10415.09
548.324	10394.98
548.688	10326.73
549.052	10242.44
549.416	10126.74
549.779	10114.76
550.143	10131.26
550.507	10159.51
550.871	10105.5
551.235	10030.47
551.599	9999.06
551.962	9994.77
552.326	9909.8
552.689	9869.35
553.053	9743.92
553.417	9754.77
553.78	9812.17
554.143	9698.28
554.507	9719.07
554.87	9621.89
555.234	9684.72
555.597	9604.72
555.96	9566.98
556.323	9546.42
556.686	9472.07
557.05	9509.35
557.413	9456.7
557.776	9396.36
558.139	9425.29
558.502	9418.28
558.865	9352.3
559.228	9362.92
559.59	9302.81
559.953	9320.43
560.316	9374.67
560.679	9315.91
561.041	9334.9
561.404	9306.87
561.767	9304.84
562.129	9230.94
562.492	9381
562.854	9325.4
563.217	9236.37
563.579	9212.41
563.941	9288.57
564.304	9199.76
564.666	9221.23
565.028	9217.16
565.39	9213.09
565.753	9223.94
566.115	9224.16
566.477	9211.51
566.839	9223.03
567.201	9148.23
567.563	9148.01
567.925	9258.29
568.287	9277.95
568.648	9187.1
569.01	9189.81
569.372	9215.58
569.734	9148.91
570.095	9218.29
570.457	9187.1
570.819	9188.23
571.18	9211.51
571.542	9263.49
571.903	9214
572.265	9238.63
572.626	9216.71
572.987	9239.08
573.349	9218.06
573.71	9145.52
574.071	9246.08
574.432	9199.53
574.794	9249.02
575.155	9218.29
575.516	9221.23
575.877	9230.04
576.238	9187.56
576.599	9274.11
576.96	9134
577.32	9224.62
577.681	9181.45
578.042	9279.76
578.403	9213.32
578.763	9178.52
579.124	9216.93
579.485	9244.5
579.845	9222.81
580.206	9215.58
580.566	9143.04
580.927	9229.81
581.287	9229.36
581.648	9182.81
582.008	9236.14
582.368	9138.74
582.728	9222.36
583.089	9220.32
583.449	9134.22
583.809	9155.92
584.169	9167.22
584.529	9151.4
584.889	9147.56
585.249	9151.4
585.609	9141.45
585.969	9112.75
586.329	9074.11
586.688	9078.41
587.048	9026.66
587.408	9047.45
587.768	9088.57
588.127	9007.67
588.487	8992.08
588.846	9003.83
589.206	8996.15
589.565	8955.7
589.925	9033.43
590.284	8973.1
590.643	8945.53
591.003	8988.69
591.362	8996.37
591.721	8964.28
592.08	8941.91
592.44	8958.86
592.799	8941.91
593.158	8930.84
593.517	8880.67
593.876	8898.3
594.235	8899.65
594.593	8857.85
594.952	8887.68
595.311	8891.07
595.67	8910.27
596.029	8936.71
596.387	8917.51
596.746	8896.72
597.104	8898.52
597.463	8898.07
597.822	8926.09
598.18	8865.3
598.538	8839.32
598.897	8944.85
599.255	8790.5
599.613	8927.45
599.972	8890.84
600.33	8841.35
600.688	8861.01
601.046	8873.21
601.404	8850.84
601.762	8830.28
602.12	8864.85
602.478	8844.74
602.836	8875.92
603.194	8821.91
603.552	8815.59
603.91	8848.35
604.268	8782.37
604.625	8835.02
604.983	8848.81
605.341	8799.77
605.698	8816.49
606.056	8804.06
606.413	8779.88
606.771	8818.07
607.128	8882.7
607.485	8786.66
607.843	8738.53
608.2	8835.25
608.557	8865.76
608.914	8839.54
609.272	8895.13
609.629	8862.14
609.986	8881.8
610.343	8868.24
610.7	8866.66
611.057	8910.5
611.414	8850.16
611.771	8889.71
612.127	8854.68
612.484	8869.82
612.841	8929.93
613.198	8905.75
613.554	8879.31
613.911	8948.92
614.267	8935.36
614.624	8904.85
614.98	8894.68
615.337	8925.87
615.693	8919.54
616.05	8916.83
616.406	8952.98
616.762	8911.18
617.118	8952.76
617.475	8896.94
617.831	8953.66
618.187	8945.08
618.543	8964.74
618.899	9027.79
619.255	8918.18
619.611	8952.98
619.967	8966.32
620.323	8977.62
620.678	8994.11
621.034	8987.79
621.39	8973.32
621.746	8947.11
622.101	9033.21
622.457	9021.91
622.812	9002.7
623.168	8941.69
623.523	8959.54
623.879	9053.32
624.234	8967.9
624.589	8985.75
624.945	8910.27
625.3	8997.73
625.655	8983.72
626.01	9016.26
626.365	9080.44
626.72	8991.4
627.075	8965.41
627.43	8969.26
627.785	9002.7
628.14	8847.9
628.495	8987.79
628.85	8980.78
629.205	8921.12
629.559	8962.02
629.914	8891.29
630.269	8930.16
630.623	8971.97
630.978	8939.65
631.332	8882.48
631.687	8983.72
632.041	8901.46
632.396	8911.4
632.75	8826.21
633.104	8936.26
633.459	8828.02
633.813	8811.29
634.167	8850.84
634.521	8849.94
634.875	8849.71
635.229	8808.36
635.583	8750.05
635.937	8766.78
636.291	8740.56
636.645	8775.59
636.999	8744.18
637.352	8697.17
637.706	8738.3
638.06	8683.16
638.413	8688.13
638.767	8703.5
639.121	8672.54
639.474	8645.65
639.828	8591.64
640.181	8635.25
640.534	8646.78
640.888	8639.77
641.241	8584.41
641.594	8556.16
641.947	8652.43
642.301	8620.11
642.654	8546.22
643.007	8591.86
643.36	8585.99
643.713	8581.7
644.066	8616.27
644.419	8575.82
644.771	8522.26
645.124	8432.32
645.477	8397.29
645.83	8392.55
646.182	8371.31
646.535	8307.58
646.888	8311.87
647.24	8234.36
647.593	8341.25
647.945	8301.48
648.298	8322.27
648.65	8254.47
649.002	8228.26
649.355	8266.68
649.707	8279.56
650.059	8330.63
650.411	8413.34
650.763	8437.74
651.115	8522.49
651.467	8491.3
651.819	8467.57
652.171	8431.64
652.523	8486.78
652.875	8469.38
653.227	8360.46
653.578	8461.25
653.93	8472.55
654.282	8459.21
654.633	8403.17
654.985	8501.02
655.337	8463.28
655.688	8431.42
656.039	8518.87
656.391	8456.27
656.742	8449.5
657.094	8456.73
657.445	8437.07
657.796	8451.98
658.147	8469.16
658.498	8497.4
658.849	8431.19
659.2	8506.22
659.551	8463.05
659.902	8456.27
660.253	8491.98
660.604	8535.37
660.955	8473.68
661.306	8538.76
661.656	8473.45
662.007	8493.11
662.358	8467.35
662.708	8533.56
663.059	8514.13
663.409	8463.73
663.76	8526.56
664.11	8527.91
664.461	8517.29
664.811	8562.26
665.161	8520.68
665.511	8535.14
665.862	8473.68
666.212	8572.2
666.562	8500.57
666.912	8529.49
667.262	8527.23
667.612	8457.4
667.962	8558.19
668.312	8469.83
668.662	8543.73
669.011	8498.99
669.361	8519.55
669.711	8554.8
670.06	8499.66
670.41	8478.87
670.76	8519.32
671.109	8489.27
671.459	8437.07
671.808	8486.33
672.157	8456.5
672.507	8463.51
672.856	8404.75
673.205	8434.35
673.554	8449.04
673.904	8491.08
674.253	8447.91
674.602	8397.29
674.951	8348.93
675.3	8286.11
675.649	8391.42
675.998	8374.02
676.346	8350.97
676.695	8406.11
677.044	8308.93
677.393	8351.64
677.741	8353.9
678.09	8326.11
678.438	8330.85
678.787	8332.44
679.135	8379.67
679.484	8229.39
679.832	8258.54
680.181	8259.9
680.529	8286.11
680.877	8222.16
681.225	8240.24
681.573	8229.39
681.922	8135.83
682.27	8150.97
682.618	8205.66
682.966	8174.25
683.314	8140.8
683.661	8189.84
684.009	8097.19
684.357	8060.58
684.705	8065.32
685.053	8106.68
685.4	8080.01
685.748	8025.55
686.095	8031.88
686.443	7960.69
686.79	7936.74
687.138	8018.55
687.485	7967.93
687.832	7966.34
688.18	7929.96
688.527	7900.13
688.874	7867.14
689.221	7900.58
689.568	7761.15
689.915	7788.95
690.262	7753.69
690.609	7849.29
690.956	7737.42
691.303	7669.4
691.65	7647.48
691.997	7731.1
692.344	7617.65
692.69	7569.52
693.037	7617.88
693.383	7490.88
693.73	7593.25
694.077	7501.27
694.423	7508.28
694.769	7543.08
695.116	7460.59
695.462	7429.18
695.808	7400.48
696.155	7332.69
696.501	7364.1
696.847	7321.84
697.193	7280.03
697.539	7306.47
697.885	7217.44
698.231	7193.03
698.577	7207.95
698.923	7152.13
699.269	7146.7
699.614	7106.25
699.96	7047.72
700.306	7074.84
700.651	7004.79
700.997	6961.4
701.342	6948.74
701.688	6926.37
702.033	6889.99
702.379	6856.32
702.724	6953.04
703.069	6921.85
703.415	6816.77
703.76	6800.27
704.105	6846.83
704.45	6754.62
704.795	6725.02
705.14	6705.59
705.485	6692.71
705.83	6645.02
706.175	6675.53
706.52	6670.79
706.865	6556.44
707.209	6614.97
707.554	6571.13
707.899	6599.15
708.243	6504.91
708.588	6544.91
708.932	6482.99
709.277	6461.53
709.621	6497.91
709.966	6481.86
710.31	6448.19
710.654	6332.26
710.998	6415.88
711.342	6429.66
711.687	6399.38
712.031	6329.55
712.375	6341.75
712.719	6340.4
713.063	6354.18
713.407	6321.64
713.75	6301.08
714.094	6314.18
714.438	6279.61
714.782	6253.39
715.125	6179.95
715.469	6258.59
715.812	6217.01
716.156	6211.36
716.499	6182.44
716.843	6217.69
717.186	6121.42
717.53	6206.62
717.873	6194.87
718.216	6134.3
718.559	6130.46
718.902	6114.64
719.246	6129.78
719.589	6078.03
719.932	6080.52
720.275	6127.52
720.617	6075.55
720.96	6043.91
721.303	6105.6
721.646	6086.85
721.989	6026.96
722.331	6089.56
722.674	6054.08
723.016	6080.52
723.359	5973.85
723.701	6049.33
724.044	6001.42
724.386	6004.59
724.729	6030.12
725.071	5986.06
725.413	5940.86
725.755	5999.62
726.097	5994.64
726.439	5940.86
726.782	5999.84
727.124	6003.91
727.465	5949.9
727.807	5998.94
728.149	5994.19
728.491	5980.86
728.833	6002.33
729.175	5941.54
729.516	5966.17
729.858	5970.24
730.199	5971.14
730.541	5978.83
730.882	6001.65
731.224	5965.27
731.565	5969.11
731.906	5930.24
732.248	5952.16
732.589	5935.21
732.93	5976.34
733.271	5924.59
733.612	5947.41
733.953	5951.03
734.294	5942.67
734.635	5891.6
734.976	5999.84
735.317	5899.96
735.658	5934.53
735.999	5929.11
736.339	5994.64
736.68	5953.52
737.021	5949.9
737.361	5979.05
737.702	5997.36
738.042	6010.69
738.383	5992.84
738.723	5994.87
739.063	6032.61
739.404	6008.43
739.744	6019.28
740.084	6055.43
740.424	6056.34
740.764	6106.05
741.104	6085.72
741.444	6051.82
741.784	6075.77
742.124	6125.71
742.464	6134.08
742.804	6163.68
743.143	6175.2
743.483	6168.65
743.823	6220.63
744.162	6221.31
744.502	6299.04
744.841	6279.83
745.181	6324.35
745.52	6352.15
745.86	6336.78
746.199	6418.59
746.538	6442.54
746.877	6497.68
747.216	6538.13
747.556	6594.85
747.895	6605.93
748.234	6616.32
748.573	6715.3
748.911	6701.29
749.25	6864.9
749.589	6843.44
749.928	6854.96
750.267	6945.13
750.605	7041.85
750.944	7141.73
751.283	7122.98
751.621	7242.3
751.96	7299.02
752.298	7406.81
752.636	7514.38
752.975	7588.28
753.313	7735.84
753.651	7826.91
753.989	7867.36
754.327	7954.59
754.666	8081.37
755.004	8196.85
755.342	8390.06
755.679	8421.47
756.017	8624.63
756.355	8744.63
756.693	8904.62
757.031	9063.49
757.368	9089.93
757.706	9314.33
758.044	9350.26
758.381	9569.24
758.719	9705.28
759.056	9897.82
759.394	10035.44
759.731	10187.3
760.068	10341.87
760.405	10438.14
760.743	10647.86
761.08	10853.73
761.417	11045.81
761.754	11176.2
762.091	11395.41
762.428	11585.68
762.765	11591.33
763.102	11841.27
763.438	11946.58
763.775	12179.79
764.112	12415.04
764.449	12655.03
764.785	12765.31
765.122	12868.14
765.458	13014.57
765.795	13237.84
766.131	13448.23
