Data from hue_310_FLMS001491_84.txt Node
Date: Mon Feb 06 15:50:19 GMT 2017
User: dcchb
Spectrometer: FLMS00149
Trigger mode: 0
Integration Time (sec): 2.000000E-2
Scans to average: 10
Electric dark correction enabled: true
Nonlinearity correction enabled: false
Boxcar width: 0
XAxis mode: Wavelengths
Number of Pixels in Spectrum: 2048
>>>>>Begin Spectral Data<<<<<
341.393	-15.52
341.776	-15.52
342.16	-15.52
342.543	-64.11
342.927	-57.33
343.31	-63.43
343.693	-58.46
344.077	-86.48
344.46	-53.26
344.843	-55.3
345.226	-43.32
345.61	-27.05
345.993	-4.45
346.376	2.78
346.759	0.3
347.142	35.1
347.525	43.46
347.908	65.38
348.291	60.63
348.674	73.74
349.057	110.35
349.44	145.15
349.823	141.99
350.206	158.94
350.588	183.34
350.971	206.62
351.354	213.62
351.737	223.79
352.119	245.94
352.502	241.87
352.884	272.61
353.267	269.22
353.65	285.71
354.032	290.91
354.414	307.86
354.797	283.68
355.179	294.75
355.562	325.49
355.944	331.14
356.326	321.19
356.709	327.29
357.091	314.41
357.473	363.45
357.855	336.56
358.238	343.79
358.62	342.66
359.002	344.02
359.384	316.67
359.766	343.79
360.148	325.49
360.53	306.28
360.912	339.95
361.294	337.01
361.676	341.76
362.057	318.48
362.439	339.04
362.821	330.91
363.203	330.01
363.584	322.77
363.966	313.06
364.348	332.49
364.729	322.32
365.111	306.28
365.493	320.74
365.874	321.42
366.256	327.75
366.637	304.92
367.019	310.8
367.4	328.65
367.781	305.83
368.163	297.46
368.544	304.02
368.925	312.15
369.306	310.12
369.688	296.11
370.069	315.99
370.45	318.71
370.831	311.47
371.212	292.27
371.593	319.61
371.974	322.55
372.355	312.83
372.736	327.29
373.117	302.21
373.498	307.63
373.879	308.09
374.26	303.57
374.641	311.47
375.021	303.57
375.402	318.25
375.783	313.06
376.163	315.77
376.544	297.46
376.925	334.53
377.305	342.89
377.686	329.33
378.066	306.96
378.447	312.38
378.827	321.64
379.208	350.57
379.588	335.88
379.968	323
380.349	305.6
380.729	337.24
381.109	331.59
381.489	331.59
381.87	341.3
382.25	339.5
382.63	350.57
383.01	345.37
383.39	332.94
383.77	361.64
384.15	326.84
384.53	337.46
384.91	354.64
385.29	338.14
385.67	339.27
386.049	341.3
386.429	363.22
386.809	363
387.189	351.02
387.568	360.74
387.948	369.1
388.328	371.36
388.707	381.53
389.087	334.3
389.466	354.19
389.846	364.81
390.225	376.33
390.605	369.33
390.984	330.68
391.363	377.69
391.743	379.72
392.122	355.77
392.501	376.33
392.881	393.96
393.26	377.46
393.639	378.14
394.018	373.17
394.397	382.89
394.776	384.24
395.155	399.61
395.534	405.03
395.913	385.15
396.292	393.28
396.671	398.48
397.05	398.48
397.429	388.08
397.808	382.21
398.186	399.38
398.565	393.96
398.944	405.03
399.323	390.57
399.701	394.86
400.08	407.52
400.458	414.07
400.837	403.9
401.215	418.14
401.594	435.09
401.972	403.45
402.351	422.43
402.729	449.1
403.107	438.48
403.486	438.93
403.864	417.46
404.242	434.18
404.62	440.51
404.999	444.8
405.377	428.99
405.755	457.46
406.133	457.69
406.511	473.96
406.889	469.44
407.267	464.24
407.645	472.83
408.023	473.96
408.401	472.83
408.779	484.8
409.156	507.85
409.534	498.59
409.912	492.26
410.29	506.05
410.667	513.96
411.045	525.48
411.422	528.87
411.8	540.62
412.178	535.88
412.555	559.15
412.933	560.96
413.31	573.16
413.687	541.07
414.065	563.22
414.442	584.91
414.819	605.7
415.197	612.03
415.574	612.03
415.951	607.51
416.328	601.86
416.705	662.88
417.082	632.82
417.46	634.86
417.837	651.13
418.214	675.76
418.591	673.73
418.967	671.47
419.344	679.37
419.721	683.89
420.098	686.83
420.475	715.76
420.852	724.35
421.228	732.03
421.605	727.28
421.982	731.12
422.358	765.02
422.735	766.38
423.111	737.9
423.488	779.94
423.864	800.28
424.241	787.17
424.617	801.41
424.994	794.63
425.37	840.95
425.746	836.43
426.123	852.25
426.499	868.97
426.875	830.11
427.251	863.55
427.627	864
428.003	891.35
428.379	876.21
428.756	885.47
429.132	913.04
429.507	929.09
429.883	903.55
430.259	946.26
430.635	952.14
431.011	958.24
431.387	963.89
431.763	990.55
432.138	997.33
432.514	1026.26
432.89	1026.94
433.265	1048.18
433.641	1053.83
434.016	1073.04
434.392	1063.55
434.767	1075.52
435.143	1092.25
435.518	1087.27
435.894	1119.82
436.269	1126.82
436.644	1145.58
437.02	1152.58
437.395	1123.88
437.77	1165.01
438.145	1171.34
438.52	1190.55
438.895	1218.8
439.271	1236.87
439.646	1238.23
440.021	1237.33
440.395	1220.38
440.77	1226.48
441.145	1256.99
441.52	1247.95
441.895	1273.03
442.27	1292.47
442.645	1270.32
443.019	1287.95
443.394	1320.71
443.769	1286.82
444.143	1294.27
444.518	1313.93
444.892	1313.26
445.267	1321.17
445.641	1314.84
446.016	1354.39
446.39	1319.36
446.764	1339.24
447.139	1346.25
447.513	1361.62
447.887	1346.93
448.262	1356.65
448.636	1359.58
449.01	1365.68
449.384	1387.15
449.758	1390.54
450.132	1401.84
450.506	1398.45
450.88	1403.42
451.254	1403.2
451.628	1409.3
452.002	1463.99
452.376	1426.25
452.75	1460.6
453.123	1445
453.497	1474.38
453.871	1469.64
454.244	1513.48
454.618	1519.35
454.992	1522.52
455.365	1499.01
455.739	1553.02
456.112	1556.87
456.486	1572.68
456.859	1580.59
457.232	1582.85
457.606	1590.09
457.979	1593.25
458.352	1602.06
458.725	1653.13
459.099	1618.11
459.472	1654.94
459.845	1695.62
460.218	1669.86
460.591	1694.26
460.964	1722.06
461.337	1682.51
461.71	1736.52
462.083	1759.35
462.456	1761.83
462.829	1757.31
463.201	1773.81
463.574	1789.18
463.947	1808.38
464.32	1841.6
464.692	1854.26
465.065	1866.91
465.438	1880.25
465.81	1912.79
466.183	1920.25
466.555	1927.7
466.928	1943.52
467.3	1962.73
467.672	1952.34
468.045	2000.24
468.417	2005.44
468.789	2016.51
469.161	2013.13
469.534	2059
469.906	2078.21
470.278	2110.75
470.65	2098.09
471.022	2164.31
471.394	2186.45
471.766	2165.44
472.138	2211.31
472.51	2220.8
472.882	2219.9
473.253	2258.99
473.625	2292.89
473.997	2346.22
474.369	2319.78
474.74	2319.33
475.112	2391.19
475.484	2407.01
475.855	2442.49
476.227	2488.59
476.598	2502.6
476.97	2486.11
477.341	2564.97
477.713	2588.48
478.084	2570.85
478.455	2633
478.827	2655.82
479.198	2705.08
479.569	2729.04
479.94	2750.05
480.311	2805.19
480.682	2832.76
481.053	2850.62
481.424	2892.2
481.795	2951.86
482.166	2940.11
482.537	2986.21
482.908	3034.57
483.279	3031.4
483.65	3078.63
484.021	3125.86
484.391	3110.05
484.762	3177.39
485.133	3158.41
485.503	3174.45
485.874	3253.54
486.244	3294
486.615	3342.36
486.985	3352.98
487.356	3434.33
487.726	3439.98
488.097	3501
488.467	3437.27
488.837	3543.48
489.207	3565.63
489.578	3588.68
489.948	3600.43
490.318	3637.72
490.688	3708.67
491.058	3745.73
491.428	3737.15
491.798	3782.57
492.168	3840.65
492.538	3872.74
492.908	3847.2
493.278	3972.62
493.648	3929.01
494.017	3968.78
494.387	3985.28
494.757	3981.89
495.126	4028.67
495.496	4050.13
495.866	4076.12
496.235	4061.43
496.605	4132.84
496.974	4144.37
497.344	4246.51
497.713	4230.69
498.082	4203.12
498.452	4233.18
498.821	4265.72
499.19	4285.61
499.559	4297.13
499.928	4323.57
500.298	4332.84
500.667	4381.65
501.036	4344.59
501.405	4396.11
501.774	4419.84
502.143	4462.1
502.512	4513.62
502.88	4499.61
503.249	4469.56
503.618	4491.7
503.987	4502.55
504.356	4544.13
504.724	4570.57
505.093	4580.52
505.462	4553.17
505.83	4620.51
506.199	4666.84
506.567	4676.56
506.936	4659.84
507.304	4683.79
507.672	4711.36
508.041	4743.22
508.409	4759.72
508.777	4775.76
509.145	4812.15
509.514	4747.74
509.882	4830.68
510.25	4844.46
510.618	4845.37
510.986	4802.2
511.354	4874.52
511.722	4878.59
512.09	4965.82
512.458	4950.22
512.826	4994.29
513.193	4997.91
513.561	4997.23
513.929	5012.37
514.297	5020.28
514.664	5053.72
515.032	5052.37
515.4	5165.13
515.767	5090.78
516.135	5166.94
516.502	5089.88
516.869	5188.18
517.237	5156.09
517.604	5125.36
517.972	5186.83
518.339	5216.2
518.706	5192.93
519.073	5203.78
519.44	5216.2
519.808	5285.36
520.175	5285.58
520.542	5336.43
520.909	5317.67
521.276	5345.69
521.643	5341.17
522.009	5339.82
522.376	5459.81
522.743	5446.93
523.11	5458.01
523.477	5552.47
523.843	5539.59
524.21	5599.47
524.577	5583.65
524.943	5627.49
525.31	5636.76
525.676	5626.14
526.043	5737.55
526.409	5708.62
526.776	5758.56
527.142	5745
527.508	5765.57
527.874	5772.57
528.241	5846.92
528.607	5868.62
528.973	5922.17
529.339	5934.15
529.705	5953.81
530.071	6015.05
530.437	6028.84
530.803	6042.62
531.169	6095.73
531.535	6124.43
531.901	6103.64
532.267	6143.41
532.632	6187.7
532.998	6184.31
533.364	6192.45
533.73	6260.02
534.095	6306.35
534.461	6289.4
534.826	6344.08
535.192	6378.21
535.557	6404.65
535.923	6419.56
536.288	6378.66
536.653	6480.13
537.019	6441.26
537.384	6468.38
537.749	6537.3
538.114	6530.07
538.479	6567.13
538.845	6596.51
539.21	6633.57
539.575	6649.39
539.94	6644.19
540.305	6730.29
540.67	6730.97
541.034	6751.53
541.399	6758.76
541.764	6754.47
542.129	6824.07
542.494	6851.42
542.858	6881.92
543.223	6909.95
543.587	6933.45
543.952	6984.97
544.316	6948.81
544.681	6905.88
545.045	7053.22
545.41	7148.36
545.774	7086.89
546.138	7161.01
546.503	7179.09
546.867	7180.67
547.231	7249.37
547.595	7259.31
547.959	7270.84
548.324	7207.34
548.688	7297.96
549.052	7271.29
549.416	7315.81
549.779	7354.23
550.143	7370.27
550.507	7413.44
550.871	7472.64
551.235	7450.95
551.599	7483.72
551.962	7521
552.326	7563.49
552.689	7640.32
553.053	7596.48
553.417	7594.45
553.78	7674.45
554.143	7595.35
554.507	7686.42
554.87	7598.51
555.234	7755.8
555.597	7672.64
555.96	7741.79
556.323	7754.67
556.686	7805.52
557.05	7835.12
557.413	7851.84
557.776	7843.48
558.139	7929.58
558.502	7953.99
558.865	7943.14
559.228	7999.86
559.59	7993.98
559.953	8000.99
560.316	8055.23
560.679	8115.56
561.041	8061.1
561.404	8169.35
561.767	8266.07
562.129	8164.83
562.492	8256.12
562.854	8286.63
563.217	8244.15
563.579	8272.85
563.941	8273.98
564.304	8341.09
564.666	8388.32
565.028	8470.81
565.39	8372.51
565.753	8429.45
566.115	8474.2
566.477	8556
566.839	8526.4
567.201	8606.4
567.563	8643.01
567.925	8675.77
568.287	8680.97
568.648	8677.58
569.01	8740.41
569.372	8803.45
569.734	8731.37
570.095	8821.53
570.457	8897.24
570.819	8904.24
571.18	8955.32
571.542	8980.4
571.903	9010.23
572.265	9080.06
572.626	9114.41
572.987	9199.38
573.349	9145.59
573.71	9241.64
574.071	9290.67
574.432	9362.31
574.794	9371.58
575.155	9523.44
575.516	9527.5
575.877	9617.9
576.238	9643.88
576.599	9793.26
576.96	9773.6
577.32	9849.98
577.681	9958
578.042	10104.66
578.403	10167.94
578.763	10222.63
579.124	10353.02
579.485	10546.91
579.845	10609.51
580.206	10715.04
580.566	10821.48
580.927	10943.51
581.287	11107.35
581.648	11145.54
582.008	11383.5
582.368	11531.52
582.728	11621.01
583.089	11861.68
583.449	12001.11
583.809	12183.03
584.169	12307.54
584.529	12457.82
584.889	12821.88
585.249	12931.03
585.609	13105.26
585.969	13376.44
586.329	13550
586.688	13844.23
587.048	14067.05
587.408	14138.91
587.768	14503.87
588.127	14768.27
588.487	14940.69
588.846	15366.22
589.206	15529.83
589.565	15796.49
589.925	16053.43
590.284	16248.68
590.643	16650.25
591.003	16846.86
591.362	17167.75
591.721	17448.65
592.08	17763.67
592.44	18099.93
592.799	18414.05
593.158	18682.52
593.517	18916.64
593.876	19291.54
594.235	19506.45
594.593	19803.62
594.952	20210.39
595.311	20480.21
595.67	20851.5
596.029	21253.3
596.387	21526.51
596.746	21867.74
597.104	22131.69
597.463	22355.64
597.822	22755.18
598.18	22891.67
598.538	23292.79
598.897	23758.99
599.255	23752.21
599.613	24497.51
599.972	24590.61
600.33	24986.08
600.688	25113.31
601.046	25654.76
601.404	25969.78
601.762	26132.26
602.12	26596.66
602.478	26908.29
602.836	27104.22
603.194	27225.57
603.552	27596.63
603.91	27724.99
604.268	28172.66
604.625	28389.83
604.983	28797.51
605.341	28852.19
605.698	29318.62
606.056	29522.46
606.413	29811.72
606.771	30123.8
607.128	30391.81
607.485	30394.3
607.843	30737.57
608.2	31095.98
608.557	31366.93
608.914	31588.84
609.272	31899.8
609.629	32076.97
609.986	32409.39
610.343	32551.98
610.7	32947.45
611.057	32997.17
611.414	33208.91
611.771	33370.49
612.127	33676.02
612.484	33941.55
612.841	34154.88
613.198	34165.5
613.554	34413.4
613.911	34769.1
614.267	34984.24
614.624	35020.17
614.98	35284.11
615.337	35527.95
615.693	35571.79
616.05	35624.67
616.406	35979.92
616.762	36037.54
617.118	36285.22
617.475	36239.8
617.831	36603.85
618.187	36788.48
618.543	36960.23
618.899	37306.21
619.255	37276.38
619.611	37385.53
619.967	37544.62
620.323	37784.61
620.678	37734.67
621.034	37863.71
621.39	37818.51
621.746	37949.58
622.101	38432.05
622.457	38124.27
622.812	38516.12
623.168	38524.03
623.523	38596.12
623.879	38770.58
624.234	38736.91
624.589	39011.93
624.945	39028.2
625.3	39222.77
625.655	39235.88
626.01	39266.38
626.365	39301.86
626.72	39526.94
627.075	39523.1
627.43	39481.29
627.785	39485.13
628.14	39595.41
628.495	39717.9
628.85	39785.01
629.205	39842.86
629.559	40114.72
629.914	39825.46
630.269	39925.35
630.623	39936.65
630.978	39997.66
631.332	40141.16
631.687	40208.5
632.041	40043.54
632.396	40221.16
632.75	40081.95
633.104	40272.23
633.459	40142.74
633.813	40251.89
634.167	40152.01
634.521	40197.66
634.875	40266.36
635.229	40269.07
635.583	40084.44
635.937	40114.5
636.291	40298.67
636.645	40245.79
636.999	40217.32
637.352	40359.91
637.706	40173.93
638.06	40209.18
638.413	40403.3
638.767	40269.97
639.121	40201.05
639.474	40055.06
639.828	40111.56
640.181	40101.84
640.534	40246.47
640.888	40018.23
641.241	39988.17
641.594	40163.31
641.947	40292.57
642.301	40127.38
642.654	40197.66
643.007	40138.9
643.36	40093.48
643.713	40123.54
644.066	40198.79
644.419	39902.52
644.771	39807.84
645.124	39397
645.477	39340.28
645.83	39060.06
646.182	39056.9
646.535	38936.9
646.888	38863.46
647.24	38773.74
647.593	39062.55
647.945	38838.37
648.298	38801.76
648.65	38702.78
649.002	38813.97
649.355	38877.01
649.707	38635.66
650.059	38971.02
650.411	39423.44
650.763	39322.2
651.115	39841.96
651.467	39608.29
651.819	39684.9
652.171	39651.91
652.523	39545.25
652.875	39517
653.227	39398.58
653.578	39688.52
653.93	39526.71
654.282	39501.86
654.633	39415.76
654.985	39340.96
655.337	39476.77
655.688	39374.85
656.039	39615.07
656.391	39333.05
656.742	39321.3
657.094	39388.41
657.445	39434.06
657.796	39323.78
658.147	39270.22
658.498	39386.38
658.849	39328.53
659.2	39338.02
659.551	39306.16
659.902	39412.82
660.253	39234.29
660.604	39407.4
660.955	39085.14
661.306	39451.91
661.656	39279.49
662.007	39323.33
662.358	39173.28
662.708	39175.76
663.059	39204.92
663.409	39011.02
663.76	39289.88
664.11	39284.69
664.461	39201.3
664.811	39260.96
665.161	39270
665.511	39138.48
665.862	39265.03
666.212	39219.83
666.562	39265.03
666.912	39088.99
667.262	39137.12
667.612	39250.56
667.962	39183.67
668.312	39112.94
668.662	39219.15
669.011	39102.32
669.361	39011.7
669.711	38995.43
670.06	39001.08
670.41	38913.4
670.76	38886.05
671.109	39224.12
671.459	38962.66
671.808	38812.16
672.157	39041.08
672.507	38740.52
672.856	38940.97
673.205	38815.55
673.554	39001.31
673.904	38809.67
674.253	38992.72
674.602	38828.88
674.951	38396.58
675.3	38112.29
675.649	38686.51
675.998	38627.3
676.346	38712.27
676.695	38827.75
677.044	38583.24
677.393	38666.4
677.741	38745.04
678.09	38608.32
678.438	38524.93
678.787	38615.55
679.135	38489.23
679.484	38393.64
679.832	38440.87
680.181	38231.83
680.529	38432.28
680.877	38273.64
681.225	38209.91
681.573	38476.35
681.922	38185.06
682.27	38086.3
682.618	38112.29
682.966	37898.06
683.314	38096.02
683.661	37937.15
684.009	37661.45
684.357	37811.51
684.705	37732.41
685.053	37795.24
685.4	37719.08
685.748	37526.77
686.095	37529.25
686.443	37419.2
686.79	37357.73
687.138	37434.11
687.485	37430.05
687.832	37153.9
688.18	37326.55
688.527	37084.52
688.874	37090.17
689.221	36868.71
689.568	36990.06
689.915	36886.33
690.262	36950.06
690.609	36756.39
690.956	36517.08
691.303	36523.86
691.65	36307.36
691.997	36366.12
692.344	36156.18
692.69	36195.5
693.037	36236.41
693.383	35807.72
693.73	36153.24
694.077	35805.68
694.423	35942.4
694.769	35740.6
695.116	35677.1
695.462	35611.56
695.808	35549.19
696.155	35525.46
696.501	35332.7
696.847	35311.01
697.193	35081.41
697.539	35200.73
697.885	34970.68
698.231	34743.79
698.577	34718.03
698.923	34831.02
699.269	34612.04
699.614	34399.39
699.96	34458.37
700.306	34420.86
700.651	34360.52
700.997	34241.2
701.342	34155.1
701.688	34106.52
702.033	33940.65
702.379	33922.57
702.724	33896.13
703.069	33923.92
703.415	33520.55
703.76	33564.39
704.105	33615.68
704.45	33461.56
704.795	33322.13
705.14	33133.89
705.485	33076.94
705.83	33067.9
706.175	33189.03
706.52	32990.16
706.865	32779.77
707.209	32871.75
707.554	32754.01
707.899	32855.48
708.243	32595.15
708.588	32534.36
708.932	32322.61
709.277	32446.45
709.621	32423.85
709.966	32239.67
710.31	32138.43
710.654	31921.27
710.998	32144.76
711.342	31985.9
711.687	31933.02
712.031	31821.61
712.375	31663.19
712.719	31743.19
713.063	31711.55
713.407	31659.8
713.75	31539.81
714.094	31500.49
714.438	31409.41
714.782	31434.95
715.125	31153.15
715.469	31299.59
715.812	31095.07
716.156	31064.79
716.499	31038.58
716.843	31138.91
717.186	30955.64
717.53	31101.63
717.873	30942.53
718.216	30873.16
718.559	30876.77
718.902	30582.77
719.246	30644.46
719.589	30596.1
719.932	30380.06
720.275	30430.23
720.617	30468.42
720.96	30378.03
721.303	30309.56
721.646	30328.54
721.989	30109.79
722.331	30244.93
722.674	30103.23
723.016	30101.65
723.359	29995.44
723.701	30006.06
724.044	29839.29
724.386	29754.09
724.729	29820.76
725.071	29723.58
725.413	29707.76
725.755	29755.67
726.097	29624.6
726.439	29431.39
726.782	29482.46
727.124	29491.95
727.465	29239.98
727.807	29350.49
728.149	29267.1
728.491	29170.38
728.833	29338.28
729.175	29084.05
729.516	29060.55
729.858	29006.99
730.199	29112.07
730.541	29039.08
730.882	29032.75
731.224	29072.53
731.565	28816.04
731.906	28931.06
732.248	28950.5
732.589	28752.53
732.93	28663.72
733.271	28724.51
733.612	28696.04
733.953	28677.73
734.294	28527.23
734.635	28393.45
734.976	28529.94
735.317	28409.49
735.658	28397.06
735.999	28341.7
736.339	28356.61
736.68	28414.46
737.021	28234.58
737.361	28192.1
737.702	28285.65
738.042	28231.64
738.383	28024.87
738.723	28097.41
739.063	28019.22
739.404	28085.43
739.744	27950.75
740.084	27866
740.424	27862.84
740.764	27708.49
741.104	27856.74
741.444	27593.7
741.784	27670.3
742.124	27687.93
742.464	27698.55
742.804	27626.01
743.143	27550.31
743.483	27520.7
743.823	27456.3
744.162	27361.61
744.502	27426.02
744.841	27296.3
745.181	27371.78
745.52	27236.87
745.86	27295.4
746.199	27259.47
746.538	27168.85
746.877	27179.69
747.216	27066.93
747.556	26991.68
747.895	27064.67
748.234	26913.04
748.573	26847.27
748.911	26739.71
749.25	26755.07
749.589	26667.39
749.928	26734.51
750.267	26816.77
750.605	26573.38
750.944	26569.77
751.283	26373.16
751.621	26584.68
751.96	26361.41
752.298	26426.72
752.636	26313.95
752.975	26119.16
753.313	26128.42
753.651	26251.58
753.989	26231.7
754.327	26023.57
754.666	25925.94
755.004	25965.72
755.342	25968.65
755.679	25866.51
756.017	25708.32
756.355	25756
756.693	25745.83
757.031	25637.59
757.368	25574.09
757.706	25482.79
758.044	25350.14
758.381	25464.71
758.719	25308.33
759.056	25246.19
759.394	25224.94
759.731	24960.32
