Data from hue_28_FLMS001491_00083.txt Node
Date: Tue Feb 07 17:17:55 GMT 2017
User: dcchb
Spectrometer: FLMS00149
Trigger mode: 0
Integration Time (sec): 2.000000E-2
Scans to average: 10
Electric dark correction enabled: true
Nonlinearity correction enabled: false
Boxcar width: 0
XAxis mode: Wavelengths
Number of Pixels in Spectrum: 2048
>>>>>Begin Spectral Data<<<<<
341.393	-14.67
341.776	-14.67
342.16	-14.67
342.543	-46.31
342.927	-57.39
343.31	-75.92
343.693	-78.63
344.077	-56.26
344.46	-71.85
344.843	-45.63
345.226	-25.07
345.61	-23.49
345.993	-15.13
346.376	-4.05
346.759	3.4
347.142	21.48
347.525	39.34
347.908	52.44
348.291	64.42
348.674	94.02
349.057	120.91
349.44	127.92
349.823	151.2
350.206	178.09
350.588	224.42
350.971	209.95
351.354	218.31
351.737	250.63
352.119	260.8
352.502	266.67
352.884	274.13
353.267	279.55
353.65	276.84
354.032	297.18
354.414	314.58
354.797	330.4
355.179	336.73
355.562	317.97
355.944	348.25
356.326	327.69
356.709	345.54
357.091	354.13
357.473	357.52
357.855	347.12
358.238	349.84
358.62	356.61
359.002	321.36
359.384	340.57
359.766	336.95
360.148	331.08
360.53	341.25
360.912	338.76
361.294	352.77
361.676	338.99
362.057	330.4
362.439	339.21
362.821	327.69
363.203	332.66
363.584	341.25
363.966	327.24
364.348	319.55
364.729	315.26
365.111	338.76
365.493	323.85
365.874	320.23
366.256	319.55
366.637	316.84
367.019	314.81
367.4	310.74
367.781	330.85
368.163	315.03
368.544	326.33
368.925	329.05
369.306	330.63
369.688	325.66
370.069	313.45
370.45	307.8
370.831	324.75
371.212	326.11
371.593	317.07
371.974	329.95
372.355	317.07
372.736	314.81
373.117	332.66
373.498	329.95
373.879	323.17
374.26	319.78
374.641	311.87
375.021	324.98
375.402	332.89
375.783	333.56
376.163	320.23
376.544	335.82
376.925	330.4
377.305	343.28
377.686	330.4
378.066	333.11
378.447	337.63
378.827	331.3
379.208	347.35
379.588	318.42
379.968	332.66
380.349	343.06
380.729	346.45
381.109	363.62
381.489	331.98
381.87	343.51
382.25	320.01
382.63	330.4
383.01	359.1
383.39	333.79
383.77	365.43
384.15	361.36
384.53	362.49
384.91	343.06
385.29	343.28
385.67	355.94
386.049	346.9
386.429	353.23
386.809	337.63
387.189	349.61
387.568	358.42
387.948	345.32
388.328	352.32
388.707	352.1
389.087	365.43
389.466	349.84
389.846	359.33
390.225	358.42
390.605	366.11
390.984	374.69
391.363	354.81
391.743	381.47
392.122	382.38
392.501	375.82
392.881	356.61
393.26	361.59
393.639	387.57
394.018	379.21
394.397	384.18
394.776	369.04
395.155	394.13
395.534	399.33
395.913	389.16
396.292	388.48
396.671	387.12
397.05	379.89
397.429	393.22
397.808	391.87
398.186	387.57
398.565	394.13
398.944	398.42
399.323	391.64
399.701	383.96
400.08	403.39
400.458	415.6
400.837	393.22
401.215	410.17
401.594	410.17
401.972	411.08
402.351	397.52
402.729	418.31
403.107	414.69
403.486	413.79
403.864	416.27
404.242	422.15
404.62	423.51
404.999	388.48
405.377	414.92
405.755	430.74
406.133	416.27
406.511	427.35
406.889	406.11
407.267	434.8
407.645	446.78
408.023	451.08
408.401	452.66
408.779	438.65
409.156	449.72
409.534	440
409.912	445.88
410.29	462.83
410.667	449.49
411.045	442.71
411.422	463.05
411.8	471.64
412.178	458.76
412.555	457.86
412.933	478.65
413.31	490.85
413.687	475.71
414.065	491.98
414.442	480.91
414.819	494.46
415.197	498.98
415.574	493.79
415.951	492.43
416.328	509.83
416.705	506.22
417.082	483.84
417.46	515.48
417.837	508.25
418.214	514.58
418.591	507.8
418.967	529.04
419.344	510.51
419.721	528.81
420.098	532.66
420.475	550.06
420.852	521.58
421.228	545.54
421.605	546.21
421.982	534.69
422.358	522.94
422.735	546.21
423.111	552.77
423.488	516.16
423.864	548.7
424.241	544.63
424.617	569.72
424.994	566.33
425.37	557.06
425.746	553.22
426.123	589.83
426.499	590.96
426.875	583.28
427.251	586.89
427.627	573.33
428.003	585.76
428.379	607.68
428.756	612.88
429.132	606.78
429.507	628.25
429.883	628.7
430.259	602.26
430.635	617.63
431.011	641.13
431.387	652.43
431.763	662.37
432.138	632.31
432.514	654.69
432.89	644.97
433.265	651.07
433.641	679.77
434.016	680.67
434.392	672.31
434.767	702.14
435.143	683.39
435.518	704.18
435.894	679.54
436.269	698.75
436.644	704.85
437.02	730.84
437.395	714.12
437.77	729.49
438.145	725.64
438.52	725.19
438.895	725.87
439.271	739.43
439.646	764.06
440.021	759.99
440.395	758.86
440.77	750.05
441.145	759.32
441.52	769.26
441.895	778.3
442.27	796.6
442.645	769.94
443.019	778.75
443.394	787.11
443.769	798.19
444.143	789.37
444.518	811.07
444.892	815.36
445.267	801.35
445.641	826.43
446.016	823.04
446.39	805.87
446.764	831.63
447.139	818.75
447.513	853.33
447.887	822.37
448.262	824.85
448.636	847.22
449.01	859.88
449.384	847.9
449.758	866.21
450.132	852.87
450.506	872.76
450.88	864.17
451.254	907.33
451.628	902.82
452.002	924.28
452.376	901.23
452.75	907.79
453.123	920.44
453.497	919.31
453.871	915.47
454.244	940.78
454.618	943.94
454.992	950.05
455.365	947.79
455.739	986.88
456.112	989.82
456.486	997.05
456.859	1022.36
457.232	1017.16
457.606	1005.86
457.979	1040.21
458.352	1050.38
458.725	1028.01
459.099	1041.79
459.472	1078.86
459.845	1084.73
460.218	1080.89
460.591	1096.93
460.964	1128.8
461.337	1137.61
461.71	1146.42
462.083	1155.92
462.456	1167.67
462.829	1150.72
463.201	1180.55
463.574	1173.77
463.947	1195.24
464.32	1229.13
464.692	1203.82
465.065	1228
465.438	1232.98
465.81	1277.72
466.183	1279.08
466.555	1338.74
466.928	1342.58
467.3	1322.92
467.672	1338.06
468.045	1369.92
468.417	1375.8
468.789	1366.53
469.161	1398.85
469.534	1420.99
469.906	1462.57
470.278	1465.51
470.65	1479.3
471.022	1503.25
471.394	1518.17
471.766	1521.78
472.138	1544.83
472.51	1576.02
472.882	1630.25
473.253	1616.24
473.625	1700.31
473.997	1701.21
474.369	1719.52
474.74	1733.98
475.112	1802.45
475.484	1813.07
475.855	1828.21
476.227	1853.52
476.598	1922.45
476.97	1936.46
477.341	1969.45
477.713	1997.48
478.084	2002.22
478.455	2081.32
478.827	2086.51
479.198	2133.52
479.569	2147.75
479.94	2218.03
480.311	2244.25
480.682	2317.47
481.053	2374.87
481.424	2375.77
481.795	2459.84
482.166	2498.25
482.537	2530.12
482.908	2565.82
483.279	2594.97
483.65	2667.74
484.021	2724.46
484.391	2759.94
484.762	2850.79
485.133	2865.02
485.503	2908.86
485.874	2972.82
486.244	3017.34
486.615	3100.95
486.985	3101.63
487.356	3177.78
487.726	3232.7
488.097	3273.83
488.467	3304.56
488.837	3376.65
489.207	3407.16
489.578	3524.22
489.948	3605.12
490.318	3606.92
490.688	3615.29
491.058	3660.48
491.428	3759.24
491.798	3784.32
492.168	3916.97
492.538	3941.83
492.908	3958.1
493.278	4037.2
493.648	4028.38
494.017	4087.82
494.387	4152
494.757	4182.73
495.126	4206.23
495.496	4269.05
495.866	4335.27
496.235	4356.74
496.605	4428.37
496.974	4467.69
497.344	4481.48
497.713	4527.58
498.082	4557.18
498.452	4632.89
498.821	4693.68
499.19	4647.58
499.559	4739.1
499.928	4759.89
500.298	4844.18
500.667	4867.91
501.036	4913.33
501.405	4950.17
501.774	4915.14
502.143	4969.6
502.512	4981.35
502.88	5116.72
503.249	5091.18
503.618	5111.07
503.987	5165.53
504.356	5174.34
504.724	5223.38
505.093	5206.43
505.462	5251.63
505.83	5306.09
506.199	5327.11
506.567	5412.08
506.936	5399.65
507.304	5450.94
507.672	5457.27
508.041	5505.86
508.409	5549.02
508.777	5580.21
509.145	5638.74
509.514	5641
509.882	5636.93
510.25	5664.95
510.618	5678.73
510.986	5652.07
511.354	5758.73
511.722	5801.67
512.09	5846.41
512.458	5818.39
512.826	5915.79
513.193	5929.35
513.561	5971.16
513.929	5965.28
514.297	6066.52
514.664	6011.38
515.032	6077.82
515.4	6078.72
515.767	6133.86
516.135	6163.69
516.502	6085.5
516.869	6245.05
517.237	6258.61
517.604	6243.01
517.972	6287.31
518.339	6315.1
518.706	6267.87
519.073	6337.02
519.44	6344.71
519.808	6370.69
520.175	6357.14
520.542	6490.01
520.909	6526.4
521.276	6525.49
521.643	6560.97
522.009	6556.68
522.376	6657.01
522.743	6672.16
523.11	6674.41
523.477	6769.78
523.843	6801.42
524.21	6835.31
524.577	6852.94
524.943	6952.83
525.31	6947.85
525.676	6981.07
526.043	6969.32
526.409	7046.83
526.776	7121.41
527.142	7087.51
527.508	7105.82
527.874	7274.85
528.241	7203.89
528.607	7290.22
528.973	7358.92
529.339	7265.36
529.705	7411.57
530.071	7439.14
530.437	7467.16
530.803	7519.14
531.169	7588.52
531.535	7588.06
531.901	7548.06
532.267	7561.62
532.632	7674.16
532.998	7696.31
533.364	7748.74
533.73	7786.02
534.095	7832.58
534.461	7861.73
534.826	7900.82
535.192	7904.44
535.557	7969.97
535.923	7948.73
536.288	8050.88
536.653	8030.76
537.019	8042.51
537.384	8081.84
537.749	8170.65
538.114	8170.65
538.479	8141.72
538.845	8218.33
539.21	8223.98
539.575	8273.69
539.94	8286.12
540.305	8357.31
540.67	8437.31
541.034	8433.46
541.399	8440.7
541.764	8411.09
542.129	8529.96
542.494	8522.5
542.858	8556.4
543.223	8602.95
543.587	8673.68
543.952	8678.88
544.316	8714.14
544.681	8707.58
545.045	8767.69
545.41	8795.72
545.774	8803.85
546.138	8883.85
546.503	8882.94
546.867	8871.65
547.231	8937.86
547.595	9008.36
547.959	8994.81
548.324	9021.47
548.688	9032.77
549.052	9102.83
549.416	9137.4
549.779	9123.16
550.143	9190.73
550.507	9244.29
550.871	9240
551.235	9203.84
551.599	9297.4
551.962	9325.64
552.326	9387.11
552.689	9396.15
553.053	9392.31
553.417	9424.85
553.78	9579.65
554.143	9557.05
554.507	9542.59
554.87	9524.96
555.234	9672.98
555.597	9615.13
555.96	9636.82
556.323	9695.35
556.686	9722.92
557.05	9833.65
557.413	9772.41
557.776	9803.37
558.139	9937.83
558.502	9870.49
558.865	9943.71
559.228	9942.13
559.59	9974.89
559.953	10035.91
560.316	10117.26
560.679	10159.3
561.041	10179.63
561.404	10169.24
561.767	10249.46
562.129	10229.35
562.492	10345.96
562.854	10316.81
563.217	10356.35
563.579	10379.4
563.941	10444.94
564.304	10519.06
564.666	10544.82
565.028	10573.75
565.39	10530.81
565.753	10657.14
566.115	10658.26
566.477	10674.31
566.839	10785.72
567.201	10780.3
567.563	10801.76
567.925	10866.4
568.287	10891.93
568.648	10917.02
569.01	11001.53
569.372	11153.39
569.734	11009.44
570.095	11158.82
570.457	11210.34
570.819	11237.01
571.18	11229.78
571.542	11324.24
571.903	11332.15
572.265	11348.19
572.626	11391.13
572.987	11524.91
573.349	11592.25
573.71	11572.14
574.071	11609.88
574.432	11731.23
574.794	11814.39
575.155	11824.56
575.516	11944.78
575.877	11913.37
576.238	12064.1
576.599	12136.87
576.96	12255.74
577.32	12176.87
577.681	12357.2
578.042	12427.48
578.403	12579.8
578.763	12608.5
579.124	12737.98
579.485	12869.05
579.845	13041.93
580.206	13079.22
580.566	13198.54
580.927	13369.15
581.287	13543.84
581.648	13520.56
582.008	13716.04
582.368	13867.22
582.728	14099.3
583.089	14217.72
583.449	14332.29
583.809	14472.18
584.169	14789.91
584.529	14925.5
584.889	15158.03
585.249	15225.83
585.609	15412.49
585.969	15663.56
586.329	15831.46
586.688	16077.56
587.048	16335.63
587.408	16401.62
587.768	16750.99
588.127	16918.67
588.487	17196.17
588.846	17584.41
589.206	17641.81
589.565	17876.15
589.925	18291.51
590.284	18515.23
590.643	18715.45
591.003	19102.56
591.362	19370.58
591.721	19573.06
592.08	19933.28
592.44	20130.11
592.799	20480.38
593.158	20701.84
593.517	20961.72
593.876	21278.55
594.235	21570.75
594.593	21876.95
594.952	22236.49
595.311	22422.48
595.67	22726.87
596.029	23233.98
596.387	23502.45
596.746	23779.05
597.104	24036.67
597.463	24404.34
597.822	24667.39
598.18	24826.93
598.538	25080.26
598.897	25508.5
599.255	25702.39
599.613	26315.25
599.972	26419.88
600.33	26785.75
600.688	26908.69
601.046	27281.1
601.404	27693.98
601.762	27991.37
602.12	28219.39
602.478	28705.02
602.836	28799.26
603.194	28968.29
603.552	29321.28
603.91	29297.55
604.268	29779.57
604.625	30088.49
604.983	30444.64
605.341	30481.02
605.698	30956.04
606.056	31232.19
606.413	31449.13
606.771	31757.6
607.128	31962.79
607.485	31999.62
607.843	32205.72
608.2	32657.46
608.557	32976.1
608.914	32961.86
609.272	33348.74
609.629	33483.88
609.986	33885
610.343	33941.49
610.7	34239.11
611.057	34473.91
611.414	34678.42
611.771	34764.3
612.127	35139.66
612.484	35279.09
612.841	35547.33
613.198	35622.35
613.554	35702.58
613.911	36058.28
614.267	36270.02
614.624	36453.74
614.98	36751.59
615.337	37068.64
615.693	36916.56
616.05	37120.62
616.406	37487.84
616.762	37536.43
617.118	37721.06
617.475	37626.14
617.831	38032.46
618.187	38040.14
618.543	38255.05
618.899	38599.45
619.255	38652.56
619.611	38709.28
619.967	38909.95
620.323	39022.49
620.678	39015.94
621.034	39050.06
621.39	39173.9
621.746	39269.04
622.101	39649.37
622.457	39624.96
622.812	39681.91
623.168	39859.98
623.523	40075.57
623.879	40036.93
624.234	39749.48
624.589	40097.49
624.945	40318.95
625.3	40443.02
625.655	40398.5
626.01	40549.23
626.365	40633.07
626.72	40609.57
627.075	40706.06
627.43	40670.81
627.785	40637.36
628.14	40855.44
628.495	41059.73
628.85	40895.44
629.205	40805.04
629.559	41261.53
629.914	40997.58
630.269	41282.77
630.623	41116.67
630.978	41074.41
631.332	41335.65
631.687	41413.16
632.041	41337.23
632.396	41274.41
632.75	41315.31
633.104	41325.93
633.459	41247.97
633.813	41341.3
634.167	41375.2
634.521	41199.16
634.875	41439.15
635.229	41339.04
635.583	41183.56
635.937	41329.1
636.291	41297.91
636.645	41423.33
636.999	41217.01
637.352	41467.85
637.706	41304.01
638.06	41445.03
638.413	41416.78
638.767	41255.2
639.121	41401.19
639.474	41041.87
639.828	41223.34
640.181	41303.79
640.534	41325.48
640.888	41197.8
641.241	40980.18
641.594	41249.55
641.947	41127.29
642.301	41182.89
642.654	41280.28
643.007	41234.86
643.36	41218.37
643.713	41158.25
644.066	41267.86
644.419	41019.05
644.771	40826.29
645.124	40473.3
645.477	40358.05
645.83	40088
646.182	39986.53
646.535	39926.87
646.888	40080.54
647.24	39902.69
647.593	40250.71
647.945	40019.75
648.298	39918.06
648.65	39802.81
649.002	39636.26
649.355	39925.52
649.707	39911.51
650.059	40106.53
650.411	40753.52
650.763	40569.12
651.115	40952.61
651.467	40707.87
651.819	40925.72
652.171	40773.41
652.523	40676.01
652.875	40685.27
653.227	40534.09
653.578	40781.77
653.93	40763.46
654.282	40509.01
654.633	40436.01
654.985	40708.55
655.337	40447.31
655.688	40672.39
656.039	40683.92
656.391	40336.35
656.742	40507.42
657.094	40483.02
657.445	40815.21
657.796	40434.66
658.147	40420.87
658.498	40426.75
658.849	40320.54
659.2	40445.28
659.551	40379.29
659.902	40475.79
660.253	40360.53
660.604	40556.91
660.955	40286.41
661.306	40491.83
661.656	40451.61
662.007	40440.98
662.358	40410.93
662.708	40427.88
663.059	40272.85
663.409	40194.44
663.76	40417.03
664.11	40384.49
664.461	40389.23
664.811	40516.46
665.161	40470.36
665.511	40320.08
665.862	40366.41
666.212	40433.75
666.562	40383.13
666.912	40372.06
667.262	40370.7
667.612	40415.22
667.962	40342.46
668.312	40253.64
668.662	40400.08
669.011	40256.58
669.361	40263.14
669.711	40352.63
670.06	40262.23
670.41	40174.78
670.76	40099.52
671.109	40118.06
671.459	40067.44
671.808	40245.06
672.157	40257.71
672.507	39920.55
672.856	39962.13
673.205	40137.04
673.554	40278.96
673.904	40075.57
674.253	40276.02
674.602	40041
674.951	39555.58
675.3	39400.33
675.649	40021.11
675.998	40060.2
676.346	39922.13
676.695	39925.97
677.044	39870.38
677.393	39878.51
677.741	40004.39
678.09	39819.08
678.438	39745.64
678.787	39750.61
679.135	39873.77
679.484	39405.31
679.832	39684.17
680.181	39404.4
680.529	39719.42
680.877	39428.81
681.225	39386.78
681.573	39698.18
681.922	39285.76
682.27	39221.13
682.618	39330.05
682.966	39175.03
683.314	39311.3
683.661	39229.27
684.009	38937.3
684.357	38968.93
684.705	38940.69
685.053	38975.26
685.4	38802.61
685.748	38697.3
686.095	38750.41
686.443	38547.25
686.79	38487.82
687.138	38587.25
687.485	38567.36
687.832	38386.35
688.18	38532.56
688.527	38086.47
688.874	38246.92
689.221	38059.8
689.568	38077.21
689.915	37927.6
690.262	37985
690.609	37844.22
690.956	37687.61
691.303	37672.47
691.65	37488.97
691.997	37563.77
692.344	37405.58
692.69	37324.46
693.037	37367.85
693.383	37006.05
693.73	37161.52
694.077	37019.38
694.423	37025.93
694.769	36914.98
695.116	36874.98
695.462	36730.35
695.808	36462.56
696.155	36665.04
696.501	36309.57
696.847	36405.61
697.193	36130.14
697.539	36227.76
697.885	35911.84
698.231	35911.84
698.577	35940.09
698.923	35796.59
699.269	35727.66
699.614	35538.74
699.96	35463.49
700.306	35499.42
700.651	35322.48
700.997	35188.92
701.342	35184.17
701.688	35124.29
702.033	35057.4
702.379	34859.21
702.724	34823.51
703.069	34924.07
703.415	34594.58
703.76	34520.69
704.105	34593.23
704.45	34582.83
704.795	34340.35
705.14	34198.21
705.485	34236.85
705.83	34060.81
706.175	34052
706.52	34007.48
706.865	33733.82
707.209	33848.84
707.554	33749.41
707.899	33786.02
708.243	33571.56
708.588	33556.19
708.932	33415.18
709.277	33373.6
709.621	33353.04
709.966	33122.99
710.31	33285.92
710.654	32884.35
710.998	33017.9
711.342	32840.96
711.687	32854.07
712.031	32800.73
712.375	32643
712.719	32771.81
713.063	32614.3
713.407	32584.47
713.75	32427.18
714.094	32490.46
714.438	32304.7
714.782	32335.89
715.125	32209.56
715.469	32283.46
715.812	32099.51
716.156	31936.8
716.499	32020.87
716.843	32014.31
717.186	31878.5
717.53	31972.96
717.873	31982.68
718.216	31744.49
718.559	31703.59
718.902	31518.73
719.246	31639.63
719.589	31486.64
719.932	31400.54
720.275	31465.63
720.617	31318.51
720.96	31246.65
721.303	31201.45
721.646	31251.85
721.989	31021.8
722.331	31151.96
722.674	31012.53
723.016	31019.54
723.359	30967.11
723.701	31009.82
724.044	30803.05
724.386	30780.67
724.729	30884.4
725.071	30715.36
725.413	30632.66
725.755	30670.39
726.097	30599.66
726.439	30443.96
726.782	30451.87
727.124	30504.75
727.465	30419.55
727.807	30362.38
728.149	30306.34
728.491	30104.53
728.833	30342.27
729.175	30176.85
729.516	30095.04
729.858	30064.31
730.199	30078.32
730.541	30113.8
730.882	29774.82
731.224	30099.79
731.565	29754.94
731.906	29832.9
732.248	29935.05
732.589	29782.96
732.93	29737.09
733.271	29673.36
733.612	29685.34
733.953	29769.63
734.294	29626.81
734.635	29387.49
734.976	29660.48
735.317	29302.52
735.658	29398.79
735.999	29404.21
736.339	29218.68
736.68	29380.94
737.021	29227.95
737.361	29062.98
737.702	29212.58
738.042	29320.83
738.383	29145.91
738.723	29193.37
739.063	28950.44
739.404	29156.31
739.744	29064.11
740.084	28901.18
740.424	28923.32
740.764	28807.17
741.104	28978.46
741.444	28731.24
741.784	28712.25
742.124	28644.01
742.464	28663.22
742.804	28604.91
743.143	28583.44
743.483	28575.76
743.823	28364.92
744.162	28416.44
744.502	28428.87
744.841	28375.31
745.181	28408.31
745.52	28340.06
745.86	28397.91
746.199	28227.07
746.538	28253.73
746.877	28307.29
747.216	28232.27
747.556	28143.68
747.895	28157.92
748.234	28048.54
748.573	28099.84
748.911	27978.26
749.25	27947.53
749.589	27888.32
749.928	27921.99
750.267	27985.27
750.605	27783.46
750.944	27796.8
751.283	27792.5
751.621	27850.58
751.96	27665.5
752.298	27653.3
752.636	27586.86
752.975	27503.02
753.313	27433.64
753.651	27458.05
753.989	27298.05
754.327	27408.56
754.666	27304.15
755.004	27260.31
755.342	27313.19
755.679	27217.38
756.017	27008.34
756.355	27183.03
756.693	27082.69
757.031	27054.9
757.368	26974.67
757.706	26855.35
758.044	26809.93
758.381	26941.45
758.719	26749.59
759.056	26643.83
