Data from hue_260_FLMS001491_00051.txt Node
Date: Tue Feb 07 15:59:11 GMT 2017
User: dcchb
Spectrometer: FLMS00149
Trigger mode: 0
Integration Time (sec): 2.000000E-2
Scans to average: 10
Electric dark correction enabled: true
Nonlinearity correction enabled: false
Boxcar width: 0
XAxis mode: Wavelengths
Number of Pixels in Spectrum: 2048
>>>>>Begin Spectral Data<<<<<
341.393	-12.63
341.776	-12.63
342.16	-12.63
342.543	-40.2
342.927	-64.38
343.31	-47.43
343.693	-54.43
344.077	-56.02
344.46	-53.98
344.843	-58.73
345.226	-58.5
345.61	-40.65
345.993	-11.27
346.376	-26.19
346.759	19.91
347.142	18.33
347.525	54.94
347.908	52.91
348.291	57.2
348.674	94.49
349.057	109.4
349.44	131.78
349.823	146.24
350.206	151.21
350.588	191.21
350.971	208.61
351.354	246.35
351.737	217.2
352.119	268.04
352.502	267.59
352.884	264.43
353.267	266.69
353.65	288.38
354.032	294.26
354.414	314.37
354.797	321.38
355.179	296.74
355.562	313.24
355.944	311.88
356.326	331.54
356.709	334.71
357.091	313.69
357.473	318.44
357.855	349.17
358.238	334.48
358.62	306.01
359.002	332.22
359.384	320.25
359.766	328.16
360.148	322.73
360.53	333.13
360.912	347.82
361.294	321.83
361.676	333.8
362.057	326.12
362.439	335.16
362.821	344.88
363.203	323.41
363.584	325.9
363.966	327.25
364.348	312.11
364.729	313.92
365.111	299.23
365.493	329.74
365.874	322.51
366.256	331.54
366.637	323.41
367.019	320.92
367.4	297.42
367.781	309.62
368.163	316.63
368.544	305.33
368.925	306.46
369.306	321.38
369.688	301.26
370.069	290.64
370.45	319.79
370.831	312.79
371.212	303.75
371.593	316.63
371.974	308.72
372.355	293.13
372.736	293.13
373.117	324.99
373.498	314.37
373.879	309.85
374.26	307.59
374.641	311.43
375.021	313.01
375.402	331.32
375.783	311.88
376.163	318.21
376.544	315.5
376.925	315.05
377.305	322.96
377.686	339.45
378.066	323.86
378.447	320.25
378.827	323.64
379.208	336.29
379.588	337.42
379.968	316.18
380.349	321.15
380.729	331.77
381.109	330.64
381.489	327.93
381.87	332.45
382.25	328.83
382.63	339
383.01	335.84
383.39	355.95
383.77	367.02
384.15	340.58
384.53	316.86
384.91	365.44
385.29	360.92
385.67	335.84
386.049	354.14
386.429	346.23
386.809	327.03
387.189	346.91
387.568	361.6
387.948	341.49
388.328	358.89
388.707	350.3
389.087	351.21
389.466	369.06
389.846	366.8
390.225	363.86
390.605	334.71
390.984	359.79
391.363	358.89
391.743	376.74
392.122	364.09
392.501	386.01
392.881	378.78
393.26	385.55
393.639	372.67
394.018	369.06
394.397	380.81
394.776	375.61
395.155	385.55
395.534	385.33
395.913	403.86
396.292	391.66
396.671	411.77
397.05	388.49
397.429	401.37
397.808	388.72
398.186	409.06
398.565	416.06
398.944	398.89
399.323	398.21
399.701	395.72
400.08	412.9
400.458	417.64
400.837	407.02
401.215	405.44
401.594	411.32
401.972	425.78
402.351	428.49
402.729	436.63
403.107	438.89
403.486	428.94
403.864	429.62
404.242	421.71
404.62	437.08
404.999	435.72
405.377	444.99
405.755	436.63
406.133	462.61
406.511	464.2
406.889	467.81
407.267	476.4
407.645	466.68
408.023	459.9
408.401	475.72
408.779	473.91
409.156	481.15
409.534	494.93
409.912	473.01
410.29	517.53
410.667	514.14
411.045	531.77
411.422	537.64
411.8	516.85
412.178	519.34
412.555	536.29
412.933	550.3
413.31	552.33
413.687	572.67
414.065	562.5
414.442	568.15
414.819	585.32
415.197	586
415.574	589.39
415.951	596.17
416.328	615.61
416.705	608.83
417.082	624.87
417.46	628.94
417.837	638.66
418.214	647.47
418.591	642.72
418.967	645.89
419.344	651.08
419.721	693.34
420.098	672.33
420.475	685.21
420.852	703.96
421.228	689.95
421.605	709.84
421.982	703.74
422.358	734.25
422.735	726.56
423.111	735.15
423.488	766.79
423.864	763.62
424.241	763.62
424.617	781.93
424.994	796.17
425.37	796.39
425.746	815.37
426.123	854.92
426.499	836.39
426.875	859.67
427.251	865.77
427.627	868.93
428.003	868.03
428.379	893.56
428.756	894.02
429.132	911.64
429.507	918.2
429.883	949.16
430.259	935.6
430.635	948.48
431.011	964.75
431.387	982.6
431.763	1012.66
432.138	997.74
432.514	1032.09
432.89	1035.03
433.265	1053.33
433.641	1047.68
434.016	1052.88
434.392	1084.97
434.767	1101.47
435.143	1121.58
435.518	1150.51
435.894	1144.63
436.269	1200.45
436.644	1186.89
437.02	1204.97
437.395	1229.83
437.77	1234.8
438.145	1260.79
438.52	1291.97
438.895	1261.69
439.271	1307.56
439.646	1345.76
440.021	1336.72
440.395	1366.55
440.77	1352.31
441.145	1353.21
441.52	1409.48
441.895	1372.2
442.27	1390.73
442.645	1429.82
443.019	1417.17
443.394	1426.21
443.769	1476.37
444.143	1448.13
444.518	1487.45
444.892	1494.68
445.267	1505.98
445.641	1518.86
446.016	1507.56
446.39	1532.64
446.764	1540.33
447.139	1564.28
447.513	1586.88
447.887	1552.76
448.262	1592.08
448.636	1591.4
449.01	1615.35
449.384	1625.75
449.758	1619.19
450.132	1605.18
450.506	1663.49
450.88	1673.43
451.254	1675.01
451.628	1703.03
452.002	1707.33
452.376	1726.99
452.75	1712.98
453.123	1736.93
453.497	1764.28
453.871	1784.39
454.244	1803.82
454.618	1833.43
454.992	1823.71
455.365	1858.06
455.739	1879.53
456.112	1908.23
456.486	1948
456.859	1939.64
457.232	1956.59
457.606	1964.72
457.979	1985.51
458.352	2032.07
458.725	2037.94
459.099	2064.83
459.472	2124.27
459.845	2108.45
460.218	2155.68
460.591	2150.25
460.964	2156.58
461.337	2197.48
461.71	2199.74
462.083	2238.84
462.456	2246.52
462.829	2269.12
463.201	2326.97
463.574	2309.35
463.947	2343.24
464.32	2373.98
464.692	2382.11
465.065	2426.86
465.438	2454.88
465.81	2464.82
466.183	2473.64
466.555	2516.35
466.928	2551.6
467.3	2528.78
467.672	2561.54
468.045	2635.21
468.417	2639.28
468.789	2653.07
469.161	2697.36
469.534	2760.63
469.906	2748.43
470.278	2801.54
470.65	2836.56
471.022	2854.64
471.394	2935.32
471.766	2967.41
472.138	2985.03
472.51	3040.17
472.882	3036.56
473.253	3078.59
473.625	3135.09
473.997	3187.52
474.369	3218.93
474.74	3255.31
475.112	3287.85
475.484	3356.1
475.855	3372.82
476.227	3385.48
476.598	3461.18
476.97	3495.53
477.341	3575.98
477.713	3631.12
478.084	3629.99
478.455	3706.15
478.827	3709.54
479.198	3829.76
479.569	3833.37
479.94	3943.88
480.311	3987.72
480.682	4031.33
481.053	4101.84
481.424	4102.75
481.795	4204.89
482.166	4224.78
482.537	4258.45
482.908	4315.62
483.279	4377.54
483.65	4443.75
484.021	4532.11
484.391	4565.11
484.762	4623.18
485.133	4658.44
485.503	4680.13
485.874	4766.68
486.244	4810.75
486.615	4866.11
486.985	4898.43
487.356	5014.81
487.726	5018.2
488.097	5124.87
488.467	5161.93
488.837	5192.43
489.207	5286.67
489.578	5298.42
489.948	5361.92
490.318	5430.62
490.688	5433.56
491.058	5511.07
491.428	5550.84
491.798	5609.6
492.168	5732.08
492.538	5723.04
492.908	5778.18
493.278	5813.66
493.648	5812.76
494.017	5922.58
494.387	5945.41
494.757	5995.8
495.126	6006.2
495.496	6034.67
495.866	6063.6
496.235	6117.61
496.605	6136.82
496.974	6239.41
497.344	6262.24
497.713	6257.72
498.082	6308.79
498.452	6338.39
498.821	6324.61
499.19	6345.4
499.559	6418.62
499.928	6451.38
500.298	6518.05
500.667	6518.05
501.036	6470.14
501.405	6548.56
501.774	6570.25
502.143	6668.78
502.512	6622.68
502.88	6657.71
503.249	6679.4
503.618	6706.29
503.987	6696.58
504.356	6760.08
504.724	6778.83
505.093	6812.73
505.462	6819.51
505.83	6784.03
506.199	6862.22
506.567	6918.26
506.936	6916.68
507.304	7012.5
507.672	6990.58
508.041	6996.45
508.409	7068.99
508.777	7058.15
509.145	7114.42
509.514	7102.21
509.882	7234.64
510.25	7088.2
510.618	7132.72
510.986	7188.09
511.354	7202.55
511.722	7228.99
512.09	7315.77
512.458	7226.96
512.826	7286.62
513.193	7263.34
513.561	7285.26
513.929	7416.78
514.297	7412.71
514.664	7432.15
515.032	7390.57
515.4	7473.73
515.767	7477.12
516.135	7485.48
516.502	7433.28
516.869	7548.3
517.237	7575.2
517.604	7506.27
517.972	7607.06
518.339	7588.3
518.706	7558.25
519.073	7584.24
519.44	7559.38
519.808	7615.87
520.175	7627.85
520.542	7699.94
520.909	7612.03
521.276	7702.65
521.643	7718.92
522.009	7680.96
522.376	7824.91
522.743	7843.21
523.11	7829.65
523.477	7882.08
523.843	7861.52
524.21	7938.58
524.577	7976.77
524.943	7958.24
525.31	7974.06
525.676	7967.73
526.043	8055.18
526.409	8032.13
526.776	8097.22
527.142	8096.09
527.508	8093.6
527.874	8122.75
528.241	8108.74
528.607	8122.98
528.973	8182.86
529.339	8136.31
529.705	8154.62
530.071	8150.77
530.437	8217.21
530.803	8258.12
531.169	8275.74
531.535	8180.6
531.901	8208.63
532.267	8239.59
532.632	8253.82
532.998	8255.4
533.364	8298.57
533.73	8211.56
534.095	8301.73
534.461	8271.9
534.826	8258.34
535.192	8277.32
535.557	8321.39
535.923	8295.4
536.288	8325.01
536.653	8282.97
537.019	8273.93
537.384	8286.14
537.749	8312.35
538.114	8225.12
538.479	8296.99
538.845	8279.81
539.21	8182.86
539.575	8277.1
539.94	8206.82
540.305	8260.38
540.67	8249.98
541.034	8149.87
541.399	8296.31
541.764	8259.25
542.129	8277.78
542.494	8248.62
542.858	8307.61
543.223	8242.3
543.587	8184.22
543.952	8201.62
544.316	8212.24
544.681	8200.26
545.045	8177.44
545.41	8229.64
545.774	8251.34
546.138	8199.81
546.503	8226.48
546.867	8227.83
547.231	8214.5
547.595	8203.88
547.959	8246.14
548.324	8192.81
548.688	8129.76
549.052	8207.04
549.416	8228.51
549.779	8203.2
550.143	8103.09
550.507	8231.22
550.871	8171.79
551.235	8165.24
551.599	8202.75
551.962	8182.41
552.326	8209.08
552.689	8167.95
553.053	8143.99
553.417	8138.12
553.78	8215.63
554.143	8194.16
554.507	8171.34
554.87	8179.93
555.234	8258.79
555.597	8128.4
555.96	8170.66
556.323	8189.87
556.686	8160.94
557.05	8207.27
557.413	8198
557.776	8142.19
558.139	8248.17
558.502	8239.59
558.865	8222.18
559.228	8292.69
559.59	8292.92
559.953	8270.09
560.316	8330.88
560.679	8295.18
561.041	8314.16
561.404	8345.8
561.767	8392.58
562.129	8343.09
562.492	8456.3
562.854	8410.88
563.217	8398.68
563.579	8386.47
563.941	8474.83
564.304	8487.94
564.666	8433.48
565.028	8514.38
565.39	8544.66
565.753	8573.36
566.115	8563.42
566.477	8572.23
566.839	8626.02
567.201	8647.48
567.563	8654.49
567.925	8642.29
568.287	8662.85
568.648	8624.66
569.01	8709.86
569.372	8745.79
569.734	8734.26
570.095	8780.59
570.457	8860.36
570.819	8815.16
571.18	8842.06
571.542	8769.97
571.903	8808.84
572.265	8939
572.626	8933.35
572.987	8915.05
573.349	8957.08
573.71	8947.59
574.071	8993.69
574.432	8996.63
574.794	9061.48
575.155	9090.18
575.516	9052.67
575.877	9175.15
576.238	9143.97
576.599	9153.91
576.96	9133.35
577.32	9141.93
577.681	9202.95
578.042	9200.24
578.403	9169.96
578.763	9248.82
579.124	9263.74
579.485	9305.32
579.845	9273.23
580.206	9270.74
580.566	9364.3
580.927	9341.03
581.287	9422.38
581.648	9323.62
582.008	9449.95
582.368	9415.37
582.728	9390.29
583.089	9459.21
583.449	9433.68
583.809	9470.97
584.169	9552.09
584.529	9536.27
584.889	9533.79
585.249	9513.9
585.609	9518.87
585.969	9574.69
586.329	9561.13
586.688	9557.29
587.048	9589.83
587.408	9588.48
587.768	9620.34
588.127	9653.56
588.487	9652.2
588.846	9666.44
589.206	9602.49
589.565	9646.1
589.925	9755.93
590.284	9718.64
590.643	9741.24
591.003	9818.53
591.362	9854.23
591.721	9830.28
592.08	9821.69
592.44	9778.08
592.799	9811.52
593.158	9786.89
593.517	9843.39
593.876	9882.71
594.235	9801.35
594.593	9896.49
594.952	9833.89
595.311	9859.2
595.67	9879.09
596.029	9932.65
596.387	9931.29
596.746	9963.38
597.104	9902.82
597.463	9925.19
597.822	9986.43
598.18	9910.95
598.538	9887.23
598.897	9990.27
599.255	9884.74
599.613	10088.58
599.972	10028.01
600.33	10037.73
600.688	10051.29
601.046	10026.66
601.404	10064.85
601.762	10026.43
602.12	10132.87
602.478	10101.46
602.836	10051.52
603.194	10066.88
603.552	10048.58
603.91	10026.88
604.268	10098.29
604.625	10029.14
604.983	10122.02
605.341	10106.88
605.698	10095.36
606.056	10171.29
606.413	10068.69
606.771	10067.11
607.128	10183.49
607.485	10051.74
607.843	10101.01
608.2	10189.14
608.557	10173.32
608.914	10188.46
609.272	10252.19
609.629	10235.92
609.986	10293.77
610.343	10221.45
610.7	10283.15
611.057	10263.04
611.414	10263.04
611.771	10351.39
612.127	10310.72
612.484	10281.11
612.841	10353.2
613.198	10287.44
613.554	10378.96
613.911	10309.14
614.267	10383.48
614.624	10275.92
614.98	10366.54
615.337	10419.19
615.693	10343.03
616.05	10402.47
616.406	10406.31
616.762	10416.93
617.118	10479.3
617.475	10380.32
617.831	10399.53
618.187	10508.45
618.543	10477.49
618.899	10506.64
619.255	10459.64
619.611	10414.44
619.967	10483.37
620.323	10496.25
620.678	10527.44
621.034	10450.37
621.39	10494.67
621.746	10422.81
622.101	10559.3
622.457	10383.71
622.812	10529.69
623.168	10479.07
623.523	10488.79
623.879	10536.25
624.234	10423.71
624.589	10563.82
624.945	10426.19
625.3	10492.86
625.655	10493.31
626.01	10506.42
626.365	10521.11
626.72	10479.53
627.075	10500.32
627.43	10505.51
627.785	10425.06
628.14	10457.83
628.495	10496.25
628.85	10476.36
629.205	10406.53
629.559	10491.96
629.914	10354.78
630.269	10426.42
630.623	10432.75
630.978	10370.38
631.332	10472.52
631.687	10386.65
632.041	10421
632.396	10409.92
632.75	10360.43
633.104	10332.64
633.459	10286.09
633.813	10280.44
634.167	10284.96
634.521	10264.17
634.875	10288.57
635.229	10307.1
635.583	10248.35
635.937	10301.9
636.291	10218.52
636.645	10196.37
636.999	10202.25
637.352	10160.21
637.706	10195.69
638.06	10268.46
638.413	10203.38
638.767	10128.12
639.121	10114.34
639.474	10126.54
639.828	10149.14
640.181	10097.84
640.534	10084.06
640.888	10033.66
641.241	10004.51
641.594	10033.89
641.947	10082.02
642.301	10143.04
642.654	10023.49
643.007	10077.28
643.36	10028.92
643.713	10000.67
644.066	9994.57
644.419	9955.7
644.771	9884.51
645.124	9790.28
645.477	9888.13
645.83	9803.16
646.182	9722.71
646.535	9747.57
646.888	9752.77
647.24	9688.14
647.593	9692.43
647.945	9684.29
648.298	9576.05
648.65	9649.04
649.002	9578.08
649.355	9641.13
649.707	9659.21
650.059	9734.46
650.411	9777.62
650.763	9796.38
651.115	9856.94
651.467	9869.15
651.819	9897.4
652.171	9872.09
652.523	9833.22
652.875	9787.12
653.227	9845.19
653.578	9896.94
653.93	9891.75
654.282	9802.48
654.633	9797.74
654.985	9854.23
655.337	9821.92
655.688	9816.72
656.039	9897.85
656.391	9767.23
656.742	9764.97
657.094	9801.13
657.445	9787.79
657.796	9779.43
658.147	9782.14
658.498	9830.28
658.849	9829.6
659.2	9847
659.551	9860.56
659.902	9794.12
660.253	9787.34
660.604	9741.92
660.955	9807.68
661.306	9767.68
661.656	9749.38
662.007	9833.44
662.358	9835.7
662.708	9843.61
663.059	9777.62
663.409	9781.69
663.76	9804.06
664.11	9830.5
664.461	9829.37
664.811	9820.11
665.161	9818.08
665.511	9773.56
665.862	9783.5
666.212	9858.07
666.562	9887.9
666.912	9768.36
667.262	9824.18
667.612	9767
667.962	9835.02
668.312	9847
668.662	9846.77
669.011	9803.61
669.361	9809.94
669.711	9768.58
670.06	9766.55
670.41	9816.27
670.76	9860.11
671.109	9775.14
671.459	9787.34
671.808	9773.56
672.157	9784.63
672.507	9700.56
672.856	9676.61
673.205	9756.16
673.554	9772.65
673.904	9747.57
674.253	9730.17
674.602	9704.63
674.951	9585.54
675.3	9585.31
675.649	9663.05
675.998	9655.82
676.346	9601.58
676.695	9672.54
677.044	9526.33
677.393	9623.96
677.741	9590.06
678.09	9602.26
678.438	9496.28
678.787	9587.8
679.135	9647.01
679.484	9611.07
679.832	9549.83
680.181	9480.68
680.529	9497.18
680.877	9517.74
681.225	9517.07
681.573	9572.43
681.922	9505.32
682.27	9435.26
682.618	9507.12
682.966	9473.23
683.314	9386.67
683.661	9395.04
684.009	9274.13
684.357	9348.71
684.705	9295.15
685.053	9370.63
685.4	9298.77
685.748	9264.19
686.095	9231.88
686.443	9157.08
686.79	9165.21
687.138	9151.65
687.485	9257.41
687.832	9143.52
688.18	9098.32
688.527	9103.29
688.874	9149.62
689.221	9075.04
689.568	9020.36
689.915	9022.39
690.262	9028.94
690.609	8978.1
690.956	8870.3
691.303	8888.16
691.65	8829.63
691.997	8852.45
692.344	8893.13
692.69	8755.96
693.037	8801.15
693.383	8682.74
693.73	8749.85
694.077	8664.21
694.423	8677.99
694.769	8668.73
695.116	8638.22
695.462	8590.76
695.808	8544.66
696.155	8532.46
696.501	8454.95
696.847	8525
697.193	8357.32
697.539	8381.73
697.885	8335.85
698.231	8308.06
698.577	8293.14
698.923	8289.98
699.269	8260.6
699.614	8214.5
699.96	8245.91
700.306	8193.49
700.651	8188.74
700.997	8118.23
701.342	8101.06
701.688	8103.54
702.033	8088.4
702.379	8095.18
702.724	8004.79
703.069	8092.7
703.415	7952.81
703.76	7939.48
704.105	7917.11
704.45	7844.79
704.795	7820.84
705.14	7840.05
705.485	7864.68
705.83	7776.77
706.175	7854.51
706.52	7786.04
706.865	7710.33
707.209	7730.22
707.554	7698.36
707.899	7640.51
708.243	7636.21
708.588	7627.85
708.932	7574.07
709.277	7569.55
709.621	7561.64
709.966	7563.9
710.31	7518.02
710.654	7427.18
710.998	7460.85
711.342	7475.09
711.687	7455.2
712.031	7426.05
712.375	7366.16
712.719	7416.33
713.063	7440.51
713.407	7402.32
713.75	7333.85
714.094	7265.15
714.438	7244.81
714.782	7331.59
715.125	7246.62
715.469	7273.51
715.812	7284.13
716.156	7208.2
716.499	7221.31
716.843	7254.07
717.186	7169.11
717.53	7204.81
717.873	7224.92
718.216	7175.88
718.559	7167.52
718.902	7092.5
719.246	7139.95
719.589	7067.64
719.932	7094.76
720.275	7068.99
720.617	7079.84
720.96	7073.97
721.303	7021.31
721.646	7084.81
721.989	7001.43
722.331	7058.15
722.674	7046.85
723.016	7040.3
723.359	7068.54
723.701	7075.32
724.044	7032.16
724.386	6928.21
724.729	6958.49
725.071	6948.55
725.413	6973.4
725.755	6877.36
726.097	6912.84
726.439	6931.15
726.782	6891.15
727.124	6979.51
727.465	6896.34
727.807	6904.93
728.149	6890.47
728.491	6900.41
728.833	6906.97
729.175	6895.44
729.516	6885.72
729.858	6855.89
730.199	6900.86
730.541	6915.33
730.882	6951.48
731.224	6775.67
731.565	6838.94
731.906	6882.11
732.248	6869
732.589	6795.56
732.93	6855.22
733.271	6783.58
733.612	6881.88
733.953	6832.84
734.294	6798.49
734.635	6846.85
734.976	6829
735.317	6807.53
735.658	6868.32
735.999	6811.83
736.339	6816.12
736.68	6839.85
737.021	6746.07
737.361	6816.8
737.702	6840.75
738.042	6863.12
738.383	6753.75
738.723	6778.83
739.063	6844.37
739.404	6899.28
739.744	6862.22
740.084	6796.46
740.424	6877.59
740.764	6837.59
741.104	6909.9
741.444	6889.34
741.784	6872.84
742.124	6876.68
742.464	6864.03
742.804	6934.76
743.143	6859.51
743.483	6946.96
743.823	6941.09
744.162	6983.12
744.502	6948.55
744.841	7015.44
745.181	7022.44
745.52	7054.53
745.86	7081.88
746.199	7078.03
746.538	7131.59
746.877	7157.13
747.216	7173.62
747.556	7198.71
747.895	7296.33
748.234	7334.07
748.573	7298.59
748.911	7350.57
749.25	7430.57
749.589	7400.51
749.928	7522.32
750.267	7600.96
750.605	7581.52
750.944	7556.44
751.283	7625.82
751.621	7780.16
751.96	7828.52
752.298	7810.9
752.636	7930.89
752.975	7992.59
753.313	8016.31
753.651	8102.64
753.989	8148.97
754.327	8275.06
754.666	8341.5
755.004	8474.83
755.342	8617.43
755.679	8634.15
756.017	8666.69
756.355	8853.81
756.693	8911.88
757.031	9046.57
757.368	9111.43
757.706	9242.5
758.044	9314.59
758.381	9512.09
758.719	9582.83
759.056	9695.59
759.394	9829.6
759.731	9793.67
760.068	9979.43
760.405	10109.82
760.743	10181
761.08	10373.31
761.417	10467.78
761.754	10610.37
762.091	10664.15
762.428	10872.74
762.765	10900.08
763.102	11155.44
763.438	11187.53
763.775	11253.29
764.112	11430.69
764.449	11597.46
764.785	11686.73
765.122	11698.7
765.458	11867.51
765.795	11903.44
766.131	12151.8
766.467	12276.09
