Data from hue_150_FLMS001491_00027.txt Node
Date: Tue Feb 07 16:53:50 GMT 2017
User: dcchb
Spectrometer: FLMS00149
Trigger mode: 0
Integration Time (sec): 2.000000E-2
Scans to average: 10
Electric dark correction enabled: true
Nonlinearity correction enabled: false
Boxcar width: 0
XAxis mode: Wavelengths
Number of Pixels in Spectrum: 2048
>>>>>Begin Spectral Data<<<<<
341.393	-15.51
341.776	-15.51
342.16	-15.51
342.543	-73.36
342.927	-78.78
343.31	-57.09
343.693	-73.13
344.077	-58.67
344.46	-57.09
344.843	-57.54
345.226	-40.59
345.61	-23.87
345.993	-26.36
346.376	-8.05
346.759	37.15
347.142	28.11
347.525	27.88
347.908	49.35
348.291	69.46
348.674	81.66
349.057	108.78
349.44	114.66
349.823	120.08
350.206	156.46
350.588	178.16
350.971	195.79
351.354	200.53
351.737	221.32
352.119	252.06
352.502	254.77
352.884	258.61
353.267	288.21
353.65	299.29
354.032	304.94
354.414	302.9
354.797	298.83
355.179	313.75
355.562	345.16
355.944	318.49
356.326	330.02
356.709	322.11
357.091	326.4
357.473	363.24
357.855	339.06
358.238	344.48
358.62	319.85
359.002	341.54
359.384	328.89
359.766	343.35
360.148	332.96
360.53	335.22
360.912	319.62
361.294	352.39
361.676	330.47
362.057	329.34
362.439	318.04
362.821	314.43
363.203	341.32
363.584	320.3
363.966	317.14
364.348	313.07
364.729	324.14
365.111	321.43
365.493	316.23
365.874	304.03
366.256	296.8
366.637	320.08
367.019	294.31
367.4	299.06
367.781	318.95
368.163	311.94
368.544	321.88
368.925	311.49
369.306	330.25
369.688	301.09
370.069	302.22
370.45	301.32
370.831	311.94
371.212	325.27
371.593	303.13
371.974	321.88
372.355	329.57
372.736	304.48
373.117	314.43
373.498	305.39
373.879	318.27
374.26	307.2
374.641	319.85
375.021	309.46
375.402	328.89
375.783	330.02
376.163	323.92
376.544	324.6
376.925	321.66
377.305	324.82
377.686	328.89
378.066	348.55
378.447	327.53
378.827	331.38
379.208	335.9
379.588	332.73
379.968	340.41
380.349	311.94
380.729	327.08
381.109	346.74
381.489	307.65
381.87	338.83
382.25	356.91
382.63	335.9
383.01	334.09
383.39	334.77
383.77	344.48
384.15	355.56
384.53	359.4
384.91	339.74
385.29	351.04
385.67	381.09
386.049	340.64
386.429	369.57
386.809	360.3
387.189	338.38
387.568	346.74
387.948	346.52
388.328	366.63
388.707	377.02
389.087	365.05
389.466	379.28
389.846	360.53
390.225	365.72
390.605	382.67
390.984	385.84
391.363	386.29
391.743	377.48
392.122	368.89
392.501	372.28
392.881	377.25
393.26	382.22
393.639	383.35
394.018	382.45
394.397	383.35
394.776	382.9
395.155	382.45
395.534	410.47
395.913	393.07
396.292	400.3
396.671	381.77
397.05	388.32
397.429	404.14
397.808	385.16
398.186	411.6
398.565	381.32
398.944	421.99
399.323	407.76
399.701	378.15
400.08	409.34
400.458	416.12
400.837	411.83
401.215	385.84
401.594	416.12
401.972	407.98
402.351	413.41
402.729	416.57
403.107	430.81
403.486	423.12
403.864	430.81
404.242	433.75
404.62	416.57
404.999	416.57
405.377	441.88
405.755	466.29
406.133	445.95
406.511	429.23
406.889	464.03
407.267	451.82
407.645	466.29
408.023	461.99
408.401	453.41
408.779	481.65
409.156	456.34
409.534	464.25
409.912	470.13
410.29	479.85
410.667	471.48
411.045	507.19
411.422	512.39
411.8	501.99
412.178	478.94
412.555	479.85
412.933	493.41
413.31	508.32
413.687	497.25
414.065	494.54
414.442	536.12
414.819	503.12
415.197	544.25
415.574	527.98
415.951	545.61
416.328	514.65
416.705	539.96
417.082	532.05
417.46	538.15
417.837	542.9
418.214	548.54
418.591	529.34
418.967	532.05
419.344	545.16
419.721	557.81
420.098	557.58
420.475	564.36
420.852	560.97
421.228	587.64
421.605	576.34
421.982	561.2
422.358	604.59
422.735	577.92
423.111	589.45
423.488	588.09
423.864	627.41
424.241	604.81
424.617	619.05
424.994	616.34
425.37	608.43
425.746	623.35
426.123	614.53
426.499	644.36
426.875	617.7
427.251	617.92
427.627	639.39
428.003	639.62
428.379	661.08
428.756	661.99
429.132	668.54
429.507	687.3
429.883	689.56
430.259	692.27
430.635	700.41
431.011	691.82
431.387	721.65
431.763	718.94
432.138	725.72
432.514	733.17
432.89	720.29
433.265	741.53
433.641	761.65
434.016	784.02
434.392	768.88
434.767	780.4
435.143	752.38
435.518	795.77
435.894	776.56
436.269	788.09
436.644	802.55
437.02	815.43
437.395	828.09
437.77	839.84
438.145	831.7
438.52	848.2
438.895	830.8
439.271	848.88
439.646	862.89
440.021	853.4
440.395	854.75
440.77	879.84
441.145	870.12
441.52	907.63
441.895	903.11
442.27	912.6
442.645	907.41
443.019	925.94
443.394	938.82
443.769	914.64
444.143	915.09
444.518	946.05
444.892	895.43
445.267	924.81
445.641	944.01
446.016	983.79
446.39	969.55
446.764	957.57
447.139	974.97
447.513	979.49
447.887	984.24
448.262	1031.02
448.636	993.05
449.01	1035.76
449.384	1020.62
449.758	1038.25
450.132	1044.35
450.506	1040.96
450.88	1065.14
451.254	1059.27
451.628	1052.26
452.002	1080.28
452.376	1068.98
452.75	1092.03
453.123	1115.76
453.497	1122.99
453.871	1145.14
454.244	1138.36
454.618	1191.92
454.992	1187.85
455.365	1139.26
455.739	1191.01
456.112	1193.73
456.486	1186.49
456.859	1218.58
457.232	1243.44
457.606	1234.4
457.979	1280.05
458.352	1283.67
458.725	1315.76
459.099	1320.05
459.472	1331.12
459.845	1349.2
460.218	1395.08
460.591	1367.05
460.964	1411.12
461.337	1420.84
461.71	1425.36
462.083	1485.92
462.456	1450.89
462.829	1471.01
463.201	1491.34
463.574	1514.17
463.947	1515.98
464.32	1562.08
464.692	1554.17
465.065	1593.26
465.438	1618.57
465.81	1624.9
466.183	1697.67
466.555	1719.81
466.928	1736.08
467.3	1734.95
467.672	1766.37
468.045	1798
468.417	1817.44
468.789	1857.89
469.161	1849.98
469.534	1901.96
469.906	1946.7
470.278	1979.47
470.65	1984.44
471.022	2045.23
471.394	2061.5
471.766	2101.27
472.138	2148.95
472.51	2206.35
472.882	2267.37
473.253	2285.22
473.625	2323.19
473.997	2365.45
474.369	2392.34
474.74	2468.72
475.112	2501.71
475.484	2567.02
475.855	2647.7
476.227	2695.16
476.598	2772.22
476.97	2794.36
477.341	2877.3
477.713	2966.79
478.084	3014.02
478.455	3094.01
478.827	3169.94
479.198	3287.23
479.569	3304.63
479.94	3382.37
480.311	3453.33
480.682	3606.54
481.053	3707.33
481.424	3781.91
481.795	3851.96
482.166	3962.01
482.537	4029.81
482.908	4160.43
483.279	4219.41
483.65	4359.07
484.021	4477.71
484.391	4586.63
484.762	4678.38
485.133	4787.98
485.503	4901.65
485.874	5031.14
486.244	5120.85
486.615	5313.62
486.985	5404.01
487.356	5578.47
487.726	5692.14
488.097	5792.02
488.467	5910.21
488.837	6052.81
489.207	6209.19
489.578	6286.02
489.948	6450.99
490.318	6606.69
490.688	6660.02
491.058	6816.4
491.428	7008.94
491.798	7126.9
492.168	7274.47
492.538	7377.29
492.908	7517.85
493.278	7721.24
493.648	7818.64
494.017	7990.16
494.387	8081.91
494.757	8199.87
495.126	8248
495.496	8424.5
495.866	8500.88
496.235	8594.89
496.605	8786.75
496.974	8877.59
497.344	9012.28
497.713	9095.21
498.082	9278.94
498.452	9389.89
498.821	9498.82
499.19	9500.63
499.559	9571.36
499.928	9784.69
500.298	9899.71
500.667	9983.1
501.036	10014.74
501.405	10187.61
501.774	10216.54
502.143	10304.45
502.512	10472.58
502.88	10492.24
503.249	10550.09
503.618	10672.8
503.987	10717.54
504.356	10838.9
504.724	10918.44
505.093	11012.9
505.462	11030.98
505.83	11175.61
506.199	11188.49
506.567	11380.8
506.936	11306.45
507.304	11517.75
507.672	11591.42
508.041	11613.56
508.409	11667.12
508.777	11764.3
509.145	11890.85
509.514	11857.4
509.882	12035.25
510.25	12019.2
510.618	12087.22
510.986	12074.34
511.354	12254
511.722	12314.79
512.09	12344.39
512.458	12330.16
512.826	12445.18
513.193	12478.17
513.561	12468.91
513.929	12603.14
514.297	12674.33
514.664	12694.89
515.032	12784.61
515.4	12853.76
515.767	12906.86
516.135	12893.08
516.502	12862.35
516.869	12950.03
517.237	12992.06
517.604	13058.27
517.972	13126.29
518.339	13112.06
518.706	13129.91
519.073	13177.82
519.44	13218.04
519.808	13249.68
520.175	13283.58
520.542	13396.57
520.909	13435.89
521.276	13458.26
521.643	13444.7
522.009	13545.27
522.376	13540.07
522.743	13594.76
523.11	13615.32
523.477	13738.48
523.843	13736.67
524.21	13870
524.577	13899.83
524.943	13905.48
525.31	13966.72
525.676	13954.29
526.043	14001.98
526.409	13982.77
526.776	14131.46
527.142	14093.73
527.508	14150.45
527.874	14225.25
528.241	14243.33
528.607	14185.93
528.973	14253.27
529.339	14163.55
529.705	14262.53
530.071	14367.16
530.437	14341.85
530.803	14351.35
531.169	14379.82
531.535	14285.36
531.901	14231.12
532.267	14296.88
532.632	14350.89
532.998	14278.35
533.364	14341.4
533.73	14438.8
534.095	14357.45
534.461	14344.79
534.826	14360.84
535.192	14382.98
535.557	14348.63
535.923	14345.24
536.288	14222.99
536.653	14319.93
537.019	14215.76
537.384	14297.34
537.749	14287.84
538.114	14234.74
538.479	14101.18
538.845	14179.37
539.21	14073.39
539.575	14109.54
539.94	14114.06
540.305	14079.04
540.67	13991.58
541.034	14071.81
541.399	14108.87
541.764	14016.67
542.129	14013.28
542.494	14023.9
542.858	13995.42
543.223	13911.36
543.587	13942.99
543.952	13817.35
544.316	13812.6
544.681	13707.07
545.045	13824.58
545.41	13732.83
545.774	13692.83
546.138	13613.74
546.503	13720.4
546.867	13676.11
547.231	13697.35
547.595	13602.66
547.959	13709.78
548.324	13584.59
548.688	13587.52
549.052	13596.79
549.416	13560.41
549.779	13567.86
550.143	13513.63
550.507	13502.1
550.871	13423.46
551.235	13353.63
551.599	13432.05
551.962	13392.73
552.326	13382.11
552.689	13339.4
553.053	13340.75
553.417	13221.21
553.78	13432.73
554.143	13320.19
554.507	13241.54
554.87	13243.58
555.234	13411.26
555.597	13197.25
555.96	13221.21
556.323	13238.83
556.686	13246.97
557.05	13303.69
557.413	13237.02
557.776	13269.11
558.139	13242.67
558.502	13223.24
558.865	13185.5
559.228	13251.71
559.59	13315.44
559.953	13347.08
560.316	13318.6
560.679	13241.32
561.041	13285.16
561.404	13341.2
561.767	13302.11
562.129	13329.68
562.492	13427.98
562.854	13286.74
563.217	13313.86
563.579	13370.13
563.941	13351.37
564.304	13472.95
564.666	13383.69
565.028	13491.03
565.39	13448.32
565.753	13517.47
566.115	13456.91
566.477	13532.16
566.839	13495.78
567.201	13538.26
567.563	13538.71
567.925	13582.33
568.287	13570.8
568.648	13551.82
569.01	13570.35
569.372	13738.48
569.734	13569.22
570.095	13670.01
570.457	13664.81
570.819	13675.66
571.18	13686.5
571.542	13780.51
571.903	13781.87
572.265	13744.36
572.626	13806.73
572.987	13841.08
573.349	13794.3
573.71	13822.55
574.071	13881.98
574.432	13872.49
574.794	13933.73
575.155	13892.15
575.516	13862.55
575.877	13860.29
576.238	13854.18
576.599	13979.83
576.96	13948.87
577.32	14003.33
577.681	13961.07
578.042	14017.57
578.403	13977.12
578.763	14005.37
579.124	14018.47
579.485	14046.72
579.845	14023.22
580.206	13915.65
580.566	13939.61
580.927	13999.26
581.287	14042.43
581.648	13992.94
582.008	13892.83
582.368	13973.5
582.728	14074.29
583.089	14026.61
583.449	13968.08
583.809	14015.76
584.169	13950
584.529	13985.03
584.889	14048.98
585.249	13964.46
585.609	13912.26
585.969	13994.29
586.329	13973.5
586.688	13887.18
587.048	13930.11
587.408	13953.62
587.768	13801.53
588.127	13844.01
588.487	13777.35
588.846	13895.31
589.206	13825.03
589.565	13924.69
589.925	13872.94
590.284	13828.65
590.643	13793.17
591.003	13921.53
591.362	13876.33
591.721	13861.64
592.08	13834.52
592.44	13878.82
592.799	13805.15
593.158	13830.68
593.517	13795.43
593.876	13796.78
594.235	13763.79
594.593	13868.87
594.952	13851.92
595.311	13779.61
595.67	13900.51
596.029	13788.87
596.387	13843.34
596.746	13921.75
597.104	13843.34
597.463	13780.06
597.822	13790.23
598.18	13779.61
598.538	13683.34
598.897	13786.16
599.255	13608.09
599.613	13869.32
599.972	13768.08
600.33	13735.54
600.688	13770.57
601.046	13897.8
601.404	13825.94
601.762	13789.33
602.12	13835.65
602.478	13874.3
602.836	13864.58
603.194	13785.03
603.552	13752.04
603.91	13820.06
604.268	13833.39
604.625	13783.23
604.983	13882.43
605.341	13772.38
605.698	13810.8
606.056	13912.94
606.413	13814.86
606.771	13771.02
607.128	13926.72
607.485	13868.42
607.843	13813.96
608.2	13862.32
608.557	13863.9
608.914	13790
609.272	13867.29
609.629	13893.73
609.986	13921.3
610.343	13911.58
610.7	13935.76
611.057	13925.14
611.414	14003.11
611.771	13941.19
612.127	13937.8
612.484	14045.37
612.841	14067.96
613.198	13908.42
613.554	13990.23
613.911	14026.61
614.267	14070.68
614.624	14072.03
614.98	14005.37
615.337	14154.97
615.693	14077.91
616.05	14093.05
616.406	14177.79
616.762	14224.34
617.118	14116.78
617.475	14089.21
617.831	14146.83
618.187	14225.25
618.543	14230.22
618.899	14244
619.255	14168.98
619.611	14214.85
619.967	14236.55
620.323	14342.53
620.678	14239.48
621.034	14232.93
621.39	14190.45
621.746	14160.39
622.101	14334.17
622.457	14161.07
622.812	14164.23
623.168	14310.44
623.523	14246.49
623.879	14289.88
624.234	14249.43
624.589	14203.55
624.945	14179.37
625.3	14272.7
625.655	14245.36
626.01	14289.88
626.365	14167.85
626.72	14076.1
627.075	14201.07
627.43	14289.43
627.785	14156.32
628.14	14232.93
628.495	14219.6
628.85	14233.38
629.205	14089.88
629.559	14134.4
629.914	14158.36
630.269	14185.02
630.623	14118.81
630.978	14069.09
631.332	14091.01
631.687	14194.97
632.041	14163.33
632.396	14084.69
632.75	13988.64
633.104	13972.37
633.459	13988.64
633.813	14023.9
634.167	14009.21
634.521	13978.7
634.875	14034.74
635.229	13972.15
635.583	13809.21
635.937	13865.71
636.291	13900.06
636.645	13910
636.999	13831.36
637.352	13844.92
637.706	13781.87
638.06	13828.65
638.413	13812.38
638.767	13759.05
639.121	13785.94
639.474	13750.01
639.828	13778.03
640.181	13697.35
640.534	13821.42
640.888	13762.21
641.241	13637.47
641.594	13716.33
641.947	13660.06
642.301	13683.79
642.654	13734.41
643.007	13658.03
643.36	13674.75
643.713	13542.33
644.066	13632.04
644.419	13526.96
644.771	13421.2
645.124	13359.28
645.477	13355.89
645.83	13272.96
646.182	13143.24
646.535	13106.41
646.888	13175.11
647.24	13122
647.593	13168.1
647.945	13070.02
648.298	13133.75
648.65	13052.85
649.002	13058.95
649.355	13183.24
649.707	13174.88
650.059	13189.57
650.411	13315.44
650.763	13373.97
651.115	13456
651.467	13387.76
651.819	13478.37
652.171	13428.43
652.523	13424.36
652.875	13419.17
653.227	13416.91
653.578	13479.05
653.93	13470.47
654.282	13304.59
654.633	13354.99
654.985	13336.23
655.337	13416
655.688	13400.18
656.039	13426.62
656.391	13334.42
656.742	13333.29
657.094	13384.37
657.445	13389.11
657.796	13367.42
658.147	13397.47
658.498	13321.09
658.849	13408.77
659.2	13384.59
659.551	13316.34
659.902	13447.87
660.253	13374.65
660.604	13458.71
660.955	13316.12
661.306	13371.03
661.656	13377.13
662.007	13395.66
662.358	13424.14
662.708	13331.71
663.059	13392.05
663.409	13338.04
663.76	13446.51
664.11	13488.32
664.461	13466.4
664.811	13487.87
665.161	13454.65
665.511	13380.75
665.862	13439.28
666.212	13367.64
666.562	13375.33
666.912	13324.25
667.262	13380.3
667.612	13487.41
667.962	13387.76
668.312	13404.93
668.662	13434.99
669.011	13450.13
669.361	13366.29
669.711	13392.73
670.06	13391.15
670.41	13285.84
670.76	13370.13
671.109	13322.9
671.459	13346.63
671.808	13351.15
672.157	13361.09
672.507	13234.31
672.856	13293.07
673.205	13238.38
673.554	13285.39
673.904	13330.13
674.253	13234.09
674.602	13248.78
674.951	13090.81
675.3	13068.22
675.649	13131.72
675.998	13142.56
676.346	13216.46
676.695	13248.55
677.044	13082
677.393	13155.22
677.741	13144.37
678.09	13033.41
678.438	13034.77
678.787	13164.48
679.135	13025.05
679.484	12986.86
679.832	12963.13
680.181	12972.17
680.529	12988.9
680.877	12936.47
681.225	12844.04
681.573	12991.83
681.922	12977.14
682.27	12808.79
682.618	12846.53
682.966	12798.39
683.314	12886.98
683.661	12818.5
684.009	12818.73
684.357	12797.26
684.705	12732.41
685.053	12759.3
685.4	12721.78
685.748	12629.58
686.095	12631.39
686.443	12592.52
686.79	12541.9
687.138	12536.25
687.485	12589.36
687.832	12478.85
688.18	12564.5
688.527	12381.23
688.874	12323.6
689.221	12385.07
689.568	12387.56
689.915	12323.83
690.262	12390.49
690.609	12219.2
690.956	12201.8
691.303	12238.86
691.65	12184.17
691.997	12160.89
692.344	12065.53
692.69	11971.97
693.037	12049.49
693.383	11962.03
693.73	11940.56
694.077	11855.14
694.423	11776.05
694.769	11705.77
695.116	11761.58
695.462	11740.57
695.808	11757.74
696.155	11582.83
696.501	11595.94
696.847	11532.89
697.193	11486.34
697.539	11494.7
697.885	11415.38
698.231	11476.17
698.577	11405.43
698.923	11391.2
699.269	11296.28
699.614	11237.98
699.96	11148.94
700.306	11176.51
700.651	11185.1
700.997	11114.37
701.342	11072.11
701.688	11028.95
702.033	11021.94
702.379	10975.39
702.724	10898.78
703.069	10941.04
703.415	10864.88
703.76	10807.26
704.105	10802.96
704.45	10842.06
704.795	10701.05
705.14	10701.27
705.485	10676.87
705.83	10630.09
706.175	10669.41
706.52	10530.2
706.865	10531.79
707.209	10546.02
707.554	10473.93
707.899	10501.5
708.243	10411.56
708.588	10425.8
708.932	10289.08
709.277	10400.94
709.621	10340.38
709.966	10294.96
710.31	10338.8
710.654	10207.27
710.998	10159.59
711.342	10192.13
711.687	10155.98
712.031	10115.75
712.375	10118.24
712.719	10126.82
713.063	10109.88
713.407	10067.62
713.75	10021.29
714.094	10048.41
714.438	9980.61
714.782	10047.28
715.125	9957.56
715.469	9869.66
715.812	9954.85
716.156	9855.87
716.499	9833.5
716.843	9837.79
717.186	9778.81
717.53	9818.58
717.873	9836.89
718.216	9828.3
718.559	9767.74
718.902	9702.65
719.246	9786.27
719.589	9641.41
719.932	9673.73
720.275	9671.47
720.617	9724.12
720.96	9628.76
721.303	9701.3
721.646	9618.81
721.989	9640.28
722.331	9643
722.674	9603
723.016	9567.97
723.359	9643.45
723.701	9589.44
724.044	9571.36
724.386	9480.51
724.729	9552.15
725.071	9545.14
725.413	9518.48
725.755	9481.19
726.097	9460.4
726.439	9400.52
726.782	9483.23
727.124	9384.47
727.465	9439.38
727.807	9457.92
728.149	9410.01
728.491	9418.37
728.833	9443.9
729.175	9393.28
729.516	9457.24
729.858	9356.67
730.199	9423.57
730.541	9330.91
730.882	9386.5
731.224	9395.09
731.565	9391.7
731.906	9352.83
732.248	9439.16
732.589	9290.24
732.93	9334.98
733.271	9339.95
733.612	9372.27
733.953	9388.76
734.294	9294.53
734.635	9308.31
734.976	9313.29
735.317	9338.14
735.658	9288.65
735.999	9349.22
736.339	9339.05
736.68	9358.93
737.021	9324.59
737.361	9313.29
737.702	9289.33
738.042	9310.35
738.383	9378.37
738.723	9356.22
739.063	9300.86
739.404	9338.82
739.744	9338.82
740.084	9345.6
740.424	9342.89
740.764	9385.37
741.104	9329.33
741.444	9366.17
741.784	9323.91
742.124	9467.63
742.464	9381.98
742.804	9415.2
743.143	9391.7
743.483	9532.26
743.823	9442.55
744.162	9440.06
744.502	9556.22
744.841	9504.92
745.181	9591.7
745.52	9589.21
745.86	9589.89
746.199	9650.45
746.538	9598.02
746.877	9776.78
747.216	9775.42
747.556	9872.37
747.895	9863.33
748.234	9869.2
748.573	9887.73
748.911	9912.37
749.25	9993.04
749.589	9999.82
749.928	10155.3
750.267	10207.27
750.605	10288.18
750.944	10287.95
751.283	10325.91
751.621	10501.05
751.96	10503.76
752.298	10578.34
752.636	10711.89
752.975	10766.81
753.313	10763.64
753.651	10895.17
753.989	10893.58
754.327	11034.14
754.666	11175.61
755.004	11302.84
755.342	11503.29
755.679	11549.39
756.017	11611.53
756.355	11798.42
756.693	11825.31
757.031	12081.57
757.368	12135.13
757.706	12281.8
758.044	12358.63
