Data from hue_32_FLMS001491_00005.txt Node
Date: Tue Feb 07 17:22:50 GMT 2017
User: dcchb
Spectrometer: FLMS00149
Trigger mode: 0
Integration Time (sec): 2.000000E-2
Scans to average: 10
Electric dark correction enabled: true
Nonlinearity correction enabled: false
Boxcar width: 0
XAxis mode: Wavelengths
Number of Pixels in Spectrum: 2048
>>>>>Begin Spectral Data<<<<<
341.393	-11.55
341.776	-11.55
342.16	-11.55
342.543	-68.5
342.927	-34.15
343.31	-61.95
343.693	-60.37
344.077	-71.21
344.46	-48.61
344.843	-55.62
345.226	-49.52
345.61	-31.67
345.993	-8.16
346.376	-8.39
346.759	2.46
347.142	18.05
347.525	34.1
347.908	67.09
348.291	74.09
348.674	91.04
349.057	108.67
349.44	146.18
349.823	146.41
350.206	162.23
350.588	207.65
350.971	210.36
351.354	223.92
351.737	246.07
352.119	256.46
352.502	249.68
352.884	296.46
353.267	290.59
353.65	317.93
354.032	306.86
354.414	325.16
354.797	315.67
355.179	344.37
355.562	312.96
355.944	344.14
356.326	326.52
356.709	339.17
357.091	353.18
357.473	333.3
357.855	344.82
358.238	326.74
358.62	351.15
359.002	332.39
359.384	362
359.766	364.26
360.148	330.13
360.53	323.81
360.912	345.05
361.294	324.48
361.676	315.44
362.057	350.92
362.439	333.3
362.821	336.23
363.203	331.49
363.584	337.82
363.966	341.88
364.348	317.03
364.729	339.4
365.111	343.24
365.493	325.61
365.874	336.91
366.256	333.52
366.637	336.23
367.019	310.02
367.4	305.05
367.781	313.41
368.163	326.97
368.544	309.34
368.925	309.57
369.306	324.93
369.688	326.74
370.069	306.4
370.45	329.68
370.831	327.65
371.212	315.22
371.593	294.88
371.974	327.87
372.355	315.44
372.736	317.03
373.117	313.18
373.498	301.21
373.879	324.26
374.26	312.73
374.641	304.14
375.021	329.45
375.402	300.08
375.783	326.97
376.163	343.01
376.544	330.81
376.925	342.56
377.305	338.95
377.686	341.21
378.066	323.58
378.447	363.13
378.827	343.47
379.208	335.56
379.588	351.15
379.968	344.6
380.349	374.2
380.729	343.47
381.109	327.87
381.489	329.91
381.87	329.91
382.25	342.34
382.63	329.68
383.01	356.12
383.39	342.56
383.77	353.63
384.15	342.11
384.53	335.1
384.91	328.78
385.29	364.71
385.67	350.02
386.049	358.61
386.429	350.92
386.809	352.05
387.189	374.43
387.568	334.88
387.948	357.93
388.328	371.49
388.707	368.32
389.087	378.94
389.466	368.55
389.846	356.35
390.225	345.5
390.605	373.52
390.984	383.69
391.363	364.48
391.743	370.58
392.122	377.59
392.501	385.27
392.881	377.81
393.26	409.23
393.639	374.88
394.018	381.2
394.397	387.98
394.776	397.25
395.155	381.88
395.534	387.08
395.913	375.56
396.292	379.4
396.671	388.21
397.05	376.23
397.429	389.11
397.808	384.59
398.186	406.29
398.565	398.38
398.944	398.38
399.323	402.22
399.701	411.49
400.08	403.58
400.458	386.85
400.837	388.89
401.215	398.38
401.594	396.12
401.972	427.76
402.351	420.3
402.729	436.34
403.107	416.23
403.486	414.88
403.864	416.91
404.242	423.69
404.62	411.71
404.999	441.09
405.377	434.76
405.755	454.2
406.133	433.63
406.511	418.49
406.889	433.41
407.267	425.27
407.645	439.06
408.023	450.36
408.401	445.16
408.779	439.96
409.156	449.9
409.534	460.07
409.912	455.1
410.29	449.9
410.667	463.24
411.045	458.49
411.422	470.92
411.8	493.29
412.178	474.76
412.555	478.6
412.933	472.95
413.31	484.03
413.687	486.29
414.065	476.57
414.442	498.49
414.819	481.99
415.197	519.05
415.574	499.85
415.951	501.65
416.328	503.46
416.705	507.76
417.082	521.77
417.46	511.82
417.837	522.67
418.214	522.44
418.591	513.18
418.967	522.22
419.344	526.06
419.721	534.65
420.098	528.32
420.475	526.29
420.852	531.26
421.228	533.07
421.605	526.51
421.982	545.27
422.358	547.53
422.735	560.18
423.111	560.41
423.488	539.84
423.864	553.86
424.241	569.45
424.617	575.78
424.994	549.56
425.37	564.48
425.746	568.09
426.123	578.71
426.499	587.98
426.875	588.2
427.251	618.03
427.627	605.83
428.003	615.55
428.379	633.63
428.756	634.08
429.132	611.93
429.507	624.59
429.883	610.13
430.259	630.69
430.635	623.91
431.011	657.13
431.387	651.25
431.763	657.36
432.138	668.2
432.514	662.78
432.89	667.98
433.265	669.78
433.641	669.56
434.016	668.2
434.392	692.38
434.767	700.74
435.143	696
435.518	718.37
435.894	712.72
436.269	710.46
436.644	727.64
437.02	747.97
437.395	717.92
437.77	740.07
438.145	745.94
438.52	729.44
438.895	752.04
439.271	753.17
439.646	762.89
440.021	789.78
440.395	785.49
440.77	769.67
441.145	781.87
441.52	817.13
441.895	781.19
442.27	782.32
442.645	814.64
443.019	800.63
443.394	833.85
443.769	835.66
444.143	803.57
444.518	827.29
444.892	816.67
445.267	835.88
445.641	857.35
446.016	844.7
446.39	849.21
446.764	841.08
447.139	852.38
447.513	857.12
447.887	848.54
448.262	883.56
448.636	879.5
449.01	862.55
449.384	868.65
449.758	893.73
450.132	902.09
450.506	895.99
450.88	900.29
451.254	896.45
451.628	920.85
452.002	920.63
452.376	924.69
452.75	938.7
453.123	928.99
453.497	963.56
453.871	965.82
454.244	975.99
454.618	999.27
454.992	971.02
455.365	960.17
455.739	1012.37
456.112	1007.4
456.486	1004.92
456.859	1032.26
457.232	1072.71
457.606	1043.33
457.979	1045.82
458.352	1078.81
458.725	1067.51
459.099	1112.71
459.472	1096.89
459.845	1128.76
460.218	1137.34
460.591	1133.05
460.964	1147.51
461.337	1171.01
461.71	1167.62
462.083	1216.44
462.456	1192.48
462.829	1220.96
463.201	1239.71
463.574	1249.88
463.947	1261.63
464.32	1304.34
464.692	1284.68
465.065	1296.89
465.438	1302.54
465.81	1319.94
466.183	1338.02
466.555	1382.08
466.928	1383.44
467.3	1386.83
467.672	1390.9
468.045	1425.92
468.417	1420.95
468.789	1454.17
469.161	1510.44
469.534	1525.36
469.906	1536.2
470.278	1572.81
470.65	1545.24
471.022	1616.88
471.394	1659.14
471.766	1674.28
472.138	1676.09
472.51	1691.9
472.882	1714.95
473.253	1784.11
473.625	1767.38
473.997	1803.09
474.369	1850.09
474.74	1867.27
475.112	1911.79
475.484	1950.43
475.855	2008.05
476.227	2029.07
476.598	2064.1
476.97	2078.34
477.341	2144.77
477.713	2186.81
478.084	2234.04
478.455	2311.1
478.827	2328.72
479.198	2394.94
479.569	2410.98
479.94	2519.68
480.311	2563.29
480.682	2599.68
481.053	2676.29
481.424	2779.79
481.795	2797.86
482.166	2868.82
482.537	2884.19
482.908	2973.68
483.279	3030.85
483.65	3132.77
484.021	3206.22
484.391	3274.91
484.762	3344.52
485.133	3371.63
485.503	3454.57
485.874	3577.73
486.244	3635.13
486.615	3688.69
486.985	3814.33
487.356	3885.75
487.726	3982.47
488.097	4073.08
488.467	4080.32
488.837	4228.56
489.207	4220.43
489.578	4366.64
489.948	4434.66
490.318	4527.99
490.688	4541.1
491.058	4712.84
491.428	4780.86
491.798	4882.78
492.168	4973.4
492.538	5059.5
492.908	5126.62
493.278	5192.38
493.648	5253.17
494.017	5374.52
494.387	5446.83
494.757	5510.56
495.126	5602.08
495.496	5679.82
495.866	5762.76
496.235	5810.44
496.605	5885.92
496.974	5982.19
497.344	6064.22
497.713	6118.68
498.082	6193.03
498.452	6302.18
498.821	6374.72
499.19	6349.18
499.559	6450.42
499.928	6529.29
500.298	6631.21
500.667	6684.54
501.036	6774.93
501.405	6834.14
501.774	6849.96
502.143	6995.49
502.512	7011.99
502.88	7086.34
503.249	7095.38
503.618	7272.1
503.987	7242.04
504.356	7271.42
504.724	7360.46
505.093	7416.73
505.462	7474.13
505.83	7582.82
506.199	7622.82
506.567	7692.42
506.936	7754.8
507.304	7791.86
507.672	7834.57
508.041	7896.94
508.409	7976.49
508.777	8046.99
509.145	8150.72
509.514	8141
509.882	8199.3
510.25	8242.69
510.618	8289.02
510.986	8353.88
511.354	8459.64
511.722	8523.59
512.09	8586.41
512.458	8525.4
512.826	8628.45
513.193	8683.13
513.561	8692.17
513.929	8790.48
514.297	8877.7
514.664	9008.77
515.032	8997.7
515.4	9091.48
515.767	9024.37
516.135	9169.45
516.502	9070.47
516.869	9250.58
517.237	9321.76
517.604	9260.97
517.972	9368.54
518.339	9427.07
518.706	9472.27
519.073	9464.36
519.44	9533.96
519.808	9581.41
520.175	9635.88
520.542	9730.34
520.909	9794.74
521.276	9797.91
521.643	9894.63
522.009	9909.32
522.376	10021.4
522.743	10041.74
523.11	10144.79
523.477	10245.35
523.843	10269.08
524.21	10416.2
524.577	10447.61
524.943	10464.78
525.31	10498
525.676	10587.26
526.043	10688.73
526.409	10620.94
526.776	10798.78
527.142	10756.98
527.508	10863.87
527.874	10970.08
528.241	11060.47
528.607	11027.48
528.973	11208.49
529.339	11254.37
529.705	11286
530.071	11385.44
530.437	11403.51
530.803	11448.71
531.169	11521.7
531.535	11572.55
531.901	11635.15
532.267	11632.21
532.632	11768.7
532.998	11747.23
533.364	11859.32
533.73	11807.34
534.095	12001.92
534.461	12036.04
534.826	12071.29
535.192	12105.64
535.557	12232.42
535.923	12209.59
536.288	12284.39
536.653	12301.8
537.019	12268.12
537.384	12371.85
537.749	12376.82
538.114	12489.13
538.479	12541.79
538.845	12569.81
539.21	12595.35
539.575	12577.95
539.94	12711.95
540.305	12785.62
540.67	12855.9
541.034	12932.29
541.399	12881.89
541.764	12930.71
542.129	13067.2
542.494	13004.15
542.858	13088.67
543.223	13156.24
543.587	13198.27
543.952	13243.69
544.316	13315.78
544.681	13389.45
545.045	13442.33
545.41	13469
545.774	13516.68
546.138	13538.37
546.503	13504.93
546.867	13607.07
547.231	13768.42
547.595	13767.52
547.959	13775.88
548.324	13852.94
548.688	13778.37
549.052	13878.02
549.416	13953.28
549.779	14029.89
550.143	13997.8
550.507	14075.08
550.871	14157.79
551.235	14131.35
551.599	14287.96
551.962	14311.69
552.326	14331.12
552.689	14452.7
553.053	14441.63
553.417	14475.3
553.78	14614.28
554.143	14559.14
554.507	14598.91
554.87	14671.45
555.234	14819.24
555.597	14798
555.96	14818.57
556.323	14835.06
556.686	14833.71
557.05	14962.06
557.413	15092.23
557.776	15145.34
558.139	15106.24
558.502	15163.87
558.865	15281.6
559.228	15346.46
559.59	15425.78
559.953	15401.6
560.316	15485.89
560.679	15527.25
561.041	15645.66
561.404	15689.73
561.767	15807.47
562.129	15671.65
562.492	15925.43
562.854	15882.49
563.217	15887.46
563.579	15922.26
563.941	15965.2
564.304	16079.77
564.666	16154.35
565.028	16212.43
565.39	16131.75
565.753	16298.75
566.115	16240.67
566.477	16379.2
566.839	16439.31
567.201	16561.34
567.563	16565.86
567.925	16668.46
568.287	16700.55
568.648	16733.54
569.01	16889.25
569.372	16988.23
569.734	16943.48
570.095	17129.92
570.457	17200.88
570.819	17200.2
571.18	17291.72
571.542	17308.67
571.903	17411.72
572.265	17502.34
572.626	17519.96
572.987	17638.15
573.349	17655.78
573.71	17713.4
574.071	17879.73
574.432	17950.69
574.794	18109.55
575.155	18163.11
575.516	18205.37
575.877	18293.05
576.238	18398.36
576.599	18448.98
576.96	18548.64
577.32	18763.77
577.681	18820.72
578.042	19001.51
578.403	19067.04
578.763	19243.99
579.124	19339.8
579.485	19500.02
579.845	19764.65
580.206	19756.06
580.566	20037.41
580.927	20160.57
581.287	20314.92
581.648	20392.88
582.008	20646.66
582.368	20678.3
582.728	20930.49
583.089	21152.18
583.449	21341.33
583.809	21527.77
584.169	21679.85
584.529	21772.28
584.889	22114.19
585.249	22315.32
585.609	22489.78
585.969	22857.45
586.329	22862.42
586.688	23253.6
587.048	23480.48
587.408	23656.52
587.768	23876.63
588.127	24088.15
588.487	24240.92
588.846	24626.44
589.206	24669.61
589.565	25013.55
589.925	25323.6
590.284	25539.41
590.643	25851.04
591.003	26042.68
591.362	26390.92
591.721	26613.96
592.08	26783.45
592.44	27218.24
592.799	27469.08
593.158	27670.88
593.517	27938.22
593.876	28204.43
594.235	28418.21
594.593	28671.53
594.952	29018.87
595.311	29199.88
595.67	29428.35
596.029	29850.94
596.387	30030.14
596.746	30398.04
597.104	30453.41
597.463	30669
597.822	31139.49
598.18	31247.06
598.538	31443.89
598.897	31921.62
599.255	31885.01
599.613	32564.77
599.972	32518.66
600.33	32856.96
600.688	33013.57
601.046	33368.59
601.404	33522.03
601.762	33738.52
602.12	34116.59
602.478	34092.63
602.836	34462.12
603.194	34488.56
603.552	34610.14
603.91	34889.22
604.268	35197.01
604.625	35206.73
604.983	35721.74
605.341	35677.23
605.698	35953.83
606.056	36271.79
606.413	36292.35
606.771	36652.57
607.128	36803.07
607.485	36754.03
607.843	36925.78
608.2	37325.54
608.557	37536.39
608.914	37529.38
609.272	37941.57
609.629	37924.17
609.986	38236.93
610.343	38248.46
610.7	38732.29
611.057	38717.37
611.414	38719.63
611.771	38922.56
612.127	39291.14
612.484	39194.2
612.841	39517.8
613.198	39505.37
613.554	39695.88
613.911	39889.77
614.267	40004.12
614.624	40020.39
614.98	40322.08
615.337	40447.27
615.693	40420.15
616.05	40583.54
616.406	40979.91
616.762	40900.59
617.118	41082.06
617.475	40951.44
617.831	41310.52
618.187	41417.41
618.543	41477.53
618.899	41743.73
619.255	41793.22
619.611	41819.66
619.967	41911.19
620.323	42163.16
620.678	42082.26
621.034	42077.28
621.39	42153.67
621.746	42238.18
622.101	42737.83
622.457	42435.69
622.812	42537.61
623.168	42737.83
623.523	42731.96
623.879	42937.6
624.234	42590.94
624.589	42816.25
624.945	42935.57
625.3	43105.51
625.655	43025.51
626.01	43090.14
626.365	43316.12
626.72	43093.98
627.075	43150.02
627.43	43189.57
627.785	43236.35
628.14	43296.46
628.495	43383.01
628.85	43374.65
629.205	43337.36
629.559	43547.98
629.914	43366.06
630.269	43604.93
630.623	43559.05
630.978	43462.56
631.332	43618.71
631.687	43722.44
632.041	43653.74
632.396	43732.61
632.75	43357.93
633.104	43629.56
633.459	43450.35
633.813	43453.52
634.167	43553.85
634.521	43536.45
634.875	43559.96
635.229	43461.65
635.583	43405.61
635.937	43443.12
636.291	43431.82
636.645	43374.88
636.999	43390.02
637.352	43591.37
637.706	43332.39
638.06	43530.8
638.413	43355.22
638.767	43371.03
639.121	43410.81
639.474	43133.3
639.828	43179.63
640.181	43250.59
640.534	43232.73
640.888	43076.81
641.241	43023.02
641.594	43155
641.947	43216.91
642.301	43084.94
642.654	43123.36
643.007	43209.91
643.36	43139.18
643.713	43093.98
644.066	43289.91
644.419	42950.03
644.771	42783.93
645.124	42479.53
645.477	42461
645.83	42166.55
646.182	42044.52
646.535	41823.05
646.888	42019.21
647.24	41751.42
647.593	42002.48
647.945	41913.45
648.298	41683.62
648.65	41733.11
649.002	41524.76
649.355	41743.73
649.707	41672.77
650.059	41891.07
650.411	42399.08
650.763	42498.29
651.115	42812.18
651.467	42609.25
651.819	42614.67
652.171	42640.66
652.523	42484.05
652.875	42551.85
653.227	42393.21
653.578	42462.36
653.93	42483.37
654.282	42463.94
654.633	42293.77
654.985	42498.74
655.337	42420.33
655.688	42391.4
656.039	42416.71
656.391	42302.81
656.742	42199.77
657.094	42248.58
657.445	42472.53
657.796	42265.53
658.147	42268.92
658.498	42237.96
658.849	42420.78
659.2	42254.45
659.551	42054.46
659.902	42299.88
660.253	42305.53
660.604	42257.62
660.955	42067.57
661.306	42287.45
661.656	42071.18
662.007	42087.45
662.358	42267.11
662.708	42135.14
663.059	42000.68
663.409	41860.79
663.76	42146.66
664.11	42183.04
664.461	42207.45
664.811	42195.7
665.161	41983.95
665.511	42029.15
665.862	42026.66
666.212	42235.47
666.562	42096.94
666.912	41983.27
667.262	41952.99
667.612	42024.63
667.962	41978.3
668.312	42056.27
668.662	42029.38
669.011	42147.34
669.361	41945.54
669.711	41971.98
670.06	41875.71
670.41	41855.14
670.76	41720.68
671.109	42016.72
671.459	41976.72
671.808	41790.51
672.157	41933.11
672.507	41671.19
672.856	41903.5
673.205	41701.47
673.554	41849.94
673.904	41668.93
674.253	41812.43
674.602	41649.27
674.951	41216.74
675.3	40883.64
675.649	41698.08
675.998	41591.65
676.346	41608.82
676.695	41708.03
677.044	41440.92
677.393	41680.91
677.741	41487.47
678.09	41462.61
678.438	41367.7
678.787	41420.58
679.135	41324.31
679.484	41184.88
679.832	41293.58
680.181	41145.33
680.529	41220.81
680.877	41086.8
681.225	41047.03
681.573	41265.55
681.922	40895.62
682.27	40919.35
682.618	40957.09
682.966	40846.13
683.314	40821.27
683.661	40940.82
684.009	40669.64
684.357	40651.78
684.705	40486.14
685.053	40550.32
685.4	40495.4
685.748	40275.75
686.095	40445.24
686.443	40179.93
686.79	40240.5
687.138	40322.98
687.485	40208.86
687.832	40053.83
688.18	40006.6
688.527	39899.04
688.874	39915.76
689.221	39638.93
689.568	39652.49
689.915	39589.89
690.262	39574.07
690.609	39483.68
690.956	39357.81
691.303	39434.19
691.65	39132.95
691.997	39121.43
692.344	38958.27
692.69	38880.08
693.037	38986.29
693.383	38545.4
693.73	38778.16
694.077	38556.02
694.423	38429.47
694.769	38482.12
695.116	38363.48
695.462	38354.44
695.808	38137.05
696.155	38308.12
696.501	37935.7
696.847	38003.49
697.193	37677.17
697.539	37803.95
697.885	37573.67
698.231	37424.07
698.577	37466.56
698.923	37326
699.269	37190.63
699.614	37119.22
699.96	37024.31
700.306	37042.61
700.651	37009.39
700.997	36770.98
701.342	36669.74
701.688	36565.56
702.033	36511.55
702.379	36545.68
702.724	36531.67
703.069	36483.31
703.415	36219.13
703.76	36088.97
704.105	36079.93
704.45	36011.23
704.795	35772.82
705.14	35711.58
705.485	35678.36
705.83	35508.87
706.175	35589.09
706.52	35428.87
706.865	35304.35
707.209	35447.18
707.554	35327.86
707.899	35388.42
708.243	35033.85
708.588	35082.44
708.932	34717.93
709.277	34912.27
709.621	34842.22
709.966	34627.31
710.31	34691.71
710.654	34465.05
710.998	34558.16
711.342	34448.78
711.687	34319.97
712.031	34165.63
712.375	34147.32
712.719	34296.7
713.063	34148.68
713.407	34288.11
713.75	34003.37
714.094	34040.43
714.438	33821.46
714.782	33799.54
715.125	33730.16
715.469	33715.47
715.812	33639.77
716.156	33439.32
716.499	33427.79
716.843	33463.72
717.186	33302.15
717.53	33330.62
717.873	33463.72
718.216	33288.14
718.559	33103.06
718.902	32829.39
719.246	33079.55
719.589	32818.54
719.932	32790.75
720.275	32776.06
720.617	32655.84
720.96	32522.51
721.303	32611.32
721.646	32671.2
721.989	32492.68
722.331	32608.15
722.674	32400.93
723.016	32446.58
723.359	32349.86
723.701	32430.31
724.044	32163.19
724.386	32054.27
724.729	32190.31
725.071	32043.65
725.413	32098.34
725.755	31973.59
726.097	31832.36
726.439	31788.97
726.782	31769.08
727.124	31810.66
727.465	31732.02
727.807	31659.25
728.149	31636.43
728.491	31494.74
728.833	31595.98
729.175	31472.36
729.516	31416.32
729.858	31327.28
730.199	31398.69
730.541	31393.27
730.882	31299.04
731.224	31392.82
731.565	31180.85
731.906	31110.34
732.248	31144.24
732.589	31059.95
732.93	30819.95
733.271	30827.18
733.612	30852.95
733.953	30997.57
734.294	30786.05
734.635	30780.41
734.976	30821.53
735.317	30615.44
735.658	30707.86
735.999	30543.58
736.339	30484.37
736.68	30600.52
737.021	30457.48
737.361	30305.62
737.702	30506.06
738.042	30223.13
738.383	30250.48
738.723	30382.22
739.063	30226.75
739.404	30264.94
739.744	30162.57
740.084	30033.53
740.424	30200.31
740.764	30027.2
741.104	30033.31
741.444	29905.85
741.784	29951.95
742.124	29935
742.464	29873.99
742.804	29859.98
743.143	29777.27
743.483	29799.64
743.823	29530.72
744.162	29596.03
744.502	29558.06
744.841	29523.72
745.181	29579.08
745.52	29402.59
745.86	29494.56
746.199	29321.46
746.538	29356.71
746.877	29366.21
747.216	29253.21
747.556	29343.83
747.895	29342.25
748.234	29222.25
748.573	29248.02
748.911	29059.09
749.25	29107
749.589	28958.31
749.928	29017.51
750.267	28912.66
750.605	28940.45
750.944	28797.41
751.283	28704.3
751.621	28782.27
751.96	28680.8
752.298	28634.7
752.636	28583.63
752.975	28538.66
753.313	28340.47
753.651	28502.95
753.989	28406
754.327	28272.45
754.666	28128.27
755.004	28102.74
755.342	28139.12
755.679	28020.93
756.017	27976.41
756.355	28175.95
756.693	27951.1
757.031	27930.31
757.368	27711.11
