Data from hue_280_FLMS001491_00095.txt Node
Date: Tue Feb 07 15:56:08 GMT 2017
User: dcchb
Spectrometer: FLMS00149
Trigger mode: 0
Integration Time (sec): 2.000000E-2
Scans to average: 10
Electric dark correction enabled: true
Nonlinearity correction enabled: false
Boxcar width: 0
XAxis mode: Wavelengths
Number of Pixels in Spectrum: 2048
>>>>>Begin Spectral Data<<<<<
341.393	-10.76
341.776	-10.76
342.16	-10.76
342.543	-36.07
342.927	-66.81
343.31	-80.14
343.693	-57.54
344.077	-65.45
344.46	-50.99
344.843	-41.72
345.226	-34.04
345.61	-33.81
345.993	-43.98
346.376	-16.64
346.759	0.76
347.142	32.17
347.525	33.08
347.908	62
348.291	90.03
348.674	96.35
349.057	109.91
349.44	123.02
349.823	138.61
350.206	180.87
350.588	188.33
350.971	191.49
351.354	214.54
351.737	227.2
352.119	228.78
352.502	260.19
352.884	232.4
353.267	276.46
353.65	278.04
354.032	288.66
354.414	287.76
354.797	292.51
355.179	295.22
355.562	316.91
355.944	311.71
356.326	323.69
356.709	315.78
357.091	335.22
357.473	330.7
357.855	330.7
358.238	310.13
358.62	337.48
359.002	312.84
359.384	329.79
359.766	350.36
360.148	329.79
360.53	308.78
360.912	332.05
361.294	319.17
361.676	315.56
362.057	329.57
362.439	322.34
362.821	317.14
363.203	305.84
363.584	338.15
363.966	306.52
364.348	316.01
364.729	323.47
365.111	311.04
365.493	298.61
365.874	309.68
366.256	304.48
366.637	284.82
367.019	308.1
367.4	305.61
367.781	311.04
368.163	332.28
368.544	306.52
368.925	317.36
369.306	294.31
369.688	293.41
370.069	292.73
370.45	284.82
370.831	285.05
371.212	308.33
371.593	309.68
371.974	299.06
372.355	309.68
372.736	297.03
373.117	298.83
373.498	314.43
373.879	294.77
374.26	310.13
374.641	301.55
375.021	303.35
375.402	320.08
375.783	318.72
376.163	303.13
376.544	336.8
376.925	315.78
377.305	320.3
377.686	314.43
378.066	330.25
378.447	320.53
378.827	326.63
379.208	329.12
379.588	308.33
379.968	322.56
380.349	342
380.729	336.57
381.109	327.99
381.489	320.53
381.87	329.12
382.25	341.09
382.63	321.66
383.01	331.83
383.39	341.09
383.77	351.49
384.15	335.67
384.53	334.54
384.91	348.32
385.29	332.73
385.67	331.15
386.049	337.25
386.429	336.57
386.809	349.45
387.189	327.08
387.568	341.77
387.948	357.36
388.328	344.26
388.707	355.78
389.087	353.97
389.466	351.94
389.846	345.39
390.225	361.21
390.605	339.74
390.984	371.15
391.363	358.72
391.743	339.28
392.122	337.48
392.501	339.51
392.881	361.66
393.26	355.1
393.639	365.27
394.018	375.67
394.397	363.92
394.776	374.76
395.155	403.24
395.534	364.37
395.913	362.56
396.292	391.94
396.671	390.81
397.05	381.77
397.429	392.84
397.808	382.22
398.186	389.91
398.565	386.74
398.944	385.84
399.323	375.89
399.701	389.68
400.08	404.82
400.458	387.87
400.837	403.69
401.215	406.4
401.594	403.46
401.972	399.85
402.351	403.01
402.729	399.62
403.107	405.27
403.486	422.9
403.864	398.49
404.242	430.13
404.62	428.77
404.999	416.34
405.377	441.66
405.755	436.01
406.133	440.98
406.511	440.53
406.889	461.54
407.267	447.3
407.645	468.55
408.023	457.47
408.401	466.74
408.779	466.97
409.156	462.67
409.534	461.09
409.912	523.46
410.29	489.11
410.667	491.82
411.045	498.6
411.422	496.57
411.8	513.29
412.178	518.49
412.555	515.1
412.933	540.86
413.31	515.78
413.687	559.62
414.065	549
414.442	547.41
414.819	549.67
415.197	583.57
415.574	574.31
415.951	566.62
416.328	587.41
416.705	573.85
417.082	594.42
417.46	600.75
417.837	610.69
418.214	607.3
418.591	625.61
418.967	629.9
419.344	635.32
419.721	638.26
420.098	638.26
420.475	658.37
420.852	657.47
421.228	671.48
421.605	655.66
421.982	695.66
422.358	698.15
422.735	722.55
423.111	725.72
423.488	737.24
423.864	726.85
424.241	748.09
424.617	729.56
424.994	763.68
425.37	775.21
425.746	770.23
426.123	778.82
426.499	785.15
426.875	798.48
427.251	812.72
427.627	841.42
428.003	849.55
428.379	830.8
428.756	856.79
429.132	875.54
429.507	913.51
429.883	890.68
430.259	899.5
430.635	916.44
431.011	883.45
431.387	922.55
431.763	946.5
432.138	937.01
432.514	940.62
432.89	969.32
433.265	983.56
433.641	1000.06
434.016	1032.6
434.392	1045.48
434.767	1059.72
435.143	1045.48
435.518	1034.86
435.894	1075.31
436.269	1087.29
436.644	1099.49
437.02	1122.99
437.395	1136.33
437.77	1157.79
438.145	1163.22
438.52	1177.68
438.895	1168.87
439.271	1169.55
439.646	1207.51
440.021	1217.68
440.395	1230.33
440.77	1229.2
441.145	1241.18
441.52	1269.43
441.895	1242.99
442.27	1278.02
442.645	1279.37
443.019	1285.25
443.394	1289.09
443.769	1333.83
444.143	1327.51
444.518	1342.87
444.892	1337.22
445.267	1341.52
445.641	1324.34
446.016	1355.76
446.39	1359.82
446.764	1381.29
447.139	1390.78
447.513	1379.26
447.887	1385.13
448.262	1414.96
448.636	1410.22
449.01	1397.79
449.384	1429.88
449.758	1446.83
450.132	1468.07
450.506	1442.76
450.88	1450.22
451.254	1462.65
451.628	1487.96
452.002	1503.77
452.376	1535.41
452.75	1498.12
453.123	1506.94
453.497	1556.88
453.871	1544.22
454.244	1568.63
454.618	1568.41
454.992	1580.38
455.365	1591
455.739	1612.92
456.112	1639.36
456.486	1619.03
456.859	1665.58
457.232	1663.09
457.606	1662.19
457.979	1669.87
458.352	1719.36
458.725	1747.84
459.099	1758.23
459.472	1750.32
459.845	1764.33
460.218	1788.96
460.591	1793.26
460.964	1821.51
461.337	1866.02
461.71	1850.43
462.083	1895.4
462.456	1877.55
462.829	1903.31
463.201	1882.75
463.574	1910.09
463.947	1922.29
464.32	1965.68
464.692	1953.71
465.065	1967.94
465.438	2005.91
465.81	2023.08
466.183	2025.34
466.555	2100.37
466.928	2061.5
467.3	2103.53
467.672	2105.79
468.045	2134.27
468.417	2151.67
468.789	2175.62
469.161	2170.88
469.534	2225.56
469.906	2262.17
470.278	2251.78
470.65	2249.97
471.022	2323.87
471.394	2334.26
471.766	2355.96
472.138	2409.74
472.51	2417.2
472.882	2412.22
473.253	2446.8
473.625	2501.49
473.997	2516.63
474.369	2541.26
474.74	2539.9
475.112	2624.87
475.484	2661.94
475.855	2682.73
476.227	2692.22
476.598	2743.52
476.97	2732.67
477.341	2793.46
477.713	2840.24
478.084	2827.58
478.455	2899.67
478.827	2916.39
479.198	3003.85
479.569	2983.06
479.94	3005.2
480.311	3048.37
480.682	3071.64
481.053	3194.58
481.424	3202.94
481.795	3219.89
482.166	3277.06
482.537	3279.32
482.908	3360.22
483.279	3330.17
483.65	3382.37
484.021	3444.29
484.391	3441.58
484.762	3466.21
485.133	3505.08
485.503	3581.23
485.874	3634.57
486.244	3634.11
486.615	3724.96
486.985	3717.5
487.356	3793.66
487.726	3795.69
488.097	3858.51
488.467	3840.89
488.837	3938.29
489.207	3983.48
489.578	3965.4
489.948	4031.84
490.318	4090.82
490.688	4006.99
491.058	4096.7
491.428	4150.03
491.798	4190.48
492.168	4255.11
492.538	4268.45
492.908	4314.55
493.278	4329.01
493.648	4313.87
494.017	4369.24
494.387	4460.53
494.757	4424.6
495.126	4499.85
495.496	4516.8
495.866	4489.91
496.235	4516.35
496.605	4583.02
496.974	4573.07
497.344	4625.05
497.713	4652.17
498.082	4678.15
498.452	4676.12
498.821	4754.54
499.19	4676.57
499.559	4711.15
499.928	4745.5
500.298	4803.12
500.667	4793.86
501.036	4759.73
501.405	4896.23
501.774	4874.08
502.143	4866.62
502.512	4839.51
502.88	4951.14
503.249	4916.79
503.618	4972.61
503.987	4957.24
504.356	4956.34
504.724	5001.99
505.093	5039.27
505.462	4995.21
505.83	5050.57
506.199	5031.36
506.567	5095.32
506.936	5124.02
507.304	5124.47
507.672	5082.89
508.041	5133.74
508.409	5194.75
508.777	5221.42
509.145	5228.87
509.514	5284.24
509.882	5263.68
510.25	5180.06
510.618	5252.83
510.986	5274.07
511.354	5325.82
511.722	5298.02
512.09	5373.95
512.458	5347.74
512.826	5421.19
513.193	5363.56
513.561	5418.47
513.929	5465.7
514.297	5455.76
514.664	5471.13
515.032	5472.94
515.4	5546.83
515.767	5509.09
516.135	5486.04
516.502	5499.6
516.869	5524.01
517.237	5543.44
517.604	5518.81
517.972	5593.16
518.339	5564.01
518.706	5617.56
519.073	5605.59
519.44	5624.8
519.808	5675.19
520.175	5660.73
520.542	5656.89
520.909	5665.92
521.276	5734.4
521.643	5741.85
522.009	5743.66
522.376	5750.67
522.743	5757.22
523.11	5832.02
523.477	5829.54
523.843	5890.78
524.21	5921.96
524.577	5934.39
524.943	5959.02
525.31	5921.51
525.676	5947.5
526.043	6016.88
526.409	5963.77
526.776	6063.2
527.142	6055.52
527.508	6077.67
527.874	6138.68
528.241	6113.6
528.607	6149.75
528.973	6138.23
529.339	6195.85
529.705	6279.02
530.071	6209.86
530.437	6273.59
530.803	6280.82
531.169	6272.91
531.535	6303.2
531.901	6288.28
532.267	6345.91
532.632	6339.58
532.998	6332.8
533.364	6387.04
533.73	6434.04
534.095	6426.81
534.461	6457.32
534.826	6428.16
535.192	6476.3
535.557	6559.23
535.923	6481.04
536.288	6507.94
536.653	6498.44
537.019	6509.07
537.384	6502.74
537.749	6585.9
538.114	6554.04
538.479	6566.01
538.845	6580.02
539.21	6579.35
539.575	6613.24
539.94	6639.01
540.305	6675.62
540.67	6646.69
541.034	6664.77
541.399	6667.71
541.764	6676.75
542.129	6727.82
542.494	6675.16
542.858	6692.56
543.223	6723.07
543.587	6706.35
543.952	6768.49
544.316	6815.05
544.681	6718.55
545.045	6747.7
545.41	6780.02
545.774	6829.74
546.138	6756.52
546.503	6739.12
546.867	6796.97
547.231	6837.65
547.595	6897.08
547.959	6897.98
548.324	6865.67
548.688	6955.61
549.052	6946.57
549.416	6939.56
549.779	6952.67
550.143	6885.33
550.507	6978.88
550.871	6923.52
551.235	6944.99
551.599	6996.28
551.962	6953.8
552.326	7005.1
552.689	7022.5
553.053	6975.95
553.417	6985.66
553.78	7064.53
554.143	7027.7
554.507	7024.98
554.87	7125.32
555.234	7183.17
555.597	7052.1
555.96	7113.57
556.323	7074.48
556.686	7103.17
557.05	7181.36
557.413	7222.95
557.776	7175.04
558.139	7233.34
558.502	7215.49
558.865	7257.75
559.228	7355.15
559.59	7306.11
559.953	7303.62
560.316	7389.04
560.679	7335.71
561.041	7405.31
561.404	7446.44
561.767	7475.82
562.129	7410.51
562.492	7448.25
562.854	7460.23
563.217	7431.08
563.579	7491.19
563.941	7501.58
564.304	7525.76
564.666	7607.34
565.028	7633.56
565.39	7589.94
565.753	7685.53
566.115	7700.45
566.477	7718.75
566.839	7678.75
567.201	7815.92
567.563	7777.06
567.925	7807.34
568.287	7796.72
568.648	7862.93
569.01	7876.71
569.372	7897.05
569.734	7983.38
570.095	7984.51
570.457	7967.56
570.819	8002.13
571.18	8050.95
571.542	8023.15
571.903	8098.85
572.265	8071.74
572.626	8141.57
572.987	8143.83
573.349	8162.36
573.71	8208
574.071	8284.39
574.432	8317.83
574.794	8354.89
575.155	8314.89
575.516	8358.06
575.877	8437.38
576.238	8468.11
576.599	8466.08
576.96	8553.08
577.32	8532.52
577.681	8596.02
578.042	8608.67
578.403	8593.53
578.763	8681.44
579.124	8692.51
579.485	8747.65
579.845	8807.31
580.206	8795.11
580.566	8867.87
580.927	8922.34
581.287	8908.33
581.648	9029.68
582.008	9041.43
582.368	9038.27
582.728	9111.03
583.089	9134.76
583.449	9208.66
583.809	9323.68
584.169	9362.78
584.529	9345.6
584.889	9490.23
585.249	9544.69
585.609	9492.72
585.969	9624.46
586.329	9667.4
586.688	9779.49
587.048	9782.43
587.408	9839.15
587.768	9894.51
588.127	9962.08
588.487	9991.46
588.846	10111.46
589.206	10100.16
589.565	10144.22
589.925	10325.69
590.284	10321.62
590.643	10416.76
591.003	10505.57
591.362	10584.89
591.721	10595.06
592.08	10671.44
592.44	10809.07
592.799	10910.98
593.158	10892.91
593.517	10957.54
593.876	11052.68
594.235	11014.48
594.593	11119.79
594.952	11164.99
595.311	11164.76
595.67	11213.8
596.029	11435.26
596.387	11522.72
596.746	11502.83
597.104	11508.93
597.463	11591.42
597.822	11694.47
598.18	11644.3
598.538	11778.08
598.897	11820.11
599.255	11828.47
599.613	12083.83
599.972	11937.62
600.33	12131.07
600.688	12115.25
601.046	12118.41
601.404	12236.15
601.762	12195.92
602.12	12320.89
602.478	12444.28
602.836	12457.61
603.194	12462.13
603.552	12464.62
603.91	12483.15
604.268	12568.12
604.625	12575.12
604.983	12669.81
605.341	12635.01
605.698	12752.97
606.056	12767.66
606.413	12795.45
606.771	12883.14
607.128	12927.2
607.485	12860.31
607.843	12920.2
608.2	13020.31
608.557	13074.54
608.914	13051.27
609.272	13154.99
609.629	13228.66
609.986	13303.46
610.343	13196.12
610.7	13338.72
611.057	13244.48
611.414	13366.74
611.771	13401.77
612.127	13430.69
612.484	13493.52
612.841	13557.02
613.198	13473.4
613.554	13540.97
613.911	13665.26
614.267	13536.68
614.624	13733.28
614.98	13677.24
615.337	13725.37
615.693	13763.11
616.05	13672.27
616.406	13790.68
616.762	13711.59
617.118	13729.67
617.475	13828.65
617.831	13794.3
618.187	13900.96
618.543	13833.85
618.899	13999.26
619.255	14030.45
619.611	13900.74
619.967	14002.2
620.323	14042.2
620.678	14022.77
621.034	13996.55
621.39	14045.14
621.746	14013.28
622.101	14148.64
622.457	14033.61
622.812	14194.97
623.168	14102.31
623.523	14104.8
623.879	14128.3
624.234	14089.66
624.589	14191.12
624.945	14197.9
625.3	14168.53
625.655	14196.55
626.01	14251.24
626.365	14226.15
626.72	14335.53
627.075	14216.21
627.43	14188.41
627.785	14274.51
628.14	14220.95
628.495	14291.01
628.85	14228.41
629.205	14198.13
629.559	14332.14
629.914	14190.9
630.269	14288.97
630.623	14267.05
630.978	14124.01
631.332	14224.34
631.687	14251.01
632.041	14182.99
632.396	14215.53
632.75	14164.46
633.104	14131.24
633.459	14135.98
633.813	14100.73
634.167	14044.01
634.521	14159.71
634.875	14160.16
635.229	14083.78
635.583	14018.93
635.937	14053.5
636.291	14023.44
636.645	13997.23
636.999	14018.7
637.352	14008.08
637.706	13990
638.06	14020.28
638.413	13976.89
638.767	14016.21
639.121	14044.24
639.474	13895.76
639.828	13947.29
640.181	13906.16
640.534	13921.07
640.888	13835.65
641.241	13843.11
641.594	13848.53
641.947	13868.42
642.301	13839.72
642.654	13908.42
643.007	13818.7
643.36	13765.15
643.713	13816.44
644.066	13825.26
644.419	13839.95
644.771	13684.02
645.124	13631.59
645.477	13589.11
645.83	13517.02
646.182	13378.04
646.535	13407.42
646.888	13401.99
647.24	13270.7
647.593	13453.74
647.945	13393.18
648.298	13363.12
648.65	13376.23
649.002	13356.12
649.355	13434.31
649.707	13388.66
650.059	13451.48
650.411	13685.15
650.763	13622.55
651.115	13761.3
651.467	13695.09
651.819	13742.1
652.171	13735.32
652.523	13675.88
652.875	13676.11
653.227	13625.26
653.578	13710.01
653.93	13755.88
654.282	13677.69
654.633	13648.09
654.985	13667.97
655.337	13718.59
655.688	13722.66
656.039	13751.59
656.391	13589.78
656.742	13713.4
657.094	13719.95
657.445	13808.54
657.796	13713.85
658.147	13679.05
658.498	13725.37
658.849	13747.97
659.2	13755.43
659.551	13652.61
659.902	13760.17
660.253	13705.49
660.604	13803.34
660.955	13663
661.306	13853.28
661.656	13767.41
662.007	13831.36
662.358	13804.24
662.708	13835.65
663.059	13831.59
663.409	13745.03
663.76	13776.67
664.11	13814.64
664.461	13840.62
664.811	13764.47
665.161	13808.76
665.511	13807.41
665.862	13851.02
666.212	13896.44
666.562	13920.62
666.912	13833.62
667.262	13785.71
667.612	13799.27
667.962	13816.22
668.312	13842.88
668.662	13845.37
669.011	13898.7
669.361	13839.27
669.711	13763.34
670.06	13722.66
670.41	13740.51
670.76	13740.29
671.109	13848.08
671.459	13811.7
671.808	13727.18
672.157	13797.69
672.507	13656.9
672.856	13670.91
673.205	13672.95
673.554	13728.09
673.904	13680.85
674.253	13712.27
674.602	13743.9
674.951	13521.76
675.3	13468.66
675.649	13629.1
675.998	13592.5
676.346	13626.17
676.695	13644.02
677.044	13571.93
677.393	13531.03
677.741	13648.09
678.09	13521.09
678.438	13504.14
678.787	13616.45
679.135	13521.54
679.484	13399.73
679.832	13546.4
680.181	13450.13
680.529	13450.13
680.877	13407.42
681.225	13405.38
681.573	13402.9
681.922	13378.49
682.27	13321.99
682.618	13291.71
682.966	13285.84
683.314	13295.33
683.661	13309.11
684.009	13178.5
684.357	13166.97
684.705	13136.46
685.053	13111.15
685.4	13108.21
685.748	13083.13
686.095	13023.02
686.443	12967.65
686.79	13017.82
687.138	13009.69
687.485	13016.01
687.832	12970.37
688.18	12930.82
688.527	12807.43
688.874	12817.6
689.221	12842.23
689.568	12785.51
689.915	12783.48
690.262	12769.24
690.609	12649.02
690.956	12602.92
691.303	12607.66
691.65	12528.12
691.997	12497.61
692.344	12446.99
692.69	12369.7
693.037	12369.7
693.383	12324.05
693.73	12290.16
694.077	12263.49
694.423	12276.37
694.769	12207.22
695.116	12209.71
695.462	12093.55
695.808	12107.34
696.155	12188.24
696.501	12024.4
696.847	12031.18
697.193	11901.69
697.539	11937.4
697.885	11901.24
698.231	11790.28
698.577	11818.98
698.923	11747.12
699.269	11631.42
699.614	11680
699.96	11577.18
700.306	11601.14
700.651	11606.33
700.997	11491.99
701.342	11425.1
701.688	11446.34
702.033	11390.07
702.379	11383.74
702.724	11350.52
703.069	11301.93
703.415	11162.5
703.76	11219.22
704.105	11157.98
704.45	11105.78
704.795	11053.58
705.14	10941.72
705.485	11003.19
705.83	10938.55
706.175	10960.93
706.52	10875.05
706.865	10845.45
707.209	10847.71
707.554	10872.34
707.899	10777.43
708.243	10768.84
708.588	10771.78
708.932	10673.25
709.277	10759.8
709.621	10674.15
709.966	10656.08
710.31	10656.75
710.654	10484.55
710.998	10599.58
711.342	10422.41
711.687	10511.9
712.031	10478.91
712.375	10459.47
712.719	10509.64
713.063	10429.87
713.407	10435.97
713.75	10339.25
714.094	10362.3
714.438	10334.95
714.782	10341.51
715.125	10249.08
715.469	10315.29
715.812	10242.53
716.156	10165.69
716.499	10209.53
716.843	10265.35
717.186	10163.66
717.53	10189.42
717.873	10148.74
718.216	10147.61
718.559	10088.63
718.902	10095.64
719.246	10043.21
719.589	10004.57
719.932	10029.88
720.275	10034.4
720.617	10009.77
720.96	9984.23
721.303	9995.08
721.646	9922.08
721.989	9917.11
722.331	9986.49
722.674	9968.64
723.016	9993.49
723.359	9884.8
723.701	9915.76
724.044	9856.32
724.386	9860.62
724.729	9859.71
725.071	9827.17
725.413	9888.41
725.755	9840.28
726.097	9742.88
726.439	9769.32
726.782	9707.17
727.124	9822.88
727.465	9791.47
727.807	9774.29
728.149	9767.06
728.491	9760.05
728.833	9770
729.175	9779.04
729.516	9763.44
729.858	9742.43
730.199	9806.61
730.541	9723.9
730.882	9736.1
731.224	9733.39
731.565	9717.34
731.906	9707.4
732.248	9734.74
732.589	9673.05
732.93	9674.41
733.271	9633.05
733.612	9716.89
733.953	9696.1
734.294	9684.8
734.635	9743.78
734.976	9716.21
735.317	9715.08
735.658	9664.46
735.999	9687.97
736.339	9654.07
736.68	9767.96
737.021	9689.32
737.361	9709.89
737.702	9737.46
738.042	9718.7
738.383	9615.88
738.723	9761.86
739.063	9767.96
739.404	9673.5
739.744	9780.84
740.084	9688.64
740.424	9770.9
740.764	9698.59
741.104	9804.35
741.444	9787.62
741.784	9735.42
742.124	9835.76
742.464	9775.19
742.804	9769.09
743.143	9792.37
743.483	9902.65
743.823	9835.98
744.162	9882.08
744.502	9906.04
744.841	9937.9
745.181	10017.9
745.52	10005.92
745.86	10092.25
746.199	10112.59
746.538	10181.29
746.877	10186.03
747.216	10223.32
747.556	10261.51
747.895	10366.82
748.234	10297.89
748.573	10413.6
748.911	10457.89
749.25	10500.6
749.589	10568.85
749.928	10719.35
750.267	10745.56
750.605	10866.92
750.944	10868.73
751.283	10850.19
751.621	10957.54
751.96	11013.58
752.298	11107.14
752.636	11211.54
752.975	11302.16
753.313	11375.15
753.651	11523.85
753.989	11623.51
754.327	11667.12
754.666	11734.69
755.004	11852.88
755.342	12008.13
755.679	12117.51
756.017	12184.17
756.355	12378.97
756.693	12400.66
757.031	12663.71
757.368	12684.05
757.706	12846.98
758.044	12968.78
758.381	13163.58
758.719	13183.92
759.056	13305.95
759.394	13551.37
759.731	13586.62
760.068	13734.64
760.405	13855.54
760.743	13944.8
761.08	14133.72
