Data from hue_350_FLMS001491_42.txt Node
Date: Mon Feb 06 15:38:04 GMT 2017
User: dcchb
Spectrometer: FLMS00149
Trigger mode: 0
Integration Time (sec): 2.000000E-2
Scans to average: 10
Electric dark correction enabled: true
Nonlinearity correction enabled: false
Boxcar width: 0
XAxis mode: Wavelengths
Number of Pixels in Spectrum: 2048
>>>>>Begin Spectral Data<<<<<
341.393	-1.64
341.776	-1.64
342.16	-1.64
342.543	-63.78
342.927	-94.07
343.31	-59.72
343.693	-61.07
344.077	-74.18
344.46	-73.73
344.843	-69.89
345.226	-37.57
345.61	-27.4
345.993	-14.52
346.376	11.24
346.759	3.79
347.142	22.77
347.525	44.24
347.908	58.7
348.291	75.2
348.674	98.02
349.057	104.12
349.44	137.34
349.823	147.51
350.206	155.87
350.588	186.61
350.971	199.03
351.354	221.41
351.737	231.35
352.119	227.73
352.502	260.28
352.884	276.09
353.267	271.8
353.65	283.33
354.032	311.12
354.414	306.15
354.797	303.66
355.179	314.96
355.562	292.14
355.944	315.42
356.326	334.62
356.709	327.62
357.091	324
357.473	325.58
357.855	327.39
358.238	341.86
358.62	334.62
359.002	341.18
359.384	316.32
359.766	332.59
360.148	320.84
360.53	337.79
360.912	341.63
361.294	348.86
361.676	313.38
362.057	335.75
362.439	320.61
362.821	340.73
363.203	328.52
363.584	316.09
363.966	311.8
364.348	310.44
364.729	320.61
365.111	311.57
365.493	317.22
365.874	328.97
366.256	301.63
366.637	330.56
367.019	303.66
367.4	309.31
367.781	320.61
368.163	290.78
368.544	332.14
368.925	319.71
369.306	332.14
369.688	331.69
370.069	286.04
370.45	315.42
370.831	302.08
371.212	308.41
371.593	319.03
371.974	305.92
372.355	319.03
372.736	322.19
373.117	322.19
373.498	296.21
373.879	310.9
374.26	324.68
374.641	319.48
375.021	307.05
375.402	314.51
375.783	309.99
376.163	305.92
376.544	312.93
376.925	305.7
377.305	325.36
377.686	308.86
378.066	323.1
378.447	326.04
378.827	323.1
379.208	346.38
379.588	317.45
379.968	338.47
380.349	330.1
380.729	317
381.109	335.3
381.489	324.45
381.87	309.77
382.25	351.12
382.63	338.24
383.01	312.93
383.39	326.94
383.77	327.39
384.15	337.56
384.53	335.08
384.91	323.32
385.29	325.58
385.67	345.25
386.049	335.75
386.429	353.61
386.809	348.63
387.189	330.1
387.568	338.24
387.948	352.93
388.328	357.9
388.707	345.25
389.087	327.17
389.466	349.76
389.846	331.01
390.225	355.19
390.605	341.18
390.984	375.3
391.363	352.93
391.743	355.87
392.122	362.42
392.501	361.29
392.881	371.01
393.26	351.12
393.639	354.06
394.018	355.41
394.397	333.72
394.776	380.05
395.155	362.19
395.534	339.6
395.913	363.78
396.292	381.18
396.671	381.18
397.05	369.43
397.429	388.63
397.808	366.49
398.186	373.49
398.565	373.72
398.944	372.82
399.323	378.69
399.701	354.28
400.08	366.71
400.458	368.07
400.837	396.54
401.215	396.54
401.594	387.28
401.972	384.11
402.351	378.46
402.729	365.36
403.107	389.31
403.486	389.99
403.864	382.76
404.242	393.15
404.62	386.37
404.999	400.38
405.377	375.3
405.755	400.61
406.133	392.93
406.511	389.99
406.889	414.4
407.267	412.59
407.645	419.59
408.023	418.46
408.401	424.11
408.779	437.22
409.156	442.19
409.534	442.87
409.912	434.96
410.29	420.95
410.667	445.58
411.045	438.12
411.422	446.26
411.8	438.12
412.178	440.84
412.555	453.94
412.933	440.16
413.31	433.38
413.687	466.15
414.065	456.2
414.442	457.11
414.819	491
415.197	491.91
415.574	478.35
415.951	485.58
416.328	504.79
416.705	474.28
417.082	488.07
417.46	485.58
417.837	483.32
418.214	486.71
418.591	480.38
418.967	502.98
419.344	505.69
419.721	497.11
420.098	495.07
420.475	515.18
420.852	503.89
421.228	518.57
421.605	508.18
421.982	532.36
422.358	508.18
422.735	536.2
423.111	526.48
423.488	533.71
423.864	527.84
424.241	549.53
424.617	552.02
424.994	560.83
425.37	567.84
425.746	563.77
426.123	552.7
426.499	552.7
426.875	573.71
427.251	580.04
427.627	543.21
428.003	592.92
428.379	595.41
428.756	591.57
429.132	582.98
429.507	607.84
429.883	601.74
430.259	619.14
430.635	605.13
431.011	616.42
431.387	620.04
431.763	648.74
432.138	635.18
432.514	628.18
432.89	645.12
433.265	653.03
433.641	665.91
434.016	634.05
434.392	671.11
434.767	676.31
435.143	685.12
435.518	674.95
435.894	693.71
436.269	698.46
436.644	706.37
437.02	683.32
437.395	696.87
437.77	712.02
438.145	721.96
438.52	696.87
438.895	728.06
439.271	746.36
439.646	742.07
440.021	732.81
440.395	742.3
440.77	759.7
441.145	752.01
441.52	767.61
441.895	740.94
442.27	740.49
442.645	776.87
443.019	753.82
443.394	779.58
443.769	769.87
444.143	779.81
444.518	784.78
444.892	792.01
445.267	816.19
445.641	807.38
446.016	826.81
446.39	790.21
446.764	805.35
447.139	816.42
447.513	820.26
447.887	812.58
448.262	816.87
448.636	828.85
449.01	820.71
449.384	828.17
449.758	829.75
450.132	850.32
450.506	835.4
450.88	832.24
451.254	855.29
451.628	862.97
452.002	860.26
452.376	883.76
452.75	883.76
453.123	877.21
453.497	880.15
453.871	884.89
454.244	906.59
454.618	900.48
454.992	899.58
455.365	908.85
455.739	922.18
456.112	975.74
456.486	936.87
456.859	965.34
457.232	960.82
457.606	959.47
457.979	966.7
458.352	984.1
458.725	991.56
459.099	993.59
459.472	1022.74
459.845	1023.65
460.218	1051.22
460.591	1012.35
460.964	1030.88
461.337	1059.58
461.71	1062.06
462.083	1087.6
462.456	1095.51
462.829	1082.4
463.201	1102.51
463.574	1090.54
463.947	1116.75
464.32	1131.89
464.692	1163.75
465.065	1149.52
465.438	1176.41
465.81	1165.56
466.183	1193.13
466.555	1233.58
466.928	1195.39
467.3	1209.63
467.672	1222.74
468.045	1254.6
468.417	1275.16
468.789	1240.14
469.161	1264.54
469.534	1280.14
469.906	1320.59
470.278	1347.03
470.65	1375.95
471.022	1378.44
471.394	1405.56
471.766	1379.34
472.138	1425.44
472.51	1433.13
472.882	1455.27
473.253	1512.9
473.625	1485.78
473.997	1530.75
474.369	1540.92
474.74	1557.19
475.112	1571.43
475.484	1602.84
475.855	1636.96
476.227	1631.99
476.598	1654.59
476.97	1706.34
477.341	1747.69
477.713	1734.14
478.084	1741.37
478.455	1831.08
478.827	1802.38
479.198	1855.26
479.569	1883.51
479.94	1908.37
480.311	1951.98
480.682	1948.82
481.053	2011.64
481.424	2057.06
481.795	2098.65
482.166	2118.76
482.537	2159.89
482.908	2152.2
483.279	2197.4
483.65	2234.91
484.021	2283.05
484.391	2314.91
484.762	2334.57
485.133	2345.42
485.503	2366.43
485.874	2433.78
486.244	2468.35
486.615	2519.88
486.985	2549.93
487.356	2563.49
487.726	2624.06
488.097	2694.34
488.467	2709.48
488.837	2725.07
489.207	2755.35
489.578	2833.09
489.948	2823.15
490.318	2875.35
490.688	2901.34
491.058	2926.19
491.428	2926.87
491.798	3003.71
492.168	3017.04
492.538	3043.48
492.908	3098.39
493.278	3171.39
493.648	3204.83
494.017	3215
494.387	3223.81
494.757	3251.16
495.126	3295.22
495.496	3311.72
495.866	3346.52
496.235	3339.29
496.605	3396.01
496.974	3402.57
497.344	3452.96
497.713	3457.25
498.082	3462.45
498.452	3518.27
498.821	3541.09
499.19	3544.71
499.559	3593.52
499.928	3576.57
500.298	3633.75
500.667	3653.18
501.036	3629.9
501.405	3709
501.774	3693.86
502.143	3726.85
502.512	3745.83
502.88	3773.18
503.249	3785.83
503.618	3747.42
503.987	3815.44
504.356	3841.88
504.724	3891.59
505.093	3855.66
505.462	3886.62
505.83	3925.04
506.199	3930.46
506.567	3944.02
506.936	3970.69
507.304	4008.88
507.672	4005.49
508.041	4064.7
508.409	4058.14
508.777	4087.52
509.145	4136.78
509.514	4118.03
509.882	4117.35
510.25	4135.65
510.618	4152.83
510.986	4157.8
511.354	4165.48
511.722	4273.05
512.09	4212.49
512.458	4271.02
512.826	4285.48
513.193	4266.05
513.561	4232.15
513.929	4266.05
514.297	4264.46
514.664	4396.66
515.032	4374.97
515.4	4403.22
515.767	4437.34
516.135	4374.97
516.502	4336.55
516.869	4421.3
517.237	4436.66
517.604	4433.95
517.972	4472.59
518.339	4492.71
518.706	4468.53
519.073	4452.03
519.44	4528.64
519.808	4559.82
520.175	4561.18
520.542	4553.27
520.909	4600.73
521.276	4557.34
521.643	4642.08
522.009	4652.02
522.376	4644.12
522.743	4684.11
523.11	4729.76
523.477	4795.3
523.843	4738.8
524.21	4810.21
524.577	4809.99
524.943	4819.93
525.31	4894.5
525.676	4894.96
526.043	4924.79
526.409	4936.76
526.776	5005.69
527.142	5014.27
527.508	5028.29
527.874	5038
528.241	5056.31
528.607	5068.06
528.973	5114.61
529.339	5139.92
529.705	5143.09
530.071	5227.6
530.437	5192.12
530.803	5211.56
531.169	5192.12
531.535	5275.51
531.901	5267.15
532.267	5308.28
532.632	5314.38
532.998	5360.93
533.364	5352.8
533.73	5371.55
534.095	5391.89
534.461	5411.1
534.826	5486.8
535.192	5450.2
535.557	5496.07
535.923	5495.17
536.288	5544.2
536.653	5555.05
537.019	5549.4
537.384	5649.06
537.749	5611.1
538.114	5626.91
538.479	5640.7
538.845	5711.66
539.21	5718.44
539.575	5689.96
539.94	5765.22
540.305	5795.5
540.67	5792.33
541.034	5799.79
541.399	5843.18
541.764	5851.32
542.129	5893.8
542.494	5924.76
542.858	5953.69
543.223	5973.57
543.587	5992.1
543.952	6044.3
544.316	6025.55
544.681	6030.29
545.045	6030.97
545.41	6114.13
545.774	6089.73
546.138	6145.54
546.503	6152.32
546.867	6159.56
547.231	6177.63
547.595	6198.65
547.959	6296.5
548.324	6264.41
548.688	6301.47
549.052	6305.99
549.416	6317.29
549.779	6332.21
550.143	6321.13
550.507	6402.71
550.871	6448.36
551.235	6428.02
551.599	6484.74
551.962	6463.28
552.326	6509.15
552.689	6527.46
553.053	6534.23
553.417	6554.35
553.78	6605.19
554.143	6601.13
554.507	6619.2
554.87	6655.36
555.234	6712.54
555.597	6665.76
555.96	6753.21
556.323	6745.08
556.686	6749.37
557.05	6724.74
557.413	6790.27
557.776	6791.18
558.139	6795.47
558.502	6839.99
558.865	6817.39
559.228	6880.89
559.59	6895.36
559.953	6883.38
560.316	6992.53
560.679	6937.39
561.041	6964.28
561.404	7050.15
561.767	7084.95
562.129	7034.33
562.492	7120.89
562.854	7113.43
563.217	7149.36
563.579	7170.83
563.941	7187.33
564.304	7178.96
564.666	7252.63
565.028	7316.36
565.39	7247.66
565.753	7355.46
566.115	7392.07
566.477	7372.41
566.839	7426.19
567.201	7384.61
567.563	7442.69
567.925	7562.68
568.287	7529.24
568.648	7438.39
569.01	7537.37
569.372	7627.99
569.734	7605.39
570.095	7665.73
570.457	7672.28
570.819	7752.51
571.18	7727.42
571.542	7830.02
571.903	7748.21
572.265	7892.84
572.626	7942.33
572.987	7942.56
573.349	8025.95
573.71	7998.6
574.071	8048.32
574.432	8104.14
574.794	8231.82
575.155	8270.69
575.516	8220.52
575.877	8325.6
576.238	8374.86
576.599	8456.44
576.96	8476.1
577.32	8628.64
577.681	8628.64
578.042	8745.93
578.403	8800.62
578.763	8868.18
579.124	8964.91
579.485	9120.16
579.845	9221.17
580.206	9266.59
580.566	9320.6
580.927	9478.56
581.287	9586.36
581.648	9729.63
582.008	9812.11
582.368	9933.24
582.728	10110.41
583.089	10215.72
583.449	10303.18
583.809	10511.08
584.169	10626.78
584.529	10811.41
584.889	10961.46
585.249	11150.61
585.609	11257.95
585.969	11552.63
586.329	11603.03
586.688	11863.59
587.048	12107.42
587.408	12213.86
587.768	12462.44
588.127	12697.24
588.487	12900.17
588.846	13283.44
589.206	13339.03
589.565	13606.82
589.925	13844.55
590.284	14134.04
590.643	14315.27
591.003	14670.29
591.362	14891.98
591.721	15182.14
592.08	15432.53
592.44	15696.93
592.799	16063.93
593.158	16332.17
593.517	16646.74
593.876	16861.87
594.235	17069.78
594.593	17487.85
594.952	17692.36
595.311	17934.16
595.67	18258.45
596.029	18657.08
596.387	18942.04
596.746	19294.13
597.104	19386.55
597.463	19745.64
597.822	20025.41
598.18	20246.64
598.538	20565.96
598.897	20947.64
599.255	21053.4
599.613	21640.96
599.972	21738.35
600.33	22059.93
600.688	22230.77
601.046	22673.92
601.404	22994.82
601.762	23205.44
602.12	23659.43
602.478	23917.05
602.836	24196.14
603.194	24304.16
603.552	24583.25
603.91	24829.8
604.268	25111.6
604.625	25318.83
604.983	25663.45
605.341	25888.08
605.698	26170.1
606.056	26533.03
606.413	26623.88
606.771	26963.53
607.128	27264.76
607.485	27327.36
607.843	27639.22
608.2	28031.3
608.557	28190.84
608.914	28284.85
609.272	28696.36
609.629	28956.7
609.986	29129.8
610.343	29299.29
610.7	29645.72
611.057	29904.92
611.414	30076.89
611.771	30167.74
612.127	30467.62
612.484	30682.3
612.841	30953.93
613.198	31054.95
613.554	31128.84
613.911	31485.22
614.267	31574.25
614.624	31875.04
614.98	31797.98
615.337	32203.62
615.693	32332.65
616.05	32315.48
616.406	32933.99
616.762	32849.48
617.118	32950.26
617.475	33083.14
617.831	33411.72
618.187	33459.85
618.543	33549.57
618.899	33947.98
619.255	33986.17
619.611	33882.44
619.967	34220.51
620.323	34410.11
620.678	34320.17
621.034	34447.63
621.39	34633.61
621.746	34559.71
622.101	35168.28
622.457	34799.93
622.812	35062.07
623.168	35260.26
623.523	35361.95
623.879	35623.41
624.234	35354.95
624.589	35626.8
624.945	35757.42
625.3	35707.48
625.655	35858.89
626.01	35987.47
626.365	36162.61
626.72	36130.29
627.075	36178.65
627.43	36296.62
627.785	36271.08
628.14	36373.22
628.495	36513.11
628.85	36502.71
629.205	36376.61
629.559	36753.33
629.914	36621.58
630.269	36680.56
630.623	36589.49
630.978	36503.62
631.332	36769.82
631.687	36876.71
632.041	36690.28
632.396	36853.66
632.75	36749.94
633.104	36973.89
633.459	36727.34
633.813	36916.03
634.167	36903.83
634.521	36874.23
634.875	36843.27
635.229	36876.04
635.583	36785.64
635.937	36724.63
636.291	36965.75
636.645	36963.27
636.999	36842.14
637.352	36977.28
637.706	36785.87
638.06	37046.88
638.413	36880.56
638.767	36830.16
639.121	36892.76
639.474	36680.33
639.828	36761.91
640.181	36748.13
640.534	36939.76
640.888	36762.14
641.241	36493.22
641.594	36661.8
641.947	36890.72
642.301	36772.76
642.654	36687.79
643.007	36836.26
643.36	36843.72
643.713	36719.2
644.066	36907.67
644.419	36638.08
644.771	36450.06
645.124	36103.18
645.477	36109.95
645.83	35809.62
646.182	35711.09
646.535	35818.21
646.888	35809.62
647.24	35646.92
647.593	35921.26
647.945	35741.83
648.298	35613.02
648.65	35462.74
649.002	35473.36
649.355	35570.99
649.707	35637.2
650.059	35761.49
650.411	36107.24
650.763	36172.33
651.115	36478.08
651.467	36425.88
651.819	36322.15
652.171	36443.28
652.523	36296.16
652.875	36252.55
653.227	36190.86
653.578	36431.08
653.93	36311.08
654.282	36230.18
654.633	36144.53
654.985	36194.25
655.337	36195.6
655.688	36256.62
656.039	36232.21
656.391	35926.91
656.742	35961.48
657.094	36102.5
657.445	36224.98
657.796	36094.59
658.147	36227.92
658.498	35993.57
658.849	36119.45
659.2	36019.79
659.551	36042.61
659.902	36192.89
660.253	36104.76
660.604	36096.17
660.955	35977.08
661.306	36066.57
661.656	36121.71
662.007	36061.82
662.358	35973.23
662.708	35990.64
663.059	36065.21
663.409	35688.04
663.76	36000.8
664.11	35960.81
664.461	35998.09
664.811	36168.48
665.161	36031.76
665.511	35853.24
665.862	35973.46
666.212	36059.56
666.562	36048.71
666.912	35999.67
667.262	35774.6
667.612	36001.48
667.962	35905.44
668.312	35990.18
668.662	36012.78
669.011	36041.26
669.361	35856.85
669.711	35907.47
670.06	35889.85
670.41	35816.4
670.76	35719.46
671.109	35828.15
671.459	35810.3
671.808	35724.2
672.157	35923.97
672.507	35663.19
672.856	35684.43
673.205	35729.85
673.554	35836.06
673.904	35724.43
674.253	35809.4
674.602	35676.29
674.951	35137.78
675.3	35012.58
675.649	35682.85
675.998	35625.67
676.346	35581.38
676.695	35748.38
677.044	35451.67
677.393	35516.75
677.741	35479.69
678.09	35473.14
678.438	35408.28
678.787	35474.04
679.135	35394.95
679.484	35111.56
679.832	35283.08
680.181	35195.63
680.529	35233.37
680.877	35223.65
681.225	35034.73
681.573	35307.72
681.922	34893.04
682.27	34981.85
682.618	34991.11
682.966	34826.6
683.314	34946.6
683.661	34855.3
684.009	34731.46
684.357	34625.93
684.705	34681.07
685.053	34618.69
685.4	34548.41
685.748	34447.63
686.095	34438.81
686.443	34185.49
686.79	34213.28
687.138	34336.44
687.485	34282.66
687.832	34208.76
688.18	34138.48
688.527	34030.01
688.874	33911.82
689.221	33946.85
689.568	33885.83
689.915	33799.73
690.262	33774.2
690.609	33736.46
690.956	33534.43
691.303	33527.42
691.65	33526.07
691.997	33433.41
692.344	33264.83
692.69	33211.95
693.037	33286.98
693.383	32841.79
693.73	33026.87
694.077	32860.1
694.423	32849.48
694.769	32719.31
695.116	32711.85
695.462	32690.61
695.808	32452.42
696.155	32601.57
696.501	32319.09
696.847	32343.95
697.193	32104.41
697.539	32209.27
697.885	32086.33
698.231	31974.02
698.577	31857.18
698.923	31910.06
699.269	31685.21
699.614	31573.58
699.96	31501.94
700.306	31572.9
700.651	31343.75
700.997	31324.32
701.342	31238.67
701.688	31283.87
702.033	31103.31
702.379	31148.28
702.724	30994.83
703.069	31098.56
703.415	30765.46
703.76	30727.72
704.105	30682.98
704.45	30662.19
704.795	30546.03
705.14	30297.9
705.485	30406.38
705.83	30269.2
706.175	30203.9
706.52	30214.74
706.865	30064.24
707.209	30097.01
707.554	29983.34
707.899	30054.97
708.243	29823.11
708.588	29835.09
708.932	29536.12
709.277	29621.09
709.621	29600.52
709.966	29360.53
710.31	29499.96
710.654	29363.01
710.998	29340.64
711.342	29328.89
711.687	29274.88
712.031	29089.12
712.375	29005.28
712.719	28970.93
713.063	28993.98
713.407	29054.32
713.75	28842.12
714.094	28885.51
714.438	28750.15
714.782	28847.77
715.125	28639.64
715.469	28689.13
715.812	28451.62
716.156	28396.94
716.499	28484.17
716.843	28490.04
717.186	28275.36
717.53	28390.84
717.873	28366.2
718.216	28238.98
718.559	28102.26
718.902	27930.28
719.246	28118.98
719.589	27997.17
719.932	27935.93
720.275	27867.91
720.617	27864.3
720.96	27776.61
721.303	27746.11
721.646	27802.6
721.989	27467.24
722.331	27589.95
722.674	27509.73
723.016	27620.46
723.359	27415.04
723.701	27566.68
724.044	27396.51
724.386	27232.67
724.729	27338.89
725.071	27163.75
725.413	27175.73
725.755	27258.21
726.097	27070.64
726.439	26937.77
726.782	27043.07
727.124	27079.23
727.465	26855.51
727.807	26895.28
728.149	26867.49
728.491	26912
728.833	26800.82
729.175	26789.52
729.516	26666.14
729.858	26674.27
730.199	26680.82
730.541	26518.12
730.882	26574.16
731.224	26622.97
731.565	26358.35
731.906	26408.06
732.248	26384.33
732.589	26319.25
732.93	26167.84
733.271	26234.06
733.612	26263.21
733.953	26282.42
734.294	26179.59
734.635	26128.52
734.976	25978.47
735.317	25963.1
735.658	26062.31
735.999	25888.53
736.339	25883.56
736.68	25947.06
737.021	25752.49
737.361	25844.24
737.702	25863.9
738.042	25731.47
738.383	25750.9
738.723	25799.04
739.063	25716.56
739.404	25676.33
739.744	25570.34
740.084	25496
740.424	25461.19
740.764	25456.68
741.104	25490.8
741.444	25265.04
741.784	25310.69
742.124	25375.55
742.464	25244.25
742.804	25222.33
743.143	25098.27
743.483	25242.67
743.823	24980.98
744.162	25083.13
744.502	25158.15
744.841	24910.93
745.181	25054.65
745.52	25011.49
745.86	25004.26
746.199	24951.38
746.538	24951.6
746.877	24946.18
747.216	24872.96
747.556	24859.4
747.895	24771.27
748.234	24734.43
748.573	24625.06
748.911	24706.19
749.25	24622.57
749.589	24573.31
749.928	24568.34
750.267	24620.09
750.605	24427.55
750.944	24411.28
751.283	24236.59
751.621	24387.32
751.96	24226.2
752.298	24277.27
752.636	24244.28
752.975	24145.07
753.313	23891.52
753.651	24181.23
753.989	24015.36
754.327	23935.81
754.666	23887.45
755.004	23887.23
755.342	23899.88
755.679	23815.59
756.017	23639.32
756.355	23668.02
756.693	23591.87
757.031	23605.88
757.368	23574.01
757.706	23496.5
758.044	23393.45
758.381	23426.9
758.719	23288.14
759.056	23276.17
759.394	23275.94
759.731	23094.93
760.068	23095.61
760.405	23006.12
760.743	22939.23
