Data from hue_50_FLMS001491_19.txt Node
Date: Mon Feb 06 15:09:41 GMT 2017
User: dcchb
Spectrometer: FLMS00149
Trigger mode: 0
Integration Time (sec): 2.000000E-2
Scans to average: 10
Electric dark correction enabled: true
Nonlinearity correction enabled: false
Boxcar width: 0
XAxis mode: Wavelengths
Number of Pixels in Spectrum: 2048
>>>>>Begin Spectral Data<<<<<
341.393	-5.27
341.776	-5.27
342.16	-5.27
342.543	-61.99
342.927	-75.32
343.31	-57.7
343.693	-78.71
344.077	-80.07
344.46	-52.95
344.843	-56.34
345.226	-28.54
345.61	-19.96
345.993	-6.4
346.376	-19.28
346.759	4.45
347.142	10.55
347.525	46.71
347.908	64.56
348.291	71.57
348.674	98.91
349.057	103.2
349.44	129.64
349.823	141.85
350.206	152.24
350.588	187.04
350.971	201.96
351.354	232.69
351.737	234.95
352.119	250.09
352.502	249.87
352.884	286.93
353.267	279.7
353.65	306.59
354.032	292.13
354.414	319.47
354.797	325.8
355.179	323.31
355.562	310.88
355.944	347.26
356.326	331.9
356.709	333.71
357.091	335.29
357.473	335.74
357.855	326.7
358.238	335.06
358.62	336.64
359.002	322.41
359.384	336.87
359.766	330.09
360.148	339.58
360.53	332.58
360.912	338.68
361.294	346.36
361.676	315.4
362.057	344.78
362.439	343.42
362.821	329.19
363.203	356.08
363.584	322.41
363.966	325.57
364.348	314.5
364.729	329.64
365.111	312.69
365.493	311.79
365.874	314.05
366.256	317.21
366.637	322.18
367.019	328.28
367.4	320.82
367.781	326.47
368.163	317.66
368.544	310.2
368.925	304.1
369.306	324.67
369.688	321.05
370.069	329.19
370.45	321.28
370.831	318.57
371.212	314.95
371.593	311.11
371.974	326.25
372.355	301.62
372.736	307.49
373.117	322.41
373.498	307.27
373.879	317.89
374.26	319.92
374.641	316.08
375.021	316.98
375.402	313.59
375.783	309.75
376.163	320.82
376.544	316.31
376.925	345.68
377.305	342.52
377.686	333.93
378.066	337.77
378.447	323.08
378.827	331.22
379.208	322.18
379.588	351.56
379.968	357.43
380.349	329.19
380.729	336.64
381.109	343.65
381.489	334.84
381.87	354.72
382.25	335.06
382.63	336.19
383.01	311.33
383.39	335.51
383.77	335.06
384.15	329.64
384.53	346.13
384.91	345.46
385.29	328.51
385.67	346.36
386.049	360.37
386.429	321.73
386.809	338.23
387.189	346.81
387.568	351.11
387.948	362.18
388.328	344.1
388.707	347.94
389.087	366.25
389.466	351.56
389.846	366.02
390.225	368.06
390.605	364.89
390.984	361.73
391.363	360.37
391.743	367.15
392.122	342.97
392.501	364.67
392.881	358.79
393.26	357.21
393.639	388.62
394.018	392.69
394.397	382.97
394.776	374.38
395.155	350.88
395.534	392.01
395.913	385.68
396.292	367.6
396.671	383.42
397.05	394.27
397.429	340.03
397.808	391.33
398.186	379.81
398.565	368.06
398.944	394.04
399.323	375.06
399.701	369.86
400.08	378.9
400.458	400.37
400.837	377.77
401.215	390.43
401.594	371.45
401.972	391.11
402.351	383.42
402.729	380.26
403.107	399.92
403.486	383.65
403.864	382.52
404.242	406.92
404.62	417.77
404.999	401.05
405.377	405.57
405.755	410.54
406.133	417.09
406.511	408.28
406.889	405.57
407.267	415.96
407.645	421.61
408.023	420.94
408.401	410.31
408.779	413.25
409.156	433.82
409.534	440.6
409.912	443.99
410.29	441.5
410.667	409.41
411.045	405.34
411.422	422.97
411.8	424.78
412.178	446.7
412.555	451.44
412.933	422.97
413.31	441.27
413.687	437.21
414.065	445.79
414.442	451.44
414.819	422.74
415.197	444.89
415.574	448.28
415.951	461.84
416.328	471.1
416.705	477.2
417.082	459.13
417.46	454.15
417.837	463.42
418.214	496.87
418.591	461.16
418.967	492.35
419.344	488.05
419.721	466.58
420.098	478.33
420.475	476.3
420.852	473.36
421.228	504.55
421.605	494.61
421.982	516.98
422.358	472.23
422.735	492.12
423.111	470.2
423.488	515.4
423.864	514.49
424.241	520.59
424.617	514.94
424.994	502.29
425.37	517.66
425.746	530.99
426.123	538.22
426.499	530.54
426.875	541.84
427.251	531.21
427.627	525.11
428.003	523.08
428.379	537.99
428.756	533.02
429.132	536.64
429.507	557.43
429.883	554.04
430.259	559.46
430.635	560.82
431.011	577.99
431.387	592.91
431.763	577.54
432.138	585.22
432.514	560.37
432.89	596.75
433.265	625.68
433.641	603.3
434.016	606.92
434.392	604.66
434.767	606.47
435.143	619.35
435.518	611.44
435.894	616.64
436.269	631.33
436.644	626.58
437.02	629.97
437.395	632.91
437.77	644.66
438.145	647.6
438.52	643.98
438.895	653.47
439.271	636.52
439.646	691.21
440.021	668.61
440.395	681.27
440.77	641.95
441.145	676.07
441.52	693.24
441.895	678.1
442.27	674.26
442.645	687.82
443.019	676.3
443.394	695.05
443.769	677.2
444.143	679.23
444.518	708.16
444.892	691.89
445.267	698.67
445.641	714.49
446.016	741.38
446.39	739.12
446.764	714.03
447.139	696.86
447.513	726.69
447.887	736.63
448.262	759.23
448.636	745.45
449.01	734.6
449.384	741.15
449.758	758.78
450.132	770.76
450.506	768.95
450.88	774.82
451.254	768.95
451.628	770.3
452.002	762.85
452.376	770.98
452.75	787.48
453.123	803.52
453.497	800.59
453.871	832.68
454.244	808.04
454.618	820.25
454.992	834.94
455.365	826.12
455.739	837.42
456.112	862.96
456.486	850.3
456.859	868.16
457.232	897.08
457.606	897.31
457.979	899.34
458.352	901.83
458.725	907.93
459.099	913.35
459.472	945.22
459.845	925.78
460.218	930.53
460.591	949.06
460.964	953.35
461.337	979.11
461.71	963.52
462.083	1011.65
462.456	995.84
462.829	1034.48
463.201	1005.78
463.574	1044.2
463.947	1027.47
464.32	1081.71
464.692	1089.17
465.065	1069.51
465.438	1108.6
465.81	1103.4
466.183	1102.95
466.555	1134.81
466.928	1150.18
467.3	1170.29
467.672	1178.43
468.045	1207.13
468.417	1198.32
468.789	1232.89
469.161	1227.24
469.534	1266.79
469.906	1265.21
470.278	1327.13
470.65	1341.14
471.022	1362.83
471.394	1391.76
471.766	1435.6
472.138	1456.16
472.51	1454.58
472.882	1504.07
473.253	1518.76
473.625	1571.87
473.997	1596.72
474.369	1604.18
474.74	1677.4
475.112	1693.9
475.484	1723.05
475.855	1765.31
476.227	1792.2
476.598	1858.64
476.97	1860.67
477.341	1962.36
477.713	1998.97
478.084	2054.56
478.455	2100.44
478.827	2154.9
479.198	2234.67
479.569	2266.76
479.94	2386.53
480.311	2403.93
480.682	2504.5
481.053	2557.6
481.424	2622.23
481.795	2690.93
482.166	2760.31
482.537	2810.02
482.908	2959.4
483.279	2978.61
483.65	3089.79
484.021	3176.34
484.391	3304.7
484.762	3384.47
485.133	3422.89
485.503	3534.3
485.874	3601.64
486.244	3724.35
486.615	3826.27
486.985	3969.77
487.356	4080.73
487.726	4194.4
488.097	4310.32
488.467	4350.55
488.837	4520.71
489.207	4628.51
489.578	4786.92
489.948	4854.04
490.318	4959.35
490.688	5075.5
491.058	5216.29
491.428	5379.9
491.798	5466.23
492.168	5660.12
492.538	5748.03
492.908	5840.91
493.278	6009.26
493.648	6052.43
494.017	6272.76
494.387	6375.58
494.757	6451.51
495.126	6650.6
495.496	6744.61
495.866	6804.72
496.235	6974.66
496.605	7113.19
496.974	7217.14
497.344	7413.75
497.713	7498.94
498.082	7600.18
498.452	7805.6
498.821	7841.08
499.19	7982.09
499.559	8093.73
499.928	8242.88
500.298	8310.45
500.667	8391.57
501.036	8551.79
501.405	8665.92
501.774	8811
502.143	8876.53
502.512	8942.07
502.88	9110.42
503.249	9150.2
503.618	9286.46
503.987	9460.02
504.356	9529.85
504.724	9602.39
505.093	9801.71
505.462	9862.27
505.83	9916.5
506.199	10053
506.567	10250.28
506.936	10369.15
507.304	10411.63
507.672	10452.54
508.041	10639.88
508.409	10734.56
508.777	10855.46
509.145	11039.19
509.514	11041.9
509.882	11144.72
510.25	11189.69
510.618	11333.19
510.986	11412.51
511.354	11557.59
511.722	11693.41
512.09	11771.37
512.458	11772.95
512.826	11953.29
513.193	12038.71
513.561	12076.9
513.929	12263.34
514.297	12341.53
514.664	12409.55
515.032	12524.35
515.4	12692.03
515.767	12697.45
516.135	12817.9
516.502	12797.33
516.869	13109.64
517.237	13099.7
517.604	13080.49
517.972	13329.97
518.339	13329.52
518.706	13419.69
519.073	13506.92
519.44	13726.35
519.808	13875.5
520.175	13847.47
520.542	13992.33
520.909	14126.34
521.276	14080.46
521.643	14321.81
522.009	14347.8
522.376	14459.44
522.743	14607.68
523.11	14696.04
523.477	14870.05
523.843	14936.71
524.21	15121.79
524.577	15216.48
524.943	15259.87
525.31	15435.46
525.676	15552.97
526.043	15663.7
526.409	15643.36
526.776	15952.96
527.142	15962
527.508	15978.04
527.874	16255.77
528.241	16258.94
528.607	16252.61
528.973	16475.65
529.339	16523.79
529.705	16703.44
530.071	16944.79
530.437	16832.03
530.803	17029.09
531.169	17062.98
531.535	17083.77
531.901	17124.68
532.267	17213.71
532.632	17394.73
532.998	17447.83
533.364	17527.38
533.73	17588.17
534.095	17725.57
534.461	17741.16
534.826	17948.61
535.192	18006.46
535.557	18088.04
535.923	18039.91
536.288	18155.61
536.653	18351.09
537.019	18314.93
537.384	18258.66
537.749	18446
538.114	18498.2
538.479	18530.74
538.845	18641.7
539.21	18612.32
539.575	18697.06
539.94	18794.46
540.305	18893.44
540.67	18905.42
541.034	18947.45
541.399	19158.07
541.764	19191.97
542.129	19236.49
542.494	19270.16
542.858	19380.21
543.223	19423.6
543.587	19590.83
543.952	19536.82
544.316	19618.17
544.681	19518.29
545.045	19777.04
545.41	19819.75
545.774	20062
546.138	19894.55
546.503	19869.92
546.867	20043.92
547.231	20200.53
547.595	20230.58
547.959	20266.74
548.324	20281.2
548.688	20338.6
549.052	20468.54
549.416	20459.96
549.779	20444.36
550.143	20534.53
550.507	20652.27
550.871	20795.31
551.235	20730.91
551.599	20918.25
551.962	20998.7
552.326	20999.6
552.689	21193.5
553.053	21137.9
553.417	21300.84
553.78	21482.98
554.143	21365.92
554.507	21621.28
554.87	21584.22
555.234	21783.99
555.597	21676.42
555.96	21822.86
556.323	22001.61
556.686	21833.25
557.05	21985.79
557.413	22148.95
557.776	22198.44
558.139	22438.44
558.502	22403.41
558.865	22412
559.228	22666.9
559.59	22673.23
559.953	22701.93
560.316	22953.9
560.679	22931.53
561.041	23027.35
561.404	23178.53
561.767	23221.92
562.129	23268.02
562.492	23536.26
562.854	23556.15
563.217	23428.69
563.579	23586.88
563.941	23767.21
564.304	23881.34
564.666	24084.95
565.028	23918.85
565.39	24122.46
565.753	24253.98
566.115	24312.51
566.477	24467.76
566.839	24563.8
567.201	24634.31
567.563	24711.82
567.925	24876.11
568.287	24895.77
568.648	25007.18
569.01	25180.51
569.372	25197.68
569.734	25288.76
570.095	25397.23
570.457	25581.63
570.819	25518.35
571.18	25653.04
571.542	25730.1
571.903	25771.68
572.265	25990.66
572.626	26040.6
572.987	26103.2
573.349	26301.61
573.71	26314.04
574.071	26316.75
574.432	26445.11
574.794	26717.42
575.155	26618.66
575.516	26670.19
575.877	26783.63
576.238	26917.64
576.599	27019.33
576.96	26983.17
577.32	27031.76
577.681	27184.98
578.042	27417.06
578.403	27418.87
578.763	27473.33
579.124	27528.02
579.485	27653.89
579.845	27709.94
580.206	27806.88
580.566	27893.66
580.927	28077.38
581.287	28166.19
581.648	28217.72
582.008	28311.95
582.368	28458.39
582.728	28534.32
583.089	28532.74
583.449	28702.68
583.809	28698.84
584.169	28794.2
584.529	28927.98
584.889	29206.85
585.249	29092.5
585.609	29017.47
585.969	29354.41
586.329	29323.45
586.688	29518.02
587.048	29558.93
587.408	29578.59
587.768	29779.49
588.127	29736.77
588.487	29784.46
588.846	30027.39
589.206	29925.24
589.565	30113.26
589.925	30459.47
590.284	30342.18
590.643	30451.11
591.003	30538.34
591.362	30725.45
591.721	30831.44
592.08	30788.27
592.44	30993.46
592.799	31136.96
593.158	31033.92
593.517	31108.04
593.876	31286.34
594.235	31252.67
594.593	31418.31
594.952	31595.93
595.311	31477.07
595.67	31722.49
596.029	31895.14
596.387	31917.28
596.746	32060.1
597.104	32032.31
597.463	32163.15
597.822	32455.35
598.18	32207.9
598.538	32451.96
598.897	32623.7
599.255	32390.72
599.613	32842.46
599.972	32792.97
600.33	32885.17
600.688	32685.4
601.046	33058.5
601.404	33119.06
601.762	33186.4
602.12	33464.59
602.478	33408.77
602.836	33538.71
603.194	33411.48
603.552	33552.72
603.91	33441.54
604.268	33819.38
604.625	33741.64
604.983	33764.92
605.341	33896.21
605.698	33895.99
606.056	34027.06
606.413	34189.54
606.771	34216.88
607.128	34319.03
607.485	34262.76
607.843	34354.28
608.2	34603.99
608.557	34710.43
608.914	34621.84
609.272	34945.9
609.629	34828.84
609.986	35031.78
610.343	34944.32
610.7	35149.74
611.057	35114.03
611.414	35133.92
611.771	35212.79
612.127	35448.94
612.484	35276.52
612.841	35423.63
613.198	35397.19
613.554	35582.27
613.911	35792.21
614.267	35643.51
614.624	35786.79
614.98	35868.14
615.337	36003.28
615.693	36038.08
616.05	35953.79
616.406	36217.73
616.762	36050.73
617.118	36137.28
617.475	36325.08
617.831	36307.9
618.187	36458.63
618.543	36409.59
618.899	36616.59
619.255	36619.08
619.611	36558.97
619.967	36905.4
620.323	36923.25
620.678	36802.13
621.034	36722.58
621.39	36832.86
621.746	36793.99
622.101	37130.03
622.457	36902.46
622.812	37069.92
623.168	37211.38
623.523	37085.28
623.879	37226.07
624.234	37108.11
624.589	37229.01
624.945	37365.95
625.3	37410.47
625.655	37381.32
626.01	37355.11
626.365	37305.84
626.72	37298.61
627.075	37313.52
627.43	37360.75
627.785	37378.61
628.14	37418.38
628.495	37495.21
628.85	37476.01
629.205	37212.74
629.559	37662.44
629.914	37338.16
630.269	37543.12
630.623	37414.99
630.978	37246.63
631.332	37496.34
631.687	37550.58
632.041	37405.95
632.396	37562.56
632.75	37334.09
633.104	37465.38
633.459	37251.15
633.813	37219.52
634.167	37255
634.521	37318.04
634.875	37297.25
635.229	37341.32
635.583	37302.23
635.937	37196.47
636.291	37127.09
636.645	37057.94
636.999	37080.31
637.352	37226.3
637.706	37035.57
638.06	37203.24
638.413	37073.3
638.767	37055.68
639.121	37023.14
639.474	36843.03
639.828	36858.17
640.181	36902.91
640.534	36978.62
640.888	36863.14
641.241	36779.75
641.594	36797.15
641.947	36911.05
642.301	36711.05
642.654	36763.93
643.007	36754.9
643.36	36828.11
643.713	36656.82
644.066	36897.26
644.419	36593.77
644.771	36443.49
645.124	36020.68
645.477	36077.62
645.83	35835.6
646.182	35707.01
646.535	35478.32
646.888	35747.69
647.24	35489.62
647.593	35718.09
647.945	35610.52
648.298	35463.18
648.65	35368.26
649.002	35253.69
649.355	35516.28
649.707	35363.75
650.059	35515.61
650.411	35950.17
650.763	35969.61
651.115	36381.12
651.467	36231.52
651.819	36145.19
652.171	36154.46
652.523	36049.38
652.875	36143.61
653.227	35824.75
653.578	36248.69
653.93	36119.88
654.282	35941.81
654.633	35903.17
654.985	35969.83
655.337	36002.15
655.688	35937.06
656.039	36025.2
656.391	35805.32
656.742	35717.86
657.094	35826.33
657.445	35968.48
657.796	35853.45
658.147	35780.91
658.498	35824.07
658.849	35876.27
659.2	35752.66
659.551	35786.11
659.902	35829.95
660.253	35770.06
660.604	35871.08
660.955	35697.97
661.306	35791.3
661.656	35734.13
662.007	35678.31
662.358	35840.79
662.708	35774.13
663.059	35705.21
663.409	35428.38
663.76	35726.9
664.11	35716.96
664.461	35801.25
664.811	35562.16
665.161	35727.13
665.511	35576.17
665.862	35592.67
666.212	35714.24
666.562	35730.97
666.912	35659.1
667.262	35485.32
667.612	35594.47
667.962	35556.06
668.312	35562.61
668.662	35529.62
669.011	35515.61
669.361	35481.71
669.711	35570.97
670.06	35528.94
670.41	35348.6
670.76	35494.59
671.109	35419.56
671.459	35394.7
671.808	35432.9
672.157	35424.31
672.507	35202.62
672.856	35330.53
673.205	35352.9
673.554	35500.01
673.904	35408.26
674.253	35406.46
674.602	35286.91
674.951	34896.19
675.3	34815.06
675.649	35319.9
675.998	35152.23
676.346	35210.75
676.695	35392.45
677.044	34975.96
677.393	35114.49
677.741	35248.72
678.09	35173.69
678.438	34982.74
678.787	35068.61
679.135	35155.39
679.484	34879.01
679.832	35109.51
680.181	34706.14
680.529	34952.68
680.877	34775.74
681.225	34746.81
681.573	34990.42
681.922	34590.66
682.27	34653.48
682.618	34700.71
682.966	34658.91
683.314	34661.39
683.661	34620.04
684.009	34431.57
684.357	34294.17
684.705	34302.53
685.053	34320.61
685.4	34221.63
685.748	33957.45
686.095	33973.27
686.443	33834.07
686.79	33826.38
687.138	33934.86
687.485	33797.91
687.832	33772.83
688.18	33810.79
688.527	33611.25
688.874	33621.87
689.221	33601.31
689.568	33373.06
689.915	33424.59
690.262	33402.67
690.609	33298.26
690.956	33271.82
691.303	32996.12
691.65	33089.91
691.997	33175.1
692.344	32859.63
692.69	32870.93
693.037	32871.83
693.383	32470.94
693.73	32684.72
694.077	32597.04
694.423	32564.27
694.769	32366.31
695.116	32291.28
695.462	32309.59
695.808	32190.27
696.155	32181
696.501	31918.86
696.847	31973.33
697.193	31762.48
697.539	31862.14
697.885	31660.11
698.231	31622.6
698.577	31557.29
698.923	31539.89
699.269	31353
699.614	31172.22
699.96	31126.12
700.306	31358.65
700.651	31062.84
700.997	30987.36
701.342	30978.78
701.688	30938.55
702.033	30823.53
702.379	30830.31
702.724	30637.32
703.069	30759.8
703.415	30363.88
703.76	30435.51
704.105	30317.32
704.45	30271.45
704.795	30148.06
705.14	30080.95
705.485	30111
705.83	29967.95
706.175	29957.56
706.52	29901.29
706.865	29822.87
707.209	29838.01
707.554	29648.87
707.899	29653.84
708.243	29537.91
708.588	29527.06
708.932	29348.31
709.277	29254.98
709.621	29329.33
709.966	29121.42
710.31	29217.69
710.654	28948.09
710.998	29035.32
711.342	28884.14
711.687	28876.23
712.031	28658.16
712.375	28739.74
712.719	28781.32
713.063	28615
713.407	28697.48
713.75	28421.55
714.094	28554.88
714.438	28422.46
714.782	28397.83
715.125	28158.74
715.469	28440.99
715.812	28160.32
716.156	28028.12
716.499	27946.09
716.843	28016.14
717.186	27975.24
717.53	28059.53
717.873	27963.04
718.216	27888.46
718.559	27829.71
718.902	27684.85
719.246	27640.11
719.589	27636.26
719.932	27464.97
720.275	27555.59
720.617	27473.11
720.96	27491.18
721.303	27377.51
721.646	27397.4
721.989	27211.42
722.331	27315.82
722.674	27302.26
723.016	27307.46
723.359	27211.87
723.701	27239.21
724.044	26965.32
724.386	26909.28
724.729	26978.43
725.071	26979.33
725.413	26981.37
725.755	26854.59
726.097	26835.83
726.439	26667.25
726.782	26606.69
727.124	26783.18
727.465	26547.03
727.807	26593.81
728.149	26565.78
728.491	26520.14
728.833	26577.54
729.175	26462.51
729.516	26330.31
729.858	26366.69
730.199	26359.91
730.541	26371.21
730.882	26251.22
731.224	26289.86
731.565	26193.82
731.906	26027.72
732.248	26105.23
732.589	26048.28
732.93	25942.3
733.271	25891.9
733.612	25937.33
733.953	25961.96
734.294	25759.25
734.635	25771.46
734.976	25836.76
735.317	25666.15
735.658	25690.33
735.999	25604.68
736.339	25548.86
736.68	25591.12
737.021	25581.86
737.361	25432.93
737.702	25583.66
738.042	25536.43
738.383	25553.61
738.723	25409.2
739.063	25464.57
739.404	25348.87
739.744	25345.25
740.084	25238.81
740.424	25287.17
740.764	25223.45
741.104	25270.68
741.444	25028.42
741.784	25110.68
742.124	25019.61
742.464	24985.26
742.804	24942.32
743.143	24864.36
743.483	25023.9
743.823	24731.03
744.162	24737.81
744.502	24943.91
744.841	24763.57
745.181	24752.72
745.52	24640.19
745.86	24780.07
746.199	24654.42
746.538	24576.23
746.877	24635.89
747.216	24483.81
747.556	24479.74
747.895	24576.01
748.234	24363.13
748.573	24273.64
748.911	24396.12
749.25	24301.66
749.589	24084.72
749.928	24310.25
750.267	24208.56
750.605	24146.64
750.944	24030.03
751.283	23934.67
751.621	24071.84
751.96	23969.24
752.298	23808.79
752.636	23900.09
752.975	23785.29
753.313	23690.61
753.651	23786.42
753.989	23605.18
754.327	23587.33
754.666	23496.71
755.004	23512.53
755.342	23509.82
755.679	23530.38
756.017	23347.79
756.355	23373.55
756.693	23227.57
757.031	23310.28
757.368	23119.1
