Data from hue_140_FLMS001491_00079.txt Node
Date: Tue Feb 07 16:56:24 GMT 2017
User: dcchb
Spectrometer: FLMS00149
Trigger mode: 0
Integration Time (sec): 2.000000E-2
Scans to average: 10
Electric dark correction enabled: true
Nonlinearity correction enabled: false
Boxcar width: 0
XAxis mode: Wavelengths
Number of Pixels in Spectrum: 2048
>>>>>Begin Spectral Data<<<<<
341.393	-8.94
341.776	-8.94
342.16	-8.94
342.543	-65.89
342.927	-58.43
343.31	-87.58
343.693	-70.41
344.077	-61.82
344.46	-65.89
344.843	-83.74
345.226	-28.15
345.61	-33.12
345.993	-8.04
346.376	3.26
346.759	30.83
347.142	26.54
347.525	57.72
347.908	51.17
348.291	64.5
348.674	97.72
349.057	106.99
349.44	118.74
349.823	156.48
350.206	163.94
350.588	205.74
350.971	219.53
351.354	213.43
351.737	231.28
352.119	244.39
352.502	263.14
352.884	271.96
353.267	267.21
353.65	297.04
354.032	287.55
354.414	299.3
354.797	303.37
355.179	325.51
355.562	307.89
355.944	316.02
356.326	318.51
356.709	326.19
357.091	339.07
357.473	349.02
357.855	346.08
358.238	347.43
358.62	335.68
359.002	368.45
359.384	325.51
359.766	330.03
360.148	332.75
360.53	344.72
360.912	339.3
361.294	343.82
361.676	325.97
362.057	331.62
362.439	313.76
362.821	328.9
363.203	307.66
363.584	331.62
363.966	309.02
364.348	324.38
364.729	322.8
365.111	316.02
365.493	327.1
365.874	301.56
366.256	298.17
366.637	315.12
367.019	322.35
367.4	334.55
367.781	314.67
368.163	316.93
368.544	311.28
368.925	310.15
369.306	311.5
369.688	318.73
370.069	305.63
370.45	322.12
370.831	299.75
371.212	321.45
371.593	293.65
371.974	347.66
372.355	309.47
372.736	318.51
373.117	330.49
373.498	328.23
373.879	302.69
374.26	312.18
374.641	309.24
375.021	300.2
375.402	308.57
375.783	328.23
376.163	317.6
376.544	318.51
376.925	324.61
377.305	326.19
377.686	321.67
378.066	347.21
378.447	335.23
378.827	332.75
379.208	326.19
379.588	353.31
379.968	336.59
380.349	333.42
380.729	324.61
381.109	341.56
381.489	317.6
381.87	351.73
382.25	348.79
382.63	367.55
383.01	351.5
383.39	338.17
383.77	352.41
384.15	332.52
384.53	352.63
384.91	325.74
385.29	351.05
385.67	357.83
386.049	355.12
386.429	355.12
386.809	360.99
387.189	356.7
387.568	365.74
387.948	355.12
388.328	363.03
388.707	370.03
389.087	358.06
389.466	370.48
389.846	364.16
390.225	374.1
390.605	376.81
390.984	367.09
391.363	390.15
391.743	355.8
392.122	362.58
392.501	378.62
392.881	400.31
393.26	370.03
393.639	384.5
394.018	360.77
394.397	382.69
394.776	381.33
395.155	358.28
395.534	415.46
395.913	398.73
396.292	407.55
396.671	390.37
397.05	393.76
397.429	405.96
397.808	408.68
398.186	404.83
398.565	431.73
398.944	402.57
399.323	388.79
399.701	397.38
400.08	398.28
400.458	414.78
400.837	426.3
401.215	438.51
401.594	397.83
401.972	415.68
402.351	415
402.729	420.65
403.107	433.76
403.486	424.04
403.864	429.92
404.242	428.11
404.62	432.4
404.999	428.11
405.377	435.57
405.755	406.87
406.133	438.05
406.511	450.71
406.889	426.53
407.267	459.3
407.645	439.86
408.023	442.8
408.401	452.52
408.779	454.32
409.156	461.33
409.534	462.23
409.912	446.64
410.29	466.53
410.667	467.66
411.045	461.56
411.422	452.74
411.8	478.5
412.178	469.69
412.555	492.74
412.933	484.61
413.31	483.48
413.687	482.8
414.065	496.81
414.442	502.46
414.819	496.81
415.197	496.81
415.574	499.75
415.951	514.66
416.328	522.8
416.705	508.33
417.082	521.44
417.46	524.6
417.837	527.99
418.214	527.77
418.591	522.12
418.967	539.07
419.344	538.16
419.721	543.36
420.098	528.67
420.475	543.14
420.852	551.5
421.228	544.27
421.605	561.44
421.982	573.87
422.358	564.38
422.735	559.41
423.111	572.97
423.488	579.74
423.864	586.07
424.241	591.72
424.617	604.38
424.994	584.26
425.37	586.07
425.746	598.28
426.123	595.79
426.499	607.77
426.875	608.44
427.251	621.55
427.627	647.09
428.003	639.4
428.379	633.08
428.756	634.43
429.132	633.08
429.507	659.97
429.883	659.06
430.259	657.71
430.635	650.48
431.011	684.83
431.387	684.6
431.763	681.89
432.138	694.54
432.514	688.44
432.89	684.37
433.265	713.53
433.641	715.11
434.016	705.62
434.392	709.68
434.767	727.99
435.143	732.28
435.518	736.12
435.894	746.07
436.269	732.28
436.644	777.03
437.02	767.31
437.395	753.75
437.77	801.89
438.145	782.9
438.52	800.98
438.895	799.4
439.271	787.2
439.646	794.65
440.021	788.33
440.395	820.42
440.77	843.92
441.145	855.67
441.52	857.25
441.895	818.83
442.27	854.09
442.645	832.62
443.019	849.34
443.394	856.35
443.769	859.29
444.143	854.54
444.518	901.54
444.892	879.62
445.267	866.29
445.641	889.57
446.016	890.24
446.39	872.84
446.764	899.06
447.139	899.96
447.513	908.55
447.887	906.52
448.262	931.15
448.636	904.48
449.01	939.51
449.384	928.21
449.758	962.33
450.132	974.54
450.506	960.53
450.88	983.58
451.254	985.84
451.628	977.02
452.002	967.08
452.376	1005.72
452.75	979.28
453.123	1022.67
453.497	1034.87
453.871	1022.9
454.244	1045.95
454.618	1052.27
454.992	1071.94
455.365	1067.64
455.739	1098.15
456.112	1096.12
456.486	1113.97
456.859	1139.73
457.232	1146.51
457.606	1148.54
457.979	1166.4
458.352	1193.74
458.725	1205.49
459.099	1232.83
459.472	1217.47
459.845	1234.87
460.218	1243
460.591	1287.97
460.964	1264.02
461.337	1272.16
461.71	1333.4
462.083	1332.04
462.456	1336.56
462.829	1348.31
463.201	1390.8
463.574	1363
463.947	1375.88
464.32	1394.86
464.692	1424.69
465.065	1473.28
465.438	1466.28
465.81	1496.1
466.183	1536.1
466.555	1529.55
466.928	1544.69
467.3	1589.89
467.672	1596.89
468.045	1658.13
468.417	1664.69
468.789	1697.46
469.161	1719.38
469.534	1704.46
469.906	1742.88
470.278	1799.83
470.65	1805.25
471.022	1865.59
471.394	1898.13
471.766	1929.99
472.138	1951.91
472.51	2020.61
472.882	2034.85
473.253	2056.99
473.625	2130.89
473.997	2184.67
474.369	2202.75
474.74	2219.48
475.112	2262.64
475.484	2357.78
475.855	2383.99
476.227	2424.67
476.598	2529.75
476.97	2548.28
477.341	2620.59
477.713	2680.93
478.084	2753.02
478.455	2840.93
478.827	2882.06
479.198	3037.76
479.569	3024.65
479.94	3160.92
480.311	3203.86
480.682	3274.36
481.053	3389.61
481.424	3480.23
481.795	3554.13
482.166	3673.67
482.537	3765.42
482.908	3896.27
483.279	3944.85
483.65	4034.12
484.021	4193.21
484.391	4291.51
484.762	4362.02
485.133	4451.06
485.503	4536.93
485.874	4686.98
486.244	4792.52
486.615	4900.31
486.985	5054.66
487.356	5182.56
487.726	5327.42
488.097	5456
488.467	5561.99
488.837	5724.69
489.207	5832.04
489.578	5971.47
489.948	6098.24
490.318	6250.33
490.688	6296.66
491.058	6515.86
491.428	6633.37
491.798	6797.21
492.168	7017.99
492.538	7066.35
492.908	7224.32
493.278	7304.31
493.648	7460.47
494.017	7559.9
494.387	7780.69
494.757	7860.46
495.126	7997.18
495.496	8115.37
495.866	8218.87
496.235	8407.79
496.605	8523.26
496.974	8608.46
497.344	8733.2
497.713	8865.18
498.082	8981.56
498.452	9085.96
498.821	9163.25
499.19	9284.6
499.559	9380.64
499.928	9497.7
500.298	9581.09
500.667	9728.43
501.036	9774.08
501.405	9950.12
501.774	9963.9
502.143	10165.26
502.512	10167.29
502.88	10408.19
503.249	10304.91
503.618	10459.94
503.987	10560.95
504.356	10633.04
504.724	10693.15
505.093	10735.86
505.462	10921.17
505.83	10999.13
506.199	11132.01
506.567	11262.18
506.936	11160.03
507.304	11368.39
507.672	11400.7
508.041	11473.92
508.409	11555.73
508.777	11627.82
509.145	11748.04
509.514	11759.79
509.882	11884.31
510.25	11865.1
510.618	11901.71
510.986	11963.4
511.354	12000.46
511.722	12138.99
512.09	12240.45
512.458	12222.38
512.826	12349.83
513.193	12318.65
513.561	12314.35
513.929	12504.85
514.297	12607.68
514.664	12625.3
515.032	12712.76
515.4	12755.7
515.767	12782.14
516.135	12812.42
516.502	12750.5
516.869	12987.78
517.237	12938.97
517.604	12884.28
517.972	13019.87
518.339	13014.67
518.706	13067.1
519.073	13030.94
519.44	13146.87
519.808	13254.21
520.175	13181
520.542	13344.15
520.909	13281.11
521.276	13270.94
521.643	13350.26
522.009	13444.49
522.376	13482.68
522.743	13482
523.11	13525.84
523.477	13640.87
523.843	13702.11
524.21	13744.37
524.577	13746.63
524.943	13844.48
525.31	13866.17
525.676	13920.41
526.043	13887.42
526.409	13874.54
526.776	14082.89
527.142	14041.76
527.508	13974.87
527.874	14107.07
528.241	14093.06
528.607	14115.43
528.973	14130.8
529.339	14116.11
529.705	14200.4
530.071	14228.43
530.437	14150.69
530.803	14155.66
531.169	14173.51
531.535	14196.11
531.901	14217.8
532.267	14139.84
532.632	14171.7
532.998	14165.83
533.364	14273.17
533.73	14147.52
534.095	14211.93
534.461	14139.39
534.826	14101.42
535.192	14185.49
535.557	14171.25
535.923	14122.21
536.288	14115.89
536.653	14111.59
537.019	14016.91
537.384	14112.95
537.749	14050.12
538.114	14059.16
538.479	14030.01
538.845	14055.55
539.21	13857.36
539.575	13939.17
539.94	13924.7
540.305	13947.3
540.67	13859.85
541.034	13821.43
541.399	13806.52
541.764	13754.77
542.129	13743.69
542.494	13713.41
542.858	13745.5
543.223	13685.61
543.587	13701.43
543.952	13599.06
544.316	13625.73
544.681	13576.01
545.045	13656.91
545.41	13529.23
545.774	13533.53
546.138	13507.09
546.503	13428.9
546.867	13466.19
547.231	13445.17
547.595	13402.91
547.959	13419.86
548.324	13294.44
548.688	13308.22
549.052	13343.02
549.416	13251.28
549.779	13298.73
550.143	13254.21
550.507	13198.17
550.871	13166.31
551.235	13080.43
551.599	13233.2
551.962	13132.18
552.326	13093.09
552.689	13162.24
553.053	13069.36
553.417	13015.35
553.78	13152.97
554.143	12962.02
554.507	13035.91
554.87	12981.68
555.234	13045.86
555.597	12917.73
555.96	12948.91
556.323	13012.19
556.686	12930.83
557.05	12920.66
557.413	12895.58
557.776	12901.68
558.139	12962.47
558.502	12876.14
558.865	12856.94
559.228	12945.75
559.59	12887.9
559.953	12907.33
560.316	13005.18
560.679	12958.63
561.041	12963.15
561.404	12963.15
561.767	13046.99
562.129	12953.88
562.492	12986.88
562.854	12920.21
563.217	12969.25
563.579	12945.3
563.941	13050.6
564.304	13084.05
564.666	13074.78
565.028	13071.85
565.39	13021
565.753	13099.42
566.115	13041.56
566.477	13059.42
566.839	13116.36
567.201	13239.3
567.563	13068.46
567.925	13185.74
568.287	13231.39
568.648	13220.99
569.01	13172.18
569.372	13272.29
569.734	13128.79
570.095	13316.81
570.457	13285.63
570.819	13299.64
571.18	13277.72
571.542	13357.26
571.903	13336.7
572.265	13408.33
572.626	13355.23
572.987	13397.49
573.349	13320.43
573.71	13379.18
574.071	13427.32
574.432	13509.57
574.794	13488.11
575.155	13423.93
575.516	13385.74
575.877	13540.53
576.238	13451.5
576.599	13484.94
576.96	13455.79
577.32	13455.11
577.681	13557.03
578.042	13597.26
578.403	13484.94
578.763	13489.69
579.124	13509.8
579.485	13561.78
579.845	13543.02
580.206	13564.71
580.566	13526.52
580.927	13555
581.287	13560.87
581.648	13470.71
582.008	13526.75
582.368	13539.63
582.728	13515.45
583.089	13532.4
583.449	13524.04
583.809	13522.68
584.169	13521.33
584.529	13487.65
584.889	13525.62
585.249	13399.75
585.609	13433.42
585.969	13523.13
586.329	13540.76
586.688	13527.65
587.048	13512.06
587.408	13426.41
587.768	13478.39
588.127	13452.85
588.487	13412.4
588.846	13493.08
589.206	13326.3
589.565	13360.2
589.925	13420.31
590.284	13414.21
590.643	13365.4
591.003	13388.22
591.362	13484.49
591.721	13351.84
592.08	13401.33
592.44	13398.62
592.799	13348.45
593.158	13351.84
593.517	13311.61
593.876	13332.18
594.235	13352.74
594.593	13312.29
594.952	13341.67
595.311	13251.95
595.67	13289.01
596.029	13298.96
596.387	13364.95
596.746	13408.56
597.104	13303.03
597.463	13277.49
597.822	13372.18
598.18	13307.77
598.538	13268.9
598.897	13307.55
599.255	13228.23
599.613	13459.41
599.972	13333.31
600.33	13322.46
600.688	13266.64
601.046	13291.5
601.404	13375.11
601.762	13304.38
602.12	13330.14
602.478	13337.6
602.836	13368.56
603.194	13309.35
603.552	13268
603.91	13242.24
604.268	13309.35
604.625	13251.73
604.983	13349.58
605.341	13249.02
605.698	13289.69
606.056	13315.91
606.413	13303.93
606.771	13420.54
607.128	13350.03
607.485	13183.48
607.843	13279.52
608.2	13338.05
608.557	13290.6
608.914	13358.84
609.272	13440.2
609.629	13374.21
609.986	13468.22
610.343	13363.59
610.7	13427.32
611.057	13439.97
611.414	13422.8
611.771	13424.83
612.127	13474.77
612.484	13518.61
612.841	13507.54
613.198	13498.5
613.554	13428.22
613.911	13599.29
614.267	13574.88
614.624	13511.61
614.98	13587.09
615.337	13637.71
615.693	13664.15
616.05	13570.36
616.406	13658.27
616.762	13588.89
617.118	13591.83
617.475	13573.75
617.831	13627.54
618.187	13608.78
618.543	13626.86
618.899	13663.92
619.255	13635.67
619.611	13631.83
619.967	13736.46
620.323	13721.09
620.678	13686.29
621.034	13692.85
621.39	13661.43
621.746	13574.66
622.101	13758.61
622.457	13707.31
622.812	13761.77
623.168	13752.73
623.523	13779.62
623.879	13797.48
624.234	13684.71
624.589	13761.54
624.945	13740.75
625.3	13782.56
625.655	13733.07
626.01	13789.57
626.365	13737.59
626.72	13658.5
627.075	13723.13
627.43	13785.27
627.785	13674.32
628.14	13704.37
628.495	13713.18
628.85	13678.38
629.205	13671.83
629.559	13687.2
629.914	13695.11
630.269	13749.34
630.623	13667.31
630.978	13640.19
631.332	13709.79
631.687	13702.56
632.041	13593.87
632.396	13619.4
632.75	13460.54
633.104	13533.75
633.459	13517.71
633.813	13451.72
634.167	13474.09
634.521	13405.62
634.875	13515
635.229	13398.62
635.583	13336.47
635.937	13319.07
636.291	13379.18
636.645	13310.71
636.999	13289.01
637.352	13351.16
637.706	13226.19
638.06	13266.19
638.413	13271.84
638.767	13242.24
639.121	13254.89
639.474	13236.59
639.828	13202.01
640.181	13231.62
640.534	13168.11
640.888	13189.13
641.241	13145.74
641.594	13153.65
641.947	13298.05
642.301	13226.19
642.654	13193.65
643.007	13134.89
643.36	13143.48
643.713	13150.04
644.066	13190.94
644.419	13077.5
644.771	12995.46
645.124	12914.34
645.477	12827.56
645.83	12872.08
646.182	12732.87
646.535	12750.5
646.888	12776.49
647.24	12632.76
647.593	12708.69
647.945	12823.72
648.298	12701.69
648.65	12659.2
649.002	12637.28
649.355	12666.21
649.707	12619.2
650.059	12719.54
650.411	12894.22
650.763	12838.41
651.115	13018.74
651.467	12970.15
651.819	12945.07
652.171	12977.16
652.523	12898.52
652.875	12873.21
653.227	12941
653.578	12917.5
653.93	12966.54
654.282	12880.21
654.633	12867.11
654.985	12915.47
655.337	12940.32
655.688	12911.85
656.039	12950.72
656.391	12880.66
656.742	12952.07
657.094	12901.45
657.445	12970.15
657.796	12845.18
658.147	12971.51
658.498	12928.35
658.849	12947.33
659.2	12948.23
659.551	12857.39
659.902	12969.93
660.253	12927.67
660.604	12945.97
660.955	12926.09
661.306	12888.12
661.656	12947.56
662.007	13013.54
662.358	12905.97
662.708	12942.36
663.059	13001.11
663.409	12831.17
663.76	12968.57
664.11	12911.17
664.461	12963.15
664.811	12990.27
665.161	12976.71
665.511	12969.25
665.862	13000.66
666.212	12970.61
666.562	13007.89
666.912	12916.82
667.262	12968.12
667.612	12927.44
667.962	12995.01
668.312	12947.78
668.662	12930.15
669.011	12979.64
669.361	13000.89
669.711	12881.12
670.06	12908.69
670.41	12849.03
670.76	12880.21
671.109	12887.44
671.459	12933.32
671.808	12892.19
672.157	12900.32
672.507	12778.75
672.856	12756.15
673.205	12839.54
673.554	12846.09
673.904	12817.84
674.253	12859.87
674.602	12911.4
674.951	12592.76
675.3	12589.82
675.649	12745.75
675.998	12812.19
676.346	12796.82
676.695	12879.08
677.044	12692.19
677.393	12761.35
677.741	12804.96
678.09	12773.77
678.438	12607.9
678.787	12661.69
679.135	12750.5
679.484	12651.07
679.832	12622.59
680.181	12622.82
680.529	12668.47
680.877	12590.95
681.225	12560.9
681.573	12594.12
681.922	12520.67
682.27	12528.13
682.618	12504.4
682.966	12483.39
683.314	12483.84
683.661	12410.62
684.009	12362.94
684.357	12337.63
684.705	12232.55
685.053	12278.19
685.4	12267.12
685.748	12209.04
686.095	12204.07
686.443	12172.21
686.79	12117.75
687.138	12158.88
687.485	12077.07
687.832	12191.87
688.18	12073.45
688.527	12019.9
688.874	11945.77
689.221	11982.61
689.568	11947.81
689.915	11898.09
690.262	11922.95
690.609	11841.6
690.956	11800.24
691.303	11818.55
691.65	11679.34
691.997	11748.49
692.344	11652
692.69	11690.19
693.037	11687.25
693.383	11610.42
693.73	11578.78
694.077	11469.4
694.423	11481.6
694.769	11490.64
695.116	11299.24
695.462	11388.5
695.808	11294.04
696.155	11338.56
696.501	11190.31
696.847	11302.63
697.193	11174.95
697.539	11132.91
697.885	11111.45
698.231	11046.81
698.577	11084.55
698.923	11012.46
699.269	10971.34
699.614	10894.73
699.96	10894.73
700.306	10926.14
700.651	10806.59
700.997	10745.35
701.342	10692.7
701.688	10744.9
702.033	10607.5
702.379	10654.06
702.724	10569.76
703.069	10657.67
703.415	10466.94
703.76	10493.61
704.105	10406.6
704.45	10451.12
704.795	10440.28
705.14	10339.49
705.485	10313.73
705.83	10318.92
706.175	10281.18
706.52	10226.5
706.865	10173.62
707.209	10171.81
707.554	10176.55
707.899	10100.85
708.243	10085.48
708.588	10116.9
708.932	9938.37
709.277	9998.48
709.621	9967.97
709.966	9946.5
710.31	9986.73
710.654	9851.37
710.998	9980.18
711.342	9956.9
711.687	9875.09
712.031	9854.98
712.375	9776.79
712.719	9741.76
713.063	9843.68
713.407	9812.27
713.75	9752.84
714.094	9706.74
714.438	9656.34
714.782	9657.47
715.125	9608.43
715.469	9636.23
715.812	9548.1
716.156	9612.73
716.499	9541.09
716.843	9621.54
717.186	9520.75
717.53	9535.44
717.873	9641.2
718.216	9481.21
718.559	9444.37
718.902	9442.79
719.246	9397.37
719.589	9454.09
719.932	9337.71
720.275	9407.54
720.617	9357.37
720.96	9307.42
721.303	9324.15
721.646	9340.64
721.989	9296.8
722.331	9281.89
722.674	9316.46
723.016	9293.41
723.359	9302.68
723.701	9255.45
724.044	9245.51
724.386	9251.83
724.729	9292.06
725.071	9231.49
725.413	9219.29
725.755	9181.78
726.097	9149.69
726.439	9179.74
726.782	9171.38
727.124	9296.58
727.465	9135.23
727.807	9165.06
728.149	9069.46
728.491	9103.36
728.833	9174.09
729.175	9069.92
729.516	9090.93
729.858	9062.46
730.199	9099.07
730.541	9036.7
730.882	9051.39
731.224	9118.28
731.565	9011.61
731.906	9070.14
732.248	9007.55
732.589	9062.23
732.93	9089.8
733.271	9072.63
733.612	9040.99
733.953	9071.5
734.294	9037.83
734.635	9021.56
734.976	9069.24
735.317	9016.58
735.658	8994.66
735.999	9083.25
736.339	9055.45
736.68	9038.73
737.021	9008.22
737.361	9034.21
737.702	9152.4
738.042	9066.75
738.383	9047.54
738.723	9089.58
739.063	9051.61
739.404	9090.03
739.744	9094.77
740.084	9113.31
740.424	9113.98
740.764	9098.84
741.104	9211.83
741.444	9215.68
741.784	9150.37
742.124	9170.71
742.464	9187.43
742.804	9219.52
743.143	9165.96
743.483	9203.25
743.823	9242.57
744.162	9231.04
744.502	9285.96
744.841	9322.11
745.181	9339.97
745.52	9334.99
745.86	9384.71
746.199	9361.43
746.538	9465.61
746.877	9598.26
747.216	9538.83
747.556	9611.15
747.895	9573.86
748.234	9678.71
748.573	9667.42
748.911	9736.57
749.25	9806.62
749.589	9821.54
749.928	9967.75
750.267	10019.95
750.605	10057.69
750.944	10114.41
751.283	10216.1
751.621	10299.26
751.96	10368.87
752.298	10365.7
752.636	10557.34
752.975	10596.43
753.313	10693.6
753.651	10804.33
753.989	10880.49
754.327	10953.48
754.666	11093.59
755.004	11197.77
755.342	11381.72
755.679	11516.63
756.017	11507.59
756.355	11738.77
756.693	11870.75
757.031	11965.21
757.368	12097.86
757.706	12213.79
758.044	12356.38
758.381	12465.31
758.719	12700.56
759.056	12854.9
