Data from hue_250_FLMS001491_00046.txt Node
Date: Tue Feb 07 16:01:02 GMT 2017
User: dcchb
Spectrometer: FLMS00149
Trigger mode: 0
Integration Time (sec): 2.000000E-2
Scans to average: 10
Electric dark correction enabled: true
Nonlinearity correction enabled: false
Boxcar width: 0
XAxis mode: Wavelengths
Number of Pixels in Spectrum: 2048
>>>>>Begin Spectral Data<<<<<
341.393	-20.37
341.776	-20.37
342.16	-20.37
342.543	-62.17
342.927	-63.98
343.31	-61.27
343.693	-84.55
344.077	-69.86
344.46	-59.01
344.843	-53.81
345.226	-45.45
345.61	-10.65
345.993	-6.36
346.376	5.62
346.759	16.24
347.142	38.39
347.525	42.23
347.908	63.02
348.291	53.08
348.674	73.42
349.057	98.95
349.44	103.02
349.823	151.38
350.206	156.58
350.588	183.24
350.971	200.87
351.354	205.39
351.737	239.51
352.119	240.19
352.502	219.63
352.884	252.17
353.267	260.76
353.65	272.51
354.032	303.69
354.414	295.56
354.797	296.46
355.179	303.47
355.562	308.66
355.944	303.69
356.326	323.81
356.709	298.04
357.091	310.92
357.473	328.78
357.855	332.84
358.238	311.15
358.62	330.58
359.002	333.3
359.384	331.94
359.766	342.56
360.148	340.98
360.53	333.07
360.912	334.65
361.294	324.93
361.676	322.45
362.057	319.06
362.439	317.7
362.821	321.77
363.203	314.09
363.584	321.09
363.966	316.35
364.348	318.16
364.729	312.73
365.111	324.71
365.493	320.42
365.874	310.02
366.256	291.94
366.637	293.52
367.019	298.72
367.4	306.86
367.781	304.6
368.163	309.34
368.544	314.09
368.925	298.04
369.306	317.93
369.688	322
370.069	302.11
370.45	309.79
370.831	287.42
371.212	323.81
371.593	320.87
371.974	307.08
372.355	300.53
372.736	314.09
373.117	314.77
373.498	299.85
373.879	314.09
374.26	303.69
374.641	299.85
375.021	299.85
375.402	315.9
375.783	301.43
376.163	326.52
376.544	317.93
376.925	305.05
377.305	308.44
377.686	321.32
378.066	324.71
378.447	312.28
378.827	336.23
379.208	318.83
379.588	326.74
379.968	323.81
380.349	322.45
380.729	311.6
381.109	338.04
381.489	331.26
381.87	335.1
382.25	333.52
382.63	320.19
383.01	328.55
383.39	355.44
383.77	331.71
384.15	357.25
384.53	340.75
384.91	345.95
385.29	348.89
385.67	330.36
386.049	345.95
386.429	364.03
386.809	360.87
387.189	351.15
387.568	348.89
387.948	352.05
388.328	345.05
388.707	355.22
389.087	366.29
389.466	363.13
389.846	354.54
390.225	347.08
390.605	339.85
390.984	360.41
391.363	360.41
391.743	375.33
392.122	368.55
392.501	373.07
392.881	379.4
393.26	354.99
393.639	369.45
394.018	371.04
394.397	362.45
394.776	379.85
395.155	370.36
395.534	374.88
395.913	364.03
396.292	378.04
396.671	382.11
397.05	408.55
397.429	398.38
397.808	391.83
398.186	415.1
398.565	391.6
398.944	403.8
399.323	394.99
399.701	407.42
400.08	397.02
400.458	400.41
400.837	403.58
401.215	402.22
401.594	420.75
401.972	429.79
402.351	434.08
402.729	418.72
403.107	409
403.486	435.89
403.864	425.5
404.242	446.51
404.62	422.11
404.999	419.4
405.377	444.03
405.755	435.21
406.133	455.78
406.511	451.26
406.889	460.07
407.267	453.97
407.645	470.69
408.023	472.73
408.401	479.51
408.779	469.56
409.156	476.57
409.534	489.22
409.912	482.22
410.29	511.6
410.667	508.66
411.045	510.92
411.422	538.71
411.8	507.98
412.178	510.69
412.555	548.66
412.933	549.34
413.31	573.74
413.687	556.12
414.065	577.13
414.442	567.41
414.819	583.91
415.197	587.98
415.574	561.31
415.951	583.01
416.328	611.03
416.705	614.42
417.082	598.6
417.46	632.95
417.837	609.45
418.214	619.16
418.591	618.49
418.967	616.45
419.344	633.4
419.721	651.25
420.098	647.86
420.475	677.69
420.852	682.89
421.228	682.67
421.605	690.35
421.982	697.13
422.358	701.2
422.735	733.06
423.111	736
423.488	732.61
423.864	755.43
424.241	750.23
424.617	779.61
424.994	797.01
425.37	768.54
425.746	784.81
426.123	794.98
426.499	813.74
426.875	815.77
427.251	845.37
427.627	841.31
428.003	835.88
428.379	840.85
428.756	865.94
429.132	882.21
429.507	865.03
429.883	904.35
430.259	908.2
430.635	915.65
431.011	904.58
431.387	972.15
431.763	942.55
432.138	972.83
432.514	974.64
432.89	995.2
433.265	1009.66
433.641	1004.92
434.016	1020.28
434.392	1032.04
434.767	1071.13
435.143	1068.64
435.518	1088.53
435.894	1104.12
436.269	1117.91
436.644	1134.86
437.02	1133.73
437.395	1160.85
437.77	1168.98
438.145	1186.83
438.52	1211.92
438.895	1213.5
439.271	1226.38
439.646	1263.44
440.021	1253.05
440.395	1278.13
440.77	1296.89
441.145	1290.11
441.52	1287.4
441.895	1335.98
442.27	1327.62
442.645	1333.5
443.019	1361.07
443.394	1364
443.769	1371.24
444.143	1369.43
444.518	1399.71
444.892	1406.71
445.267	1423.44
445.641	1425.47
446.016	1457.79
446.39	1462.31
446.764	1467.5
447.139	1459.59
447.513	1449.65
447.887	1454.4
448.262	1464.11
448.636	1513.38
449.01	1532.13
449.384	1519.48
449.758	1539.59
450.132	1590.21
450.506	1557.44
450.88	1588.18
451.254	1560.83
451.628	1578.46
452.002	1619.14
452.376	1622.3
452.75	1631.12
453.123	1630.44
453.497	1674.28
453.871	1692.13
454.244	1702.07
454.618	1712.92
454.992	1737.33
455.365	1760.83
455.739	1803.31
456.112	1798.79
456.486	1796.53
456.859	1813.26
457.232	1868.4
457.606	1866.82
457.979	1876.08
458.352	1900.26
458.725	1927.15
459.099	1938.23
459.472	1972.35
459.845	1993.37
460.218	2017.32
460.591	2028.39
460.964	2029.07
461.337	2060.93
461.71	2089.86
462.083	2118.33
462.456	2139.8
462.829	2157.43
463.201	2197.88
463.574	2173.93
463.947	2203.3
464.32	2260.25
464.692	2286.92
465.065	2287.37
465.438	2307.26
465.81	2314.26
466.183	2371.89
466.555	2376.18
466.928	2424.09
467.3	2394.71
467.672	2443.98
468.045	2533.92
468.417	2491.21
468.789	2530.98
469.161	2546.35
469.534	2589.96
469.906	2646.23
470.278	2666.79
470.65	2691.2
471.022	2705.21
471.394	2775.49
471.766	2780.24
472.138	2820.01
472.51	2872.21
472.882	2900.23
473.253	2914.25
473.625	2993.79
473.997	3018.88
474.369	3025.43
474.74	3061.36
475.112	3123.05
475.484	3187.91
475.855	3202.6
476.227	3231.53
476.598	3309.49
476.97	3354.23
477.341	3380
477.713	3444.63
478.084	3424.97
478.455	3506.09
478.827	3573.66
479.198	3630.84
479.569	3632.64
479.94	3730.04
480.311	3811.85
480.682	3833.54
481.053	3902.02
481.424	3983.37
481.795	3974.1
482.166	4025.85
482.537	4051.39
482.908	4144.72
483.279	4195.79
483.65	4244.61
484.021	4332.74
484.391	4355.56
484.762	4400.76
485.133	4399.63
485.503	4502.68
485.874	4572.51
486.244	4625.16
486.615	4682.33
486.985	4678.94
487.356	4766.17
487.726	4781.31
488.097	4920.52
488.467	4875.55
488.837	5031.93
489.207	5058.14
489.578	5086.17
489.948	5184.92
490.318	5209.33
490.688	5181.53
491.058	5311.24
491.428	5351.24
491.798	5366.38
492.168	5480.05
492.538	5459.94
492.908	5563.44
493.278	5571.8
493.648	5638.92
494.017	5733.15
494.387	5711.91
494.757	5769.09
495.126	5798.46
495.496	5831.68
495.866	5851.57
496.235	5894.73
496.605	5941.96
496.974	5959.82
497.344	6036.2
497.713	6063.09
498.082	6073.71
498.452	6149.19
498.821	6124.1
499.19	6136.08
499.559	6191
499.928	6219.92
500.298	6301.5
500.667	6288.39
501.036	6296.76
501.405	6355.06
501.774	6307.6
502.143	6333.14
502.512	6412.91
502.88	6436.86
503.249	6492.23
503.618	6507.82
503.987	6517.54
504.356	6526.35
504.724	6577.43
505.093	6572.68
505.462	6594.6
505.83	6629.4
506.199	6711.21
506.567	6780.81
506.936	6734.26
507.304	6789.4
507.672	6785.56
508.041	6831.88
508.409	6823.75
508.777	6841.6
509.145	6879.34
509.514	6909.85
509.882	6938.32
510.25	6962.27
510.618	6994.14
510.986	6997.75
511.354	7009.5
511.722	7105.32
512.09	7136.73
512.458	7070.29
512.826	7119.78
513.193	7108.49
513.561	7188.94
513.929	7256.73
514.297	7295.37
514.664	7268.03
515.032	7267.13
515.4	7271.64
515.767	7319.33
516.135	7311.87
516.502	7316.39
516.869	7320.91
517.237	7367.46
517.604	7392.09
517.972	7413.11
518.339	7373.11
518.706	7480.23
519.073	7425.99
519.44	7478.42
519.808	7507.57
520.175	7527.68
520.542	7596.38
520.909	7596.16
521.276	7582.82
521.643	7651.52
522.009	7654.46
522.376	7668.7
522.743	7713.22
523.11	7758.41
523.477	7746.89
523.843	7757.73
524.21	7848.35
524.577	7865.98
524.943	7884.28
525.31	7889.48
525.676	7964.28
526.043	7954.56
526.409	7947.56
526.776	8007.9
527.142	7965.19
527.508	8033.66
527.874	8059.19
528.241	8056.26
528.607	8068.46
528.973	8132.64
529.339	8115.92
529.705	8186.42
530.071	8136.71
530.437	8156.14
530.803	8212.41
531.169	8228.91
531.535	8204.05
531.901	8179.42
532.267	8243.82
532.632	8227.78
532.998	8231.17
533.364	8228
533.73	8226.87
534.095	8293.76
534.461	8336.25
534.826	8311.39
535.192	8266.2
535.557	8329.47
535.923	8287.89
536.288	8318.62
536.653	8274.56
537.019	8321.79
537.384	8326.08
537.749	8323.37
538.114	8355.91
538.479	8293.09
538.845	8362.92
539.21	8318.85
539.575	8351.84
539.94	8339.64
540.305	8358.17
540.67	8364.27
541.034	8323.14
541.399	8405.63
541.764	8282.24
542.129	8323.59
542.494	8328.11
542.858	8371.73
543.223	8314.33
543.587	8341.45
543.952	8284.95
544.316	8294.44
544.681	8290.6
545.045	8277.72
545.41	8279.75
545.774	8308.91
546.138	8315.91
546.503	8284.95
546.867	8287.44
547.231	8318.85
547.595	8375.34
547.959	8338.06
548.324	8353.65
548.688	8313.2
549.052	8359.75
549.416	8392.97
549.779	8330.83
550.143	8308
550.507	8297.38
550.871	8336.93
551.235	8358.85
551.599	8415.34
551.962	8341.45
552.326	8318.4
552.689	8352.52
553.053	8311.17
553.417	8292.86
553.78	8405.85
554.143	8341.22
554.507	8342.58
554.87	8332.18
555.234	8439.3
555.597	8323.37
555.96	8361.33
556.323	8419.19
556.686	8394.1
557.05	8443.14
557.413	8392.52
557.776	8477.94
558.139	8451.95
558.502	8509.8
558.865	8487.21
559.228	8561.33
559.59	8521.78
559.953	8510.48
560.316	8597.49
560.679	8571.5
561.041	8627.54
561.404	8575.79
561.767	8633.87
562.129	8671.16
562.492	8751.83
562.854	8684.49
563.217	8656.02
563.579	8709.12
563.941	8800.87
564.304	8790.48
564.666	8781.44
565.028	8825.05
565.39	8912.73
565.753	8913.86
566.115	8884.94
566.477	8905.27
566.839	9005.61
567.201	8985.05
567.563	8978.04
567.925	9046.29
568.287	9017.59
568.648	9006.74
569.01	9089
569.372	9121.09
569.734	9027.53
570.095	9196.79
570.457	9204.48
570.819	9201.09
571.18	9204.93
571.542	9206.74
571.903	9280.41
572.265	9298.03
572.626	9296.45
572.987	9303
573.349	9416
573.71	9367.41
574.071	9392.49
574.432	9436.33
574.794	9482.66
575.155	9459.84
575.516	9474.07
575.877	9470.91
576.238	9476.78
576.599	9569.21
576.96	9541.64
577.32	9545.03
577.681	9643.56
578.042	9617.12
578.403	9634.29
578.763	9639.94
579.124	9637.68
579.485	9747.96
579.845	9758.59
580.206	9698.25
580.566	9664.58
580.927	9767.4
581.287	9804.91
581.648	9776.89
582.008	9869.99
582.368	9859.15
582.728	9876.77
583.089	9860.96
583.449	9885.14
583.809	9840.62
584.169	9863.44
584.529	9872.48
584.889	9989.99
585.249	9879.03
585.609	9916.32
585.969	9955.42
586.329	9889.2
586.688	9991.57
587.048	9948.41
587.408	9980.95
587.768	9992.25
588.127	9999.26
588.487	10001.29
588.846	10074.06
589.206	10041.74
589.565	10046.04
589.925	10043.1
590.284	9991.57
590.643	10053.49
591.003	10146.15
591.362	10193.83
591.721	10171
592.08	10123.32
592.44	10166.48
592.799	10178.01
593.158	10119.25
593.517	10135.3
593.876	10233.6
594.235	10170.78
594.593	10187.5
594.952	10204.22
595.311	10179.59
595.67	10271.57
596.029	10230.44
596.387	10213.94
596.746	10306.14
597.104	10210.32
597.463	10267.27
597.822	10252.13
598.18	10236.54
598.538	10249.42
598.897	10316.54
599.255	10244.9
599.613	10324.22
599.972	10243.09
600.33	10327.61
600.688	10242.19
601.046	10326.93
601.404	10333.71
601.762	10345.01
602.12	10429.08
602.478	10371.9
602.836	10463.88
603.194	10394.05
603.552	10400.15
603.91	10363.99
604.268	10376.65
604.625	10338.01
604.983	10479.47
605.341	10341.85
605.698	10409.87
606.056	10432.24
606.413	10357.44
606.771	10498.9
607.128	10494.84
607.485	10419.81
607.843	10361.51
608.2	10511.79
608.557	10527.83
608.914	10438.34
609.272	10518.79
609.629	10517.89
609.986	10514.5
610.343	10560.37
610.7	10562.41
611.057	10541.39
611.414	10603.76
611.771	10564.67
612.127	10585.23
612.484	10606.92
612.841	10603.76
613.198	10609.86
613.554	10601.27
613.911	10685.57
614.267	10628.17
614.624	10629.3
614.98	10612.8
615.337	10730.54
615.693	10655.06
616.05	10648.96
616.406	10719.24
616.762	10669.97
617.118	10677.43
617.475	10761.27
617.831	10683.31
618.187	10694.83
618.543	10751.1
618.899	10749.29
619.255	10740.03
619.611	10768.5
619.967	10860.25
620.323	10757.2
620.678	10831.55
621.034	10748.39
621.39	10767.82
621.746	10774.38
622.101	10867.71
622.457	10769.86
622.812	10790.2
623.168	10848.27
623.523	10825.45
623.879	10801.04
624.234	10773.47
624.589	10810.08
624.945	10734.15
625.3	10737.77
625.655	10775.06
626.01	10831.55
626.365	10813.02
626.72	10846.24
627.075	10796.52
627.43	10761.04
627.785	10707.71
628.14	10804.21
628.495	10726.24
628.85	10761.04
629.205	10731.67
629.559	10766.47
629.914	10635.17
630.269	10747.94
630.623	10757.65
630.978	10689.86
631.332	10712.01
631.687	10729.63
632.041	10727.15
632.396	10704.32
632.75	10596.76
633.104	10624.33
633.459	10557.21
633.813	10551.78
634.167	10590.65
634.521	10567.15
634.875	10623.65
635.229	10591.33
635.583	10573.48
635.937	10580.48
636.291	10559.24
636.645	10505.46
636.999	10496.19
637.352	10470.66
637.706	10460.94
638.06	10519.02
638.413	10466.36
638.767	10490.54
639.121	10504.78
639.474	10384.33
639.828	10358.34
640.181	10335.07
640.534	10361.28
640.888	10364.22
641.241	10273.83
641.594	10323.54
641.947	10351.11
642.301	10302.07
642.654	10363.99
643.007	10391.34
643.36	10312.92
643.713	10244.45
644.066	10328.74
644.419	10219.14
644.771	10151.34
645.124	10112.7
645.477	10081.74
645.83	9975.53
646.182	10048.3
646.535	9914.51
646.888	9986.83
647.24	9847.62
647.593	9968.75
647.945	9916.77
648.298	9863.22
648.65	9826.61
649.002	9880.16
649.355	9882.42
649.707	9930.56
650.059	9924.91
650.411	10087.62
650.763	10117.22
651.115	10165.13
651.467	10163.09
651.819	10200.16
652.171	10127.84
652.523	10085.13
652.875	10111.8
653.227	10041.74
653.578	10244.67
653.93	10050.55
654.282	10087.39
654.633	10058.01
654.985	10153.38
655.337	10067.5
655.688	10069.76
656.039	10038.8
656.391	9997.22
656.742	10032.25
657.094	10013.49
657.445	10104.56
657.796	10032.25
658.147	10044
658.498	10039.93
658.849	10089.42
659.2	10069.76
659.551	10033.38
659.902	10079.48
660.253	9992.7
660.604	10058.69
660.955	10058.24
661.306	10049.43
661.656	10077.22
662.007	10095.53
662.358	10031.35
662.708	10037
663.059	10108.63
663.409	9978.47
663.76	10072.25
664.11	10016.21
664.461	10080.61
664.811	10064.79
665.161	10055.07
665.511	10083.77
665.862	10057.79
666.212	10142.08
666.562	10074.51
666.912	9995.64
667.262	10054.62
667.612	10025.47
667.962	10009.88
668.312	10009.2
668.662	10101.4
669.011	9988.64
669.361	9998.8
669.711	9966.49
670.06	9954.51
670.41	9937.79
670.76	9974.85
671.109	10025.02
671.459	9995.19
671.808	10028.41
672.157	9986.6
672.507	9937.11
672.856	9961.29
673.205	9904.8
673.554	9939.82
673.904	9919.94
674.253	9951.12
674.602	9911.35
674.951	9785.7
675.3	9751.81
675.649	9936.21
675.998	9869.77
676.346	9854.63
676.695	9950.9
677.044	9813.95
677.393	9904.12
677.741	9866.15
678.09	9800.39
678.438	9846.27
678.787	9783.67
679.135	9815.76
679.484	9754.97
679.832	9724.46
680.181	9746.83
680.529	9804.69
680.877	9714.07
681.225	9641.3
681.573	9750.9
681.922	9635.65
682.27	9643.11
682.618	9608.31
682.966	9653.5
683.314	9538.7
683.661	9634.07
684.009	9565.14
684.357	9575.99
684.705	9486.05
685.053	9498.71
685.4	9520.85
685.748	9470.01
686.095	9462.77
686.443	9451.25
686.79	9405.83
687.138	9373.28
687.485	9429.33
687.832	9378.93
688.18	9412.15
688.527	9347.52
688.874	9323.34
689.221	9283.8
689.568	9268.65
689.915	9206.51
690.262	9208.54
690.609	9147.98
690.956	9205.61
691.303	9159.96
691.65	9085.16
691.997	9082.44
692.344	9035.44
692.69	9033.86
693.037	9075.89
693.383	8932.39
693.73	8975.78
694.077	8905.5
694.423	8922.22
694.769	8873.41
695.116	8796.35
695.462	8805.39
695.808	8810.59
696.155	8814.2
696.501	8683.59
696.847	8760.87
697.193	8663.47
697.539	8686.97
697.885	8615.11
698.231	8613.08
698.577	8603.14
698.923	8555.45
699.269	8554.32
699.614	8479.07
699.96	8436.59
700.306	8445.63
700.651	8376.93
700.997	8370.37
701.342	8423.03
701.688	8346.42
702.033	8234.56
702.379	8288.34
702.724	8228.68
703.069	8263.48
703.415	8247.89
703.76	8152.75
704.105	8130.15
704.45	8070.72
704.795	8121.11
705.14	8103.49
705.485	8002.25
705.83	8039.76
706.175	7994.11
706.52	7925.64
706.865	7931.97
707.209	7957.5
707.554	7933.32
707.899	7874.34
708.243	7882.7
708.588	7817.85
708.932	7853.78
709.277	7833.66
709.621	7863.95
709.966	7735.36
710.31	7789.37
710.654	7711.86
710.998	7722.48
711.342	7710.96
711.687	7771.52
712.031	7665.76
712.375	7622.82
712.719	7611.07
713.063	7585.99
713.407	7568.13
713.75	7584.41
714.094	7571.07
714.438	7551.19
714.782	7570.39
715.125	7420.79
715.469	7542.15
715.812	7475.26
716.156	7475.71
716.499	7423.73
716.843	7472.09
717.186	7460.11
717.53	7428.03
717.873	7433
718.216	7416.95
718.559	7372.66
718.902	7330.17
719.246	7296.5
719.589	7319.78
719.932	7262.61
720.275	7323.62
720.617	7297.18
720.96	7267.58
721.303	7274.81
721.646	7275.71
721.989	7171.53
722.331	7315.49
722.674	7273.23
723.016	7181.25
723.359	7212.66
723.701	7247.01
724.044	7230.06
724.386	7167.24
724.729	7190.52
725.071	7169.73
725.413	7150.74
725.755	7208.6
726.097	7113.68
726.439	7122.72
726.782	7169.27
727.124	7181.25
727.465	7173.34
727.807	7121.14
728.149	7118.88
728.491	7110.29
728.833	7106.68
729.175	7081.14
729.516	7082.05
729.858	7048.37
730.199	7108.26
730.541	7085.66
730.882	6991.2
731.224	7023.97
731.565	7001.82
731.906	7052.67
732.248	7033.91
732.589	7054.93
732.93	7046.34
733.271	7036.62
733.612	7051.54
733.953	7033.46
734.294	7018.54
734.635	7003.4
734.976	6978.32
735.317	6984.87
735.658	7026.68
735.999	6978.55
736.339	6989.17
736.68	7030.52
737.021	6932.9
737.361	6973.35
737.702	7051.54
738.042	7014.48
738.383	7011.09
738.723	6971.77
739.063	7013.35
739.404	6988.71
739.744	7024.42
740.084	6978.09
740.424	6990.97
740.764	7043.85
741.104	7075.72
741.444	6989.84
741.784	6991.88
742.124	7077.07
742.464	7072.78
742.804	7033.23
743.143	7078.88
743.483	7064.87
743.823	7007.92
744.162	7146.68
744.502	7121.14
744.841	7094.02
745.181	7176.51
745.52	7174.25
745.86	7192.33
746.199	7247.01
746.538	7211.31
746.877	7236.62
747.216	7314.81
747.556	7268.93
747.895	7372.89
748.234	7359.33
748.573	7338.99
748.911	7417.4
749.25	7360.23
749.589	7474.58
749.928	7499.66
750.267	7581.47
750.605	7649.94
750.944	7657.85
751.283	7679.77
751.621	7731.29
751.96	7799.77
752.298	7797.96
752.636	7875.47
752.975	7924.51
753.313	8030.72
753.651	8096.48
753.989	8113.2
754.327	8201.34
754.666	8181
755.004	8246.31
755.342	8367.89
755.679	8395.91
756.017	8472.07
756.355	8597.94
756.693	8670.93
757.031	8829.12
757.368	8787.99
757.706	8991.15
758.044	9062.78
758.381	9146.85
758.719	9188.2
759.056	9380.97
759.394	9430.68
759.731	9455.32
760.068	9566.27
760.405	9672.94
760.743	9726.72
761.08	9851.46
761.417	9903.67
761.754	10008.52
762.091	10105.02
762.428	10204.68
762.765	10304.11
763.102	10455.52
763.438	10485.8
763.775	10563.76
764.112	10673.82
764.449	10841.27
764.785	10927.37
765.122	11016.86
765.458	11017.08
