Data from hue_200_FLMS001491_00024.txt Node
Date: Tue Feb 07 16:43:02 GMT 2017
User: dcchb
Spectrometer: FLMS00149
Trigger mode: 0
Integration Time (sec): 2.000000E-2
Scans to average: 10
Electric dark correction enabled: true
Nonlinearity correction enabled: false
Boxcar width: 0
XAxis mode: Wavelengths
Number of Pixels in Spectrum: 2048
>>>>>Begin Spectral Data<<<<<
341.393	-9.14
341.776	-9.14
342.16	-9.14
342.543	-51.85
342.927	-59.76
343.31	-61.57
343.693	-60.89
344.077	-80.1
344.46	-48.01
344.843	-56.37
345.226	-55.24
345.61	-23.6
345.993	-14.79
346.376	4.65
346.759	21.6
347.142	27.25
347.525	22.95
347.908	46.23
348.291	79.45
348.674	86.9
349.057	111.54
349.44	133.23
349.823	136.85
350.206	167.13
350.588	203.29
350.971	208.71
351.354	223.85
351.737	230.18
352.119	253.23
352.502	272.21
352.884	279.89
353.267	270.4
353.65	296.62
354.032	303.85
354.414	315.15
354.797	318.99
355.179	321.93
355.562	326.45
355.944	342.94
356.326	340.23
356.709	349.27
357.091	331.64
357.473	340.23
357.855	337.75
358.238	337.07
358.62	332.77
359.002	358.08
359.384	335.94
359.766	349.72
360.148	332.1
360.53	334.36
360.912	330.06
361.294	337.75
361.676	337.75
362.057	349.04
362.439	333.68
362.821	329.16
363.203	305.43
363.584	333.68
363.966	339.1
364.348	306.11
364.729	335.26
365.111	309.5
365.493	326.45
365.874	326.45
366.256	312.21
366.637	311.53
367.019	346.11
367.4	336.84
367.781	330.29
368.163	299.55
368.544	332.1
368.925	326.67
369.306	320.8
369.688	317.63
370.069	313.57
370.45	296.16
370.831	294.36
371.212	313.34
371.593	319.44
371.974	317.86
372.355	304.75
372.736	315.37
373.117	316.28
373.498	324.86
373.879	315.6
374.26	311.76
374.641	324.19
375.021	315.6
375.402	331.19
375.783	325.32
376.163	321.25
376.544	337.75
376.925	325.32
377.305	314.24
377.686	329.16
378.066	340.46
378.447	307.92
378.827	335.71
379.208	325.77
379.588	346.11
379.968	350.63
380.349	334.13
380.729	308.82
381.109	346.78
381.489	315.83
381.87	334.36
382.25	354.69
382.63	340.46
383.01	356.5
383.39	338.65
383.77	334.58
384.15	342.04
384.53	353.79
384.91	365.09
385.29	354.47
385.67	347.91
386.049	354.47
386.429	346.11
386.809	372.09
387.189	352.89
387.568	331.64
387.948	347.01
388.328	347.69
388.707	356.5
389.087	351.08
389.466	363.73
389.846	371.87
390.225	368.7
390.605	373.68
390.984	370.96
391.363	382.49
391.743	368.25
392.122	382.94
392.501	367.58
392.881	380.91
393.26	368.25
393.639	381.81
394.018	372.55
394.397	386.78
394.776	361.47
395.155	399.89
395.534	379.55
395.913	386.11
396.292	394.47
396.671	392.66
397.05	389.72
397.429	381.59
397.808	397.63
398.186	404.18
398.565	418.2
398.944	410.06
399.323	425.43
399.701	392.66
400.08	427.23
400.458	405.31
400.837	422.71
401.215	426.33
401.594	435.6
401.972	444.18
402.351	413.9
402.729	452.09
403.107	438.99
403.486	436.95
403.864	444.41
404.242	473.11
404.62	453.45
404.999	472.88
405.377	464.3
405.755	462.71
406.133	454.8
406.511	453.9
406.889	476.05
407.267	465.43
407.645	484.63
408.023	481.24
408.401	490.06
408.779	497.52
409.156	514.69
409.534	498.65
409.912	511.75
410.29	540
410.667	530.06
411.045	556.72
411.422	552.65
411.8	552.43
412.178	575.93
412.555	572.54
412.933	593.33
413.31	595.82
413.687	594.69
414.065	604.63
414.442	626.1
414.819	638.3
415.197	615.93
415.574	637.62
415.951	651.86
416.328	668.81
416.705	671.52
417.082	655.25
417.46	653.67
417.837	711.07
418.214	730.28
418.591	751.75
418.967	750.16
419.344	735.7
419.721	740.45
420.098	760.11
420.475	794.91
420.852	772.54
421.228	784.97
421.605	815.47
421.982	846.21
422.358	835.36
422.735	866.55
423.111	898.86
423.488	905.41
423.864	916.49
424.241	918.07
424.617	937.05
424.994	933.89
425.37	965.3
425.746	966.2
426.123	985.19
426.499	991.74
426.875	990.38
427.251	1035.35
427.627	1048.24
428.003	1078.06
428.379	1088.91
428.756	1064.51
429.132	1090.27
429.507	1127.78
429.883	1106.31
430.259	1155.8
430.635	1165.97
431.011	1154
431.387	1177.72
431.763	1183.37
432.138	1208
432.514	1253.65
432.89	1224.95
433.265	1303.82
433.641	1295.23
434.016	1321
434.392	1341.79
434.767	1380.66
435.143	1407.77
435.518	1427.89
435.894	1470.82
436.269	1463.59
436.644	1508.56
437.02	1552.18
437.395	1553.98
437.77	1575.68
438.145	1609.35
438.52	1652.97
438.895	1672.17
439.271	1687.09
439.646	1759.4
440.021	1768.44
440.395	1755.79
440.77	1732.06
441.145	1823.81
441.52	1847.76
441.895	1839.63
442.27	1891.83
442.645	1900.19
443.019	1936.8
443.394	1914.65
443.769	1965.95
444.143	1955.56
444.518	2026.51
444.892	2004.37
445.267	2033.97
445.641	2045.27
446.016	2066.29
446.39	2090.69
446.764	2100.86
447.139	2077.13
447.513	2147.42
447.887	2138.15
448.262	2159.17
448.636	2202.1
449.01	2172.5
449.384	2259.73
449.758	2254.76
450.132	2250.01
450.506	2300.41
450.88	2262.21
451.254	2334.98
451.628	2371.82
452.002	2393.06
452.376	2394.41
452.75	2426.05
453.123	2425.83
453.497	2472.6
453.871	2513.73
454.244	2509.89
454.618	2547.18
454.992	2588.99
455.365	2601.64
455.739	2637.57
456.112	2711.69
456.486	2714.86
456.859	2716.44
457.232	2773.84
457.606	2779.49
457.979	2823.78
458.352	2878.47
458.725	2900.84
459.099	2916.89
459.472	2930.22
459.845	2957.79
460.218	2991.01
460.591	3022.19
460.964	3047.28
461.337	3105.81
461.71	3180.61
462.083	3235.3
462.456	3194.62
462.829	3220.83
463.201	3299.7
463.574	3295.41
463.947	3331.56
464.32	3433.94
464.692	3400.04
465.065	3474.16
465.438	3526.14
465.81	3527.72
466.183	3607.49
466.555	3652.23
466.928	3703.31
467.3	3669.18
467.672	3760.25
468.045	3824.66
468.417	3816.98
468.789	3893.13
469.161	3942.62
469.534	4019.46
469.906	4086.12
470.278	4066.46
470.65	4129.06
471.022	4195.27
471.394	4285.89
471.766	4324.99
472.138	4349.39
472.51	4446.11
472.882	4542.15
473.253	4508.71
473.625	4632.77
473.997	4712.09
474.369	4753.45
474.74	4806.33
475.112	4852.2
475.484	4913.22
475.855	5063.95
476.227	5024.4
476.598	5159.31
476.97	5165.64
477.341	5344.17
477.713	5355.01
478.084	5430.94
478.455	5545.29
478.827	5570.38
479.198	5729.92
479.569	5726.76
479.94	5903.93
480.311	5899.18
480.682	6028.22
481.053	6199.06
481.424	6217.59
481.795	6326.74
482.166	6402.67
482.537	6425.04
482.908	6586.62
483.279	6620.97
483.65	6731.02
484.021	6849.66
484.391	6863.68
484.762	6907.74
485.133	6989.77
485.503	7053.27
485.874	7257.79
486.244	7280.39
486.615	7377.56
486.985	7418.46
487.356	7560.83
487.726	7628.18
488.097	7734.61
488.467	7827.49
488.837	7930.77
489.207	8006.7
489.578	8110.87
489.948	8166.01
490.318	8323.3
490.688	8282.85
491.058	8389.06
491.428	8480.36
491.798	8571.2
492.168	8697.3
492.538	8742.04
492.908	8738.88
493.278	8905.2
493.648	8891.42
494.017	9010.74
494.387	9050.28
494.757	9105.2
495.126	9198.76
495.496	9148.59
495.866	9180.22
496.235	9305.42
496.605	9452.99
496.974	9473.1
497.344	9517.17
497.713	9536.6
498.082	9575.69
498.452	9690.49
498.821	9659.76
499.19	9670.61
499.559	9741.11
499.928	9771.62
500.298	9796.48
500.667	9878.29
501.036	9844.39
501.405	9921.67
501.774	9922.35
502.143	9979.3
502.512	10006.19
502.88	10025.17
503.249	10038.73
503.618	10092.29
503.987	10097.94
504.356	10161.22
504.724	10194.44
505.093	10148.56
505.462	10234.21
505.83	10305.39
506.199	10312.62
506.567	10402.34
506.936	10367.09
507.304	10428.33
507.672	10465.39
508.041	10486.41
508.409	10497.25
508.777	10564.14
509.145	10584.26
509.514	10533.18
509.882	10645.95
510.25	10608.89
510.618	10611.37
510.986	10608.44
511.354	10747.64
511.722	10778.83
512.09	10754.65
512.458	10710.35
512.826	10750.13
513.193	10769.11
513.561	10829.45
513.929	10798.71
514.297	10831.03
514.664	10908.31
515.032	10879.16
515.4	10927.75
515.767	10954.64
516.135	10923.68
516.502	10855.66
516.869	11018.37
517.237	10962.32
517.604	10928.88
517.972	10973.4
518.339	10989.44
518.706	10969.78
519.073	10965.26
519.44	10967.97
519.808	10994.87
520.175	10966.39
520.542	11090.23
520.909	11015.66
521.276	10935.88
521.643	11036.45
522.009	11083.9
522.376	11118.48
522.743	11164.81
523.11	11147.4
523.477	11090.46
523.843	11128.65
524.21	11271.92
524.577	11185.6
524.943	11224.24
525.31	11205.03
525.676	11162.77
526.043	11292.71
526.409	11217.01
526.776	11259.27
527.142	11246.84
527.508	11271.47
527.874	11272.37
528.241	11215.88
528.607	11181.08
528.973	11300.62
529.339	11156.22
529.705	11192.15
530.071	11238.25
530.437	11143.79
530.803	11219.27
531.169	11184.69
531.535	11098.59
531.901	11079.61
532.267	11084.81
532.632	11032.38
532.998	11043.23
533.364	11054.3
533.73	11006.17
534.095	10952.83
534.461	10954.64
534.826	11004.36
535.192	10925.26
535.557	10965.49
535.923	10881.65
536.288	10848.43
536.653	10784.48
537.019	10720.52
537.384	10722.11
537.749	10750.8
538.114	10647.53
538.479	10640.53
538.845	10614.99
539.21	10506.74
539.575	10532.28
539.94	10453.64
540.305	10473.07
540.67	10372.06
541.034	10358.05
541.399	10316.01
541.764	10212.29
542.129	10175.68
542.494	10217.03
542.858	10215
543.223	10132.74
543.587	10121.89
543.952	10000.99
544.316	10087.55
544.681	9973.42
545.045	9885.74
545.41	9929.13
545.774	9872.18
546.138	9797.16
546.503	9757.84
546.867	9734.33
547.231	9717.16
547.595	9727.55
547.959	9637.84
548.324	9602.36
548.688	9570.27
549.052	9483.95
549.416	9467.67
549.779	9399.43
550.143	9393.1
550.507	9405.53
550.871	9362.14
551.235	9376.15
551.599	9267.45
551.962	9193.78
552.326	9226.1
552.689	9261.13
553.053	9129.38
553.417	9118.31
553.78	9081.92
554.143	9058.87
554.507	9045.76
554.87	9029.49
555.234	9030.4
555.597	8924.19
555.96	8991.3
556.323	8935.49
556.686	8836.05
557.05	8897.29
557.413	8865.88
557.776	8864.53
558.139	8881.7
558.502	8804.64
558.865	8801.03
559.228	8777.07
559.59	8834.92
559.953	8754.47
560.316	8805.77
560.679	8809.84
561.041	8822.27
561.404	8688.03
561.767	8804.64
562.129	8714.93
562.492	8787.92
562.854	8695.94
563.217	8686.45
563.579	8660.69
563.941	8693.91
564.304	8689.62
564.666	8721.71
565.028	8705.43
565.39	8685.55
565.753	8700.92
566.115	8736.85
566.477	8696.62
566.839	8714.25
567.201	8779.33
567.563	8770.07
567.925	8788.14
568.287	8726.45
568.648	8679.45
569.01	8706.79
569.372	8784.3
569.734	8710.63
570.095	8768.03
570.457	8766
570.819	8743.63
571.18	8738.88
571.542	8777.98
571.903	8722.84
572.265	8733.91
572.626	8751.54
572.987	8710.18
573.349	8730.75
573.71	8771.42
574.071	8808.26
574.432	8766.22
574.794	8741.37
575.155	8779.56
575.516	8806.45
575.877	8758.54
576.238	8798.54
576.599	8822.72
576.96	8833.34
577.32	8770.52
577.681	8813.45
578.042	8831.76
578.403	8841.25
578.763	8794.92
579.124	8793.79
579.485	8806.9
579.845	8837.86
580.206	8850.52
580.566	8805.55
580.927	8796.73
581.287	8751.99
581.648	8820.69
582.008	8854.13
582.368	8829.5
582.728	8830.86
583.089	8799.22
583.449	8789.5
583.809	8808.94
584.169	8823.85
584.529	8802.61
584.889	8902.27
585.249	8789.5
585.609	8745.43
585.969	8773.46
586.329	8737.75
586.688	8790.4
587.048	8732.55
587.408	8756.51
587.768	8722.61
588.127	8708.37
588.487	8629.5
588.846	8764.19
589.206	8681.48
589.565	8772.1
589.925	8705.89
590.284	8756.73
590.643	8745.89
591.003	8761.25
591.362	8752.67
591.721	8649.17
592.08	8697.98
592.44	8744.76
592.799	8678.09
593.158	8710.86
593.517	8679.45
593.876	8652.55
594.235	8643.29
594.593	8655.94
594.952	8733.68
595.311	8677.64
595.67	8637.64
596.029	8692.1
596.387	8724.87
596.746	8683.74
597.104	8684.42
597.463	8661.37
597.822	8643.97
598.18	8629.28
598.538	8669.28
598.897	8644.65
599.255	8613.69
599.613	8718.09
599.972	8655.72
600.33	8657.75
600.688	8640.8
601.046	8641.48
601.404	8656.85
601.762	8638.77
602.12	8626.57
602.478	8670.63
602.836	8639.67
603.194	8582.5
603.552	8660.46
603.91	8609.62
604.268	8642.39
604.625	8605.55
604.983	8649.39
605.341	8655.49
605.698	8525.55
606.056	8614.59
606.413	8659.11
606.771	8664.98
607.128	8641.48
607.485	8640.8
607.843	8626.57
608.2	8692.55
608.557	8717.19
608.914	8608.49
609.272	8671.54
609.629	8649.62
609.986	8643.52
610.343	8673.12
610.7	8789.95
611.057	8708.37
611.414	8685.77
611.771	8702.95
612.127	8702.05
612.484	8688.49
612.841	8728.49
613.198	8651.65
613.554	8668.37
613.911	8722.61
614.267	8756.96
614.624	8736.85
614.98	8787.47
615.337	8803.74
615.693	8759.67
616.05	8808.94
616.406	8792.66
616.762	8769.61
617.118	8769.84
617.475	8811.87
617.831	8800.12
618.187	8781.59
618.543	8759.44
618.899	8817.75
619.255	8882.61
619.611	8863.4
619.967	8878.09
620.323	8881.25
620.678	8754.02
621.034	8776.17
621.39	8789.73
621.746	8795.38
622.101	8907.01
622.457	8878.76
622.812	8801.93
623.168	8884.19
623.523	8861.14
623.879	8832.66
624.234	8774.81
624.589	8878.99
624.945	8886
625.3	8863.85
625.655	8841.25
626.01	8822.04
626.365	8866.33
626.72	8861.36
627.075	8772.1
627.43	8842.83
627.785	8787.47
628.14	8875.37
628.495	8826.56
628.85	8888.71
629.205	8878.31
629.559	8790.18
629.914	8733.68
630.269	8728.94
630.623	8703.4
630.978	8767.13
631.332	8733.91
631.687	8776.39
632.041	8728.03
632.396	8744.08
632.75	8693.68
633.104	8678.77
633.459	8658.2
633.813	8656.4
634.167	8628.83
634.521	8682.16
634.875	8677.64
635.229	8617.3
635.583	8583.18
635.937	8630.18
636.291	8585.21
636.645	8598.32
636.999	8569.62
637.352	8569.17
637.706	8505.67
638.06	8627.92
638.413	8527.81
638.767	8528.26
639.121	8555.38
639.474	8450.3
639.828	8472.45
640.181	8476.97
640.534	8444.2
640.888	8473.12
641.241	8456.85
641.594	8460.24
641.947	8436.29
642.301	8403.52
642.654	8449.62
643.007	8441.26
643.36	8498.89
643.713	8361.49
644.066	8483.07
644.419	8310.19
644.771	8353.35
645.124	8241.49
645.477	8257.09
645.83	8202.4
646.182	8132.12
646.535	8173.92
646.888	8184.54
647.24	8114.04
647.593	8147.48
647.945	8220.7
648.298	8075.17
648.65	8116.75
649.002	8116.3
649.355	8163.3
649.707	8124.43
650.059	8192.45
650.411	8198.56
650.763	8257.09
651.115	8354.26
651.467	8362.39
651.819	8356.29
652.171	8298.89
652.523	8319
652.875	8255.05
653.227	8250.98
653.578	8318.1
653.93	8330.3
654.282	8264.77
654.633	8251.44
654.985	8285.11
655.337	8319.68
655.688	8293.24
656.039	8355.61
656.391	8285.11
656.742	8317.65
657.094	8267.48
657.445	8286.46
657.796	8285.33
658.147	8286.46
658.498	8331.89
658.849	8293.24
659.2	8301.6
659.551	8299.34
659.902	8380.7
660.253	8337.99
660.604	8330.3
660.955	8332.11
661.306	8394.93
661.656	8292.11
662.007	8369.85
662.358	8341.83
662.708	8375.05
663.059	8387.93
663.409	8319.23
663.76	8365.56
664.11	8400.58
664.461	8389.06
664.811	8352.45
665.161	8352.45
665.511	8358.55
665.862	8370.08
666.212	8366.69
666.562	8430.41
666.912	8389.29
667.262	8325.78
667.612	8376.18
667.962	8405.56
668.312	8348.61
668.662	8385.22
669.011	8352.45
669.361	8345.9
669.711	8367.14
670.06	8379.34
670.41	8340.02
670.76	8325.78
671.109	8366.91
671.459	8349.74
671.808	8276.52
672.157	8379.34
672.507	8357.87
672.856	8336.86
673.205	8229.74
673.554	8290.08
673.904	8298.89
674.253	8289.63
674.602	8257.31
674.951	8177.77
675.3	8120.59
675.649	8269.29
675.998	8213.92
676.346	8210.08
676.695	8206.24
677.044	8162.17
677.393	8223.19
677.741	8243.3
678.09	8122.85
678.438	8188.16
678.787	8118.11
679.135	8177.31
679.484	8102.96
679.832	8137.09
680.181	8123.3
680.529	8111.78
680.877	8063.19
681.225	8117.43
681.573	8112.46
681.922	8084.21
682.27	8006.02
682.618	8014.38
682.966	7945.23
683.314	8008.73
683.661	7979.58
684.009	7942.07
684.357	7983.87
684.705	7883.54
685.053	7957.43
685.4	7909.98
685.748	7893.25
686.095	7871.78
686.443	7819.58
686.79	7781.84
687.138	7816.64
687.485	7821.39
687.832	7746.59
688.18	7754.27
688.527	7689.64
688.874	7659.59
689.221	7696.87
689.568	7614.16
689.915	7598.35
690.262	7644.67
690.609	7591.11
690.956	7558.8
691.303	7549.76
691.65	7515.41
691.997	7519.93
692.344	7502.53
692.69	7449.42
693.037	7474.96
693.383	7359.71
693.73	7372.36
694.077	7371.68
694.423	7327.62
694.769	7282.65
695.116	7319.71
695.462	7264.12
695.808	7248.75
696.155	7225.47
696.501	7229.09
696.847	7239.26
697.193	7122.65
697.539	7154.97
697.885	7101.64
698.231	7124.01
698.577	7055.08
698.923	7006.5
699.269	7016.21
699.614	6981.64
699.96	6996.78
700.306	6894.86
700.651	6901.87
700.997	6871.81
701.342	6850.79
701.688	6863
702.033	6821.19
702.379	6806.95
702.724	6750.68
703.069	6786.16
703.415	6696.9
703.76	6693.96
704.105	6697.58
704.45	6665.71
704.795	6632.95
705.14	6601.54
705.485	6634.75
705.83	6551.82
706.175	6560.41
706.52	6564.25
706.865	6454.42
707.209	6474.31
707.554	6499.62
707.899	6455.78
708.243	6463.01
708.588	6397.47
708.932	6434.53
709.277	6310.02
709.621	6359.73
709.966	6305.05
710.31	6378.49
710.654	6280.41
710.998	6267.76
711.342	6276.35
711.687	6264.82
712.031	6261.66
712.375	6214.2
712.719	6261.43
713.063	6171.04
713.407	6198.16
713.75	6205.16
714.094	6238.16
714.438	6152.96
714.782	6167.87
715.125	6154.99
715.469	6131.94
715.812	6098.5
716.156	6075
716.499	6176.24
716.843	6037.71
717.186	6056.69
717.53	6083.81
717.873	6113.19
718.216	6060.31
718.559	6048.56
718.902	5991.83
719.246	6008.33
719.589	6037.26
719.932	5931.95
720.275	5988.44
720.617	5983.02
720.96	5979.86
721.303	5980.76
721.646	5973.53
721.989	5983.25
722.331	6011.04
722.674	5951.61
723.016	5910.25
723.359	5923.36
723.701	5930.37
724.044	5972.4
724.386	5889.46
724.729	5921.1
725.071	5905.28
725.413	5934.43
725.755	5918.16
726.097	5861.67
726.439	5860.54
726.782	5866.19
727.124	5868
727.465	5917.03
727.807	5894.21
728.149	5840.43
728.491	5860.76
728.833	5854.89
729.175	5828.22
729.516	5879.52
729.858	5887.88
730.199	5848.33
730.541	5889.92
730.882	5808.34
731.224	5863.93
731.565	5809.01
731.906	5823.7
732.248	5848.33
732.589	5833.87
732.93	5787.77
733.271	5835.23
733.612	5847.43
733.953	5837.04
734.294	5845.4
734.635	5802.46
734.976	5837.26
735.317	5842.23
735.658	5847.66
735.999	5875.45
736.339	5874.32
736.68	5867.54
737.021	5912.97
737.361	5859.86
737.702	5860.99
738.042	5850.37
738.383	5880.2
738.723	5839.3
739.063	5900.99
739.404	5950.71
739.744	5928.78
740.084	5947.99
740.424	5932.85
740.764	5942.57
741.104	6015.79
741.444	5958.84
741.784	5960.87
742.124	5960.42
742.464	6002.46
742.804	6043.36
743.143	6069.12
743.483	6093.3
743.823	5987.77
744.162	6123.81
744.502	6141.43
744.841	6131.49
745.181	6205.84
745.52	6215.78
745.86	6245.84
746.199	6234.09
746.538	6253.52
746.877	6352.05
747.216	6351.15
747.556	6377.81
747.895	6469.34
748.234	6471.14
748.573	6502.56
748.911	6557.92
749.25	6609.44
749.589	6622.55
749.928	6765.82
750.267	6832.72
750.605	6872.94
750.944	6888.99
751.283	6960.85
751.621	7074.74
751.96	7093.5
752.298	7210.78
752.636	7309.09
752.975	7415.75
753.313	7417.33
753.651	7607.38
753.989	7666.59
754.327	7709.75
754.666	7873.82
755.004	7966.02
755.342	8103.64
755.679	8264.54
756.017	8311.77
756.355	8479
756.693	8602.39
757.031	8733.23
757.368	8880.8
757.706	9038.08
758.044	9192.2
758.381	9309.94
758.719	9467.67
759.056	9653.43
759.394	9807.1
759.731	9921.22
760.068	10069.69
760.405	10219.52
760.743	10302.23
761.08	10609.57
761.417	10662.45
761.754	10896.56
762.091	11073.06
762.428	11217.23
762.765	11457.68
763.102	11654.74
763.438	11774.28
763.775	11949.87
764.112	12148.73
764.449	12357.09
764.785	12469.86
765.122	12628.04
765.458	12834.37
765.795	12916.62
766.131	13242.04
766.467	13282.26
766.804	13391.41
