Data from hue_20_FLMS001491_90.txt Node
Date: Mon Feb 06 15:34:48 GMT 2017
User: dcchb
Spectrometer: FLMS00149
Trigger mode: 0
Integration Time (sec): 2.000000E-2
Scans to average: 10
Electric dark correction enabled: true
Nonlinearity correction enabled: false
Boxcar width: 0
XAxis mode: Wavelengths
Number of Pixels in Spectrum: 2048
>>>>>Begin Spectral Data<<<<<
341.393	-6.23
341.776	-6.23
342.16	-6.23
342.543	-55.04
342.927	-63.63
343.31	-71.54
343.693	-76.74
344.077	-63.85
344.46	-56.62
344.843	-69.28
345.226	-43.52
345.61	-31.09
345.993	-19.11
346.376	-2.16
346.759	21.79
347.142	7.78
347.525	34
347.908	58.85
348.291	88.46
348.674	94.33
349.057	128.68
349.44	133.43
349.823	150.38
350.206	164.61
350.588	207.33
350.971	221.34
351.354	243.03
351.737	223.14
352.119	243.48
352.502	269.92
352.884	266.08
353.267	301.11
353.65	298.17
354.032	300.2
354.414	316.7
354.797	320.09
355.179	327.1
355.562	299.3
355.944	356.47
356.326	343.37
356.709	339.98
357.091	335.91
357.473	339.98
357.855	331.39
358.238	354.67
358.62	335.91
359.002	343.14
359.384	342.91
359.766	360.77
360.148	310.83
360.53	343.82
360.912	340.88
361.294	334.78
361.676	340.88
362.057	316.47
362.439	334.1
362.821	352.18
363.203	322.8
363.584	317.83
363.966	322.8
364.348	311.96
364.729	327.1
365.111	319.86
365.493	314.21
365.874	332.75
366.256	330.26
366.637	313.76
367.019	326.19
367.4	316.25
367.781	313.54
368.163	305.85
368.544	316.47
368.925	313.08
369.306	314.44
369.688	313.99
370.069	309.24
370.45	299.07
370.831	305.63
371.212	290.49
371.593	309.47
371.974	320.32
372.355	303.59
372.736	318.96
373.117	325.06
373.498	318.73
373.879	330.26
374.26	316.93
374.641	306.76
375.021	301.33
375.402	319.19
375.783	311.28
376.163	336.36
376.544	317.15
376.925	347.21
377.305	319.41
377.686	316.25
378.066	326.87
378.447	331.39
378.827	342.01
379.208	349.92
379.588	310.6
379.968	330.71
380.349	352.63
380.729	325.29
381.109	332.97
381.489	332.29
381.87	318.73
382.25	345.17
382.63	337.94
383.01	335.91
383.39	345.63
383.77	352.41
384.15	362.35
384.53	335.46
384.91	352.63
385.29	347.66
385.67	357.15
386.049	354.21
386.429	345.63
386.809	347.21
387.189	363.71
387.568	358.28
387.948	350.6
388.328	345.63
388.707	345.63
389.087	361.22
389.466	370.03
389.846	356.02
390.225	369.81
390.605	374.1
390.984	378.39
391.363	373.65
391.743	375.46
392.122	375
392.501	362.58
392.881	375.68
393.26	384.27
393.639	375.68
394.018	389.92
394.397	366.19
394.776	372.52
395.155	378.62
395.534	375
395.913	376.81
396.292	385.17
396.671	391.28
397.05	399.86
397.429	397.83
397.808	391.73
398.186	391.28
398.565	390.37
398.944	396.7
399.323	384.27
399.701	373.42
400.08	398.96
400.458	396.47
400.837	395.12
401.215	405.06
401.594	406.42
401.972	392.18
402.351	416.81
402.729	413.42
403.107	419.75
403.486	412.97
403.864	416.81
404.242	423.14
404.62	419.07
404.999	422.91
405.377	429.24
405.755	414.33
406.133	425.17
406.511	417.04
406.889	433.53
407.267	438.28
407.645	443.03
408.023	442.57
408.401	436.92
408.779	430.6
409.156	440.54
409.534	442.57
409.912	450.93
410.29	446.19
410.667	436.92
411.045	464.72
411.422	452.74
411.8	461.1
412.178	459.3
412.555	462.46
412.933	463.82
413.31	466.98
413.687	464.27
414.065	488.22
414.442	477.15
414.819	484.83
415.197	491.84
415.574	476.24
415.951	469.24
416.328	500.65
416.705	504.72
417.082	498.62
417.46	517.6
417.837	506.3
418.214	496.13
418.591	518.5
418.967	511.27
419.344	498.62
419.721	518.05
420.098	503.59
420.475	500.65
420.852	528.9
421.228	537.26
421.605	516.02
421.982	514.66
422.358	531.38
422.735	560.08
423.111	542.01
423.488	553.98
423.864	534.1
424.241	545.17
424.617	558.73
424.994	544.94
425.37	547.2
425.746	554.66
426.123	552.85
426.499	567.77
426.875	570.25
427.251	591.5
427.627	591.27
428.003	589.24
428.379	584.26
428.756	591.72
429.132	586.07
429.507	616.13
429.883	602.79
430.259	603.47
430.635	620.42
431.011	605.73
431.387	636.01
431.763	619.97
432.138	633.3
432.514	653.87
432.89	632.85
433.265	644.38
433.641	658.61
434.016	655.22
434.392	664.04
434.767	669.01
435.143	671.72
435.518	698.39
435.894	688.67
436.269	672.85
436.644	699.06
437.02	681.89
437.395	695
437.77	703.36
438.145	714.2
438.52	706.52
438.895	735.45
439.271	712.4
439.646	727.09
440.021	723.92
440.395	736.58
440.77	756.24
441.145	720.08
441.52	754.43
441.895	753.98
442.27	766.63
442.645	767.99
443.019	771.83
443.394	765.73
443.769	782.68
444.143	797.82
444.518	771.15
444.892	793.75
445.267	784.49
445.641	808.44
446.016	811.83
446.39	796.91
446.764	795.56
447.139	796.69
447.513	795.78
447.887	807.76
448.262	818.61
448.636	812.73
449.01	821.32
449.384	828.55
449.758	838.49
450.132	831.49
450.506	854.09
450.88	875.33
451.254	866.06
451.628	849.57
452.002	899.96
452.376	862.45
452.75	879.4
453.123	881.88
453.497	896.35
453.871	942.9
454.244	909.68
454.618	923.01
454.992	921.2
455.365	929.34
455.739	963.24
456.112	949.45
456.486	965.95
456.859	966.4
457.232	967.98
457.606	995.55
457.979	977.02
458.352	1010.69
458.725	1022.44
459.099	1034.65
459.472	1050.01
459.845	1073.74
460.218	1080.3
460.591	1054.31
460.964	1059.28
461.337	1061.99
461.71	1099.96
462.083	1125.94
462.456	1096.57
462.829	1128.88
463.201	1150.13
463.574	1139.05
463.947	1163.68
464.32	1186.06
464.692	1185.38
465.065	1170.92
465.438	1199.39
465.81	1239.84
466.183	1242.55
466.555	1261.53
466.928	1276.9
467.3	1290.91
467.672	1310.57
468.045	1317.58
468.417	1311.93
468.789	1324.81
469.161	1358.48
469.534	1388.54
469.906	1410.46
470.278	1407.97
470.65	1415.2
471.022	1440.29
471.394	1480.29
471.766	1492.71
472.138	1473.28
472.51	1509.66
472.882	1540.4
473.253	1562.32
473.625	1620.4
473.997	1633.5
474.369	1616.78
474.74	1649.77
475.112	1702.43
475.484	1726.38
475.855	1727.51
476.227	1774.74
476.598	1779.94
476.97	1819.71
477.341	1875.76
477.713	1908.3
478.084	1938.58
478.455	1987.39
478.827	2002.53
479.198	2043.66
479.569	2043.21
479.94	2106.71
480.311	2135.41
480.682	2224.9
481.053	2275.29
481.424	2280.04
481.795	2316.2
482.166	2335.63
482.537	2374.27
482.908	2450.88
483.279	2493.14
483.65	2510.32
484.021	2587.83
484.391	2596.41
484.762	2580.82
485.133	2645.23
485.503	2700.59
485.874	2753.7
486.244	2794.38
486.615	2859.91
486.985	2922.06
487.356	2942.85
487.726	2979.91
488.097	3044.09
488.467	3071.43
488.837	3157.3
489.207	3211.09
489.578	3247.7
489.948	3288.83
490.318	3328.82
490.688	3388.94
491.058	3417.64
491.428	3423.74
491.798	3522.49
492.168	3580.34
492.538	3566.11
492.908	3624.18
493.278	3664.86
493.648	3672.77
494.017	3717.97
494.387	3762.49
494.757	3797.06
495.126	3882.93
495.496	3903.27
495.866	3919.54
496.235	4019.2
496.605	3993.21
496.974	4040.22
497.344	4090.84
497.713	4116.37
498.082	4187.79
498.452	4199.76
498.821	4214.23
499.19	4201.8
499.559	4268.24
499.928	4317.27
500.298	4342.81
500.667	4389.81
501.036	4380.32
501.405	4417.84
501.774	4430.94
502.143	4470.94
502.512	4471.62
502.88	4507.32
503.249	4548.91
503.618	4548.23
503.987	4545.29
504.356	4593.42
504.724	4645.63
505.093	4649.69
505.462	4672.07
505.83	4757.04
506.199	4781.44
506.567	4828.67
506.936	4822.12
507.304	4840.42
507.672	4856.47
508.041	4891.04
508.409	4846.75
508.777	4917.26
509.145	5017.37
509.514	4957.93
509.882	5051.49
510.25	5024.6
510.618	5027.09
510.986	5091.72
511.354	5084.26
511.722	5118.61
512.09	5208.32
512.458	5153.86
512.826	5202.22
513.193	5234.09
513.561	5237.25
513.929	5279.51
514.297	5269.56
514.664	5327.42
515.032	5308.66
515.4	5350.47
515.767	5385.72
516.135	5382.1
516.502	5373.29
516.869	5409.22
517.237	5463.01
517.604	5471.37
517.972	5522.44
518.339	5504.81
518.706	5522.89
519.073	5597.01
519.44	5611.48
519.808	5595.43
520.175	5616.45
520.542	5635.88
520.909	5713.17
521.276	5673.4
521.643	5766.73
522.009	5741.19
522.376	5764.92
522.743	5840.4
523.11	5887.85
523.477	5912.49
523.843	5896.67
524.21	6018.47
524.577	6005.82
524.943	6038.58
525.31	6100.05
525.676	6072.03
526.043	6168.98
526.409	6149.99
526.776	6192.7
527.142	6234.29
527.508	6235.19
527.874	6280.61
528.241	6339.14
528.607	6372.13
528.973	6348.41
529.339	6396.99
529.705	6466.82
530.071	6490.55
530.437	6547.72
530.803	6580.94
531.169	6549.98
531.535	6592.47
531.901	6622.3
532.267	6645.57
532.632	6649.42
532.998	6731
533.364	6746.59
533.73	6757.44
534.095	6823.87
534.461	6827.04
534.826	6879.69
535.192	6876.3
535.557	6940.48
535.923	6923.76
536.288	6910.88
536.653	6993.59
537.019	7020.25
537.384	7048.73
537.749	7133.02
538.114	7095.05
538.479	7102.29
538.845	7132.57
539.21	7163.3
539.575	7176.63
539.94	7185.9
540.305	7227.48
540.67	7233.13
541.034	7330.08
541.399	7280.36
541.764	7388.61
542.129	7391.99
542.494	7438.77
542.858	7414.59
543.223	7499.34
543.587	7513.8
543.952	7578.66
544.316	7593.57
544.681	7603.06
545.045	7628.82
545.41	7664.3
545.774	7672.67
546.138	7653.68
546.503	7763.51
546.867	7814.36
547.231	7826.56
547.595	7807.35
547.959	7826.11
548.324	7895.71
548.688	7914.69
549.052	7965.31
549.416	7928.7
549.779	7976.61
550.143	8007.35
550.507	7992.21
550.871	8060.9
551.235	8039.21
551.599	8120.79
551.962	8132.09
552.326	8187.91
552.689	8224.52
553.053	8192.65
553.417	8281.46
553.78	8339.54
554.143	8257.73
554.507	8314
554.87	8370.5
555.234	8409.82
555.597	8384.74
555.96	8433.55
556.323	8487.79
556.686	8518.74
557.05	8546.54
557.413	8568.24
557.776	8575.92
558.139	8578.63
558.502	8618.63
558.865	8690.94
559.228	8708.57
559.59	8762.35
559.953	8721.23
560.316	8765.29
560.679	8803.94
561.041	8839.41
561.404	8881
561.767	8951.73
562.129	8903.14
562.492	8972.74
562.854	9043.93
563.217	8978.39
563.579	9053.42
563.941	9093.65
564.304	9094.55
564.666	9148.78
565.028	9194.21
565.39	9169.8
565.753	9287.54
566.115	9266.07
566.477	9312.85
566.839	9415.9
567.201	9459.74
567.563	9471.71
567.925	9507.87
568.287	9516.68
568.648	9570.69
569.01	9593.52
569.372	9621.77
569.734	9665.16
570.095	9643.01
570.457	9744.7
570.819	9745.15
571.18	9792.84
571.542	9845.26
571.903	9929.56
572.265	9920.06
572.626	9977.46
572.987	10052.26
573.349	10079.38
573.71	10141.08
574.071	10167.74
574.432	10283.67
574.794	10322.31
575.155	10393.95
575.516	10397.11
575.877	10477.11
576.238	10499.48
576.599	10602.53
576.96	10692.25
577.32	10720.27
577.681	10889.53
578.042	10910.55
578.403	11017.44
578.763	11068.51
579.124	11150.09
579.485	11262.63
579.845	11399.8
580.206	11499.46
580.566	11524.77
580.927	11715.5
581.287	11913.01
581.648	11989.61
582.008	12114.58
582.368	12317.74
582.728	12355.25
583.089	12590.95
583.449	12737.62
583.809	12868.91
584.169	13093.99
584.529	13187.55
584.889	13512.29
585.249	13684.71
585.609	13838.15
585.969	14037.02
586.329	14321.08
586.688	14522.43
587.048	14780.5
587.408	14958.8
587.768	15186.82
588.127	15486.47
588.487	15662.29
588.846	16014.14
589.206	16137.75
589.565	16540.23
589.925	16787.23
590.284	16985.41
590.643	17323.71
591.003	17679.86
591.362	17945.62
591.721	18250.47
592.08	18585.6
592.44	18894.52
592.799	19250.21
593.158	19460.6
593.517	19721.61
593.876	20173.35
594.235	20445.89
594.593	20772.66
594.952	21162.25
595.311	21418.52
595.67	21861.9
596.029	22237.48
596.387	22525.16
596.746	22948.65
597.104	23107.51
597.463	23378.47
597.822	23958.34
598.18	24149.52
598.538	24462.28
598.897	24972.78
599.255	25014.58
599.613	25699.76
599.972	25820.66
600.33	26271.95
600.688	26476.01
601.046	26934.31
601.404	27261.98
601.762	27575.87
602.12	28022.19
602.478	28289.98
602.836	28561.38
603.194	28809.96
603.552	29173.34
603.91	29430.51
604.268	29762.93
604.625	29974
604.983	30452.86
605.341	30512.97
605.698	31028.66
606.056	31437.92
606.413	31653.28
606.771	31930.56
607.128	32326.71
607.485	32387.72
607.843	32776.86
608.2	33149.74
608.557	33432.44
608.914	33573.23
609.272	34041.24
609.629	34266.32
609.986	34462.24
610.343	34692.52
610.7	35235.78
611.057	35329.57
611.414	35415.21
611.771	35579.05
612.127	36049.77
612.484	36306.49
612.841	36537.22
613.198	36595.29
613.554	36844.33
613.911	37166.58
614.267	37307.82
614.624	37482.05
614.98	37720.69
615.337	38074.35
615.693	38163.62
616.05	38201.35
616.406	38545.53
616.762	38580.55
617.118	38783.26
617.475	39008.56
617.831	39450.59
618.187	39393.19
618.543	39565.84
618.899	40028.65
619.255	40064.81
619.611	40230
619.967	40246.72
620.323	40525.36
620.678	40488.75
621.034	40470.22
621.39	40706.15
621.746	40912.92
622.101	41430.42
622.457	41130.54
622.812	41299.58
623.168	41443.3
623.523	41621.83
623.879	41755.39
624.234	41643.75
624.589	41952.89
624.945	42038.77
625.3	42100.69
625.655	42157.86
626.01	42241.25
626.365	42432.2
626.72	42378.87
627.075	42472.88
627.43	42508.36
627.785	42605.08
628.14	42705.64
628.495	42755.13
628.85	42735.7
629.205	42697.96
629.559	43014.11
629.914	42925.98
630.269	42999.42
630.623	42842.81
630.978	43016.37
631.332	43077.16
631.687	43241.9
632.041	43056.59
632.396	43123.48
632.75	43116.93
633.104	43184.73
633.459	43041.23
633.813	43152.64
634.167	43189.92
634.521	43258.85
634.875	43295.68
635.229	43259.98
635.583	43091.85
635.937	43280.09
636.291	43163.94
636.645	43288.68
636.999	43076.71
637.352	43298.62
637.706	43170.72
638.06	43345.63
638.413	43312.18
638.767	43195.57
639.121	43205.06
639.474	43088.91
639.828	43121.45
640.181	43241
640.534	43194.44
640.888	43141.11
641.241	42954.68
641.594	43168.46
641.947	43222.47
642.301	43048.46
642.654	43143.82
643.007	43108.8
643.36	43102.69
643.713	43021.79
644.066	43272.63
644.419	43021.34
644.771	42760.33
645.124	42309.27
645.477	42259.55
645.83	42084.64
646.182	41909.28
646.535	41783.63
646.888	42057.98
647.24	41741.6
647.593	42046.68
647.945	41931.2
648.298	41778.89
648.65	41771.66
649.002	41657.76
649.355	41757.64
649.707	41750.19
650.059	41854.82
650.411	42288.7
650.763	42380.91
651.115	42836.26
651.467	42729.14
651.819	42664.74
652.171	42559.66
652.523	42587
652.875	42582.48
653.227	42405.31
653.578	42754.91
653.93	42547.45
654.282	42507.68
654.633	42329.61
654.985	42582.71
655.337	42430.4
655.688	42505.65
656.039	42638.53
656.391	42287.8
656.742	42250.97
657.094	42353.11
657.445	42468.13
657.796	42293.9
658.147	42363.05
658.498	42355.6
658.849	42386.33
659.2	42277.41
659.551	42297.52
659.902	42493.67
660.253	42223.62
660.604	42380.23
660.955	42064.98
661.306	42261.13
661.656	42296.39
662.007	42143.17
662.358	42197.18
662.708	42187.24
663.059	42229.72
663.409	41820.92
663.76	42139.56
664.11	42246.67
664.461	42290.51
664.811	42202.38
665.161	42214.36
665.511	42071.99
665.862	42125.32
666.212	42203.06
666.562	42239.44
666.912	42048.71
667.262	42117.86
667.612	42149.05
667.962	42147.01
668.312	41987.02
668.662	42291.87
669.011	42097.3
669.361	42121.48
669.711	41972.1
670.06	41912.22
670.41	41817.3
670.76	41880.58
671.109	42044.19
671.459	42048.71
671.808	41845.78
672.157	42028.15
672.507	41736.18
672.856	41777.53
673.205	41844.42
673.554	41817.76
673.904	41872.22
674.253	42023.85
674.602	41929.39
674.951	41318.79
675.3	41051.45
675.649	41775.27
675.998	41837.19
676.346	41715.39
676.695	41893.01
677.044	41528.05
677.393	41651.89
677.741	41626.12
678.09	41646.24
678.438	41399.24
678.787	41536.41
679.135	41447.37
679.484	41252.12
679.832	41452.12
680.181	41094.61
680.529	41420.7
680.877	41269.52
681.225	41047.16
681.573	41452.12
681.922	41136.42
682.27	41001.28
682.618	41109.53
682.966	40905.69
683.314	41069.53
683.661	40976.87
684.009	40726.49
684.357	40731.23
684.705	40585.47
685.053	40664.79
685.4	40500.73
685.748	40326.72
686.095	40345.48
686.443	40331.24
686.79	40259.15
687.138	40266.16
687.485	40182.55
687.832	40055.09
688.18	40034.98
688.527	39980.74
688.874	39951.36
689.221	39811.48
689.568	39830.01
689.915	39605.84
690.262	39531.49
690.609	39681.32
690.956	39389.57
691.303	39392.06
691.65	39296.24
691.997	39120.88
692.344	38921.34
692.69	38929.7
693.037	39056.02
693.383	38672.08
693.73	38865.07
694.077	38609.48
694.423	38604.28
694.769	38559.99
695.116	38334.23
695.462	38426.66
695.808	38157.74
696.155	38321.8
696.501	38086.33
696.847	38038.87
697.193	37692.22
697.539	37884.3
697.885	37667.81
698.231	37534.71
698.577	37616.28
698.923	37388.49
699.269	37324.09
699.614	37079.8
699.96	36972.69
700.306	37124.32
700.651	36816.76
700.997	36843.42
701.342	36709.42
701.688	36642.98
702.033	36631.23
702.379	36560.72
702.724	36421.51
703.069	36459.93
703.415	36045.48
703.76	36153.72
704.105	36217.68
704.45	36017.91
704.795	35824.02
705.14	35718.71
705.485	35746.28
705.83	35542.67
706.175	35781.08
706.52	35473.74
706.865	35414.08
707.209	35358.49
707.554	35150.59
707.899	35320.98
708.243	35172.73
708.588	35102.68
708.932	34870.82
709.277	34863.36
709.621	34773.87
709.966	34658.4
710.31	34824.27
710.654	34517.84
710.998	34476.25
711.342	34463.37
711.687	34274.23
712.031	34302.25
712.375	34201.69
712.719	34227.22
713.063	34185.19
713.407	34223.38
713.75	33970.51
714.094	33980.9
714.438	33813.9
714.782	33826.78
715.125	33612.55
715.469	33664.98
715.812	33434.02
716.156	33426.34
716.499	33487.35
716.843	33502.04
717.186	33242.61
717.53	33404.64
717.873	33333.01
718.216	33121.49
718.559	32970.31
718.902	32801.5
719.246	32905.22
719.589	32882.17
719.932	32662.06
720.275	32666.58
720.617	32738.45
720.96	32587.49
721.303	32458.23
721.646	32579.36
721.989	32412.13
722.331	32464.1
722.674	32491.67
723.016	32444.44
723.359	32344.33
723.701	32281.51
724.044	32110.22
724.386	31967.17
724.729	32155.64
725.071	32028.86
725.413	32045.13
725.755	32055.08
726.097	31906.83
726.439	31777.12
726.782	31800.84
727.124	31820.51
727.465	31749.32
727.807	31673.16
728.149	31520.4
728.491	31512.26
728.833	31548.87
729.175	31453.51
729.516	31404.7
729.858	31214.42
730.199	31395.21
730.541	31145.49
730.882	31292.61
731.224	31346.85
731.565	31018.94
731.906	31066.85
732.248	31065.95
732.589	30896.24
732.93	30852.17
733.271	30866.63
733.612	30886.74
733.953	30792.74
734.294	30666.41
734.635	30599.75
734.976	30798.84
735.317	30651.95
735.658	30635
735.999	30524.49
736.339	30408.11
736.68	30572.63
737.021	30360.66
737.361	30312.3
737.702	30470.03
738.042	30286.31
738.383	30239.98
738.723	30265.29
739.063	30132.41
739.404	30247.44
739.744	30214.45
740.084	30041.34
740.424	30029.82
740.764	29956.6
741.104	30063.26
741.444	29806.32
741.784	29919.54
742.124	29873.89
742.464	29797.28
742.804	29729.26
743.143	29685.87
743.483	29797.96
743.823	29539.66
744.162	29426.44
744.502	29541.02
744.841	29357.75
745.181	29506.89
745.52	29379.67
745.86	29417.4
746.199	29282.27
746.538	29248.14
746.877	29339.89
747.216	29258.54
747.556	29201.14
747.895	29215.15
748.234	29047.47
748.573	29014.93
748.911	29000.01
749.25	28876.4
749.589	28800.47
749.928	28884.09
750.267	28923.86
750.605	28796.4
750.944	28755.95
751.283	28746.01
751.621	28671.66
751.96	28509.63
752.298	28619.01
752.636	28493.59
752.975	28485
753.313	28291.56
753.651	28410.43
753.989	28311.44
754.327	28291.33
754.666	28110.09
755.004	28059.25
755.342	28080.49
755.679	28083.2
756.017	27892.47
756.355	27999.14
756.693	27744.91
757.031	27913.04
757.368	27796.43
757.706	27686.38
758.044	27521.41
758.381	27631.46
758.719	27432.6
759.056	27538.58
759.394	27458.13
759.731	27205.03
760.068	27287.74
760.405	27156.45
