Data from hue_330_FLMS001491_43.txt Node
Date: Mon Feb 06 15:45:26 GMT 2017
User: dcchb
Spectrometer: FLMS00149
Trigger mode: 0
Integration Time (sec): 2.000000E-2
Scans to average: 10
Electric dark correction enabled: true
Nonlinearity correction enabled: false
Boxcar width: 0
XAxis mode: Wavelengths
Number of Pixels in Spectrum: 2048
>>>>>Begin Spectral Data<<<<<
341.393	-24.32
341.776	-24.32
342.16	-24.32
342.543	-62.96
342.927	-69.97
343.31	-67.03
343.693	-80.59
344.077	-70.87
344.46	-54.6
344.843	-59.35
345.226	-44.89
345.61	-26.81
345.993	-7.15
346.376	3.7
346.759	24.49
347.142	20.88
347.525	36.92
347.908	62.23
348.291	69.69
348.674	92.51
349.057	100.87
349.44	141.78
349.823	144.49
350.206	165.73
350.588	206.86
350.971	211.38
351.354	227.65
351.737	231.04
352.119	253.64
352.502	251.38
352.884	283.69
353.267	289.34
353.65	273.75
354.032	289.57
354.414	298.61
354.797	306.74
355.179	332.05
355.562	314.65
355.944	319.85
356.326	320.3
356.709	342.67
357.091	335.44
357.473	337.03
357.855	344.26
358.238	346.29
358.62	343.35
359.002	341.32
359.384	345.84
359.766	344.03
360.148	336.12
360.53	333.41
360.912	316.23
361.294	325.27
361.676	331.38
362.057	353.3
362.439	317.36
362.821	329.34
363.203	312.39
363.584	317.36
363.966	338.38
364.348	319.17
364.729	334.09
365.111	321.43
365.493	317.59
365.874	327.31
366.256	326.18
366.637	304.26
367.019	318.72
367.4	308.55
367.781	324.6
368.163	310.81
368.544	307.2
368.925	305.39
369.306	332.96
369.688	309.68
370.069	323.01
370.45	304.71
370.831	322.11
371.212	311.26
371.593	295.9
371.974	300.64
372.355	316.01
372.736	303.81
373.117	312.39
373.498	316.23
373.879	315.78
374.26	303.35
374.641	294.99
375.021	307.2
375.402	317.82
375.783	311.49
376.163	330.02
376.544	315.78
376.925	329.12
377.305	318.04
377.686	323.69
378.066	326.18
378.447	321.88
378.827	316.69
379.208	313.97
379.588	310.59
379.968	341.09
380.349	343.8
380.729	325.27
381.109	331.15
381.489	312.84
381.87	338.38
382.25	346.97
382.63	343.58
383.01	334.99
383.39	344.48
383.77	332.73
384.15	338.83
384.53	340.64
384.91	346.97
385.29	336.8
385.67	344.71
386.049	339.28
386.429	339.28
386.809	345.61
387.189	342.45
387.568	330.02
387.948	358.95
388.328	329.57
388.707	354.43
389.087	351.94
389.466	365.27
389.846	359.17
390.225	359.85
390.605	367.98
390.984	373.41
391.363	351.04
391.743	363.69
392.122	373.86
392.501	371.83
392.881	384.48
393.26	370.02
393.639	378.61
394.018	386.52
394.397	360.75
394.776	376.8
395.155	387.42
395.534	372.05
395.913	392.62
396.292	373.18
396.671	370.02
397.05	381.09
397.429	375.89
397.808	376.12
398.186	385.84
398.565	384.48
398.944	378.38
399.323	385.84
399.701	397.59
400.08	373.63
400.458	381.54
400.837	409.57
401.215	405.05
401.594	407.98
401.972	410.47
402.351	398.49
402.729	412.05
403.107	412.28
403.486	404.59
403.864	403.69
404.242	407.76
404.62	418.38
404.999	432.84
405.377	412.96
405.755	443.01
406.133	447.3
406.511	436.91
406.889	422.22
407.267	437.59
407.645	420.41
408.023	447.53
408.401	431.03
408.779	459.06
409.156	469
409.534	459.06
409.912	461.32
410.29	449.34
410.667	454.99
411.045	478.72
411.422	491.82
411.8	466.29
412.178	492.05
412.555	494.99
412.933	511.48
413.31	504.7
413.687	513.74
414.065	508.32
414.442	517.59
414.819	516.68
415.197	550.13
415.574	511.48
415.951	522.78
416.328	547.41
416.705	547.64
417.082	542.67
417.46	558.49
417.837	558.26
418.214	583.57
418.591	564.36
418.967	594.87
419.344	581.99
419.721	591.26
420.098	593.06
420.475	565.72
420.852	589.9
421.228	594.42
421.605	608.88
421.982	618.15
422.358	640.97
422.735	634.42
423.111	617.24
423.488	661.54
423.864	695.89
424.241	673.29
424.617	681.65
424.994	667.64
425.37	674.87
425.746	650.69
426.123	681.87
426.499	677.81
426.875	704.7
427.251	706.51
427.627	707.18
428.003	730.69
428.379	716.9
428.756	727.3
429.132	748.99
429.507	734.98
429.883	752.38
430.259	769.1
430.635	800.06
431.011	778.14
431.387	766.17
431.763	812.04
432.138	803.68
432.514	811.36
432.89	823.34
433.265	814.75
433.641	816.11
434.016	841.87
434.392	836.45
434.767	825.6
435.143	830.57
435.518	873.51
435.894	876.45
436.269	915.99
436.644	895.43
437.02	883.45
437.395	887.07
437.77	924.35
438.145	917.35
438.52	931.81
438.895	951.47
439.271	935.65
439.646	961.19
440.021	960.29
440.395	991.47
440.77	977.23
441.145	988.08
441.52	1005.93
441.895	984.69
442.27	1010.23
442.645	993.5
443.019	1008.87
443.394	1007.06
443.769	1021.53
444.143	993.73
444.518	1021.07
444.892	994.18
445.267	1024.92
445.641	1040.06
446.016	1064.01
446.39	1066.27
446.764	1046.84
447.139	1062.66
447.513	1049.77
447.887	1052.26
448.262	1086.84
448.636	1057.01
449.01	1105.37
449.384	1108.98
449.758	1077.12
450.132	1093.62
450.506	1123.67
450.88	1118.02
451.254	1130.68
451.628	1114.18
452.002	1111.02
452.376	1132.03
452.75	1125.03
453.123	1143.78
453.497	1144.46
453.871	1163.44
454.244	1205.7
454.618	1196.21
454.992	1181.07
455.365	1193.73
455.739	1231.92
456.112	1211.35
456.486	1204.35
456.859	1226.72
457.232	1233.27
457.606	1236.66
457.979	1250.9
458.352	1281.41
458.725	1292.48
459.099	1310.11
459.472	1312.59
459.845	1302.65
460.218	1316.43
460.591	1322.54
460.964	1294.06
461.337	1355.3
461.71	1365.7
462.083	1385.36
462.456	1374.96
462.829	1384.68
463.201	1432.82
463.574	1380.16
463.947	1410.22
464.32	1451.35
464.692	1440.27
465.065	1454.28
465.438	1477.33
465.81	1466.03
466.183	1493.15
466.555	1517.56
466.928	1528.86
467.3	1524.56
467.672	1543.1
468.045	1567.28
468.417	1560.27
468.789	1619.03
469.161	1591
469.534	1637.56
469.906	1653.6
470.278	1680.04
470.65	1669.87
471.022	1708.06
471.394	1734.28
471.766	1715.97
472.138	1730.43
472.51	1787.61
472.882	1789.42
473.253	1811.79
473.625	1838.45
473.997	1852.24
474.369	1848.17
474.74	1895.63
475.112	1903.76
475.484	1906.25
475.855	1913.93
476.227	1969.75
476.598	1981.5
476.97	2023.99
477.341	2061.27
477.713	2064.21
478.084	2088.39
478.455	2141.5
478.827	2144.44
479.198	2196.86
479.569	2218.33
479.94	2244.09
480.311	2244.32
480.682	2297.88
481.053	2337.42
481.424	2385.11
481.795	2405.22
482.166	2409.96
482.537	2421.94
482.908	2501.49
483.279	2517.53
483.65	2565.22
484.021	2604.08
484.391	2619.68
484.762	2621.71
485.133	2635.27
485.503	2653.35
485.874	2751.2
486.244	2760.92
486.615	2747.81
486.985	2804.76
487.356	2871.42
487.726	2849.28
488.097	2873.91
488.467	2968.59
488.837	2966.33
489.207	3009.05
489.578	3041.13
489.948	3037.07
490.318	3134.69
490.688	3076.84
491.058	3167.46
491.428	3144.86
491.798	3239.77
492.168	3275.03
492.538	3273.67
492.908	3288.59
493.278	3351.41
493.648	3330.84
494.017	3395.02
494.387	3409.71
494.757	3440.9
495.126	3483.16
495.496	3450.62
495.866	3487.22
496.235	3524.96
496.605	3540.78
496.974	3517.28
497.344	3577.39
497.713	3590.72
498.082	3560.44
498.452	3653.77
498.821	3665.98
499.19	3691.06
499.559	3678.41
499.928	3685.19
500.298	3747.78
500.667	3704.85
501.036	3752.3
501.405	3803.37
501.774	3775.58
502.143	3822.13
502.512	3835.46
502.88	3856.93
503.249	3889.25
503.618	3890.83
503.987	3926.99
504.356	3927.89
504.724	3930.15
505.093	3946.42
505.462	3917.27
505.83	4014.67
506.199	4012.41
506.567	3989.13
506.936	4018.74
507.304	4026.65
507.672	4089.69
508.041	4037.72
508.409	4083.37
508.777	4135.8
509.145	4150.26
509.514	4157.72
509.882	4171.5
510.25	4125.85
510.618	4187.55
510.986	4208.79
511.354	4192.29
511.722	4228.9
512.09	4271.61
512.458	4276.36
512.826	4286.98
513.193	4317.26
513.561	4291.72
513.929	4251.72
514.297	4338.5
514.664	4350.7
515.032	4377.82
515.4	4387.99
515.767	4375.34
516.135	4421.66
516.502	4393.42
516.869	4497.59
517.237	4488.55
517.604	4408.78
517.972	4441.55
518.339	4493.53
518.706	4474.09
519.073	4503.7
519.44	4509.8
519.808	4547.54
520.175	4587.53
520.542	4570.36
520.909	4594.54
521.276	4563.58
521.643	4615.56
522.009	4661.66
522.376	4623.24
522.743	4685.39
523.11	4744.37
523.477	4714.31
523.843	4777.59
524.21	4752.5
524.577	4816.68
524.943	4791.6
525.31	4850.13
525.676	4875.44
526.043	4883.12
526.409	4906.62
526.776	4937.58
527.142	4952.5
527.508	4989.33
527.874	5022.55
528.241	4983.23
528.607	5058.93
528.973	5101.42
529.339	5044.92
529.705	5123.11
530.071	5197.01
530.437	5180.51
530.803	5204.24
531.169	5228.87
531.535	5202.43
531.901	5217.57
532.267	5199.5
532.632	5292.37
532.998	5311.58
533.364	5347.29
533.73	5388.42
534.095	5412.15
534.461	5383.9
534.826	5425.25
535.192	5434.29
535.557	5458.47
535.923	5486.95
536.288	5460.73
536.653	5574.18
537.019	5521.52
537.384	5599.71
537.749	5605.36
538.114	5629.99
538.479	5645.13
538.845	5667.05
539.21	5693.72
539.575	5662.08
539.94	5694.62
540.305	5756.77
540.67	5776.2
541.034	5749.54
541.399	5777.56
541.764	5847.39
542.129	5810.33
542.494	5892.81
542.858	5882.19
543.223	5883.77
543.587	5976.42
543.952	5977.1
544.316	5946.37
544.681	5940.27
545.045	6092.81
545.41	6111.34
545.774	6088.96
546.138	6065.01
546.503	6081.05
546.867	6132.13
547.231	6220.03
547.595	6187.27
547.959	6231.79
548.324	6284.44
548.688	6234.27
549.052	6280.82
549.416	6292.8
549.779	6347.26
550.143	6335.06
550.507	6382.29
550.871	6355.17
551.235	6396.07
551.599	6425.68
551.962	6388.62
552.326	6440.37
552.689	6510.2
553.053	6440.14
553.417	6515.62
553.78	6553.13
554.143	6575.96
554.507	6632.68
554.87	6609.85
555.234	6733.92
555.597	6590.65
555.96	6635.62
556.323	6662.73
556.686	6674.26
557.05	6702.06
557.413	6725.56
557.776	6714.03
558.139	6797.65
558.502	6809.85
558.865	6821.37
559.228	6872.22
559.59	6886.23
559.953	6890.75
560.316	6930.98
560.679	6956.74
561.041	6998.77
561.404	7015.72
561.767	6988.83
562.129	7006.68
562.492	7069.28
562.854	7079.9
563.217	7092.55
563.579	7098.2
563.941	7175.94
564.304	7171.65
564.666	7174.13
565.028	7240.12
565.39	7261.36
565.753	7273.11
566.115	7262.94
566.477	7288.25
566.839	7301.36
567.201	7387.91
567.563	7361.25
567.925	7420.23
568.287	7413.22
568.648	7412.77
569.01	7441.25
569.372	7569.83
569.734	7528.02
570.095	7568.47
570.457	7595.59
570.819	7655.7
571.18	7712.42
571.542	7715.14
571.903	7752.42
572.265	7784.74
572.626	7858.41
572.987	7873.32
573.349	7869.48
573.71	7971.85
574.071	8041.23
574.432	8096.37
574.794	8211.62
575.155	8203.94
575.516	8226.99
575.877	8362.8
576.238	8365.06
576.599	8431.5
576.96	8460.2
577.32	8545.17
577.681	8586.07
578.042	8727.31
578.403	8737.48
578.763	8852.96
579.124	8971.83
579.485	9027.87
579.845	9217.47
580.206	9244.14
580.566	9372.49
580.927	9423.34
581.287	9574.75
581.648	9686.61
582.008	9837.79
582.368	9992.14
582.728	10109.42
583.089	10279.14
583.449	10382.64
583.809	10625.12
584.169	10737.66
584.529	10819.01
584.889	11126.35
585.249	11255.16
585.609	11437.52
585.969	11640.91
586.329	11818.31
586.688	12092.65
587.048	12196.37
587.408	12470.04
587.768	12639.98
588.127	12839.75
588.487	13105.05
588.846	13376.23
589.206	13542.55
589.565	13799.5
589.925	14147.51
590.284	14305.47
590.643	14507.95
591.003	14867.72
591.362	15137.31
591.721	15332.11
592.08	15655.49
592.44	15949.72
592.799	16246.89
593.158	16437.17
593.517	16732.07
593.876	17126.64
594.235	17323.92
594.593	17637.36
594.952	17932.27
595.311	18175.43
595.67	18409.09
596.029	18875.29
596.387	19190.54
596.746	19399.8
597.104	19723.41
597.463	19854.25
597.822	20294.92
598.18	20539.66
598.538	20855.36
598.897	21096.25
599.255	21266.64
599.613	21716.35
599.972	21867.53
600.33	22303.45
600.688	22447.4
601.046	22792.48
601.404	23213.49
601.762	23432.91
602.12	23778.44
602.478	24089.39
602.836	24287.58
603.194	24442.38
603.552	24803.27
603.91	24936.15
604.268	25266.77
604.625	25518.96
604.983	25789.01
605.341	26049.34
605.698	26311.03
606.056	26627.63
606.413	26779.49
606.771	27174.06
607.128	27374.51
607.485	27404.56
607.843	27703.99
608.2	28054.04
608.557	28320.02
608.914	28411.77
609.272	28734.02
609.629	29014.69
609.986	29091.98
610.343	29200.22
610.7	29674.33
611.057	29730.83
611.414	29924.95
611.771	30096.02
612.127	30365.84
612.484	30517.02
612.841	30876.11
613.198	30950.01
613.554	30996.11
613.911	31331.92
614.267	31556.09
614.624	31747.72
614.98	31880.6
615.337	32114.04
615.693	32162.18
616.05	32355.17
616.406	32637.64
616.762	32682.16
617.118	32756.06
617.475	32911.76
617.831	33188.82
618.187	33277.63
618.543	33445.31
618.899	33770.72
619.255	33819.53
619.611	33786.77
619.967	34072.41
620.323	34138.4
620.678	34140.66
621.034	34228.56
621.39	34369.8
621.746	34514.66
622.101	34921.65
622.457	34699.74
622.812	34828.55
623.168	35024.93
623.523	35007.07
623.879	35441.41
624.234	35297.01
624.589	35371.58
624.945	35518.7
625.3	35597.57
625.655	35535.87
626.01	35735.64
626.365	35734.51
626.72	35780.16
627.075	35755.53
627.43	35945.13
627.785	35801.86
628.14	35880.5
628.495	36124.78
628.85	36164.33
629.205	36074.62
629.559	36435.96
629.914	36224.89
630.269	36148.74
630.623	36225.8
630.978	36355.51
631.332	36445.23
631.687	36609.29
632.041	36438.45
632.396	36572.46
632.75	36411.33
633.104	36500.37
633.459	36346.47
633.813	36393.7
634.167	36561.38
634.521	36471.67
634.875	36587.15
635.229	36550.08
635.583	36493.59
635.937	36545.79
636.291	36605.9
636.645	36629.63
636.999	36479.8
637.352	36588.73
637.706	36400.48
638.06	36593.02
638.413	36426.25
638.767	36495.4
639.121	36466.47
639.474	36376.3
639.828	36396.19
640.181	36501.95
640.534	36605.68
640.888	36576.75
641.241	36319.58
641.594	36407.72
641.947	36489.97
642.301	36346.7
642.654	36433.93
643.007	36496.75
643.36	36343.31
643.713	36297.21
644.066	36593.7
644.419	36335.85
644.771	36133.37
645.124	35774.06
645.477	35798.01
645.83	35683.89
646.182	35496.33
646.535	35508.76
646.888	35534.97
647.24	35260.4
647.593	35446.16
647.945	35406.84
648.298	35275.32
648.65	35231.02
649.002	35252.72
649.355	35430.57
649.707	35268.76
650.059	35423.79
650.411	35739.71
650.763	35837.33
651.115	36246.59
651.467	36018.8
651.819	36073.03
652.171	36056.76
652.523	35921.17
652.875	35986.26
653.227	35901.51
653.578	36172.02
653.93	36046.82
654.282	35888.86
654.633	35715.53
654.985	35801.63
655.337	35777.9
655.688	35909.42
656.039	35857.22
656.391	35642.54
656.742	35792.14
657.094	35886.82
657.445	35847.96
657.796	35871.46
658.147	35624.46
658.498	35674.63
658.849	35814.96
659.2	35761.63
659.551	35657.68
659.902	35814.74
660.253	35840.5
660.604	35810.22
660.955	35621.07
661.306	35785.81
661.656	35611.35
662.007	35678.69
662.358	35641.63
662.708	35650.9
663.059	35612.03
663.409	35371.81
663.76	35736.55
664.11	35738.13
664.461	35617.91
664.811	35641.86
665.161	35587.17
665.511	35508.53
665.862	35553.73
666.212	35691.58
666.562	35708.07
666.912	35632.82
667.262	35551.01
667.612	35492.26
667.962	35621.07
668.312	35531.13
668.662	35649.09
669.011	35618.58
669.361	35682.31
669.711	35504.46
670.06	35463.11
670.41	35515.31
670.76	35318.7
671.109	35609.54
671.459	35508.98
671.808	35434.18
672.157	35583.1
672.507	35258.59
672.856	35191.93
673.205	35272.83
673.554	35416.1
673.904	35279.16
674.253	35623.78
674.602	35393.5
674.951	34970.01
675.3	34686.86
675.649	35282.32
675.998	35237.58
676.346	35316.22
676.695	35317.35
677.044	35008.66
677.393	35139.95
677.741	35255.65
678.09	35028.54
678.438	35084.36
678.787	35070.35
679.135	35007.53
679.484	34878.04
679.832	35027.19
680.181	34783.35
680.529	34966.85
680.877	34898.83
681.225	34792.62
681.573	34876
681.922	34716.69
682.27	34619.74
682.618	34706.97
682.966	34504.04
683.314	34750.36
683.661	34551.94
684.009	34463.13
684.357	34257.94
684.705	34254.78
685.053	34284.83
685.4	34259.75
685.748	34166.87
686.095	34083.26
686.443	33868.57
686.79	33944.28
687.138	33992.19
687.485	33947.89
687.832	33828.35
688.18	33926.65
688.527	33654.79
688.874	33744.96
689.221	33561.24
689.568	33478.53
689.915	33508.58
690.262	33404.4
690.609	33341.35
690.956	33380.45
691.303	33285.99
691.65	33189.49
691.997	33047.58
692.344	32857.75
692.69	32906.56
693.037	32867.47
693.383	32641.71
693.73	32671.32
694.077	32651.2
694.423	32570.3
694.769	32400.36
695.116	32364.21
695.462	32329.86
695.808	32190.42
696.155	32293.25
696.501	32059.13
696.847	32142.74
697.193	31895.74
697.539	31976.65
697.885	31734.39
698.231	31641.06
698.577	31689.87
698.923	31564.45
699.269	31444.68
699.614	31331.46
699.96	31334.63
700.306	31237.68
700.651	31153.84
700.997	31085.82
701.342	31110.45
701.688	30797.24
702.033	30822.33
702.379	30709.11
702.724	30747.75
703.069	30835.43
703.415	30461.88
703.76	30442.67
704.105	30510.47
704.45	30324.49
704.795	30261.21
705.14	30085.85
705.485	30019.41
705.83	29995.91
706.175	30047.88
706.52	30020.54
706.865	29870.26
707.209	29842.01
707.554	29665.97
707.899	29793.65
708.243	29573.09
708.588	29615.35
708.932	29422.36
709.277	29379.65
709.621	29379.65
709.966	29191.63
710.31	29382.14
710.654	29066.44
710.998	29048.81
711.342	29051.52
711.687	29044.29
712.031	28886.56
712.375	28695.6
712.719	28760.23
713.063	28739.67
713.407	28909.61
713.75	28674.13
714.094	28642.27
714.438	28486.12
714.782	28619.67
715.125	28381.94
715.469	28348.94
715.812	28252.45
716.156	28113.24
716.499	28087.71
716.843	28095.62
717.186	27996.86
717.53	28113.92
717.873	28207.48
718.216	28034.15
718.559	27987.6
718.902	27699.02
719.246	27668.96
719.589	27728.17
719.932	27584.67
720.275	27525.91
720.617	27608.85
720.96	27515.52
721.303	27488.85
721.646	27494.73
721.989	27408.18
722.331	27493.37
722.674	27308.75
723.016	27239.82
723.359	27385.81
723.701	27311.23
724.044	27005.48
724.386	27035.31
724.729	27079.37
725.071	27057.45
725.413	26963.22
725.755	26918.02
726.097	26824.46
726.439	26690.46
726.782	26684.13
727.124	26862.2
727.465	26612.72
727.807	26667.63
728.149	26572.49
728.491	26577.47
728.833	26508.77
729.175	26546.96
729.516	26549.67
729.858	26319.39
730.199	26391.03
730.541	26424.93
730.882	26353.74
731.224	26324.14
731.565	26145.61
731.906	26191.71
732.248	26200.53
732.589	26005.73
732.93	25998.72
733.271	26063.13
733.612	26103.13
733.953	26118.95
734.294	25868.11
734.635	25854.09
734.976	25941.55
735.317	25790.37
735.658	25720.99
735.999	25688.9
736.339	25661.1
736.68	25862.23
737.021	25703.59
737.361	25479.19
737.702	25596.7
738.042	25518.96
738.383	25469.25
738.723	25485.52
739.063	25444.84
739.404	25351.96
739.744	25336.59
740.084	25231.29
740.424	25373.88
740.764	25217.95
741.104	25355.12
741.444	25274.9
741.784	25119.2
742.124	25155.58
742.464	25075.81
742.804	24986.55
743.143	24964.63
743.483	24975.25
743.823	24892.09
744.162	24874.68
744.502	24923.5
744.841	24735.03
745.181	24955.13
745.52	24796.49
745.86	24845.08
746.199	24666.55
746.538	24542.72
746.877	24695.71
747.216	24577.29
747.556	24504.98
747.895	24571.42
748.234	24391.53
748.573	24429.72
748.911	24390.86
749.25	24440.35
749.589	24317.41
749.928	24273.12
750.267	24259.11
750.605	24226.11
750.944	24128.49
751.283	23979.57
751.621	24097.53
751.96	23891.21
752.298	23877.2
752.636	23923.98
752.975	23825
753.313	23759.69
753.651	23783.64
753.989	23705.45
754.327	23726.24
754.666	23534.16
755.004	23615.06
755.342	23580.93
755.679	23515.4
756.017	23400.83
756.355	23397.66
756.693	23347.72
757.031	23341.62
757.368	23250.32
757.706	23176.42
758.044	23136.65
758.381	23080.61
758.719	23004
759.056	22994.06
759.394	22869.54
