Data from hue_22_FLMS001491_00042.txt Node
Date: Tue Feb 07 17:10:10 GMT 2017
User: dcchb
Spectrometer: FLMS00149
Trigger mode: 0
Integration Time (sec): 2.000000E-2
Scans to average: 10
Electric dark correction enabled: true
Nonlinearity correction enabled: false
Boxcar width: 0
XAxis mode: Wavelengths
Number of Pixels in Spectrum: 2048
>>>>>Begin Spectral Data<<<<<
341.393	0.96
341.776	0.96
342.16	0.96
342.543	-47.85
342.927	-73.84
343.31	-91.69
343.693	-75.42
344.077	-70.22
344.46	-58.25
344.843	-53.28
345.226	-51.92
345.61	-31.81
345.993	-19.83
346.376	7.06
346.759	24.69
347.142	31.02
347.525	51.58
347.908	47.29
348.291	75.31
348.674	93.16
349.057	122.31
349.44	132.48
349.823	144.69
350.206	159.15
350.588	187.62
350.971	203.21
351.354	219.49
351.737	254.06
352.119	251.12
352.502	267.85
352.884	272.37
353.267	275.98
353.65	292.93
354.032	306.04
354.414	321.63
354.797	318.69
355.179	313.49
355.562	343.1
355.944	318.69
356.326	327.51
356.709	326.6
357.091	315.3
357.473	348.3
357.855	356.66
358.238	348.3
358.62	323.21
359.002	341.97
359.384	344.45
359.766	342.19
360.148	350.1
360.53	343.32
360.912	318.92
361.294	323.66
361.676	327.96
362.057	338.13
362.439	318.69
362.821	346.49
363.203	319.82
363.584	317.79
363.966	317.79
364.348	331.57
364.729	327.51
365.111	329.09
365.493	305.59
365.874	316.21
366.256	310.1
366.637	306.26
367.019	315.08
367.4	320.95
367.781	315.53
368.163	313.95
368.544	326.15
368.925	307.85
369.306	318.24
369.688	289.31
370.069	308.07
370.45	313.27
370.831	310.78
371.212	325.7
371.593	329.09
371.974	296.77
372.355	322.31
372.736	321.63
373.117	322.76
373.498	335.64
373.879	336.32
374.26	322.53
374.641	322.08
375.021	304.68
375.402	321.4
375.783	315.75
376.163	335.87
376.544	316.43
376.925	330.9
377.305	334.28
377.686	313.72
378.066	319.14
378.447	338.13
378.827	307.17
379.208	329.09
379.588	326.15
379.968	327.96
380.349	337.9
380.729	341.74
381.109	324.57
381.489	321.86
381.87	346.26
382.25	337.22
382.63	344.45
383.01	341.06
383.39	330.67
383.77	323.21
384.15	351.01
384.53	338.8
384.91	326.6
385.29	343.55
385.67	349.43
386.049	348.75
386.429	365.47
386.809	329.54
387.189	349.88
387.568	348.75
387.948	343.55
388.328	354.62
388.707	348.97
389.087	354.85
389.466	351.69
389.846	344.45
390.225	355.08
390.605	356.43
390.984	359.6
391.363	376.54
391.743	366.6
392.122	361.4
392.501	356.88
392.881	364.57
393.26	365.24
393.639	381.52
394.018	393.27
394.397	367.73
394.776	372.48
395.155	384.91
395.534	381.97
395.913	360.5
396.292	379.48
396.671	386.04
397.05	351.69
397.429	389.42
397.808	402.31
398.186	401.18
398.565	395.98
398.944	381.06
399.323	367.05
399.701	390.55
400.08	400.95
400.458	393.94
400.837	387.39
401.215	391.91
401.594	414.96
401.972	388.29
402.351	401.85
402.729	385.58
403.107	412.02
403.486	414.96
403.864	396.88
404.242	401.85
404.62	414.73
404.999	397.56
405.377	434.85
405.755	417.45
406.133	413.38
406.511	409.54
406.889	410.89
407.267	427.84
407.645	426.26
408.023	420.16
408.401	430.55
408.779	431.23
409.156	441.85
409.534	452.25
409.912	451.57
410.29	455.41
410.667	443.21
411.045	453.15
411.422	434.85
411.8	470.78
412.178	454.51
412.555	474.62
412.933	445.69
413.31	476.43
413.687	464.9
414.065	470.78
414.442	473.49
414.819	490.67
415.197	489.99
415.574	485.24
415.951	479.37
416.328	495.41
416.705	482.53
417.082	479.82
417.46	487.05
417.837	493.83
418.214	492.02
418.591	474.39
418.967	503.32
419.344	495.41
419.721	529.31
420.098	504.68
420.475	525.01
420.852	520.04
421.228	504.45
421.605	536.09
421.982	517.11
422.358	536.99
422.735	527.5
423.111	521.85
423.488	515.3
423.864	534.51
424.241	559.82
424.617	550.32
424.994	548.97
425.37	556.65
425.746	554.17
426.123	537.22
426.499	548.52
426.875	547.16
427.251	572.92
427.627	565.01
428.003	562.75
428.379	599.14
428.756	582.64
429.132	581.74
429.507	600.27
429.883	593.04
430.259	611.57
430.635	600.94
431.011	614.96
431.387	624.67
431.763	622.19
432.138	645.92
432.514	631.68
432.89	637.33
433.265	632.58
433.641	624.45
434.016	680.72
434.392	638.91
434.767	670.55
435.143	659.02
435.518	677.33
435.894	696.54
436.269	696.54
436.644	681.85
437.02	694.05
437.395	685.91
437.77	682.52
438.145	699.93
438.52	730.66
438.895	725.46
439.271	725.91
439.646	749.19
440.021	725.24
440.395	713.71
440.77	729.53
441.145	716.87
441.52	732.24
441.895	753.26
442.27	751.9
442.645	765.01
443.019	759.13
443.394	774.5
443.769	793.03
444.143	775.63
444.518	765.91
444.892	772.69
445.267	781.96
445.641	783.31
446.016	795.06
446.39	804.33
446.764	800.26
447.139	809.75
447.513	813.14
447.887	789.87
448.262	803.65
448.636	816.08
449.01	813.59
449.384	813.14
449.758	831
450.132	842.07
450.506	823.54
450.88	853.37
451.254	851.33
451.628	877.1
452.002	846.81
452.376	867.83
452.75	888.39
453.123	857.66
453.497	913.25
453.871	877.32
454.244	913.03
454.618	919.81
454.992	901.28
455.365	950.54
455.739	957.32
456.112	944.89
456.486	958.68
456.859	959.13
457.232	983.99
457.606	990.99
457.979	971.56
458.352	1004.55
458.725	1031.67
459.099	1010.65
459.472	1049.97
459.845	1055.4
460.218	1045.45
460.591	1070.31
460.964	1072.8
461.337	1068.73
461.71	1095.17
462.083	1107.82
462.456	1101.95
462.829	1113.7
463.201	1116.64
463.574	1151.89
463.947	1162.74
464.32	1182.85
464.692	1181.27
465.065	1187.6
465.438	1207.26
465.81	1243.41
466.183	1230.76
466.555	1265.56
466.928	1267.14
467.3	1248.84
467.672	1304.88
468.045	1310.76
468.417	1328.61
468.789	1335.39
469.161	1334.26
469.534	1383.52
469.906	1406.8
470.278	1415.61
470.65	1419.68
471.022	1433.01
471.394	1458.1
471.766	1499.23
472.138	1493.35
472.51	1511.43
472.882	1540.13
473.253	1543.29
473.625	1593.46
473.997	1624.87
474.369	1611.77
474.74	1642.73
475.112	1657.41
475.484	1724.53
475.855	1745.77
476.227	1755.94
476.598	1787.58
476.97	1809.27
477.341	1860.12
477.713	1878.88
478.084	1891.31
478.455	1945.54
478.827	1970.4
479.198	2014.69
479.569	2041.36
479.94	2122.71
480.311	2116.61
480.682	2216.27
481.053	2224.63
481.424	2248.58
481.795	2276.61
482.166	2306.44
482.537	2347.57
482.908	2425.53
483.279	2460.78
483.65	2496.26
484.021	2537.62
484.391	2586.43
484.762	2591.63
485.133	2669.82
485.503	2640.89
485.874	2782.13
486.244	2787.33
486.615	2794.79
486.985	2878.17
487.356	2942.13
487.726	2950.26
488.097	3012.18
488.467	3049.47
488.837	3112.97
489.207	3113.65
489.578	3224.15
489.948	3265.51
490.318	3312.74
490.688	3317.26
491.058	3352.28
491.428	3361.32
491.798	3454.65
492.168	3536.01
492.538	3529.68
492.908	3583.01
493.278	3636.57
493.648	3644.25
494.017	3720.64
494.387	3763.8
494.757	3774.87
495.126	3822.33
495.496	3840.86
495.866	3886.73
496.235	3950.24
496.605	3953.4
496.974	3980.74
497.344	4026.17
497.713	4048.76
498.082	4094.41
498.452	4112.94
498.821	4190.45
499.19	4180.06
499.559	4220.06
499.928	4277.23
500.298	4271.13
500.667	4323.56
501.036	4331.92
501.405	4319.94
501.774	4375.53
502.143	4405.36
502.512	4401.75
502.88	4491.46
503.249	4455.31
503.618	4505.7
503.987	4549.54
504.356	4535.76
504.724	4594.51
505.093	4629.77
505.462	4641.06
505.83	4688.07
506.199	4677.45
506.567	4736.88
506.936	4714.51
507.304	4761.97
507.672	4770.33
508.041	4810.55
508.409	4858.23
508.777	4891.45
509.145	4919.48
509.514	4915.86
509.882	4958.8
510.25	4939.14
510.618	4980.94
510.986	5006.93
511.354	5060.71
511.722	5118.34
512.09	5086.02
512.458	5097.55
512.826	5104.56
513.193	5116.76
513.561	5180.71
513.929	5219.58
514.297	5254.61
514.664	5266.13
515.032	5255.06
515.4	5324.89
515.767	5330.31
516.135	5364.44
516.502	5313.14
516.869	5389.97
517.237	5395.39
517.604	5380.71
517.972	5417.54
518.339	5503.64
518.706	5468.16
519.073	5458.44
519.44	5549.97
519.808	5545.9
520.175	5527.82
520.542	5634.71
520.909	5660.47
521.276	5651.21
521.643	5689.17
522.009	5691.21
522.376	5755.61
522.743	5803.52
523.11	5818.66
523.477	5826.34
523.843	5850.98
524.21	5973.01
524.577	5929.62
524.943	6011.88
525.31	6002.16
525.676	6041.93
526.043	6064.3
526.409	6117.41
526.776	6168.03
527.142	6168.03
527.508	6225.43
527.874	6251.42
528.241	6207.8
528.607	6302.26
528.973	6361.92
529.339	6330.06
529.705	6396.27
530.071	6458.42
530.437	6456.16
530.803	6502.71
531.169	6547
531.535	6497.06
531.901	6540.22
532.267	6573.44
532.632	6614.12
532.998	6690.28
533.364	6696.38
533.73	6680.56
534.095	6687.11
534.461	6780.22
534.826	6860.67
535.192	6831.06
535.557	6901.34
535.923	6888.91
536.288	6911.74
536.653	6928.91
537.019	6969.82
537.384	6986.99
537.749	7010.72
538.114	7081
538.479	7049.14
538.845	7098.63
539.21	7071.28
539.575	7139.76
539.94	7123.71
540.305	7212.07
540.67	7202.8
541.034	7245.29
541.399	7255.68
541.764	7300.43
542.129	7353.31
542.494	7361.67
542.858	7392.86
543.223	7398.28
543.587	7410.71
543.952	7476.02
544.316	7485.06
544.681	7501.55
545.045	7507.43
545.41	7625.62
545.774	7629.46
546.138	7604.15
546.503	7663.13
546.867	7668.56
547.231	7743.13
547.595	7736.35
547.959	7786.52
548.324	7763.92
548.688	7785.61
549.052	7804.82
549.416	7867.87
549.779	7894.76
550.143	7909.68
550.507	7925.27
550.871	7939.73
551.235	7975.44
551.599	8085.27
551.962	8076.91
552.326	8090.01
552.689	8164.14
553.053	8092.95
553.417	8132.05
553.78	8264.02
554.143	8166.85
554.507	8198.94
554.87	8277.8
555.234	8377.24
555.597	8263.12
555.96	8344.47
556.323	8400.06
556.686	8407.29
557.05	8476.67
557.413	8480.51
557.776	8472.6
558.139	8568.64
558.502	8523
558.865	8501.53
559.228	8563.9
559.59	8628.76
559.953	8721.18
560.316	8704.01
560.679	8735.65
561.041	8791.69
561.404	8783.78
561.767	8857.45
562.129	8854.51
562.492	8884.57
562.854	8964.34
563.217	8875.3
563.579	8957.79
563.941	9019.48
564.304	9058.35
564.666	9058.12
565.028	9171.79
565.39	9143.54
565.753	9157.78
566.115	9173.6
566.477	9195.97
566.839	9256.54
567.201	9320.49
567.563	9334.27
567.925	9383.99
568.287	9411.56
568.648	9399.58
569.01	9513.25
569.372	9508.06
569.734	9510.31
570.095	9565.68
570.457	9679.12
570.819	9642.29
571.18	9686.81
571.542	9717.09
571.903	9699.91
572.265	9844.54
572.626	9854.03
572.987	9850.42
573.349	9952.34
573.71	9983.07
574.071	10030.3
574.432	10072.79
574.794	10247.02
575.155	10243.63
575.516	10281.14
575.877	10342.61
576.238	10346.45
576.599	10388.48
576.96	10574.47
577.32	10518.2
577.681	10685.2
578.042	10687.91
578.403	10818.3
578.763	10848.81
579.124	10951.86
579.485	11117.28
579.845	11282.92
580.206	11346.42
580.566	11411.96
580.927	11500.09
581.287	11683.37
581.648	11668.9
582.008	11908.22
582.368	12022.79
582.728	12152.28
583.089	12290.13
583.449	12456
583.809	12672.72
584.169	12750
584.529	12934.86
584.889	13222.08
585.249	13227.05
585.609	13407.16
585.969	13669.53
586.329	13847.15
586.688	14072.23
587.048	14258.44
587.408	14434.48
587.768	14673.12
588.127	14902.94
588.487	15157.85
588.846	15480.33
589.206	15556.71
589.565	15817.04
589.925	16210.93
590.284	16362.79
590.643	16658.15
591.003	16958.03
591.362	17288.64
591.721	17572.93
592.08	17826.93
592.44	18117.55
592.799	18375.62
593.158	18688.83
593.517	18915.94
593.876	19251.75
594.235	19446.1
594.593	19858.97
594.952	20139.87
595.311	20428.45
595.67	20790.47
596.029	21094.42
596.387	21474.29
596.746	21926.94
597.104	21891.91
597.463	22304.55
597.822	22817.54
598.18	23018.21
598.538	23163.06
598.897	23634.46
599.255	23798.75
599.613	24523.93
599.972	24619.97
600.33	24962.79
600.688	25194.65
601.046	25422.44
601.404	25912.6
601.762	26125.92
602.12	26490.66
602.478	26845.9
602.836	27100.59
603.194	27247.25
603.552	27536.73
603.91	27691.31
604.268	28205.19
604.625	28352.31
604.983	28790.26
605.341	28915.68
605.698	29296.91
606.056	29714.3
606.413	29774.64
606.771	30161.52
607.128	30438.35
607.485	30601.06
607.843	30855.29
608.2	31272
608.557	31595.84
608.914	31639.9
609.272	32036.28
609.629	32273.11
609.986	32638.75
610.343	32702.25
610.7	33017.04
611.057	33250.48
611.414	33390.36
611.771	33558.27
612.127	33876.23
612.484	34090.91
612.841	34455.65
613.198	34415.65
613.554	34742.42
613.911	35072.13
614.267	35047.27
614.624	35263.08
614.98	35429.86
615.337	35832.79
615.693	36044.08
616.05	36254.92
616.406	36359.1
616.762	36407.01
617.118	36599.09
617.475	36746.21
617.831	37033.43
618.187	37203.15
618.543	37299.64
618.899	37558.39
619.255	37646.07
619.611	37762.23
619.967	37952.05
620.323	38060.75
620.678	38173.52
621.034	38284.25
621.39	38259.84
621.746	38442.66
622.101	39003.32
622.457	38757.68
622.812	38952.7
623.168	39180.72
623.523	39195.64
623.879	39392.92
624.234	39303.43
624.589	39505.23
624.945	39495.52
625.3	39655.96
625.655	39726.7
626.01	39709.29
626.365	39882.4
626.72	39947.03
627.075	40137.53
627.43	40046.46
627.785	39955.39
628.14	40177.98
628.495	40344.98
628.85	40265.89
629.205	40225.44
629.559	40530.97
629.914	40379.79
630.269	40631.3
630.623	40463.63
630.978	40408.49
631.332	40618.42
631.687	40737.29
632.041	40631.3
632.396	40838.98
632.75	40779.78
633.104	40826.33
633.459	40582.72
633.813	40559.22
634.167	40639.67
634.521	40686.44
634.875	40791.3
635.229	40762.15
635.583	40728.03
635.937	40812.09
636.291	40821.13
636.645	40747.69
636.999	40683.51
637.352	40874.01
637.706	40575.94
638.06	40818.64
638.413	40732.32
638.767	40695.94
639.121	40788.59
639.474	40615.03
639.828	40676.28
640.181	40715.6
640.534	40787.91
640.888	40733
641.241	40599.89
641.594	40588.14
641.947	40838.98
642.301	40733.9
642.654	40720.34
643.007	40824.52
643.36	40596.28
643.713	40677.63
644.066	40711.3
644.419	40471.76
644.771	40308.6
645.124	39963.98
645.477	39975.28
645.83	39819.8
646.182	39584.1
646.535	39538.45
646.888	39637.43
647.24	39400.15
647.593	39470.66
647.945	39601.73
648.298	39372.58
648.65	39419.58
649.002	39196.54
649.355	39474.95
649.707	39443.99
650.059	39622.97
650.411	40111.54
650.763	39947.71
651.115	40445.09
651.467	40365.1
651.819	40218.21
652.171	40238.09
652.523	40220.47
652.875	40254.82
653.227	40086.23
653.578	40386.34
653.93	40191.09
654.282	40159.45
654.633	40034.71
654.985	40153.8
655.337	39997.87
655.688	40076.06
656.039	40209.39
656.391	39910.65
656.742	39994.49
657.094	40050.53
657.445	40167.36
657.796	39992.23
658.147	39953.81
658.498	40000.81
658.849	40098.66
659.2	39968.5
659.551	39904.09
659.902	40059.79
660.253	39945.9
660.604	40111.77
660.955	39850.08
661.306	40017.31
661.656	39918.33
662.007	39995.16
662.358	39958.55
662.708	39981.38
663.059	39953.81
663.409	39636.98
663.76	40058.44
664.11	39935.5
664.461	39981.38
664.811	39832.68
665.161	39931.44
665.511	39753.36
665.862	39856.41
666.212	39991.77
666.562	39876.52
666.912	39977.31
667.262	39676.98
667.612	39712.68
667.962	39827.03
668.312	39892.34
668.662	39921.49
669.011	39824.77
669.361	39715.4
669.711	39730.31
670.06	39754.27
670.41	39784.32
670.76	39611.22
671.109	39757.2
671.459	39687.6
671.808	39874.71
672.157	39744.32
672.507	39509.98
672.856	39606.92
673.205	39591.33
673.554	39728.28
673.904	39668.62
674.253	39848.95
674.602	39562.41
674.951	39004.23
675.3	39007.39
675.649	39547.04
675.998	39460.26
676.346	39460.04
676.695	39547.27
677.044	39243.77
677.393	39480.83
677.741	39513.37
678.09	39307.5
678.438	39064.34
678.787	39333.26
679.135	39383.2
679.484	38988.64
679.832	39241.96
680.181	39039.71
680.529	39055.75
680.877	39053.04
681.225	38985.92
681.573	39255.07
681.922	38931.69
682.27	38785.25
682.618	38838.58
682.966	38557.01
683.314	38773.05
683.661	38587.74
684.009	38582.09
684.357	38479.5
684.705	38458.48
685.053	38401.98
685.4	38431.81
685.748	38128.09
686.095	38203.35
686.443	38047.42
686.79	38129.68
687.138	38069.56
687.485	38127.19
687.832	38000.64
688.18	37974.2
688.527	37888.55
688.874	37688.78
689.221	37719.06
689.568	37603.14
689.915	37498.05
690.262	37553.87
690.609	37437.04
690.956	37329.02
691.303	37128.35
691.65	37211.73
691.997	37213.09
692.344	37013.55
692.69	36902.59
693.037	36967.67
693.383	36698.98
693.73	36726.77
694.077	36464.18
694.423	36518.42
694.769	36374.92
695.116	36370.63
695.462	36298.76
695.808	36153.91
696.155	36038.2
696.501	35922.5
696.847	35998.66
697.193	35724.77
697.539	35768.38
697.885	35680.93
698.231	35510.54
698.577	35549.63
698.923	35440.48
699.269	35302.18
699.614	35141.28
699.96	34962.08
700.306	34987.84
700.651	34920.04
700.997	34827.39
701.342	34773.61
701.688	34778.13
702.033	34668.07
702.379	34599.37
702.724	34417.91
703.069	34577.45
703.415	34173.85
703.76	34240.96
704.105	34051.14
704.45	34196.22
704.795	33910.13
705.14	33944.25
705.485	33891.37
705.83	33681.2
706.175	33763.01
706.52	33590.81
706.865	33396.47
707.209	33472.62
707.554	33319.86
707.899	33398.05
708.243	33245.28
708.588	33177.72
708.932	32919.64
709.277	33004.16
709.621	32993.09
709.966	32753.55
710.31	32849.59
710.654	32634.23
710.998	32561.46
711.342	32643.72
711.687	32549.71
712.031	32316.95
712.375	32291.86
712.719	32295.7
713.063	32293.44
713.407	32433.55
713.75	32232.66
714.094	32165.31
714.438	31960.57
714.782	32090.06
715.125	31960.35
715.469	32022.27
715.812	31894.13
716.156	31684.2
716.499	31565.33
716.843	31630.86
717.186	31465.44
717.53	31577.98
717.873	31636.51
718.216	31472.45
718.559	31356.75
718.902	31094.83
719.246	31255.05
719.589	31167.82
719.932	31065
720.275	30949.98
720.617	31086.02
720.96	30912.24
721.303	31002.63
721.646	31017.09
721.989	30742.3
722.331	30853.48
722.674	30736.42
723.016	30746.82
723.359	30696.2
723.701	30787.27
724.044	30514.73
724.386	30300.28
724.729	30400.39
725.071	30321.75
725.413	30453.04
725.755	30270.9
726.097	30258.24
726.439	30085.14
726.782	30192.48
727.124	30128.76
727.465	29904.13
727.807	29910.46
728.149	29923.11
728.491	29894.19
728.833	29884.47
729.175	29826.62
729.516	29825.03
729.858	29737.81
730.199	29861.64
730.541	29754.08
730.882	29707.52
731.224	29693.74
731.565	29550.01
731.906	29539.84
732.248	29599.96
732.589	29320.64
732.93	29304.82
733.271	29184.83
733.612	29326.29
733.953	29171.94
734.294	29182.57
734.635	29114.77
734.976	29198.84
735.317	29049.01
735.658	29017.37
735.999	29006.07
736.339	29028.45
736.68	29001.33
737.021	28845.63
737.361	28768.11
737.702	28909.13
738.042	28816.25
738.383	28750.71
738.723	28805.63
739.063	28617.61
739.404	28747.55
739.744	28587.33
740.084	28580.1
740.424	28590.27
740.764	28543.94
741.104	28520.44
741.444	28420.78
741.784	28330.84
742.124	28294.23
742.464	28343.72
742.804	28323.83
743.143	28334.23
743.483	28073.89
743.823	28075.25
744.162	28019.66
744.502	28000.45
744.841	28007.68
745.181	28119.77
745.52	27876.16
745.86	28002.48
746.199	27909.61
746.538	27926.55
746.877	27946.21
747.216	27836.84
747.556	27826.44
747.895	27830.51
748.234	27684.98
748.573	27720.23
748.911	27608.14
749.25	27791.42
749.589	27369.73
749.928	27561.37
750.267	27640.01
750.605	27573.12
750.944	27404.31
751.283	27436.4
751.621	27404.76
751.96	27265.78
752.298	27180.36
752.636	27280.24
752.975	27126.35
753.313	27007.26
753.651	27100.59
753.989	26903.76
754.327	26949.4
754.666	26789.18
755.004	26965.68
755.342	26818.56
755.679	26789.63
756.017	26692.01
756.355	26749.86
756.693	26644.33
757.031	26612.69
757.368	26444.56
757.706	26523.88
758.044	26447.5
758.381	26443.65
758.719	26398.01
759.056	26303.55
759.394	26298.57
759.731	26126.38
760.068	26051.35
