Data from hue_22_FLMS001491_00079.txt Node
Date: Tue Feb 07 17:10:38 GMT 2017
User: dcchb
Spectrometer: FLMS00149
Trigger mode: 0
Integration Time (sec): 2.000000E-2
Scans to average: 10
Electric dark correction enabled: true
Nonlinearity correction enabled: false
Boxcar width: 0
XAxis mode: Wavelengths
Number of Pixels in Spectrum: 2048
>>>>>Begin Spectral Data<<<<<
341.393	11.79
341.776	11.79
342.16	11.79
342.543	-33.86
342.927	-83.57
343.31	-89.22
343.693	-65.04
344.077	-85.38
344.46	-42.89
344.843	-47.64
345.226	-25.95
345.61	-25.72
345.993	-15.55
346.376	-9.9
346.759	-1.77
347.142	35.3
347.525	27.61
347.908	54.73
348.291	69.19
348.674	98.34
349.057	123.88
349.44	105.35
349.823	150.32
350.206	158.23
350.588	196.2
350.971	219.25
351.354	230.77
351.737	253.37
352.119	237.32
352.502	261.28
352.884	275.52
353.267	256.98
353.65	299.47
354.032	294.27
354.414	298.79
354.797	336.08
355.179	325.01
355.562	341.95
355.944	310.54
356.326	320.03
356.709	335.4
357.091	349.19
357.473	320.49
357.855	340.82
358.238	325.91
358.62	343.99
359.002	343.54
359.384	369.07
359.766	329.3
360.148	340.6
360.53	341.73
360.912	329.3
361.294	336.3
361.676	332.01
362.057	346.02
362.439	361.39
362.821	332.01
363.203	331.79
363.584	311.9
363.966	331.56
364.348	348.28
364.729	304.67
365.111	337.43
365.493	334.27
365.874	301.96
366.256	320.03
366.637	338.79
367.019	314.61
367.4	314.16
367.781	332.91
368.163	313.93
368.544	291.33
368.925	312.58
369.306	334.5
369.688	318.9
370.069	308.06
370.45	307.38
370.831	337.89
371.212	301.05
371.593	286.36
371.974	305.35
372.355	292.01
372.736	303.99
373.117	320.49
373.498	322.29
373.879	321.84
374.26	302.86
374.641	313.93
375.021	335.85
375.402	323.2
375.783	326.81
376.163	296.08
376.544	332.91
376.925	317.1
377.305	335.4
377.686	332.91
378.066	321.84
378.447	328.62
378.827	343.54
379.208	327.72
379.588	327.04
379.968	330.2
380.349	332.69
380.729	335.4
381.109	323.65
381.489	346.93
381.87	352.12
382.25	324.33
382.63	332.24
383.01	357.32
383.39	341.28
383.77	339.47
384.15	342.86
384.53	334.95
384.91	352.35
385.29	338.79
385.67	344.89
386.049	341.28
386.429	359.13
386.809	345.8
387.189	342.86
387.568	346.25
387.948	348.73
388.328	359.13
388.707	355.74
389.087	350.99
389.466	333.37
389.846	374.5
390.225	376.08
390.605	361.84
390.984	352.35
391.363	337.43
391.743	365
392.122	347.6
392.501	393.25
392.881	381.95
393.26	363.2
393.639	362.97
394.018	370.65
394.397	352.35
394.776	370.2
395.155	377.89
395.534	388.05
395.913	377.21
396.292	402.52
396.671	394.61
397.05	390.99
397.429	372.01
397.808	383.76
398.186	375.4
398.565	378.56
398.944	381.95
399.323	390.09
399.701	390.31
400.08	414.49
400.458	397.09
400.837	404.78
401.215	385.79
401.594	406.59
401.972	401.39
402.351	402.29
402.729	394.16
403.107	421.27
403.486	403.65
403.864	382.41
404.242	400.26
404.62	400.71
404.999	407.94
405.377	423.76
405.755	421.95
406.133	426.25
406.511	413.36
406.889	423.31
407.267	434.38
407.645	416.98
408.023	444.32
408.401	416.75
408.779	432.8
409.156	463.76
409.534	426.92
409.912	444.32
410.29	443.65
410.667	445.91
411.045	469.41
411.422	446.13
411.8	440.71
412.178	446.58
412.555	454.04
412.933	477.09
413.31	482.06
413.687	453.82
414.065	478.67
414.442	459.92
414.819	487.71
415.197	454.72
415.574	488.17
415.951	495.4
416.328	519.12
416.705	488.17
417.082	497.66
417.46	491.33
417.837	494.72
418.214	480.71
418.591	514.15
418.967	510.76
419.344	507.37
419.721	492.01
420.098	521.84
420.475	519.58
420.852	506.92
421.228	536.3
421.605	504.21
421.982	519.58
422.358	520.03
422.735	511.22
423.111	518.9
423.488	529.29
423.864	558.9
424.241	518.45
424.617	557.09
424.994	539.24
425.37	574.49
425.746	551.21
426.123	559.35
426.499	548.5
426.875	558.9
427.251	560.25
427.627	590.76
428.003	570.42
428.379	578.78
428.756	600.25
429.132	555.06
429.507	598.44
429.883	575.85
430.259	595.28
430.635	608.84
431.011	614.94
431.387	610.87
431.763	610.42
432.138	641.61
432.514	627.82
432.89	618.56
433.265	646.58
433.641	651.78
434.016	655.39
434.392	659.23
434.767	673.25
435.143	654.94
435.518	709.63
435.894	663.75
436.269	659.69
436.644	684.32
437.02	696.97
437.395	690.19
437.77	701.27
438.145	729.06
438.52	729.97
438.895	726.8
439.271	737.88
439.646	725.22
440.021	721.15
440.395	733.13
440.77	714.83
441.145	758.44
441.52	766.12
441.895	767.48
442.27	765.45
442.645	767.93
443.019	776.75
443.394	746.24
443.769	758.21
444.143	744.43
444.518	767.25
444.892	742.17
445.267	771.77
445.641	791.21
446.016	787.14
446.39	785.56
446.764	801.83
447.139	802.06
447.513	816.97
447.887	818.33
448.262	821.94
448.636	814.71
449.01	842.51
449.384	841.38
449.758	822.62
450.132	852.22
450.506	845.44
450.88	848.83
451.254	844.09
451.628	876.63
452.002	870.3
452.376	884.76
452.75	882.96
453.123	887.93
453.497	875.27
453.871	901.71
454.244	909.17
454.618	936.74
454.992	939.9
455.365	943.75
455.739	948.49
456.112	960.24
456.486	969.51
456.859	970.86
457.232	988.26
457.606	1002.5
457.979	997.76
458.352	1052.44
458.725	1010.19
459.099	1021.48
459.472	1065.33
459.845	1027.81
460.218	1044.31
460.591	1080.69
460.964	1086.57
461.337	1098.77
461.71	1102.84
462.083	1115.27
462.456	1115.04
462.829	1101.03
463.201	1129.73
463.574	1159.11
463.947	1157.07
464.32	1169.28
464.692	1193.68
465.065	1218.32
465.438	1208.6
465.81	1242.95
466.183	1265.32
466.555	1267.35
466.928	1280.91
467.3	1279.33
467.672	1309.16
468.045	1344.19
468.417	1330.85
468.789	1324.75
469.161	1357.29
469.534	1364.3
469.906	1408.37
470.278	1384.64
470.65	1443.17
471.022	1434.58
471.394	1467.12
471.766	1454.24
472.138	1509.16
472.51	1530.62
472.882	1555.93
473.253	1560
473.625	1556.16
473.997	1599.1
474.369	1670.05
474.74	1661.47
475.112	1694.46
475.484	1687.68
475.855	1770.17
476.227	1761.8
476.598	1804.29
476.97	1843.38
477.341	1854.91
477.713	1907.79
478.084	1914.57
478.455	1929.26
478.827	1971.29
479.198	2009.03
479.569	2056.71
479.94	2131.29
480.311	2124.73
480.682	2193.21
481.053	2210.15
481.424	2259.64
481.795	2287.67
482.166	2319.3
482.537	2365.4
482.908	2415.8
483.279	2455.57
483.65	2491.28
484.021	2547.09
484.391	2609.24
484.762	2592.52
485.133	2605.62
485.503	2667.09
485.874	2763.36
486.244	2760.42
486.615	2840.87
486.985	2863.92
487.356	2941.43
487.726	2943.69
488.097	3022.34
488.467	3027.76
488.837	3100.53
489.207	3187.53
489.578	3241.31
489.948	3200.86
490.318	3276.11
490.688	3278.6
491.058	3356.11
491.428	3365.6
491.798	3407.64
492.168	3526.5
492.538	3547.97
492.908	3573.73
493.278	3640.85
493.648	3673.62
494.017	3722.88
494.387	3782.32
494.757	3747.51
495.126	3845.14
495.496	3841.07
495.866	3838.36
496.235	3935.08
496.605	3908.19
496.974	3958.36
497.344	4043.55
497.713	4060.27
498.082	4099.37
498.452	4139.59
498.821	4097.79
499.19	4137.56
499.559	4205.13
499.928	4193.15
500.298	4225.47
500.667	4232.47
501.036	4277.67
501.405	4371.9
501.774	4332.13
502.143	4339.36
502.512	4445.58
502.88	4441.28
503.249	4460.72
503.618	4469.53
503.987	4497.1
504.356	4527.83
504.724	4520.83
505.093	4553.37
505.462	4562.18
505.83	4636.98
506.199	4646.7
506.567	4712.01
506.936	4713.14
507.304	4786.58
507.672	4775.96
508.041	4799.92
508.409	4834.49
508.777	4886.92
509.145	4862.74
509.514	4842.85
509.882	4875.62
510.25	4897.31
510.618	4979.35
510.986	4973.24
511.354	5032.45
511.722	5008.27
512.09	5074.94
512.458	5057.31
512.826	5136.86
513.193	5144.99
513.561	5156.97
513.929	5169.62
514.297	5240.81
514.664	5229.06
515.032	5281.03
515.4	5293.69
515.767	5314.03
516.135	5347.25
516.502	5296.63
516.869	5367.81
517.237	5404.65
517.604	5402.61
517.972	5408.26
518.339	5486.68
518.706	5486.45
519.073	5485.1
519.44	5546.11
519.808	5563.74
520.175	5528.03
520.542	5597.18
520.909	5578.88
521.276	5635.15
521.643	5661.14
522.009	5653.45
522.376	5717.41
522.743	5723.51
523.11	5797.18
523.477	5819.55
523.843	5840.79
524.21	5988.81
524.577	5935.03
524.943	5985.42
525.31	5987.68
525.676	6052.54
526.043	6030.39
526.409	6054.8
526.776	6160.56
527.142	6174.34
527.508	6169.15
527.874	6214.12
528.241	6264.74
528.607	6244.4
528.973	6283.04
529.339	6325.3
529.705	6405.98
530.071	6430.16
530.437	6442.81
530.803	6516.03
531.169	6510.15
531.535	6490.72
531.901	6569.59
532.267	6546.76
532.632	6629.25
532.998	6638.51
533.364	6752.63
533.73	6680.54
534.095	6729.58
534.461	6715.57
534.826	6815.23
535.192	6815
535.557	6837.83
535.923	6796.02
536.288	6922.8
536.653	6886.87
537.019	6845.29
537.384	6905.62
537.749	6993.08
538.114	7016.58
538.479	6985.62
538.845	7073.98
539.21	7059.29
539.575	7107.65
539.94	7087.99
540.305	7193.07
540.67	7177.93
541.034	7175.22
541.399	7224.94
541.764	7213.19
542.129	7302.22
542.494	7333.18
542.858	7339.06
543.223	7350.36
543.587	7420.19
543.952	7395.78
544.316	7526.4
544.681	7514.65
545.045	7499.51
545.41	7587.19
545.774	7552.39
546.138	7576.79
546.503	7731.36
546.867	7624.25
547.231	7660.63
547.595	7723.68
547.959	7734.98
548.324	7724.59
548.688	7750.57
549.052	7872.38
549.416	7925.94
549.779	7869.67
550.143	7861.98
550.507	7947.63
550.871	7967.97
551.235	7902.43
551.599	8010.91
551.962	8057.46
552.326	8066.5
552.689	8108.76
553.053	8051.58
553.417	8046.16
553.78	8204.8
554.143	8146.72
554.507	8240.28
554.87	8263.33
555.234	8323.67
555.597	8227.17
555.96	8324.8
556.323	8356.21
556.686	8388.75
557.05	8418.8
557.413	8405.02
557.776	8452.93
558.139	8436.43
558.502	8504.68
558.865	8510.33
559.228	8612.02
559.59	8666.48
559.953	8668.29
560.316	8736.08
560.679	8749.42
561.041	8791.22
561.404	8723.43
561.767	8866.02
562.129	8817.66
562.492	8897.66
562.854	8881.39
563.217	8916.19
563.579	8883.88
563.941	8948.96
564.304	9000.48
564.666	9071.22
565.028	9084.1
565.39	9091.33
565.753	9138.33
566.115	9148.73
566.477	9212.68
566.839	9193.47
567.201	9247.03
567.563	9314.6
567.925	9345.56
568.287	9313.92
568.648	9339.68
569.01	9403.64
569.372	9501.71
569.734	9441.6
570.095	9462.17
570.457	9552.11
570.819	9577.19
571.18	9632.78
571.542	9650.18
571.903	9698.54
572.265	9786.68
572.626	9814.25
572.987	9858.77
573.349	9895.38
573.71	9981.02
574.071	9967.24
574.432	10035.26
574.794	10108.25
575.155	10193.9
575.516	10174.01
575.877	10217.85
576.238	10291.3
576.599	10385.98
576.96	10447.9
577.32	10537.39
577.681	10660.33
578.042	10700.55
578.403	10763.83
578.763	10905.07
579.124	10980.77
579.485	11047.89
579.845	11148.45
580.206	11242.01
580.566	11383.25
580.927	11463.92
581.287	11607.19
581.648	11650.36
582.008	11802.67
582.368	11960.18
582.728	12117.01
583.089	12243.56
583.449	12405.14
583.809	12484.46
584.169	12654.4
584.529	12823.21
584.889	13079.02
585.249	13180.03
585.609	13328.96
585.969	13589.29
586.329	13750.19
586.688	14006.68
587.048	14203.06
587.408	14356.05
587.768	14582.48
588.127	14711.97
588.487	14970.5
588.846	15391.28
589.206	15445.51
589.565	15793.07
589.925	16070.81
590.284	16243.23
590.643	16527.74
591.003	16763.67
591.362	17251.34
591.721	17413.37
592.08	17639.35
592.44	17984.65
592.799	18325.21
593.158	18451.99
593.517	18771.53
593.876	19181.01
594.235	19329.48
594.593	19740.31
594.952	20021.21
595.311	20210.81
595.67	20658.93
596.029	21032.71
596.387	21338.92
596.746	21692.35
597.104	21982.29
597.463	22120.14
597.822	22623.85
598.18	22763.74
598.538	23091.64
598.897	23658.18
599.255	23723.94
599.613	24267.2
599.972	24421.32
600.33	24685.27
600.688	25005.26
601.046	25337.68
601.404	25683.43
601.762	25935.41
602.12	26448.39
602.478	26659.45
602.836	27053.79
603.194	27159.1
603.552	27538.98
603.91	27741.69
604.268	28079.76
604.625	28230.49
604.983	28742.34
605.341	28864.59
605.698	29225.04
606.056	29460.06
606.413	29774.85
606.771	30145.92
607.128	30242.64
607.485	30556.53
607.843	30740.25
608.2	30975.05
608.557	31448.26
608.914	31592.66
609.272	32036.94
609.629	32280.32
609.986	32602.8
610.343	32615
610.7	33098.16
611.057	33217.02
611.414	33355.1
611.771	33604.58
612.127	34022.2
612.484	34158.24
612.841	34377.44
613.198	34469.87
613.554	34632.13
613.911	35029.18
614.267	35154.82
614.624	35373.8
614.98	35554.59
615.337	35894.01
615.693	36010.85
616.05	36173.78
616.406	36531.06
616.762	36426.66
617.118	36685.86
617.475	36750.71
617.831	37111.83
618.187	37173.75
618.543	37369.23
618.899	37770.35
619.255	37762.89
619.611	37868.65
619.967	38145.25
620.323	38322.2
620.678	38156.78
621.034	38352.71
621.39	38530.33
621.746	38439.26
622.101	39179.8
622.457	38871.79
622.812	39081.27
623.168	39183.42
623.523	39294.15
623.879	39430.87
624.234	39312.68
624.589	39550.64
624.945	39722.39
625.3	39801.48
625.655	39818.2
626.01	39948.14
626.365	39912.44
626.72	40059.55
627.075	40027.24
627.43	40215.03
627.785	40133.9
628.14	40385.2
628.495	40400.56
628.85	40576.15
629.205	40394.69
629.559	40598.75
629.914	40417.96
630.269	40639.65
630.623	40504.97
630.978	40724.85
631.332	40787.44
631.687	40957.84
632.041	40849.59
632.396	41017.04
632.75	40889.36
633.104	41002.58
633.459	40796.26
633.813	40760.78
634.167	41052.75
634.521	40888.91
634.875	41028.57
635.229	41054.1
635.583	40918.51
635.937	40940.89
636.291	41065.4
636.645	40992.64
636.999	40913.32
637.352	41184.27
637.706	40876.26
638.06	41099.53
638.413	41000.77
638.767	40962.13
639.121	40968.91
639.474	40744.28
639.828	40827.9
640.181	40780.44
640.534	41002.13
640.888	40844.39
641.241	40750.38
641.594	40863.37
641.947	40886.65
642.301	40776.37
642.654	40966.42
643.007	40973.88
643.36	40838.06
643.713	40783.15
644.066	40982.92
644.419	40743.83
644.771	40613.21
645.124	40216.39
645.477	40170.96
645.83	40007.13
646.182	39829.96
646.535	39768.04
646.888	39727.36
647.24	39516.97
647.593	39771.65
647.945	39740.47
648.298	39565.33
648.65	39604.2
649.002	39481.26
649.355	39698.89
649.707	39680.58
650.059	39796.28
650.411	40243.96
650.763	40303.16
651.115	40710.61
651.467	40490.05
651.819	40573.89
652.171	40416.83
652.523	40471.29
652.875	40337.06
653.227	40266.78
653.578	40440.56
653.93	40462.26
654.282	40255.48
654.633	40328.02
654.985	40375.7
655.337	40336.61
655.688	40296.84
656.039	40481.24
656.391	40102.26
656.742	40145.2
657.094	40255.48
657.445	40389.49
657.796	40278.76
658.147	40282.37
658.498	40130.74
658.849	40277.85
659.2	40162.83
659.551	40158.08
659.902	40182.04
660.253	40141.13
660.604	40239.44
660.955	40050.97
661.306	40254.35
661.656	40110.17
662.007	40136.39
662.358	40110.63
662.708	40356.72
663.059	39985.21
663.409	39857.98
663.76	40144.3
664.11	40056.16
664.461	40287.12
664.811	40213.9
665.161	40085.09
665.511	39958.09
665.862	40000.12
666.212	40109.5
666.562	40128.7
666.912	40011.42
667.262	40087.8
667.612	39994.47
667.962	40055.49
668.312	40060.91
668.662	40177.52
669.011	40076.05
669.361	40017.07
669.711	39911.76
670.06	39899.11
670.41	39836.96
670.76	39803.06
671.109	40018.88
671.459	39864.3
671.808	39880.58
672.157	39991.53
672.507	39707.47
672.856	39762.61
673.205	39871.08
673.554	39951.08
673.904	39900.46
674.253	39975.26
674.602	39952.89
674.951	39232.91
675.3	39054.38
675.649	39676.06
675.998	39686.46
676.346	39631.99
676.695	39830.18
677.044	39384.32
677.393	39610.75
677.741	39662.5
678.09	39474.94
678.438	39416.63
678.787	39559.23
679.135	39490.76
679.484	39219.12
679.832	39433.81
680.181	39262.74
680.529	39161.5
680.877	39226.81
681.225	39047.15
681.573	39312
681.922	39044.67
682.27	38945.46
682.618	39067.49
682.966	38914.5
683.314	39076.3
683.661	38876.08
684.009	38743.88
684.357	38765.58
684.705	38552.02
685.053	38669.76
685.4	38513.38
685.748	38394.29
686.095	38458.47
686.443	38317
686.79	38208.3
687.138	38345.7
687.485	38427.73
687.832	38191.81
688.18	38183.67
688.527	37901.42
688.874	37868.43
689.221	37890.57
689.568	37783
689.915	37760.41
690.262	37718.37
690.609	37584.14
690.956	37547.76
691.303	37507.53
691.65	37210.59
691.997	37342.56
692.344	37036.36
692.69	37075.23
693.037	36927.43
693.383	36779.64
693.73	36809.7
694.077	36665.97
694.423	36730.6
694.769	36598.63
695.116	36552.75
695.462	36538.06
695.808	36370.84
696.155	36361.8
696.501	36218.53
696.847	36203.61
697.193	35788.48
697.539	36082.26
697.885	35707.58
698.231	35641.14
698.577	35643.17
698.923	35591.2
699.269	35401.82
699.614	35332.45
699.96	35183.52
700.306	35136.07
700.651	35074.15
700.997	35014.26
701.342	34871.67
701.688	34988.27
702.033	34778.11
702.379	34983.53
702.724	34718
703.069	34714.61
703.415	34268.07
703.76	34419.25
704.105	34309.65
704.45	34306.94
704.795	34116.89
705.14	34043.67
705.485	33988.53
705.83	33824.24
706.175	33908.08
706.52	33795.54
706.865	33605.71
707.209	33688.87
707.554	33511.48
707.899	33613.17
708.243	33323.23
708.588	33223.8
708.932	33078.04
709.277	33151.26
709.621	33121.66
709.966	33032.17
710.31	33120.98
710.654	32647.55
710.998	32862
711.342	32763.93
711.687	32646.87
712.031	32475.57
712.375	32469.25
712.719	32477.61
713.063	32437.83
713.407	32412.98
713.75	32258.18
714.094	32303.83
714.438	32125.98
714.782	32269.48
715.125	32000.78
715.469	31977.73
715.812	31963.04
716.156	31827.68
716.499	31753.78
716.843	31846.66
717.186	31722.15
717.53	31857.06
717.873	31666.55
718.216	31658.87
718.559	31522.15
718.902	31316.28
719.246	31453.45
719.589	31227.24
719.932	31238.99
720.275	31146.57
720.617	31217.07
720.96	31071.54
721.303	30985.22
721.646	31015.95
721.989	30835.84
722.331	30960.58
722.674	30902.96
723.016	30803.3
723.359	30655.06
723.701	30823.64
724.044	30570.76
724.386	30404.44
724.729	30696.41
725.071	30443.76
725.413	30473.59
725.755	30340.49
726.097	30161.51
726.439	30120.83
726.782	30156.31
727.124	30204.22
727.465	30103.66
727.807	30115.41
728.149	30145.46
728.491	29922.19
728.833	30033.6
729.175	29911.12
729.516	29853.49
729.858	29770.79
730.199	29813.04
730.541	29901.18
730.882	29835.19
731.224	29751.35
731.565	29626.16
731.906	29665.93
732.248	29695.31
732.589	29426.16
732.93	29398.59
733.271	29549.77
733.612	29406.95
733.953	29449.44
734.294	29278.14
734.635	29245.15
734.976	29248.54
735.317	29093.29
735.658	29149.56
735.999	29155.21
736.339	29044.7
736.68	29254.64
737.021	29120.18
737.361	28930.13
737.702	28990.47
738.042	28896.68
738.383	28805.84
738.723	28912.95
739.063	28660.31
739.404	28864.59
739.744	28726.97
740.084	28634.09
740.424	28728.1
740.764	28580.99
741.104	28722.68
741.444	28484.94
741.784	28389.8
742.124	28472.97
742.464	28355.23
742.804	28331.05
743.143	28300.99
743.483	28409.01
743.823	28257.6
744.162	28140.55
744.502	28125.63
744.841	28020.32
745.181	28220.09
745.52	27932.19
745.86	28094.67
746.199	27991.4
746.538	28085.18
746.877	28176.93
747.216	28049.7
747.556	27951.4
747.895	27917.05
748.234	27805.86
748.573	27662.14
748.911	27767.9
749.25	27755.7
749.589	27652.87
749.928	27615.59
750.267	27629.15
750.605	27584.18
750.944	27379.66
751.283	27313.45
751.621	27526.55
751.96	27409.04
752.298	27265.31
752.636	27305.99
752.975	27193.45
753.313	27161.59
753.651	27278.87
753.989	27018.77
754.327	26863.06
754.666	26866.68
755.004	26982.38
755.342	26949.39
755.679	26943.74
756.017	26741.94
756.355	26808.83
756.693	26616.74
757.031	26647.7
757.368	26468.95
757.706	26434.6
758.044	26450.42
758.381	26380.37
758.719	26361.61
759.056	26443.87
759.394	26307.15
759.731	26132.01
760.068	26135.85
760.405	25907.61
