Data from hue_270_FLMS001491_00057.txt Node
Date: Tue Feb 07 15:57:23 GMT 2017
User: dcchb
Spectrometer: FLMS00149
Trigger mode: 0
Integration Time (sec): 2.000000E-2
Scans to average: 10
Electric dark correction enabled: true
Nonlinearity correction enabled: false
Boxcar width: 0
XAxis mode: Wavelengths
Number of Pixels in Spectrum: 2048
>>>>>Begin Spectral Data<<<<<
341.393	-22.61
341.776	-22.61
342.16	-22.61
342.543	-57.87
342.927	-56.06
343.31	-69.62
343.693	-71.88
344.077	-57.87
344.46	-70.29
344.843	-56.51
345.226	-46.34
345.61	-33.91
345.993	-7.7
346.376	-10.64
346.759	5.18
347.142	27.1
347.525	66.88
347.908	54.45
348.291	77.05
348.674	91.06
349.057	103.03
349.44	123.15
349.823	130.38
350.206	172.86
350.588	174.44
350.971	183.94
351.354	211.05
351.737	223.26
352.119	238.62
352.502	239.98
352.884	256.02
353.267	263.93
353.65	281.33
354.032	289.47
354.414	296.48
354.797	296.93
355.179	293.54
355.562	309.13
355.944	316.14
356.326	313.65
356.709	336.02
357.091	332.41
357.473	333.76
357.855	332.18
358.238	318.62
358.62	311.16
359.002	321.56
359.384	329.24
359.766	325.63
360.148	314.1
360.53	333.99
360.912	326.3
361.294	318.4
361.676	316.81
362.057	312.97
362.439	300.54
362.821	314.1
363.203	326.08
363.584	294.22
363.966	334.44
364.348	315.23
364.729	315.23
365.111	282.69
365.493	305.06
365.874	302.12
366.256	292.63
366.637	301.22
367.019	302.8
367.4	298.06
367.781	299.86
368.163	305.51
368.544	287.21
368.925	315.23
369.306	310.71
369.688	290.37
370.069	308.68
370.45	306.19
370.831	277.72
371.212	309.13
371.593	310.03
371.974	307.32
372.355	323.59
372.736	288.34
373.117	316.59
373.498	322.46
373.879	300.77
374.26	297.83
374.641	307.32
375.021	295.35
375.402	295.35
375.783	309.13
376.163	307.32
376.544	300.99
376.925	310.94
377.305	315.91
377.686	322.92
378.066	311.39
378.447	319.75
378.827	327.21
379.208	331.28
379.588	324.5
379.968	303.03
380.349	314.78
380.729	313.2
381.109	307.32
381.489	338.73
381.87	328.34
382.25	320.66
382.63	323.37
383.01	329.69
383.39	336.25
383.77	342.8
384.15	322.24
384.53	339.19
384.91	333.31
385.29	365.63
385.67	344.84
386.049	316.14
386.429	348.9
386.809	351.84
387.189	329.69
387.568	375.12
387.948	350.94
388.328	355.91
388.707	377.15
389.087	351.62
389.466	367.21
389.846	350.26
390.225	364.04
390.605	350.03
390.984	373.31
391.363	375.12
391.743	347.32
392.122	358.39
392.501	367.21
392.881	367.66
393.26	363.37
393.639	375.12
394.018	355
394.397	384.61
394.776	373.76
395.155	376.25
395.534	392.74
395.913	355.68
396.292	400.43
396.671	390.48
397.05	389.35
397.429	384.38
397.808	407.66
398.186	402.91
398.565	399.3
398.944	400.43
399.323	406.75
399.701	408.34
400.08	396.81
400.458	389.13
400.837	402.91
401.215	413.53
401.594	424.38
401.972	444.95
402.351	415.34
402.729	434.78
403.107	431.16
403.486	429.81
403.864	444.27
404.242	437.94
404.62	432.29
404.999	441.1
405.377	443.14
405.755	429.13
406.133	483.59
406.511	445.17
406.889	470.03
407.267	464.15
407.645	479.3
408.023	461.89
408.401	491.72
408.779	486.75
409.156	473.65
409.534	494.44
409.912	501.22
410.29	507.09
410.667	519.29
411.045	520.2
411.422	513.19
411.8	529.24
412.178	536.92
412.555	558.16
412.933	557.94
413.31	570.82
413.687	581.89
414.065	577.15
414.442	592.06
414.819	623.02
415.197	591.83
415.574	604.26
415.951	599.07
416.328	627.31
416.705	622.34
417.082	638.84
417.46	650.82
417.837	634.09
418.214	661.21
418.591	666.18
418.967	662.57
419.344	695.56
419.721	680.42
420.098	685.17
420.475	681.55
420.852	710.25
421.228	708.89
421.605	714.09
421.982	718.84
422.358	731.04
422.735	743.02
423.111	753.41
423.488	779.85
423.864	779.17
424.241	792.73
424.617	807.42
424.994	797.71
425.37	807.65
425.746	836.12
426.123	848.78
426.499	842.68
426.875	849.68
427.251	880.87
427.627	885.84
428.003	895.1
428.379	912.96
428.756	935.55
429.132	936.46
429.507	943.01
429.883	938.72
430.259	988.43
430.635	959.06
431.011	971.26
431.387	1004.93
431.763	1033.63
432.138	1027.76
432.514	1032.73
432.89	1048.09
433.265	1074.76
433.641	1080.64
434.016	1117.02
434.392	1108.66
434.767	1160.41
435.143	1160.18
435.518	1153.4
435.894	1160.41
436.269	1189.79
436.644	1196.79
437.02	1204.47
437.395	1203.8
437.77	1248.54
438.145	1291.7
438.52	1270.46
438.895	1322.21
439.271	1321.53
439.646	1358.37
440.021	1348.2
440.395	1377.12
440.77	1345.26
441.145	1384.36
441.52	1409.21
441.895	1394.3
442.27	1437.91
442.645	1458.48
443.019	1469.1
443.394	1476.78
443.769	1474.3
444.143	1443.56
444.518	1492.6
444.892	1477.91
445.267	1517.46
445.641	1532.6
446.016	1512.04
446.39	1559.27
446.764	1566.27
447.139	1554.75
447.513	1552.94
447.887	1591.58
448.262	1562.2
448.636	1571.47
449.01	1616.21
449.384	1610.34
449.758	1628.87
450.132	1645.37
450.506	1678.36
450.88	1674.52
451.254	1644.91
451.628	1703.9
452.002	1716.55
452.376	1721.75
452.75	1744.12
453.123	1740.51
453.497	1756.1
453.871	1746.61
454.244	1822.08
454.618	1820.73
454.992	1838.36
455.365	1831.58
455.739	1887.85
456.112	1898.69
456.486	1885.36
456.859	1914.51
457.232	1931.91
457.606	1933.72
457.979	1965.58
458.352	2034.06
458.725	2025.02
459.099	2016.66
459.472	2041.97
459.845	2059.37
460.218	2106.6
460.591	2116.54
460.964	2084.9
461.337	2185.24
461.71	2173.94
462.083	2211.68
462.456	2191.79
462.829	2225.01
463.201	2224.56
463.574	2260.72
463.947	2295.29
464.32	2327.83
464.692	2347.95
465.065	2371.45
465.438	2409.19
465.81	2413.03
466.183	2463.2
466.555	2511.11
466.928	2467.27
467.3	2491.22
467.672	2533.03
468.045	2591.1
468.417	2588.84
468.789	2601.95
469.161	2634.27
469.534	2671.55
469.906	2711.78
470.278	2727.37
470.65	2728.73
471.022	2776.86
471.394	2805.11
471.766	2880.59
472.138	2909.97
472.51	2935.28
472.882	2931.89
473.253	2985.44
473.625	3025.44
473.997	3095.5
474.369	3072
474.74	3149.06
475.112	3193.57
475.484	3216.17
475.855	3294.14
476.227	3260.47
476.598	3330.52
476.97	3390.41
477.341	3432.44
477.713	3439.44
478.084	3511.31
478.455	3547.92
478.827	3554.47
479.198	3667.23
479.569	3648.25
479.94	3763.95
480.311	3763.73
480.682	3806.89
481.053	3929.15
481.424	3947.9
481.795	3981.12
482.166	4004.85
482.537	4101.8
482.908	4170.5
483.279	4180.21
483.65	4231.29
484.021	4325.3
484.391	4347.89
484.762	4388.12
485.133	4366.42
485.503	4447.1
485.874	4515.12
486.244	4506.76
486.615	4640.09
486.985	4686.64
487.356	4741.1
487.726	4736.58
488.097	4857.94
488.467	4866.52
488.837	4920.08
489.207	4965.96
489.578	5018.84
489.948	5079.85
490.318	5123.69
490.688	5142.22
491.058	5225.16
491.428	5311.94
491.798	5305.84
492.168	5341.54
492.538	5414.98
492.908	5410.92
493.278	5501.31
493.648	5520.97
494.017	5571.36
494.387	5595.54
494.757	5640.52
495.126	5715.32
495.496	5750.57
495.866	5741.53
496.235	5787.4
496.605	5845.03
496.974	5872.37
497.344	5895.42
497.713	5910.79
498.082	5937.68
498.452	5954.18
498.821	5983.56
499.19	6001.41
499.559	6071.46
499.928	6078.47
500.298	6112.14
500.667	6130.9
501.036	6137
501.405	6186.72
501.774	6203.89
502.143	6290.89
502.512	6218.35
502.88	6307.39
503.249	6292.93
503.618	6327.5
503.987	6308.29
504.356	6372.93
504.724	6387.61
505.093	6425.81
505.462	6428.74
505.83	6432.13
506.199	6531.57
506.567	6489.76
506.936	6536.31
507.304	6582.41
507.672	6629.64
508.041	6602.3
508.409	6627.61
508.777	6675.74
509.145	6713.26
509.514	6743.76
509.882	6756.19
510.25	6741.73
510.618	6788.96
510.986	6758.68
511.354	6817.21
511.722	6854.27
512.09	6906.92
512.458	6858.11
512.826	6919.13
513.193	6896.08
513.561	6941.5
513.929	6938.33
514.297	7050.65
514.664	7035.73
515.032	7042.74
515.4	7116.86
515.767	7076.64
516.135	7128.84
516.502	7061.5
516.869	7161.83
517.237	7242.51
517.604	7080.93
517.972	7140.14
518.339	7158.67
518.706	7188.5
519.073	7251.09
519.44	7293.35
519.808	7267.82
520.175	7285.67
520.542	7324.31
520.909	7303.07
521.276	7327.25
521.643	7400.7
522.009	7439.11
522.376	7484.99
522.743	7493.35
523.11	7448.38
523.477	7634.36
523.843	7642.95
524.21	7542.16
524.577	7703.96
524.943	7638.88
525.31	7675.49
525.676	7752.55
526.043	7697.86
526.409	7750.97
526.776	7816.73
527.142	7810.63
527.508	7806.33
527.874	7832.32
528.241	7840.01
528.607	7840.46
528.973	7943.28
529.339	7963.62
529.705	7958.65
530.071	7972.21
530.437	8031.41
530.803	8108.25
531.169	8072.32
531.535	8095.82
531.901	8115.93
532.267	8086.78
532.632	8130.85
532.998	8167.91
533.364	8210.84
533.73	8152.77
534.095	8196.61
534.461	8203.61
534.826	8272.31
535.192	8192.54
535.557	8266.66
535.923	8237.74
536.288	8303.04
536.653	8350.73
537.019	8232.31
537.384	8304.17
537.749	8264.4
538.114	8315.7
538.479	8317.06
538.845	8390.27
539.21	8280.67
539.575	8366.55
539.94	8384.4
540.305	8397.05
540.67	8380.56
541.034	8390.27
541.399	8407.67
541.764	8428.46
542.129	8407.67
542.494	8430.95
542.858	8492.19
543.223	8398.41
543.587	8472.31
543.952	8472.31
544.316	8437.5
544.681	8482.02
545.045	8534
545.41	8496.26
545.774	8565.18
546.138	8539.2
546.503	8574
546.867	8566.77
547.231	8643.6
547.595	8629.14
547.959	8619.42
548.324	8606.54
548.688	8590.49
549.052	8624.84
549.416	8617.84
549.779	8639.76
550.143	8624.17
550.507	8703.26
550.871	8718.4
551.235	8650.83
551.599	8741.68
551.962	8765.86
552.326	8785.52
552.689	8743.94
553.053	8720.89
553.417	8709.81
553.78	8806.53
554.143	8767.89
554.507	8818.29
554.87	8809.02
555.234	8943.93
555.597	8814.67
555.96	8783.26
556.323	8874.33
556.686	8865.06
557.05	8885.18
557.413	8993.65
557.776	8964.72
558.139	9035
558.502	9028
558.865	9040.65
559.228	9046.98
559.59	9090.37
559.953	9070.03
560.316	9207.43
560.679	9206.52
561.041	9170.14
561.404	9211.27
561.767	9246.52
562.129	9243.58
562.492	9310.93
562.854	9312.06
563.217	9289.46
563.579	9374.2
563.941	9399.96
564.304	9377.37
564.666	9433.64
565.028	9518.15
565.39	9493.07
565.753	9528.55
566.115	9574.2
566.477	9616.46
566.839	9644.93
567.201	9642.44
567.563	9701.88
567.925	9662.1
568.287	9690.58
568.648	9727.64
569.01	9776.23
569.372	9769.45
569.734	9793.4
570.095	9923.57
570.457	9928.99
570.819	9901.19
571.18	9925.37
571.542	9922.89
571.903	9999.5
572.265	10050.57
572.626	10087.63
572.987	10072.72
573.349	10129.89
573.71	10139.83
574.071	10229.77
574.432	10287.17
574.794	10334.86
575.155	10270
575.516	10327.85
575.877	10306.61
576.238	10408.53
576.599	10448.52
576.96	10463.21
577.32	10417.11
577.681	10511.12
578.042	10577.33
578.403	10595.41
578.763	10575.3
579.124	10597.22
579.485	10731.68
579.845	10692.36
580.206	10671.8
580.566	10721.74
580.927	10776.2
581.287	10804.45
581.648	10833.83
582.008	10799.02
582.368	10882.86
582.728	10953.6
583.089	10881.96
583.449	10935.29
583.809	11001.96
584.169	11014.61
584.529	11048.73
584.889	11206.24
585.249	11123.76
585.609	11084.67
585.969	11178.67
586.329	11170.54
586.688	11195.17
587.048	11130.09
587.408	11253.25
587.768	11239.01
588.127	11216.87
588.487	11289.18
588.846	11418.22
589.206	11253.25
589.565	11434.71
589.925	11388.39
590.284	11439.91
590.643	11550.87
591.003	11518.1
591.362	11527.82
591.721	11503.41
592.08	11628.38
592.44	11668.38
592.799	11610.53
593.158	11671.32
593.517	11649.17
593.876	11689.62
594.235	11666.35
594.593	11783.4
594.952	11749.06
595.311	11727.14
595.67	11684.2
596.029	11884.42
596.387	11813.69
596.746	11927.58
597.104	11896.85
597.463	11961.25
597.822	11868.6
598.18	11923.74
598.538	11942.72
598.897	11954.02
599.255	11951.08
599.613	12036.73
599.972	12031.31
600.33	12068.82
600.688	11995.15
601.046	12105.88
601.404	12135.49
601.762	12094.58
602.12	12169.61
602.478	12171.42
602.836	12185.65
603.194	12119.22
603.552	12168.48
603.91	12131.42
604.268	12130.51
604.625	12248.93
604.983	12226.33
605.341	12222.26
605.698	12262.49
606.056	12329.38
606.413	12279.44
606.771	12286.22
607.128	12318.53
607.485	12315.59
607.843	12309.72
608.2	12366.89
608.557	12365.31
608.914	12304.3
609.272	12388.13
609.629	12505.42
609.986	12488.25
610.343	12441.01
610.7	12499.32
611.057	12529.6
611.414	12568.02
611.771	12500.45
612.127	12583.61
612.484	12438.98
612.841	12614.34
613.198	12576.83
613.554	12607.11
613.911	12633.78
614.267	12619.99
614.624	12567.57
614.98	12603.5
615.337	12724.62
615.693	12728.24
616.05	12617.06
616.406	12770.72
616.762	12637.85
617.118	12759.88
617.475	12676.71
617.831	12773.89
618.187	12700.22
618.543	12761.46
618.899	12784.51
619.255	12769.82
619.611	12792.64
619.967	12822.02
620.323	12836.94
620.678	12790.61
621.034	12800.1
621.39	12746.32
621.746	12853.43
622.101	12919.65
622.457	12837.39
622.812	12756.26
623.168	12843.26
623.523	12847.33
623.879	12910.38
624.234	12827.67
624.589	12895.92
624.945	12889.14
625.3	12898.63
625.655	12909.02
626.01	12827.22
626.365	12855.47
626.72	12858.18
627.075	12789.25
627.43	12882.81
627.785	12826.32
628.14	12812.98
628.495	12790.38
628.85	12801.68
629.205	12845.07
629.559	12893.21
629.914	12843.26
630.269	12812.98
630.623	12784.73
630.978	12765.3
631.332	12757.16
631.687	12808.69
632.041	12754.23
632.396	12756.94
632.75	12701.12
633.104	12744.96
633.459	12614.8
633.813	12619.77
634.167	12556.27
634.521	12623.16
634.875	12695.7
635.229	12669.71
635.583	12630.84
635.937	12622.7
636.291	12495.25
636.645	12558.07
636.999	12553.78
637.352	12516.49
637.706	12452.99
638.06	12496.83
638.413	12490.05
638.767	12429.72
639.121	12563.05
639.474	12434.91
639.828	12477.62
640.181	12366.89
640.534	12424.52
640.888	12370.51
641.241	12290.96
641.594	12320.57
641.947	12483.05
642.301	12324.86
642.654	12394.24
643.007	12406.44
643.36	12332.77
643.713	12287.8
644.066	12362.15
644.419	12354.92
644.771	12252.09
645.124	12122.6
645.477	12093
645.83	12053
646.182	11931.2
646.535	11945.66
646.888	11905.44
647.24	11794.93
647.593	11878.09
647.945	11838.32
648.298	11887.13
648.65	11839.22
649.002	11820.69
649.355	11795.38
649.707	11831.09
650.059	11873.12
650.411	12071.53
650.763	12034.7
651.115	12212.77
651.467	12222.72
651.819	12144.3
652.171	12086
652.523	12056.17
652.875	12086.9
653.227	12050.06
653.578	12108.82
653.93	12040.57
654.282	12040.35
654.633	12032.89
654.985	12013
655.337	12085.32
655.688	12079.89
656.039	12134.81
656.391	11967.58
656.742	12020.91
657.094	12094.13
657.445	12102.27
657.796	12067.92
658.147	12044.41
658.498	12109.27
658.849	12098.42
659.2	12049.61
659.551	12007.13
659.902	12107.46
660.253	12008.94
660.604	12039.44
660.955	12147.69
661.306	12097.97
661.656	12065.88
662.007	12031.08
662.358	12123.96
662.708	12047.58
663.059	12060.01
663.409	12068.37
663.76	12154.92
664.11	12126.9
664.461	12122.83
664.811	12115.83
665.161	12062.95
665.511	12076.05
665.862	12076.05
666.212	12071.76
666.562	12163.06
666.912	12106.56
667.262	12055.71
667.612	12058.43
667.962	12062.04
668.312	12039.22
668.662	12094.58
669.011	12064.75
669.361	12054.13
669.711	12053.91
670.06	12018.43
670.41	12000.35
670.76	12030.86
671.109	12054.81
671.459	12035.15
671.808	12028.14
672.157	12034.7
672.507	11966
672.856	11930.75
673.205	12041.03
673.554	12022.27
673.904	11952.44
674.253	12038.31
674.602	11937.98
674.951	11804.2
675.3	11724.2
675.649	11890.07
675.998	11936.17
676.346	11902.5
676.695	11915.15
677.044	11857.3
677.393	11893.46
677.741	11888.26
678.09	11786.79
678.438	11844.19
678.787	11732.78
679.135	11813.46
679.484	11767.36
679.832	11747.25
680.181	11691.43
680.529	11699.79
680.877	11712.67
681.225	11613.47
681.573	11721.71
681.922	11615.5
682.27	11573.24
682.618	11595.16
682.966	11603.75
683.314	11579.34
683.661	11559.91
684.009	11524.88
684.357	11559.23
684.705	11491.44
685.053	11413.02
685.4	11422.28
685.748	11316.3
686.095	11342.51
686.443	11320.82
686.79	11282.85
687.138	11281.95
687.485	11329.86
687.832	11187.04
688.18	11252.35
688.527	11196.75
688.874	11175.51
689.221	11246.47
689.568	11107.49
689.915	11068.17
690.262	11080.82
690.609	11051.45
690.956	11053.03
691.303	10943.43
691.65	10975.74
691.997	10921.51
692.344	10794.96
692.69	10815.29
693.037	10794.73
693.383	10740.27
693.73	10742.3
694.077	10703.66
694.423	10698.01
694.769	10634.73
695.116	10535.3
695.462	10606.71
695.808	10539.14
696.155	10534.62
696.501	10467.73
696.847	10479.26
697.193	10405.81
697.539	10329.43
697.885	10371.46
698.231	10289.88
698.577	10258.93
698.923	10298.47
699.269	10208.31
699.614	10139.38
699.96	10176.22
700.306	10095.09
700.651	10057.35
700.997	10028.65
701.342	9987.29
701.688	9952.94
702.033	9914.98
702.379	9909.33
702.724	9905.94
703.069	9872.27
703.415	9841.76
703.76	9768.54
704.105	9755.89
704.45	9679.05
704.795	9654.42
705.14	9622.78
705.485	9635.66
705.83	9558.83
706.175	9629.11
706.52	9538.04
706.865	9557.47
707.209	9513.18
707.554	9505.05
707.899	9461.21
708.243	9459.4
708.588	9343.24
708.932	9301.21
709.277	9391.83
709.621	9385.73
709.966	9339.18
710.31	9343.47
710.654	9193.19
710.998	9210.82
711.342	9217.37
711.687	9246.97
712.031	9174.43
712.375	9111.84
712.719	9128.11
713.063	9140.99
713.407	9193.64
713.75	9100.76
714.094	9089.92
714.438	9023.93
714.782	9117.26
715.125	9015.34
715.469	9056.92
715.812	8943.48
716.156	8958.85
716.499	8957.49
716.843	8944.61
717.186	8855.35
717.53	8917.72
717.873	8936.25
718.216	8896.48
718.559	8839.98
718.902	8752.3
719.246	8803.82
719.589	8762.47
719.932	8798.17
720.275	8699.87
720.617	8731.51
720.96	8735.12
721.303	8743.94
721.646	8743.26
721.989	8780.09
722.331	8811.73
722.674	8690.38
723.016	8670.04
723.359	8704.62
723.701	8648.8
724.044	8595.92
724.386	8628.23
724.729	8640.66
725.071	8630.27
725.413	8648.12
725.755	8623.49
726.097	8554.79
726.439	8562.47
726.782	8542.59
727.124	8570.83
727.465	8527.9
727.807	8549.82
728.149	8559.08
728.491	8508.01
728.833	8518.41
729.175	8555.69
729.516	8536.03
729.858	8497.84
730.199	8543.49
730.541	8471.4
730.882	8502.36
731.224	8440.44
731.565	8381.69
731.906	8527.67
732.248	8566.54
732.589	8433.21
732.93	8424.17
733.271	8439.99
733.612	8476.6
733.953	8466.43
734.294	8429.14
734.635	8401.8
734.976	8433.89
735.317	8399.31
735.658	8323.83
735.999	8420.56
736.339	8390.05
736.68	8402.7
737.021	8448.58
737.361	8369.26
737.702	8482.93
738.042	8406.54
738.383	8363.16
738.723	8467.56
739.063	8433.44
739.404	8482.93
739.744	8461.68
740.084	8494.68
740.424	8444.51
740.764	8438.18
741.104	8506.88
741.444	8437.05
741.784	8509.14
742.124	8435.24
742.464	8489.71
742.804	8519.08
743.143	8536.94
743.483	8601.12
743.823	8483.6
744.162	8522.02
744.502	8620.32
744.841	8598.18
745.181	8604.28
745.52	8603.6
745.86	8696.48
746.199	8629.36
746.538	8677.5
746.877	8747.33
747.216	8800.66
747.556	8822.13
747.895	8923.14
748.234	8944.38
748.573	8927.21
748.911	8970.82
749.25	9042.46
749.589	9020.99
749.928	9132.63
750.267	9184.38
750.605	9229.12
750.944	9258.73
751.283	9358.61
751.621	9450.58
751.96	9553.41
752.298	9623.01
752.636	9662.1
752.975	9668.88
753.313	9706.62
753.651	9951.59
753.989	9895.54
754.327	10073.62
754.666	10087.86
755.004	10241.98
755.342	10325.59
755.679	10431.8
756.017	10501.63
756.355	10680.61
756.693	10657.33
757.031	10926.03
757.368	10930.32
757.706	11137.77
758.044	11209.86
758.381	11405.79
758.719	11483.3
759.056	11698.21
759.394	11744.76
759.731	11861.37
760.068	12048.03
760.405	12185.2
760.743	12340.9
761.08	12456.38
761.417	12574.8
761.754	12676.26
762.091	12921.91
