Data from hue_26_FLMS001491_00080.txt Node
Date: Tue Feb 07 17:14:31 GMT 2017
User: dcchb
Spectrometer: FLMS00149
Trigger mode: 0
Integration Time (sec): 2.000000E-2
Scans to average: 10
Electric dark correction enabled: true
Nonlinearity correction enabled: false
Boxcar width: 0
XAxis mode: Wavelengths
Number of Pixels in Spectrum: 2048
>>>>>Begin Spectral Data<<<<<
341.393	-25.28
341.776	-25.28
342.16	-25.28
342.543	-42.68
342.927	-56.02
343.31	-61.21
343.693	-58.73
344.077	-70.48
344.46	-66.18
344.843	-35.23
345.226	-36.81
345.61	-37.94
345.993	-23.7
346.376	-12.17
346.759	12.01
347.142	23.3
347.525	44.32
347.908	67.6
348.291	75.51
348.674	82.96
349.057	96.75
349.44	136.52
349.823	152.57
350.206	174.71
350.588	207.48
350.971	221.49
351.354	217.2
351.737	250.19
352.119	251.32
352.502	281.83
352.884	280.02
353.267	278.21
353.65	301.49
354.032	279.79
354.414	309.62
354.797	312.34
355.179	302.85
355.562	318.44
355.944	310.3
356.326	322.05
356.709	346.23
357.091	348.49
357.473	356.18
357.855	347.36
358.238	361.37
358.62	364.31
359.002	353.24
359.384	339.91
359.766	331.54
360.148	323.18
360.53	333.35
360.912	346.01
361.294	334.26
361.676	329.96
362.057	315.95
362.439	312.79
362.821	324.54
363.203	309.85
363.584	313.01
363.966	328.16
364.348	334.93
364.729	315.95
365.111	317.76
365.493	312.79
365.874	335.39
366.256	326.35
366.637	324.09
367.019	321.6
367.4	301.72
367.781	298.33
368.163	308.72
368.544	300.59
368.925	289.74
369.306	327.03
369.688	306.01
370.069	319.12
370.45	316.4
370.831	322.28
371.212	307.59
371.593	325.44
371.974	316.86
372.355	297.65
372.736	316.86
373.117	318.66
373.498	331.09
373.879	311.21
374.26	314.82
374.641	311.21
375.021	308.95
375.402	331.32
375.783	307.82
376.163	355.5
376.544	322.28
376.925	343.97
377.305	307.59
377.686	324.09
378.066	322.51
378.447	326.12
378.827	326.35
379.208	345.1
379.588	333.13
379.968	341.04
380.349	348.72
380.729	333.35
381.109	305.33
381.489	344.2
381.87	339.23
382.25	324.54
382.63	329.96
383.01	340.13
383.39	346.46
383.77	347.59
384.15	324.09
384.53	347.36
384.91	330.64
385.29	340.58
385.67	322.51
386.049	344.65
386.429	372.9
386.809	340.58
387.189	362.73
387.568	342.39
387.948	358.89
388.328	375.61
388.707	362.28
389.087	358.89
389.466	359.57
389.846	341.94
390.225	364.09
390.605	366.57
390.984	380.13
391.363	372.67
391.743	374.26
392.122	373.13
392.501	363.86
392.881	379.91
393.26	393.24
393.639	381.94
394.018	395.72
394.397	362.28
394.776	372.9
395.155	370.41
395.534	377.65
395.913	386.01
396.292	360.24
396.671	385.55
397.05	389.85
397.429	377.19
397.808	390.98
398.186	375.39
398.565	386.91
398.944	374.71
399.323	376.06
399.701	404.31
400.08	381.26
400.458	392.33
400.837	393.24
401.215	396.85
401.594	409.06
401.972	395.27
402.351	396.18
402.729	410.41
403.107	394.37
403.486	425.55
403.864	421.49
404.242	424.65
404.62	401.83
404.999	410.41
405.377	422.16
405.755	433.01
406.133	411.54
406.511	428.72
406.889	442.05
407.267	432.33
407.645	456.51
408.023	433.92
408.401	447.02
408.779	442.28
409.156	428.04
409.534	461.49
409.912	416.51
410.29	437.98
410.667	460.58
411.045	466.68
411.422	459.45
411.8	466.68
412.178	441.15
412.555	454.48
412.933	463.74
413.31	491.77
413.687	467.81
414.065	478.43
414.442	488.15
414.819	500.81
415.197	468.94
415.574	491.09
415.951	489.51
416.328	495.16
416.705	496.29
417.082	503.07
417.46	483.41
417.837	506.46
418.214	489.28
418.591	516.85
418.967	514.14
419.344	505.1
419.721	532.9
420.098	517.53
420.475	502.61
420.852	521.37
421.228	524.31
421.605	529.05
421.982	515.27
422.358	549.17
422.735	539
423.111	536.29
423.488	513.69
423.864	530.18
424.241	548.94
424.617	562.05
424.994	552.78
425.37	557.08
425.746	550.3
426.123	573.57
426.499	583.97
426.875	590.97
427.251	604.53
427.627	589.17
428.003	588.49
428.379	600.69
428.756	602.05
429.132	599.79
429.507	598.2
429.883	602.95
430.259	619.67
430.635	603.63
431.011	619
431.387	629.16
431.763	627.36
432.138	640.46
432.514	632.55
432.89	642.5
433.265	653.8
433.641	653.8
434.016	663.74
434.392	689.5
434.767	680.69
435.143	691.31
435.518	681.59
435.894	680.24
436.269	684.76
436.644	684.3
437.02	705.09
437.395	716.17
437.77	726.79
438.145	729.73
438.52	715.72
438.895	731.99
439.271	708.26
439.646	740.12
440.021	752.55
440.395	734.02
440.77	752.55
441.145	731.31
441.52	748.48
441.895	750.97
442.27	769.5
442.645	799.78
443.019	768.37
443.394	776.28
443.769	785.09
444.143	795.26
444.518	792.78
444.892	806.11
445.267	803.4
445.641	807.69
446.016	818.31
446.39	805.43
446.764	808.37
447.139	809.05
447.513	815.83
447.887	833.68
448.262	847.92
448.636	810.63
449.01	828.03
449.384	863.51
449.758	857.63
450.132	870.97
450.506	849.27
450.88	869.61
451.254	834.36
451.628	877.97
452.002	889.5
452.376	900.34
452.75	914.81
453.123	914.81
453.497	910.06
453.871	938.99
454.244	934.92
454.618	937.86
454.992	964.97
455.365	968.59
455.739	975.14
456.112	973.34
456.486	934.92
456.859	1017.85
457.232	987.57
457.606	1011.98
457.979	1029.83
458.352	1019.44
458.725	1009.27
459.099	1063.05
459.472	1076.84
459.845	1085.2
460.218	1079.55
460.591	1095.82
460.964	1103.28
461.337	1123.39
461.71	1152.09
462.083	1134.91
462.456	1152.54
462.829	1163.39
463.201	1190.96
463.574	1168.81
463.947	1195.93
464.32	1216.72
464.692	1209.49
465.065	1226.66
465.438	1255.59
465.81	1260.56
466.183	1279.09
466.555	1299.88
466.928	1332.65
467.3	1323.84
467.672	1316.38
468.045	1321.35
468.417	1363.61
468.789	1349.37
469.161	1372.87
469.534	1432.53
469.906	1439.99
470.278	1469.14
470.65	1464.85
471.022	1507.56
471.394	1535.58
471.766	1531.06
472.138	1545.52
472.51	1576.71
472.882	1611.96
473.253	1633.21
473.625	1641.34
473.997	1694.67
474.369	1693.77
474.74	1710.49
475.112	1766.76
475.484	1786.42
475.855	1817.38
476.227	1803.6
476.598	1890.83
476.97	1897.15
477.341	1944.61
477.713	1966.98
478.084	1983.25
478.455	2028.68
478.827	2063.7
479.198	2144.6
479.569	2119.97
479.94	2187.09
480.311	2237.48
480.682	2262.34
481.053	2318.84
481.424	2361.32
481.795	2390.25
482.166	2427.76
482.537	2490.13
482.908	2528.1
483.279	2576.23
483.65	2622.11
484.021	2667.53
484.391	2747.98
484.762	2772.61
485.133	2794.98
485.503	2861.2
485.874	2922.89
486.244	2945.49
486.615	3002.21
486.985	3078.14
487.356	3087.63
487.726	3145.03
488.097	3201.07
488.467	3280.85
488.837	3295.99
489.207	3375.31
489.578	3388.64
489.948	3442.88
490.318	3511.12
490.688	3589.31
491.058	3597.45
491.428	3681.74
491.798	3710.44
492.168	3801.06
492.538	3818.91
492.908	3834.28
493.278	3922.41
493.648	3949.3
494.017	4013.93
494.387	4031.79
494.757	4051.22
495.126	4121.05
495.496	4115.17
495.866	4169.18
496.235	4246.47
496.605	4271.55
496.974	4330.54
497.344	4303.64
497.713	4346.13
498.082	4406.92
498.452	4456.41
498.821	4520.36
499.19	4518.1
499.559	4553.13
499.928	4600.36
500.298	4657.08
500.667	4679.23
501.036	4667.25
501.405	4761.94
501.774	4699.57
502.143	4744.31
502.512	4741.37
502.88	4869.05
503.249	4854.36
503.618	4877.19
503.987	4920.35
504.356	4944.08
504.724	5027.47
505.093	5003.96
505.462	5074.7
505.83	5083.06
506.199	5073.12
506.567	5099.78
506.936	5204.86
507.304	5263.39
507.672	5196.95
508.041	5301.81
508.409	5297.97
508.777	5336.61
509.145	5410.73
509.514	5334.8
509.882	5390.39
510.25	5390.17
510.618	5465.2
510.986	5517.4
511.354	5499.09
511.722	5540.67
512.09	5586.77
512.458	5573.22
512.826	5662.7
513.193	5636.26
513.561	5715.81
513.929	5715.81
514.297	5745.64
514.664	5749.03
515.032	5777.05
515.4	5831.97
515.767	5815.24
516.135	5867.9
516.502	5807.33
516.869	5890.72
517.237	5962.13
517.604	5924.84
517.972	6007.78
518.339	6028.34
518.706	6019.31
519.073	6045.29
519.44	6023.6
519.808	6071.51
520.175	6146.76
520.542	6159.64
520.909	6195.8
521.276	6169.81
521.643	6212.29
522.009	6256.59
522.376	6287.09
522.743	6328
523.11	6395.79
523.477	6391.5
523.843	6417.94
524.21	6484.15
524.577	6566.64
524.943	6584.94
525.31	6571.15
525.676	6592.17
526.043	6620.19
526.409	6698.16
526.776	6797.36
527.142	6786.97
527.508	6807.08
527.874	6879.85
528.241	6873.07
528.607	6843.46
528.973	6978.15
529.339	6959.17
529.705	7046.62
530.071	7071.93
530.437	7102.67
530.803	7127.3
531.169	7172.95
531.535	7192.83
531.901	7228.09
532.267	7235.54
532.632	7291.14
532.998	7291.59
533.364	7330.01
533.73	7345.82
534.095	7403.45
534.461	7451.36
534.826	7502.43
535.192	7527.74
535.557	7508.31
535.923	7565.48
536.288	7644.12
536.653	7583.11
537.019	7625.14
537.384	7664.01
537.749	7720.5
538.114	7748.98
538.479	7753.04
538.845	7878.24
539.21	7815.87
539.575	7849.77
539.94	7920.5
540.305	7908.97
540.67	7868.75
541.034	7917.56
541.399	8038.91
541.764	8027.16
542.129	8097.44
542.494	8035.52
542.858	8137.67
543.223	8174.5
543.587	8205.69
543.952	8221.28
544.316	8221.28
544.681	8216.31
545.045	8277.1
545.41	8342.18
545.774	8325.01
546.138	8353.93
546.503	8456.53
546.867	8489.07
547.231	8470.54
547.595	8532.46
547.959	8533.59
548.324	8515.28
548.688	8562.29
549.052	8632.12
549.416	8652
549.779	8747.82
550.143	8759.35
550.507	8776.75
550.871	8756.41
551.235	8772.68
551.599	8827.37
551.962	8885.44
552.326	8909.17
552.689	8898.78
553.053	8910.08
553.417	8930.87
553.78	9070.07
554.143	8970.87
554.507	9035.04
554.87	9045.89
555.234	9138.09
555.597	9117.75
555.96	9082.73
556.323	9231.2
556.686	9209.5
557.05	9269.62
557.413	9384.64
557.776	9322.27
558.139	9389.16
558.502	9391.19
558.865	9406.11
559.228	9531.53
559.59	9524.52
559.953	9496.28
560.316	9559.32
560.679	9553.45
561.041	9652.2
561.404	9663.73
561.767	9750.51
562.129	9644.07
562.492	9790.05
562.854	9812.65
563.217	9798.41
563.579	9870.73
563.941	9912.99
564.304	9944.4
564.666	9954.34
565.028	9976.72
565.39	9981.69
565.753	9997.05
566.115	10134.9
566.477	10104.17
566.839	10163.38
567.201	10228.69
567.563	10285.63
567.925	10317.05
568.287	10325.63
568.648	10327.21
569.01	10354.33
569.372	10376.48
569.734	10432.52
570.095	10517.04
570.457	10605.4
570.819	10627.09
571.18	10674.55
571.542	10749.12
571.903	10738.95
572.265	10818.5
572.626	10829.8
572.987	10938.72
573.349	10897.37
573.71	11026.18
574.071	11038.61
574.432	11086.97
574.794	11205.38
575.155	11209.68
575.516	11233.18
575.877	11346.4
576.238	11436.11
576.599	11446.73
576.96	11555.43
577.32	11607.41
577.681	11732.83
578.042	11855.76
578.403	11908.87
578.763	11951.35
579.124	12103.66
579.485	12243.1
579.845	12337.33
580.206	12505.46
580.566	12568.29
580.927	12700.49
581.287	12899.12
581.648	12851.22
582.008	13089.63
582.368	13226.8
582.728	13361.03
583.089	13544.08
583.449	13672.89
583.809	13862.94
584.169	14003.95
584.529	14176.83
584.889	14477.39
585.249	14615.46
585.609	14794.44
585.969	15162.12
586.329	15216.58
586.688	15539.51
587.048	15690.46
587.408	15890.68
587.768	16012.04
588.127	16305.36
588.487	16451.57
588.846	16873.26
589.206	17054.27
589.565	17280.25
589.925	17689.28
590.284	17884.53
590.643	18099.21
591.003	18415.36
591.362	18775.35
591.721	19008.79
592.08	19276.81
592.44	19583.92
592.799	19897.81
593.158	20173.28
593.517	20453.28
593.876	20696.66
594.235	21132.81
594.593	21209.41
594.952	21706.8
595.311	21902.28
595.67	22209.61
596.029	22591.52
596.387	22982.7
596.746	23244.61
597.104	23462.24
597.463	23812.28
597.822	24127.76
598.18	24410.01
598.538	24778.81
598.897	25124.34
599.255	25125.92
599.613	25774.72
599.972	25930.42
600.33	26346.23
600.688	26522.95
601.046	26945.76
601.404	27332.64
601.762	27592.07
602.12	27863.48
602.478	28179.85
602.836	28442.44
603.194	28504.59
603.552	29044.91
603.91	29050.56
604.268	29427.05
604.625	29635.63
604.983	29960.37
605.341	30062.06
605.698	30568.49
606.056	30810.29
606.413	31062.26
606.771	31324.63
607.128	31542.02
607.485	31693.66
607.843	32006.42
608.2	32318.05
608.557	32635.55
608.914	32825.38
609.272	33192.83
609.629	33300.4
609.986	33619.94
610.343	33722.08
610.7	34175.4
611.057	34319.58
611.414	34373.59
611.771	34708.72
612.127	35013.12
612.484	35098.09
612.841	35513.9
613.198	35530.62
613.554	35677.06
613.911	36093.09
614.267	36096.48
614.624	36193.2
614.98	36471.61
615.337	36665.5
615.693	36870.02
616.05	37038.83
616.406	37214.19
616.762	37318.14
617.118	37487.86
617.475	37612.37
617.831	37788.64
618.187	37918.81
618.543	38197.67
618.899	38525.79
619.255	38500.26
619.611	38512.24
619.967	38869.97
620.323	38922.17
620.678	39094.14
621.034	38995.84
621.39	39118.77
621.746	39086.46
622.101	39664.75
622.457	39394.47
622.812	39608.93
623.168	39944.97
623.523	39831.3
623.879	40010.95
624.234	39901.13
624.589	40244.39
624.945	40219.54
625.3	40339.98
625.655	40473.31
626.01	40611.84
626.365	40546.08
626.72	40603.48
627.075	40718.96
627.43	40697.94
627.785	40729.8
628.14	40893.87
628.495	40927.77
628.85	41082.34
629.205	41059.51
629.559	41299.06
629.914	41097.03
630.269	41211.83
630.623	41178.38
630.978	41200.53
631.332	41260.86
631.687	41351.71
632.041	41223.58
632.396	41408.43
632.75	41420.41
633.104	41372.73
633.459	41234.65
633.813	41296.8
634.167	41372.73
634.521	41233.52
634.875	41357.36
635.229	41360.52
635.583	41313.74
635.937	41342.44
636.291	41424.93
636.645	41260.19
636.999	41351.71
637.352	41492.27
637.706	41231.94
638.06	41436.45
638.413	41299.06
638.767	41298.15
639.121	41322.33
639.474	41242.79
639.828	41334.31
640.181	41264.48
640.534	41316.68
640.888	41097.93
641.241	40986.07
641.594	41221.09
641.947	41185.61
642.301	41235.1
642.654	41408.88
643.007	41257.93
643.36	41284.37
643.713	41110.13
644.066	41438.03
644.419	41034.43
644.771	40884.38
645.124	40566.42
645.477	40454.56
645.83	40260.66
646.182	40200.1
646.535	39998.07
646.888	40148.58
647.24	39928.47
647.593	40252.76
647.945	40048.92
648.298	40002.59
648.65	39792.2
649.002	39933.67
649.355	40013.89
649.707	39910.62
650.059	40215.24
650.411	40626.76
650.763	40591.73
651.115	41087.99
651.467	40840.76
651.819	40840.08
652.171	40777.94
652.523	40859.52
652.875	40703.14
653.227	40560.09
653.578	40836.24
653.93	40795.34
654.282	40649.13
654.633	40552.86
654.985	40731.84
655.337	40718.51
655.688	40696.36
656.039	40769.8
656.391	40462.47
656.742	40593.54
657.094	40568.68
657.445	40523.93
657.796	40564.16
658.147	40575.01
658.498	40548.79
658.849	40696.59
659.2	40547.66
659.551	40447.78
659.902	40616.14
660.253	40648.9
660.604	40491.84
660.955	40280.33
661.306	40512.41
661.656	40454.78
662.007	40593.99
662.358	40475.12
662.708	40441.9
663.059	40529.13
663.409	40285.97
663.76	40530.71
664.11	40468.12
664.461	40563.48
664.811	40472.86
665.161	40555.57
665.511	40382.92
665.862	40311.06
666.212	40528
666.562	40550.15
666.912	40379.53
667.262	40488.46
667.612	40438.06
667.962	40498.17
668.312	40361
668.662	40598.51
669.011	40399.19
669.361	40425.86
669.711	40486.42
670.06	40245.3
670.41	40197.84
670.76	40195.13
671.109	40313.09
671.459	40314
671.808	40171.4
672.157	40375.24
672.507	39915.59
672.856	39969.15
673.205	40048.69
673.554	40302.92
673.904	40240.1
674.253	40218.41
674.602	40130.95
674.951	39544.75
675.3	39337.52
675.649	40035.59
675.998	39974.34
676.346	39944.97
676.695	40039.88
677.044	39836.27
677.393	39879.43
677.741	39985.42
678.09	39833.56
678.438	39835.82
678.787	39954.91
679.135	39862.71
679.484	39595.37
679.832	39865.19
680.181	39610.29
680.529	39746.33
680.877	39541.14
681.225	39537.75
681.573	39683.05
681.922	39446.22
682.27	39376.17
682.618	39333.23
682.966	39222.27
683.314	39397.18
683.661	39199.45
684.009	38886.92
684.357	38872.23
684.705	38844.66
685.053	38911.77
685.4	38930.08
685.748	38763.98
686.095	38730.76
686.443	38511.56
686.79	38644.44
687.138	38540.26
687.485	38554.04
687.832	38385.91
688.18	38387.95
688.527	38335.52
688.874	38281.96
689.221	38173.26
689.568	38171.91
689.915	37995.41
690.262	38032.7
690.609	37939.37
690.956	37646.04
691.303	37755.19
691.65	37630.45
691.997	37624.35
692.344	37456.9
692.69	37468.65
693.037	37415.32
693.383	37134.87
693.73	37152.95
694.077	36881.54
694.423	37006.06
694.769	36801.77
695.116	36858.95
695.462	36777.14
695.808	36553.87
696.155	36747.99
696.501	36446.3
696.847	36519.52
697.193	36187.78
697.539	36447.66
697.885	36067.1
698.231	35973.32
698.577	36013.32
698.923	36006.99
699.269	35871.18
699.614	35610.62
699.96	35566.32
700.306	35604.74
700.651	35604.52
700.997	35363.62
701.342	35303.96
701.688	35245.43
702.033	35034.36
702.379	35005.44
702.724	35091.31
703.069	35077.52
703.415	34735.39
703.76	34634.6
704.105	34702.62
704.45	34581.49
704.795	34382.4
705.14	34285.91
705.485	34360.48
705.83	34173.59
706.175	34292.23
706.52	34169.75
706.865	33996.65
707.209	33777.45
707.554	33765.24
707.899	33814.28
708.243	33665.58
708.588	33712.59
708.932	33484.35
709.277	33455.42
709.621	33558.02
709.966	33219.04
710.31	33330.45
710.654	32959.16
710.998	33168.87
711.342	33078.93
711.687	32912.61
712.031	32884.59
712.375	32848.2
712.719	32685.04
713.063	32648.89
713.407	32836.45
713.75	32592.84
714.094	32556.69
714.438	32405.96
714.782	32309.91
715.125	32311.72
715.469	32253.19
715.812	32147.43
716.156	32072.86
716.499	32063.14
716.843	32147.66
717.186	31907.21
717.53	32016.59
717.873	31931.84
718.216	31842.58
718.559	31848.91
718.902	31553.1
719.246	31603.49
719.589	31506.77
719.932	31441.46
720.275	31457.28
720.617	31387.23
720.96	31337.28
721.303	31348.13
721.646	31278.08
721.989	31196.04
722.331	31216.16
722.674	31161.92
723.016	31169.6
723.359	30953.79
723.701	31046.9
724.044	30847.13
724.386	30617.98
724.729	30986.78
725.071	30860.46
725.413	30753.12
725.755	30671.54
726.097	30577.53
726.439	30463.18
726.782	30454.59
727.124	30732.55
727.465	30466.35
727.807	30451.66
728.149	30318.78
728.491	30303.86
728.833	30353.58
729.175	30232.91
729.516	30128.5
729.858	30062.29
730.199	30213.7
730.541	30078.79
730.882	30077.88
731.224	30083.31
731.565	29902.97
731.906	29850.77
732.248	29908.62
732.589	29809.41
732.93	29717.44
733.271	29655.75
733.612	29720.15
733.953	29767.83
734.294	29518.12
734.635	29536.2
734.976	29604.9
735.317	29322.2
735.658	29310.9
735.999	29444.68
736.339	29307.05
736.68	29484.68
737.021	29224.34
737.361	29110.22
737.702	29215.98
738.042	29119.04
738.383	29197.45
738.723	29117
739.063	28945.03
739.404	29049.66
739.744	28996.33
740.084	28887.18
740.424	28993.39
740.764	28851.7
741.104	28951.58
741.444	28896.9
741.784	28721.53
742.124	28763.79
742.464	28701.65
742.804	28782.55
743.143	28496.91
743.483	28606.28
743.823	28404.71
744.162	28404.25
744.502	28426.85
744.841	28385.72
745.181	28497.81
745.52	28362.9
745.86	28411.71
746.199	28349.34
746.538	28197.93
746.877	28277.02
747.216	28134.2
747.556	28145.05
747.895	28209.46
748.234	27963.36
748.573	27964.94
748.911	28029.57
749.25	27888.79
749.589	27969.01
749.928	27862.12
750.267	27818.28
750.605	27768.34
750.944	27726.53
751.283	27651.96
751.621	27643.37
751.96	27486.54
752.298	27690.37
752.636	27558.4
752.975	27476.37
753.313	27371.06
753.651	27456.03
753.989	27247
754.327	27183.27
754.666	27063.05
755.004	27191.86
755.342	27202.48
755.679	27070.28
756.017	27049.26
756.355	27042.71
756.693	26954.57
757.031	27016.49
757.368	26839.55
757.706	26803.62
758.044	26708.7
758.381	26682.49
758.719	26646.33
759.056	26668.71
759.394	26449.28
759.731	26417.19
