Data from hue_00_FLMS001491_20.txt Node
Date: Mon Feb 06 15:29:21 GMT 2017
User: dcchb
Spectrometer: FLMS00149
Trigger mode: 0
Integration Time (sec): 2.000000E-2
Scans to average: 10
Electric dark correction enabled: true
Nonlinearity correction enabled: false
Boxcar width: 0
XAxis mode: Wavelengths
Number of Pixels in Spectrum: 2048
>>>>>Begin Spectral Data<<<<<
341.393	-20.9
341.776	-20.9
342.16	-20.9
342.543	-57.74
342.927	-77.17
343.31	-80.11
343.693	-68.81
344.077	-52.09
344.46	-51.64
344.843	-76.95
345.226	-38.08
345.61	-6.89
345.993	-42.15
346.376	-5.99
346.759	12.32
347.142	34.01
347.525	61.58
347.908	47.8
348.291	71.3
348.674	96.61
349.057	99.09
349.44	121.01
349.823	137.06
350.206	177.06
350.588	190.84
350.971	217.73
351.354	216.15
351.737	237.17
352.119	238.52
352.502	253.89
352.884	252.31
353.267	272.2
353.65	309.26
354.032	306.55
354.414	313.78
354.797	301.12
355.179	307.68
355.562	318.52
355.944	314
356.326	338.41
356.709	329.37
357.091	346.54
357.473	357.39
357.855	360.33
358.238	337.51
358.62	323.49
359.002	340.67
359.384	323.95
359.766	339.77
360.148	328.92
360.53	335.02
360.912	340.22
361.294	324.4
361.676	350.16
362.057	329.82
362.439	311.52
362.821	333.21
363.203	306.09
363.584	301.35
363.966	309.03
364.348	331.18
364.729	324.62
365.111	331.86
365.493	340.44
365.874	316.49
366.256	313.1
366.637	319.65
367.019	341.35
367.4	301.8
367.781	318.75
368.163	302.93
368.544	306.09
368.925	321.23
369.306	288.02
369.688	307
370.069	309.94
370.45	319.65
370.831	293.21
371.212	314
371.593	294.57
371.974	328.01
372.355	301.35
372.736	320.33
373.117	289.6
373.498	304.96
373.879	321.23
374.26	309.71
374.641	310.84
375.021	318.75
375.402	288.92
375.783	338.18
376.163	324.62
376.544	326.43
376.925	300.44
377.305	318.52
377.686	309.71
378.066	336.38
378.447	309.26
378.827	313.33
379.208	316.71
379.588	339.99
379.968	324.4
380.349	340.89
380.729	341.8
381.109	326.43
381.489	327.79
381.87	337.73
382.25	337.28
382.63	331.63
383.01	353.1
383.39	331.63
383.77	333.66
384.15	336.15
384.53	337.28
384.91	334.57
385.29	351.97
385.67	345.64
386.049	334.12
386.429	336.6
386.809	329.37
387.189	335.92
387.568	328.01
387.948	359.43
388.328	361.46
388.707	356.49
389.087	335.02
389.466	362.82
389.846	349.93
390.225	351.29
390.605	342.25
390.984	351.97
391.363	334.57
391.743	339.31
392.122	355.58
392.501	359.2
392.881	366.43
393.26	363.95
393.639	372.98
394.018	360.1
394.397	350.84
394.776	361.69
395.155	373.44
395.534	372.98
395.913	378.41
396.292	380.89
396.671	379.54
397.05	360.33
397.429	374.34
397.808	366.66
398.186	357.84
398.565	398.29
398.944	371.85
399.323	383.15
399.701	394.23
400.08	369.14
400.458	392.87
400.837	376.83
401.215	386.09
401.594	382.7
401.972	374.57
402.351	389.26
402.729	387
403.107	394.23
403.486	389.48
403.864	414.11
404.242	402.81
404.62	390.39
404.999	412.08
405.377	394.68
405.755	396.26
406.133	398.52
406.511	415.24
406.889	425.41
407.267	418.86
407.645	427.22
408.023	415.47
408.401	415.47
408.779	436.03
409.156	416.15
409.534	431.97
409.912	407.11
410.29	414.11
410.667	421.8
411.045	434.68
411.422	429.25
411.8	460.89
412.178	451.17
412.555	444.85
412.933	434.9
413.31	445.53
413.687	443.04
414.065	458.41
414.442	436.71
414.819	485.3
415.197	474.9
415.574	484.62
415.951	465.86
416.328	495.47
416.705	478.52
417.082	487.56
417.46	487.56
417.837	500.66
418.214	476.48
418.591	495.24
418.967	483.49
419.344	530.27
419.721	484.39
420.098	514.22
420.475	492.08
420.852	508.8
421.228	501.57
421.605	533.66
421.982	534.34
422.358	528.91
422.735	541.79
423.111	531.85
423.488	507.9
423.864	536.6
424.241	545.18
424.617	536.37
424.994	543.6
425.37	567.33
425.746	564.39
426.123	550.61
426.499	554
426.875	539.31
427.251	565.52
427.627	561.91
428.003	575.01
428.379	582.7
428.756	578.4
429.132	585.86
429.507	594
429.883	619.31
430.259	597.39
430.635	610.94
431.011	615.69
431.387	612.75
431.763	626.76
432.138	610.04
432.514	627.22
432.89	650.94
433.265	658.4
433.641	667.21
434.016	657.72
434.392	645.29
434.767	657.04
435.143	672.86
435.518	666.31
435.894	685.07
436.269	687.55
436.644	680.77
437.02	685.52
437.395	688.91
437.77	687.55
438.145	721.68
438.52	703.15
438.895	710.83
439.271	707.89
439.646	720.09
440.021	730.94
440.395	744.73
440.77	730.04
441.145	746.99
441.52	724.16
441.895	737.04
442.27	770.26
442.645	752.64
443.019	754.22
443.394	755.57
443.769	778.17
444.143	771.62
444.518	775.91
444.892	775.69
445.267	783.82
445.641	777.95
446.016	787.89
446.39	774.78
446.764	797.61
447.139	791.73
447.513	780.88
447.887	814.33
448.262	809.36
448.636	808.91
449.01	815.46
449.384	846.42
449.758	832.41
450.132	844.16
450.506	834.22
450.88	828.57
451.254	870.15
451.628	842.8
452.002	870.82
452.376	878.96
452.75	846.19
453.123	877.6
453.497	897.72
453.871	893.87
454.244	915.34
454.618	918.51
454.992	939.52
455.365	920.54
455.739	945.85
456.112	940.65
456.486	943.82
456.859	950.6
457.232	944.95
457.606	978.17
457.979	961.9
458.352	1020.43
458.725	1001.67
459.099	1018.62
459.472	1032.18
459.845	1031.95
460.218	1005.06
460.591	1030.37
460.964	1039.41
461.337	1084.83
461.71	1069.69
462.083	1079.18
462.456	1081.44
462.829	1097.03
463.201	1102.91
463.574	1091.84
463.947	1118.95
464.32	1166.86
464.692	1138.39
465.065	1148.78
465.438	1185.84
465.81	1171.61
466.183	1203.7
466.555	1235.33
466.928	1239.85
467.3	1234.66
467.672	1252.06
468.045	1297.25
468.417	1268.78
468.789	1275.11
469.161	1272.62
469.534	1313.3
469.906	1365.05
470.278	1324.82
470.65	1363.92
471.022	1393.75
471.394	1428.1
471.766	1413.41
472.138	1422.22
472.51	1463.8
472.882	1484.82
473.253	1514.2
473.625	1516.91
473.997	1547.87
474.369	1579.05
474.74	1584.48
475.112	1605.49
475.484	1629.22
475.855	1686.4
476.227	1697.24
476.598	1728.2
476.97	1765.04
477.341	1769.33
477.713	1806.39
478.084	1833.74
478.455	1824.47
478.827	1889.33
479.198	1936.11
479.569	1955.54
479.94	1971.81
480.311	2015.43
480.682	2046.16
481.053	2100.85
481.424	2142.2
481.795	2168.87
482.166	2215.87
482.537	2195.08
482.908	2268.75
483.279	2277.79
483.65	2322.31
484.021	2378.13
484.391	2431.69
484.762	2444.34
485.133	2450.22
485.503	2487.51
485.874	2541.52
486.244	2547.39
486.615	2613.83
486.985	2648.4
487.356	2714.84
487.726	2737.67
488.097	2812.47
488.467	2823.32
488.837	2857.66
489.207	2921.39
489.578	2955.29
489.948	2971.56
490.318	2984.67
490.688	3024.21
491.058	3064.44
491.428	3141.27
491.798	3145.12
492.168	3204.1
492.538	3226.02
492.908	3245.23
493.278	3282.51
493.648	3315.96
494.017	3336.07
494.387	3403.87
494.757	3434.37
495.126	3477.76
495.496	3508.95
495.866	3502.39
496.235	3567.48
496.605	3612.22
496.974	3607.48
497.344	3651.09
497.713	3644.76
498.082	3701.71
498.452	3756.85
498.821	3733.12
499.19	3748.04
499.559	3785.1
499.928	3808.6
500.298	3848.6
500.667	3879.56
501.036	3870.07
501.405	3907.13
501.774	3951.2
502.143	3939.44
502.512	3994.36
502.88	3990.52
503.249	3990.29
503.618	4049.05
503.987	4068.93
504.356	4103.28
504.724	4125.88
505.093	4124.98
505.462	4124.75
505.83	4178.99
506.199	4208.59
506.567	4262.15
506.936	4219.44
507.304	4303.5
507.672	4289.04
508.041	4261.7
508.409	4296.27
508.777	4393.22
509.145	4338.53
509.514	4373.11
509.882	4409.26
510.25	4435.02
510.618	4466.44
510.986	4473.22
511.354	4496.04
511.722	4534.23
512.09	4550.73
512.458	4546.43
512.826	4557.73
513.193	4611.52
513.561	4632.99
513.929	4633.89
514.297	4645.87
514.664	4696.94
515.032	4679.09
515.4	4738.07
515.767	4763.15
516.135	4737.39
516.502	4725.86
516.869	4814.68
517.237	4812.64
517.604	4775.13
517.972	4839.99
518.339	4864.39
518.706	4871.62
519.073	4860.78
519.44	4923.37
519.808	4920.66
520.175	4962.47
520.542	4971.51
520.909	4948.68
521.276	4975.12
521.643	5044.73
522.009	5084.5
522.376	5073.43
522.743	5141.45
523.11	5128.57
523.477	5173.31
523.843	5176.7
524.21	5226.64
524.577	5236.59
524.943	5334.21
525.31	5286.08
525.676	5394.32
526.043	5382.57
526.409	5408.56
526.776	5423.47
527.142	5455.79
527.508	5459.63
527.874	5521.55
528.241	5542.11
528.607	5558.61
528.973	5585.95
529.339	5571.49
529.705	5639.74
530.071	5666.18
530.437	5748.89
530.803	5728.32
531.169	5778.72
531.535	5782.11
531.901	5786.63
532.267	5806.51
532.632	5829.11
532.998	5872.73
533.364	5896.23
533.73	5904.14
534.095	5967.41
534.461	5962.44
534.826	6015.1
535.192	6027.53
535.557	6097.58
535.923	6054.19
536.288	6135.54
536.653	6186.17
537.019	6071.59
537.384	6200.18
537.749	6213.96
538.114	6209.44
538.479	6214.41
538.845	6258.93
539.21	6291.92
539.575	6271.36
539.94	6317.69
540.305	6334.18
540.67	6370.11
541.034	6383.45
541.399	6387.97
541.764	6430.68
542.129	6470.68
542.494	6512.71
542.858	6480.17
543.223	6485.37
543.587	6559.49
543.952	6599.94
544.316	6638.58
544.681	6623.67
545.045	6666.83
545.41	6656.66
545.774	6692.59
546.138	6709.54
546.503	6755.42
546.867	6792.02
547.231	6850.78
547.595	6806.26
547.959	6887.62
548.324	6872.93
548.688	6861.63
549.052	6862.08
549.416	6936.43
549.779	6957.22
550.143	7009.65
550.507	7042.64
550.871	7044.22
551.235	7072.7
551.599	7075.86
551.962	7094.62
552.326	7135.29
552.689	7170.09
553.053	7196.76
553.417	7169.64
553.78	7279.7
554.143	7330.32
554.507	7211.9
554.87	7323.76
555.234	7414.38
555.597	7316.76
555.96	7369.18
556.323	7402.4
556.686	7347.04
557.05	7430.65
557.413	7406.7
557.776	7468.62
558.139	7545.45
558.502	7580.48
558.865	7609.63
559.228	7600.14
559.59	7603.3
559.953	7674.71
560.316	7752
560.679	7701.38
561.041	7736.41
561.404	7827.25
561.767	7779.57
562.129	7839.23
562.492	7912.9
562.854	7892.56
563.217	7876.06
563.579	7867.93
563.941	7956.74
564.304	8012.33
564.666	8043.74
565.028	8093.91
565.39	8111.31
565.753	8141.82
566.115	8186.11
566.477	8189.95
566.839	8198.77
567.201	8220.01
567.563	8206.68
567.925	8262.95
568.287	8266.11
568.648	8318.54
569.01	8321.48
569.372	8415.03
569.734	8430.17
570.095	8488.25
570.457	8486.9
570.819	8544.97
571.18	8560.11
571.542	8599.89
571.903	8636.27
572.265	8658.64
572.626	8743.39
572.987	8736.38
573.349	8768.7
573.71	8852.76
574.071	8827
574.432	8935.47
574.794	9029.93
575.155	9064.28
575.516	9092.3
575.877	9170.95
576.238	9224.28
576.599	9296.37
576.96	9306.76
577.32	9431.96
577.681	9524.83
578.042	9577.26
578.403	9612.52
578.763	9716.47
579.124	9860.19
579.485	9972.73
579.845	10020.19
580.206	10072.16
580.566	10179.96
580.927	10270.35
581.287	10411.36
581.648	10512.38
582.008	10617.91
582.368	10744.69
582.728	10854.52
583.089	11016.32
583.449	11109.43
583.809	11301.06
584.169	11472.81
584.529	11584.22
584.889	11826.02
585.249	11895.62
585.609	12071.43
585.969	12345.33
586.329	12520.69
586.688	12698.99
587.048	12820.11
587.408	13025.76
587.768	13249.48
588.127	13362.02
588.487	13583.71
588.846	13878.84
589.206	14074.55
589.565	14215.56
589.925	14497.36
590.284	14742.55
590.643	14954.75
591.003	15313.83
591.362	15507.95
591.721	15641.74
592.08	15928.73
592.44	16264.77
592.799	16440.58
593.158	16744.76
593.517	16904.53
593.876	17244.86
594.235	17472.65
594.593	17746.77
594.952	18060.43
595.311	18233.53
595.67	18569.12
596.029	18854.76
596.387	19096.79
596.746	19452.93
597.104	19551.46
597.463	19890.21
597.822	20143.99
598.18	20303.76
598.538	20539.91
598.897	21059.67
599.255	21042.05
599.613	21652.43
599.972	21656.72
600.33	22114.56
600.688	22307.55
601.046	22511.84
601.404	22871.6
601.762	23093.07
602.12	23321.31
602.478	23616.89
602.836	23808.98
603.194	23994.74
603.552	24294.39
603.91	24336.42
604.268	24802.17
604.625	24874.26
604.983	25345.21
605.341	25304.53
605.698	25750.4
606.056	26073.78
606.413	26182.7
606.771	26435.12
607.128	26704.27
607.485	26783.36
607.843	27000.08
608.2	27333.18
608.557	27530.46
608.914	27635.54
609.272	27904.92
609.629	28080.28
609.986	28499.25
610.343	28432.36
610.7	28801.16
611.057	28879.35
611.414	29080.93
611.771	29324.54
612.127	29491.99
612.484	29626.9
612.841	29964.52
613.198	30048.36
613.554	30156.38
613.911	30458.52
614.267	30614
614.624	30608.57
614.98	30873.88
615.337	31197.94
615.693	31200.65
616.05	31329.68
616.406	31702.33
616.762	31607.87
617.118	31789.56
617.475	31841.76
617.831	32197.68
618.187	32192.26
618.543	32386.15
618.899	32643.77
619.255	32685.36
619.611	32866.59
619.967	32844.22
620.323	33069.98
620.678	33069.53
621.034	33138.68
621.39	33225.68
621.746	33254.83
622.101	33845.78
622.457	33486.92
622.812	33646.23
623.168	33806.23
623.523	33886.23
623.879	34055.49
624.234	33908.37
624.589	34065.66
624.945	34188.82
625.3	34379.1
625.655	34474.69
626.01	34439.89
626.365	34515.59
626.72	34559.2
627.075	34663.61
627.43	34650.05
627.785	34576.6
628.14	34708.35
628.495	34815.47
628.85	34808.46
629.205	34830.61
629.559	35095.24
629.914	34907.44
630.269	35020.66
630.623	34815.02
630.978	34973.43
631.332	35194.44
631.687	35198.96
632.041	34946.09
632.396	35189.7
632.75	35023.37
633.104	35301.11
633.459	35168
633.813	35054.33
634.167	35064.5
634.521	35166.65
634.875	35217.27
635.229	35142.92
635.583	35087.33
635.937	35187.44
636.291	35149.92
636.645	35186.53
636.999	35159.64
637.352	35313.99
637.706	35171.17
638.06	35269.92
638.413	35172.07
638.767	35211.84
639.121	35171.39
639.474	35070.6
639.828	35178.17
640.181	35158.28
640.534	35259.07
640.888	35085.52
641.241	35041.45
641.594	35203.93
641.947	35147.44
642.301	35045.52
642.654	35111.28
643.007	35102.24
643.36	35086.87
643.713	34906.77
644.066	35166.42
644.419	34954
644.771	34705.42
645.124	34280.79
645.477	34253.68
645.83	34140.23
646.182	34119.44
646.535	34083.74
646.888	34169.16
647.24	33852.1
647.593	34192.89
647.945	34150.63
648.298	33899.79
648.65	33859.56
649.002	33778.89
649.355	34014.59
649.707	33825.21
650.059	34006.9
650.411	34392.43
650.763	34547.45
651.115	34868.57
651.467	34618.19
651.819	34681.69
652.171	34609.37
652.523	34644.4
652.875	34624.97
653.227	34380.45
653.578	34649.82
653.93	34583.61
654.282	34410.51
654.633	34390.17
654.985	34400.79
655.337	34579.32
655.688	34571.86
656.039	34526.44
656.391	34213.22
656.742	34468.59
657.094	34397.4
657.445	34464.74
657.796	34469.04
658.147	34397.4
658.498	34472.88
658.849	34547.68
659.2	34392.2
659.551	34325.09
659.902	34419.77
660.253	34279.44
660.604	34602.37
660.955	34171.64
661.306	34482.82
661.656	34262.04
662.007	34201.93
662.358	34196.95
662.708	34244.41
663.059	34231.3
663.409	34109.95
663.76	34409.15
664.11	34322.83
664.461	34336.61
664.811	34257.52
665.161	34336.61
665.511	34273.56
665.862	34291.64
666.212	34501.35
666.562	34395.59
666.912	34294.58
667.262	34234.24
667.612	34154.7
667.962	34398.98
668.312	34241.25
668.662	34407.34
669.011	34284.86
669.361	34175.94
669.711	34148.82
670.06	34209.16
670.41	33976.17
670.76	34047.58
671.109	34214.13
671.459	34139.1
671.808	34067.69
672.157	34194.24
672.507	34025.21
672.856	33978.65
673.205	33966.45
673.554	34069.95
673.904	33870.18
674.253	34127.58
674.602	34064.98
674.951	33445.56
675.3	33324.43
675.649	33940.92
675.998	33849.39
676.346	33777.76
676.695	33945.66
677.044	33718.32
677.393	33817.98
677.741	33948.37
678.09	33646.69
678.438	33616.86
678.787	33770.07
679.135	33777.98
679.484	33566.46
679.832	33723.07
680.181	33596.52
680.529	33707.7
680.877	33526.92
681.225	33536.86
681.573	33575.28
681.922	33500.93
682.27	33456.41
682.618	33311.1
682.966	33239.92
683.314	33299.8
683.661	33179.58
684.009	32966.48
684.357	33070.66
684.705	32939.81
685.053	33074.95
685.4	32876.99
685.748	32741.17
686.095	32838.12
686.443	32636.32
686.79	32597
687.138	32714.06
687.485	32795.63
687.832	32662.08
688.18	32716.77
688.527	32413.72
688.874	32464.8
689.221	32232.03
689.568	32301.86
689.915	32139.83
690.262	32131.92
690.609	32082.66
690.956	31914.53
691.303	32015.54
691.65	31741.2
691.997	31859.61
692.344	31731.03
692.69	31621.88
693.037	31629.34
693.383	31408.33
693.73	31583.01
694.077	31324.26
694.423	31321.32
694.769	31284.49
695.116	31157.94
695.462	31177.6
695.808	30984.61
696.155	31018.96
696.501	30784.16
696.847	30889.02
697.193	30589.82
697.539	30792.52
697.885	30520.67
698.231	30416.04
698.577	30386.43
698.923	30333.55
699.269	30125.65
699.614	30021.24
699.96	30045.65
700.306	30049.04
700.651	29773.12
700.997	29770.63
701.342	29749.84
701.688	29702.83
702.033	29702.16
702.379	29566.57
702.724	29596.62
703.069	29693.8
703.415	29269.17
703.76	29320.25
704.105	29327.93
704.45	29164.32
704.795	29210.87
705.14	28922.52
705.485	28812.46
705.83	28805.91
706.175	28816.76
706.52	28780.37
706.865	28583.54
707.209	28614.5
707.554	28537.67
707.899	28565.46
708.243	28407.95
708.588	28328.63
708.932	28135.42
709.277	28268.52
709.621	28188.98
709.966	27986.04
710.31	28116.44
710.654	27872.6
710.998	27895.88
711.342	27936.78
711.687	27816.1
712.031	27770.68
712.375	27664.02
712.719	27757.12
713.063	27629.89
713.407	27637.35
713.75	27438.94
714.094	27443.01
714.438	27324.14
714.782	27427.87
715.125	27307.42
715.469	27240.07
715.812	27151.49
716.156	27093.86
716.499	27004.83
716.843	27099.74
717.186	26862.68
717.53	27055.9
717.873	27058.16
718.216	26902.46
718.559	26838.05
718.902	26596.25
719.246	26675.57
719.589	26624.05
719.932	26571.84
720.275	26471.51
720.617	26570.94
720.96	26555.35
721.303	26473.09
721.646	26342.25
721.989	26290.04
722.331	26263.15
722.674	26308.12
723.016	26182.48
723.359	26222.47
723.701	26175.47
724.044	26036.72
724.386	25883.95
724.729	26030.84
725.071	25858.42
725.413	25899.09
725.755	25907.68
726.097	25766.22
726.439	25660.91
726.782	25622.04
727.124	25814.8
727.465	25565.09
727.807	25669.72
728.149	25587.46
728.491	25528.71
728.833	25491.65
729.175	25309.73
729.516	25342.72
729.858	25404.42
730.199	25309.5
730.541	25314.25
730.882	25260.47
731.224	25235.83
731.565	25075.84
731.906	25184.54
732.248	25196.29
732.589	24859.8
732.93	24993.58
733.271	25140.92
733.612	25003.3
733.953	25051.21
734.294	24861.83
734.635	24775.28
734.976	24883.53
735.317	24728.28
735.658	24764.66
735.999	24783.42
736.339	24794.49
736.68	24814.6
737.021	24684.44
737.361	24515.63
737.702	24685.79
738.042	24545
738.383	24641.95
738.723	24509.75
739.063	24383.88
739.404	24556.76
739.744	24363.99
740.084	24319.02
740.424	24439.02
740.764	24408.74
741.104	24443.99
741.444	24178.69
741.784	24287.16
742.124	24295.29
742.464	24156.77
742.804	24060.72
743.143	24187.73
743.483	24153.83
743.823	23895.76
744.162	23941.86
744.502	24087.62
744.841	23887.39
745.181	23881.97
745.52	23811.69
745.86	23879.94
746.199	23919.26
746.538	23769.66
746.877	23833.84
747.216	23746.61
747.556	23634.97
747.895	23653.5
748.234	23676.78
748.573	23708.19
748.911	23596.33
749.25	23514.07
749.589	23491.92
749.928	23441.53
750.267	23464.81
750.605	23368.99
750.944	23334.87
751.283	23296.22
751.621	23418.71
751.96	23144.14
752.298	23200.63
752.636	23142.33
752.975	23085.83
753.313	22905.5
753.651	23009.9
753.989	23005.16
754.327	22844.71
754.666	22823.47
755.004	22844.26
755.342	22840.19
755.679	22736.92
756.017	22559.52
756.355	22695.79
756.693	22583.47
757.031	22605.39
757.368	22479.3
757.706	22423.48
758.044	22406.3
758.381	22438.85
758.719	22356.14
759.056	22336.7
759.394	22266.19
759.731	22088.8
760.068	22083.83
760.405	21971.51
760.743	21950.72
