Data from hue_24_FLMS001491_00002.txt Node
Date: Tue Feb 07 17:11:39 GMT 2017
User: dcchb
Spectrometer: FLMS00149
Trigger mode: 0
Integration Time (sec): 2.000000E-2
Scans to average: 10
Electric dark correction enabled: true
Nonlinearity correction enabled: false
Boxcar width: 0
XAxis mode: Wavelengths
Number of Pixels in Spectrum: 2048
>>>>>Begin Spectral Data<<<<<
341.393	-18.74
341.776	-18.74
342.16	-18.74
342.543	-47.67
342.927	-46.09
343.31	-75.69
343.693	-61.45
344.077	-70.72
344.46	-71.4
344.843	-38.85
345.226	-34.11
345.61	-44.28
345.993	-27.33
346.376	-29.14
346.759	5.66
347.142	25.1
347.525	60.35
347.908	75.72
348.291	82.5
348.674	99.67
349.057	103.97
349.44	151.42
349.823	139.45
350.206	146.22
350.588	179.67
350.971	210.86
351.354	233.23
351.737	243.85
352.119	263.51
352.502	259.44
352.884	277.97
353.267	295.37
353.65	311.64
354.032	304.86
354.414	310.51
354.797	320.23
355.179	333.11
355.562	342.83
355.944	335.6
356.326	332.43
356.709	330.63
357.091	320.68
357.473	356.16
357.855	333.56
358.238	324.75
358.62	331.3
359.002	370.63
359.384	376.28
359.766	344.86
360.148	344.64
360.53	334.02
360.912	326.11
361.294	323.62
361.676	357.07
362.057	346.67
362.439	337.18
362.821	344.41
363.203	327.01
363.584	347.12
363.966	322.72
364.348	335.6
364.729	329.5
365.111	330.17
365.493	311.64
365.874	325.43
366.256	337.63
366.637	317.97
367.019	311.19
367.4	323.85
367.781	313.45
368.163	311.19
368.544	308.25
368.925	327.24
369.306	326.79
369.688	315.49
370.069	299.89
370.45	324.53
370.831	299.44
371.212	305.32
371.593	317.29
371.974	335.6
372.355	299.44
372.736	324.3
373.117	304.41
373.498	325.43
373.879	304.86
374.26	327.46
374.641	315.49
375.021	343.28
375.402	329.5
375.783	305.99
376.163	336.05
376.544	312.1
376.925	334.92
377.305	314.58
377.686	326.33
378.066	327.46
378.447	329.5
378.827	340.57
379.208	341.7
379.588	340.57
379.968	323.4
380.349	331.53
380.729	346.45
381.109	335.37
381.489	342.83
381.87	347.58
382.25	346.9
382.63	355.03
383.01	358.65
383.39	335.15
383.77	332.66
384.15	343.28
384.53	364.52
384.91	332.66
385.29	367.24
385.67	358.87
386.049	369.72
386.429	346.67
386.809	366.33
387.189	349.38
387.568	334.47
387.948	353
388.328	360.46
388.707	360.68
389.087	359.1
389.466	355.26
389.846	385.77
390.225	379.67
390.605	366.11
390.984	363.17
391.363	360.23
391.743	396.16
392.122	378.31
392.501	376.28
392.881	402.04
393.26	366.78
393.639	386.67
394.018	363.39
394.397	396.61
394.776	378.76
395.155	380.12
395.534	390.74
395.913	395.71
396.292	394.58
396.671	381.47
397.05	372.66
397.429	400
397.808	400
398.186	375.6
398.565	368.37
398.944	395.71
399.323	392.55
399.701	412.88
400.08	389.16
400.458	386.9
400.837	386.44
401.215	395.26
401.594	411.3
401.972	402.49
402.351	404.98
402.729	416.95
403.107	429.83
403.486	396.16
403.864	420.57
404.242	432.55
404.62	429.61
404.999	414.01
405.377	425.99
405.755	421.02
406.133	437.29
406.511	416.73
406.889	432.32
407.267	455.6
407.645	421.25
408.023	415.37
408.401	436.61
408.779	436.16
409.156	449.27
409.534	461.02
409.912	457.63
410.29	464.18
410.667	456.95
411.045	465.54
411.422	453.34
411.8	470.51
412.178	485.2
412.555	489.27
412.933	489.72
413.31	474.13
413.687	489.49
414.065	468.93
414.442	476.84
414.819	496.72
415.197	494.24
415.574	515.71
415.951	500.11
416.328	507.57
416.705	510.06
417.082	508.7
417.46	515.93
417.837	513.22
418.214	542.37
418.591	518.64
418.967	516.84
419.344	530.17
419.721	537.18
420.098	528.59
420.475	545.99
420.852	520.68
421.228	541.02
421.605	540.56
421.982	560.9
422.358	542.6
422.735	573.78
423.111	554.35
423.488	534.01
423.864	548.47
424.241	560.9
424.617	561.36
424.994	574.01
425.37	555.25
425.746	590.28
426.123	557.51
426.499	593.44
426.875	595.93
427.251	597.74
427.627	590.96
428.003	608.59
428.379	610.39
428.756	612.2
429.132	603.39
429.507	622.82
429.883	630.28
430.259	626.21
430.635	639.09
431.011	651.3
431.387	650.39
431.763	662.37
432.138	668.25
432.514	641.35
432.89	640.45
433.265	667.12
433.641	691.07
434.016	710.28
434.392	699.66
434.767	707.79
435.143	710.05
435.518	700.79
435.894	717.28
436.269	742.37
436.644	714.8
437.02	731.52
437.395	745.76
437.77	752.08
438.145	761.35
438.52	750.73
438.895	729.26
439.271	749.82
439.646	778.3
440.021	785.08
440.395	750.73
440.77	767.23
441.145	785.08
441.52	808.13
441.895	793.89
442.27	821.69
442.645	794.8
443.019	813.78
443.394	807.22
443.769	813.55
444.143	817.85
444.518	822.14
444.892	816.94
445.267	823.5
445.641	835.25
446.016	851.52
446.39	863.49
446.764	866.21
447.139	863.27
447.513	856.04
447.887	877.05
448.262	868.69
448.636	897.84
449.01	904.4
449.384	887.45
449.758	879.31
450.132	913.21
450.506	902.82
450.88	920.22
451.254	908.69
451.628	914.11
452.002	936.94
452.376	927.67
452.75	955.7
453.123	953.21
453.497	949.59
453.871	943.04
454.244	998.41
454.618	998.41
454.992	968.58
455.365	997.73
455.739	1027.33
456.112	1023.04
456.486	1034.34
456.859	1029.14
457.232	1036.37
457.606	1062.59
457.979	1074.11
458.352	1092.87
458.725	1103.94
459.099	1096.93
459.472	1130.61
459.845	1138.74
460.218	1147.78
460.591	1169.93
460.964	1168.57
461.337	1166.76
461.71	1178.74
462.083	1188.01
462.456	1203.37
462.829	1218.74
463.201	1228
463.574	1237.04
463.947	1286.53
464.32	1275.91
464.692	1271.62
465.065	1312.3
465.438	1308
465.81	1320.66
466.183	1363.14
466.555	1379.64
466.928	1369.92
467.3	1399.3
467.672	1388.9
468.045	1430.26
468.417	1439.52
468.789	1456.47
469.161	1461.9
469.534	1508.45
469.906	1546.19
470.278	1544.61
470.65	1559.07
471.022	1605.4
471.394	1609.92
471.766	1604.49
472.138	1637.26
472.51	1677.03
472.882	1699.4
473.253	1710.03
473.625	1750.7
473.997	1798.84
474.369	1817.37
474.74	1850.81
475.112	1878.16
475.484	1888.55
475.855	1921.32
476.227	1957.02
476.598	1998.38
476.97	2025.72
477.341	2036.34
477.713	2107.53
478.084	2104.37
478.455	2166.96
478.827	2201.76
479.198	2246.96
479.569	2244.47
479.94	2283.8
480.311	2354.3
480.682	2405.37
481.053	2476.56
481.424	2450.35
481.795	2519.5
482.166	2603.56
482.537	2615.09
482.908	2655.31
483.279	2718.13
483.65	2749.77
484.021	2837.23
484.391	2847.85
484.762	2914.51
485.133	2926.26
485.503	2983.44
485.874	3079.71
486.244	3091.68
486.615	3135.52
486.985	3194.51
487.356	3237.9
487.726	3283.09
488.097	3384.78
488.467	3421.39
488.837	3442.86
489.207	3498.68
489.578	3544.78
489.948	3627.94
490.318	3641.73
490.688	3648.28
491.058	3749.52
491.428	3802.85
491.798	3832.91
492.168	3876.07
492.538	3914.26
492.908	3992.23
493.278	4043.52
493.648	4082.39
494.017	4113.8
494.387	4191.77
494.757	4209.17
495.126	4274.93
495.496	4330.3
495.866	4308.6
496.235	4334.59
496.605	4415.04
496.974	4460.01
497.344	4463.85
497.713	4532.1
498.082	4560.8
498.452	4642.6
498.821	4641.02
499.19	4619.33
499.559	4728.48
499.928	4745.65
500.298	4757.18
500.667	4832.43
501.036	4813.9
501.405	4836.05
501.774	4865.2
502.143	4911.3
502.512	5004.4
502.88	5011.41
503.249	4989.26
503.618	5064.74
503.987	5073.55
504.356	5142.25
504.724	5105.42
505.093	5108.35
505.462	5163.95
505.83	5224.96
506.199	5238.07
506.567	5299.31
506.936	5274.23
507.304	5349.03
507.672	5351.96
508.041	5391.06
508.409	5459.53
508.777	5441
509.145	5509.25
509.514	5567.78
509.882	5551.96
510.25	5583.6
510.618	5609.36
510.986	5636.93
511.354	5678.51
511.722	5730.48
512.09	5730.03
512.458	5768
512.826	5800.31
513.193	5789.01
513.561	5839.18
513.929	5880.09
514.297	5909.24
514.664	5885.51
515.032	5897.94
515.4	5976.81
515.767	5980.87
516.135	6038.27
516.502	5947.88
516.869	6068.78
517.237	6106.97
517.604	6116.92
517.972	6107.42
518.339	6206.86
518.706	6229.68
519.073	6175.9
519.44	6235.56
519.808	6273.97
520.175	6296.57
520.542	6374.31
520.909	6329.79
521.276	6418.38
521.643	6445.04
522.009	6463.12
522.376	6499.96
522.743	6561.65
523.11	6572.04
523.477	6628.09
523.843	6631.03
524.21	6718.03
524.577	6741.31
524.943	6815.65
525.31	6830.34
525.676	6849.33
526.043	6860.85
526.409	6921.64
526.776	7025.37
527.142	6976.1
527.508	7026.27
527.874	7087.06
528.241	7139.04
528.607	7101.07
528.973	7136.55
529.339	7178.13
529.705	7259.03
530.071	7320.27
530.437	7337.67
530.803	7357.33
531.169	7412.02
531.535	7430.33
531.901	7408.63
532.267	7478.01
532.632	7540.61
532.998	7541.06
533.364	7563.66
533.73	7619.47
534.095	7615.41
534.461	7721.17
534.826	7710.55
535.192	7825.57
535.557	7785.57
535.923	7775.18
536.288	7867.38
536.653	7898.56
537.019	7852.46
537.384	7898.56
537.749	8007.04
538.114	7973.14
538.479	7989.63
538.845	8018.33
539.21	8080.48
539.575	8145.56
539.94	8128.16
540.305	8166.35
540.67	8158.67
541.034	8222.85
541.399	8315.73
541.764	8286.8
542.129	8364.54
542.494	8355.95
542.858	8409.74
543.223	8434.82
543.587	8477.98
543.952	8487.7
544.316	8473.46
544.681	8552.33
545.045	8594.82
545.41	8592.56
545.774	8588.94
546.138	8665.77
546.503	8697.19
546.867	8659.9
547.231	8768.15
547.595	8801.36
547.959	8839.33
548.324	8847.47
548.688	8863.28
549.052	8851.76
549.416	8931.3
549.779	8983.28
550.143	9021.25
550.507	9004.75
550.871	9072.54
551.235	9118.87
551.599	9135.37
551.962	9137.4
552.326	9236.38
552.689	9251.75
553.053	9266.89
553.417	9232.77
553.78	9322.48
554.143	9303.95
554.507	9330.84
554.87	9423.72
555.234	9460.56
555.597	9403.16
555.96	9425.08
556.323	9535.13
556.686	9560.67
557.05	9636.37
557.413	9596.6
557.776	9626.88
558.139	9659.65
558.502	9663.04
558.865	9706.88
559.228	9802.47
559.59	9810.15
559.953	9889.02
560.316	9865.29
560.679	9960.88
561.041	9949.58
561.404	9943.03
561.767	9991.16
562.129	9984.16
562.492	10124.27
562.854	10148.22
563.217	10129.01
563.579	10202.91
563.941	10203.36
564.304	10278.84
564.666	10326.52
565.028	10325.17
565.39	10360.19
565.753	10397.48
566.115	10427.31
566.477	10508.44
566.839	10511.6
567.201	10580.75
567.563	10570.58
567.925	10723.12
568.287	10616.91
568.648	10744.14
569.01	10754.31
569.372	10814.42
569.734	10823.46
570.095	10888.32
570.457	10870.91
570.819	10926.73
571.18	10899.16
571.542	11056.67
571.903	10995.66
572.265	11149.1
572.626	11157.23
572.987	11197.01
573.349	11293.05
573.71	11310.23
574.071	11355.87
574.432	11422.31
574.794	11563.55
575.155	11560.84
575.516	11659.82
575.877	11632.93
576.238	11747.28
576.599	11807.39
576.96	11964.22
577.32	11993.15
577.681	12105.91
578.042	12223.42
578.403	12274.72
578.763	12373.47
579.124	12544.09
579.485	12613.24
579.845	12695.73
580.206	12788.15
580.566	12910.41
580.927	13069.95
581.287	13216.39
581.648	13355.14
582.008	13498.42
582.368	13588.58
582.728	13747.9
583.089	13888.46
583.449	13963.04
583.809	14243.26
584.169	14383.36
584.529	14464.27
584.889	14786.29
585.249	14948.1
585.609	15078.04
585.969	15384.47
586.329	15501.3
586.688	15693.84
587.048	15906.94
587.408	16130.89
587.768	16405.23
588.127	16648.39
588.487	16849.29
588.846	17156.85
589.206	17363.63
589.565	17751.19
589.925	17944.63
590.284	18201.57
590.643	18439.53
591.003	18754.55
591.362	19225.72
591.721	19328.09
592.08	19610.12
592.44	19845.59
592.799	20266.15
593.158	20552.69
593.517	20720.15
593.876	21068.39
594.235	21256.63
594.593	21653.68
594.952	21977.06
595.311	22292.54
595.67	22527.11
596.029	23037.6
596.387	23287.09
596.746	23598.26
597.104	23801.42
597.463	24140.85
597.822	24579.93
598.18	24624.23
598.538	25059.02
598.897	25440.02
599.255	25546.24
599.613	26278.87
599.972	26454.69
600.33	26824.62
600.688	26897.84
601.046	27248.11
601.404	27751.83
601.762	27851.71
602.12	28296.67
602.478	28601.75
602.836	28870.22
603.194	28974.85
603.552	29381.39
603.91	29609.63
604.268	29895.73
604.625	30122.39
604.983	30495.71
605.341	30581.58
605.698	31066.09
606.056	31356.48
606.413	31605.06
606.771	31801.89
607.128	32294.53
607.485	32209.56
607.843	32499.27
608.2	32969.99
608.557	33242.08
608.914	33366.82
609.272	33718
609.629	34056.07
609.986	34206.35
610.343	34351.2
610.7	34755.71
611.057	34821.25
611.414	35025.31
611.771	35227.79
612.127	35559.76
612.484	35725.18
612.841	36032.96
613.198	36065.05
613.554	36318.83
613.911	36662.55
614.267	36838.82
614.624	36770.8
614.98	37104.12
615.337	37423.21
615.693	37616.88
616.05	37562.87
616.406	37955.63
616.762	38083.53
617.118	38085.11
617.475	38312.91
617.831	38670.18
618.187	38584.99
618.543	38838.99
618.899	39111.3
619.255	39124.86
619.611	39349.94
619.967	39406.66
620.323	39641.91
620.678	39602.59
621.034	39575.24
621.39	39893.2
621.746	39965.74
622.101	40416.8
622.457	40228.33
622.812	40363.02
623.168	40561.89
623.523	40685.72
623.879	40929.33
624.234	40633.3
624.589	40915.1
624.945	40984.7
625.3	41123.45
625.655	41213.62
626.01	41316.22
626.365	41238.03
626.72	41372.26
627.075	41378.81
627.43	41517.11
627.785	41383.78
628.14	41675.98
628.495	41614.06
628.85	41781.74
629.205	41717.56
629.559	41960.04
629.914	41802.08
630.269	41837.56
630.623	41803.43
630.978	41911
631.332	41927.73
631.687	42224.67
632.041	42108.51
632.396	42139.47
632.75	42045.91
633.104	42189.64
633.459	42141.28
633.813	42156.65
634.167	42086.59
634.521	42232.35
634.875	42214.95
635.229	42268.28
635.583	41969.53
635.937	42122.75
636.291	42176.98
636.645	42212.24
636.999	42105.35
637.352	42332.46
637.706	42038
638.06	42189.64
638.413	42280.94
638.767	42109.42
639.121	42301.73
639.474	41974.28
639.828	42047.95
640.181	42111.9
640.534	42047.72
640.888	42063.09
641.241	41851.34
641.594	41954.39
641.947	42155.97
642.301	42006.59
642.654	42076.42
643.007	42186.25
643.36	42046.37
643.713	42065.12
644.066	42227.83
644.419	42063.31
644.771	41796.43
645.124	41367.74
645.477	41395.99
645.83	41067.41
646.182	41171.59
646.535	40869.67
646.888	40993.96
647.24	40684.14
647.593	41007.98
647.945	40833.06
648.298	40718.04
648.65	40571.6
649.002	40556.24
649.355	40756.91
649.707	40805.72
650.059	40853.63
650.411	41293.62
650.763	41388.98
651.115	41859.48
651.467	41634.85
651.819	41712.59
652.171	41626.49
652.523	41504.01
652.875	41576.1
653.227	41299.27
653.578	41675.98
653.93	41609.54
654.282	41381.98
654.633	41363.9
654.985	41443.44
655.337	41358.25
655.688	41393.5
656.039	41619.94
656.391	41324.13
656.742	41424.01
657.094	41489.32
657.445	41541.75
657.796	41429.21
658.147	41303.79
658.498	41334.07
658.849	41461.97
659.2	41265.14
659.551	41293.62
659.902	41417.23
660.253	41256.33
660.604	41444.57
660.955	41214.07
661.306	41420.85
661.656	41252.94
662.007	41335.65
662.358	41283.45
662.708	41303.79
663.059	41136.11
663.409	41051.59
663.76	41310.57
664.11	41207.52
664.461	41234.64
664.811	41198.25
665.161	41203.9
665.511	41264.01
665.862	41238.7
666.212	41345.37
666.562	41273.51
666.912	41244.13
667.262	41259.95
667.612	41123.68
667.962	41272.6
668.312	41217.24
668.662	41272.6
669.011	41218.14
669.361	41135.43
669.711	41195.54
670.06	41186.5
670.41	41019.05
670.76	40940.41
671.109	41079.39
671.459	41048.2
671.808	40837.58
672.157	41027.86
672.507	40880.75
672.856	40896.79
673.205	40937.02
673.554	41099.5
673.904	40917.58
674.253	41125.49
674.602	40959.16
674.951	40447.54
675.3	40304.94
675.649	40960.97
675.998	40850.01
676.346	40816.12
676.695	40881.2
677.044	40579.06
677.393	40734.76
677.741	40850.69
678.09	40687.31
678.438	40567.99
678.787	40659.51
679.135	40679.17
679.484	40456.8
679.832	40510.81
680.181	40342.46
680.529	40472.85
680.877	40297.49
681.225	40172.74
681.573	40454.77
681.922	40090.49
682.27	40142.69
682.618	40134.33
682.966	40187.43
683.314	40052.52
683.661	39940.66
684.009	39834.67
684.357	39912.64
684.705	39701.12
685.053	39866.31
685.4	39725.98
685.748	39652.3
686.095	39543.61
686.443	39432.88
686.79	39404.4
687.138	39462.71
687.485	39454.57
687.832	39282.82
688.18	39243.73
688.527	39060.46
688.874	39136.16
689.221	39138.19
689.568	38871.08
689.915	38892.1
690.262	38840.8
690.609	38658.43
690.956	38507.48
691.303	38564.42
691.65	38395.39
691.997	38457.76
692.344	38242.4
692.69	38290.31
693.037	38195.39
693.383	37958.11
693.73	38109.97
694.077	37695.75
694.423	37737.78
694.769	37719.47
695.116	37677.89
695.462	37577.56
695.808	37527.61
696.155	37439.71
696.501	37171.01
696.847	37242.88
697.193	37037.91
697.539	37148.64
697.885	36850.8
698.231	36852.38
698.577	36743.23
698.923	36693.74
699.269	36606.28
699.614	36370.81
699.96	36363.35
700.306	36351.6
700.651	36236.8
700.997	36132.17
701.342	36092.85
701.688	36000.42
702.033	35865.74
702.379	35884.95
702.724	35759.53
703.069	35838.17
703.415	35443.6
703.76	35466.43
704.105	35383.94
704.45	35330.38
704.795	35082.26
705.14	35063.05
705.485	34947.8
705.83	34906.67
706.175	35013.56
706.52	34897.63
706.865	34795.94
707.209	34797.52
707.554	34575.15
707.899	34586.22
708.243	34602.04
708.588	34440.69
708.932	34233.24
709.277	34259.68
709.621	34193.92
709.966	33981.72
710.31	34120.47
710.654	33760.26
710.998	33862.17
711.342	33759.13
711.687	33744.89
712.031	33555.29
712.375	33436.65
712.719	33578.11
713.063	33515.07
713.407	33682.29
713.75	33392.58
714.094	33300.61
714.438	33229.65
714.782	33186.26
715.125	32971.8
715.469	33131.12
715.812	33051.8
716.156	32771.13
716.499	32774.07
716.843	32971.35
717.186	32681.87
717.53	32869.66
717.873	32690.45
718.216	32588.99
718.559	32567.75
718.902	32242.78
719.246	32481.65
719.589	32239.84
719.932	32198.04
720.275	32169.79
720.617	32218.15
720.96	32132.05
721.303	32033.97
721.646	32150.13
721.989	31810.7
722.331	32023.58
722.674	31914.66
723.016	31833.98
723.359	31880.31
723.701	31855.22
724.044	31612.97
724.386	31468.79
724.729	31729.35
725.071	31636.24
725.413	31596.02
725.755	31541.78
726.097	31251.4
726.439	31160.32
726.782	31201.91
727.124	31213.2
727.465	31076.49
727.807	31070.61
728.149	30980.22
728.491	30994.68
728.833	30970.05
729.175	30835.81
729.516	30890.28
729.858	30842.37
730.199	30746.55
730.541	30680.34
730.882	30706.78
731.224	30685.76
731.565	30368.71
731.906	30609.38
732.248	30574.58
732.589	30415.94
732.93	30324.64
733.271	30317.18
733.612	30303.4
733.953	30382.27
734.294	30319.44
734.635	30248.71
734.976	30253.68
735.317	30028.15
735.658	29968.04
735.999	30097.98
736.339	30000.13
736.68	30122.16
737.021	30028.38
737.361	29724.88
737.702	30034.48
738.042	29944.09
738.383	29751.32
738.723	29827.48
739.063	29718.55
739.404	29745.22
739.744	29619.8
740.084	29547.26
740.424	29507.71
740.764	29549.97
741.104	29508.62
741.444	29459.13
741.784	29453.03
742.124	29322.86
742.464	29357.43
742.804	29267.04
743.143	29146.14
743.483	29177.55
743.823	29147.04
744.162	29053.04
744.502	29153.37
744.841	29154.73
745.181	29162.86
745.52	28966.94
745.86	29079.48
746.199	28951.34
746.538	28942.3
746.877	28890.55
747.216	29059.14
747.556	28843.78
747.895	28823.66
748.234	28671.35
748.573	28734.17
748.911	28646.04
749.25	28654.18
749.589	28514.29
749.928	28569.88
750.267	28565.14
750.605	28394.07
750.944	28341.64
751.283	28285.37
751.621	28401.75
751.96	28184.13
752.298	28193.85
752.636	28164.02
752.975	28131.7
753.313	27953.63
753.651	28220.06
753.989	27895.33
754.327	27944.82
754.666	27808.1
755.004	27870.69
755.342	27819.17
755.679	27769
756.017	27661.66
756.355	27554.32
756.693	27541.66
757.031	27561.78
757.368	27405.4
757.706	27439.07
758.044	27225.74
758.381	27237.94
758.719	27222.58
759.056	27174.67
759.394	26989.13
759.731	26990.49
