Data from hue_210_FLMS001491_00076.txt Node
Date: Tue Feb 07 16:41:41 GMT 2017
User: dcchb
Spectrometer: FLMS00149
Trigger mode: 0
Integration Time (sec): 2.000000E-2
Scans to average: 10
Electric dark correction enabled: true
Nonlinearity correction enabled: false
Boxcar width: 0
XAxis mode: Wavelengths
Number of Pixels in Spectrum: 2048
>>>>>Begin Spectral Data<<<<<
341.393	-2.16
341.776	-2.16
342.16	-2.16
342.543	-50.75
342.927	-64.31
343.31	-81.71
343.693	-65.44
344.077	-71.09
344.46	-82.61
344.843	-53.91
345.226	-38.32
345.61	-35.15
345.993	0.1
346.376	-18.88
346.759	13.21
347.142	33.54
347.525	48.91
347.908	51.17
348.291	85.52
348.674	98.85
349.057	115.8
349.44	129.14
349.823	159.87
350.206	147.44
350.588	166.87
350.971	207.33
351.354	224.73
351.737	241.67
352.119	249.36
352.502	269.47
352.884	250.04
353.267	285.06
353.65	289.13
354.032	276.25
354.414	280.09
354.797	305.18
355.179	310.6
355.562	294.33
355.944	314.21
356.326	331.84
356.709	339.98
357.091	350.6
357.473	346.76
357.855	338.4
358.238	335.01
358.62	329.13
359.002	347.89
359.384	310.15
359.766	335.46
360.148	335.68
360.53	349.92
360.912	313.31
361.294	333.42
361.676	322.8
362.057	323.93
362.439	323.71
362.821	340.88
363.203	331.62
363.584	311.5
363.966	338.85
364.348	330.03
364.729	310.15
365.111	337.72
365.493	321.22
365.874	320.99
366.256	300.88
366.637	303.14
367.019	310.6
367.4	303.37
367.781	293.42
368.163	333.2
368.544	324.16
368.925	328.68
369.306	312.86
369.688	319.64
370.069	276.7
370.45	330.71
370.831	333.42
371.212	331.84
371.593	314.21
371.974	306.08
372.355	300.88
372.736	324.84
373.117	290.26
373.498	304.05
373.879	320.77
374.26	310.15
374.641	319.86
375.021	322.35
375.402	323.71
375.783	329.36
376.163	336.14
376.544	336.36
376.925	297.49
377.305	337.72
377.686	338.17
378.066	321.45
378.447	334.1
378.827	332.97
379.208	316.25
379.588	333.2
379.968	334.33
380.349	317.15
380.729	318.06
381.109	308.11
381.489	346.3
381.87	325.97
382.25	354.89
382.63	333.65
383.01	329.58
383.39	339.3
383.77	337.72
384.15	352.18
384.53	356.93
384.91	339.07
385.29	360.99
385.67	315.8
386.049	341.78
386.429	382.46
386.809	360.77
387.189	328.9
387.568	342.91
387.948	345.4
388.328	335.01
388.707	373.87
389.087	356.93
389.466	365.29
389.846	365.51
390.225	368.68
390.605	360.54
390.984	383.37
391.363	387.43
391.743	364.61
392.122	356.7
392.501	375.23
392.881	351.28
393.26	384.72
393.639	363.71
394.018	388.79
394.397	397.38
394.776	380.88
395.155	384.5
395.534	394.89
395.913	380.43
396.292	393.31
396.671	405.74
397.05	387.66
397.429	400.77
397.808	375.23
398.186	413.87
398.565	404.16
398.944	402.57
399.323	420.2
399.701	400.31
400.08	405.96
400.458	418.62
400.837	396.92
401.215	412.07
401.594	410.48
401.972	404.38
402.351	432.18
402.729	420.88
403.107	426.75
403.486	431.95
403.864	431.5
404.242	455.68
404.62	441.9
404.999	429.47
405.377	452.52
405.755	437.38
406.133	447.77
406.511	470.59
406.889	460.88
407.267	466.75
407.645	498.62
408.023	483.93
408.401	502.46
408.779	510.14
409.156	491.16
409.534	503.36
409.912	493.65
410.29	532.74
410.667	532.74
411.045	555.56
411.422	552.17
411.8	566.19
412.178	579.74
412.555	582.23
412.933	589.46
413.31	586.52
413.687	615.68
414.065	620.2
414.442	594.21
414.819	611.16
415.197	640.99
415.574	655.9
415.951	670.82
416.328	669.46
416.705	683.02
417.082	686.41
417.46	672.17
417.837	702.45
418.214	703.58
418.591	720.53
418.967	732.73
419.344	736.35
419.721	740.87
420.098	768.44
420.475	775.9
420.852	770.47
421.228	765.5
421.605	812.73
421.982	812.73
422.358	822.68
422.735	824.03
423.111	848.44
423.488	847.53
423.864	871.71
424.241	893.18
424.617	907.65
424.994	902.67
425.37	949
425.746	945.16
426.123	968.21
426.499	961.88
426.875	980.86
427.251	983.58
427.627	1024.03
428.003	1053.63
428.379	1047.75
428.756	1073.29
429.132	1046.17
429.507	1089.56
429.883	1076.91
430.259	1094.08
430.635	1126.17
431.011	1144.93
431.387	1154.87
431.763	1164.81
432.138	1180.41
432.514	1207.75
432.89	1212.72
433.265	1266.73
433.641	1265.38
434.016	1275.55
434.392	1332.04
434.767	1315.09
435.143	1356
435.518	1374.53
435.894	1406.84
436.269	1408.42
436.644	1439.16
437.02	1468.53
437.395	1485.94
437.77	1478.7
438.145	1539.04
438.52	1543.11
438.895	1592.37
439.271	1596.67
439.646	1654.52
440.021	1663.11
440.395	1662.2
440.77	1696.78
441.145	1705.36
441.52	1748.3
441.895	1780.17
442.27	1772.71
442.645	1815.42
443.019	1798.92
443.394	1819.71
443.769	1854.97
444.143	1851.35
444.518	1897.45
444.892	1882.08
445.267	1909.43
445.641	1927.96
446.016	1937.9
446.39	1973.83
446.764	1969.99
447.139	1978.58
447.513	2025.58
447.887	2029.65
448.262	2033.72
448.636	2023.55
449.01	2068.52
449.384	2094.28
449.758	2088.41
450.132	2126.37
450.506	2145.58
450.88	2134.05
451.254	2156.65
451.628	2192.13
452.002	2202.3
452.376	2223.32
452.75	2213.37
453.123	2267.16
453.497	2308.51
453.871	2307.16
454.244	2340.6
454.618	2344.22
454.992	2371.11
455.365	2400.49
455.739	2444.55
456.112	2482.75
456.486	2465.57
456.859	2513.25
457.232	2582.18
457.606	2586.25
457.979	2593.25
458.352	2644.55
458.725	2695.4
459.099	2678.9
459.472	2754.38
459.845	2760.25
460.218	2790.08
460.591	2802.51
460.964	2846.58
461.337	2857.2
461.71	2900.14
462.083	2909.63
462.456	2946.24
462.829	2920.7
463.201	3022.62
463.574	3037.53
463.947	3070.3
464.32	3135.38
464.692	3187.36
465.065	3209.51
465.438	3257.87
465.81	3310.75
466.183	3286.79
466.555	3344.19
466.928	3376.06
467.3	3453.79
467.672	3432.78
468.045	3524.75
468.417	3523.62
468.789	3545.99
469.161	3576.95
469.534	3658.53
469.906	3705.31
470.278	3768.81
470.65	3752.32
471.022	3835.7
471.394	3872.99
471.766	3890.62
472.138	3964.74
472.51	4040.9
472.882	4136.26
473.253	4148.69
473.625	4164.51
473.997	4265.75
474.369	4290.16
474.74	4362.92
475.112	4442.24
475.484	4492.86
475.855	4528.34
476.227	4550.94
476.598	4654.67
476.97	4694.89
477.341	4827.32
477.713	4840.42
478.084	4887.43
478.455	4987.31
478.827	5063.69
479.198	5183.47
479.569	5133.75
479.94	5325.16
480.311	5349.79
480.682	5453.29
481.053	5583
481.424	5623.45
481.795	5680.18
482.166	5725.82
482.537	5791.59
482.908	5949.32
483.279	5923.78
483.65	5999.72
484.021	6140.95
484.391	6204.46
484.762	6188.41
485.133	6290.78
485.503	6348.18
485.874	6455.97
486.244	6562.19
486.615	6627.72
486.985	6647.16
487.356	6805.8
487.726	6826.13
488.097	6990.88
488.467	6991.55
488.837	7177.76
489.207	7185.22
489.578	7252.56
489.948	7346.8
490.318	7439.45
490.688	7407.81
491.058	7519.22
491.428	7649.62
491.798	7714.92
492.168	7794.7
492.538	7788.37
492.908	7868.14
493.278	7981.58
493.648	7897.74
494.017	8069.94
494.387	8076.04
494.757	8149.26
495.126	8213.67
495.496	8234.01
495.866	8191.52
496.235	8325.53
496.605	8425.19
496.974	8433.78
497.344	8518.74
497.713	8542.47
498.082	8577.5
498.452	8636.93
498.821	8718.74
499.19	8750.83
499.559	8780.88
499.928	8784.27
500.298	8740.89
500.667	8917.83
501.036	8817.49
501.405	8946.08
501.774	8957.15
502.143	9007.09
502.512	8977.49
502.88	9063.14
503.249	8995.12
503.618	8995.34
503.987	9080.76
504.356	9149.46
504.724	9139.75
505.093	9179.07
505.462	9224.94
505.83	9209.12
506.199	9339.06
506.567	9288.67
506.936	9379.74
507.304	9464.93
507.672	9429.68
508.041	9436.23
508.409	9421.77
508.777	9502.22
509.145	9575.67
509.514	9616.57
509.882	9564.14
510.25	9577.02
510.618	9625.38
510.986	9645.72
511.354	9684.14
511.722	9712.61
512.09	9780.18
512.458	9762.33
512.826	9763.23
513.193	9703.12
513.561	9774.76
513.929	9788.09
514.297	9908.09
514.664	9900.86
515.032	9842.33
515.4	9900.63
515.767	9922.1
516.135	9936.11
516.502	9775.89
516.869	9997.35
517.237	9970.68
517.604	9888.2
517.972	9972.72
518.339	9919.84
518.706	9973.85
519.073	9930.91
519.44	10077.57
519.808	10105.6
520.175	9959.84
520.542	10103.34
520.909	10089.33
521.276	10003.68
521.643	10079.61
522.009	10138.59
522.376	10118.93
522.743	10142.66
523.11	10190.57
523.477	10247.29
523.843	10194.18
524.21	10302.43
524.577	10265.59
524.943	10285.25
525.31	10295.65
525.676	10334.97
526.043	10352.14
526.409	10344.01
526.776	10330.9
527.142	10410.45
527.508	10390.79
527.874	10388.75
528.241	10435.53
528.607	10425.14
528.973	10353.72
529.339	10330.22
529.705	10386.04
530.071	10413.38
530.437	10358.7
530.803	10420.84
531.169	10379.04
531.535	10305.82
531.901	10351.01
532.267	10326.83
532.632	10367.96
532.998	10345.82
533.364	10346.49
533.73	10275.31
534.095	10361.41
534.461	10304.01
534.826	10274.18
535.192	10261.98
535.557	10311.92
535.923	10234.86
536.288	10229.66
536.653	10247.06
537.019	10171.81
537.384	10124.13
537.749	10110.34
538.114	10055.43
538.479	10093.84
538.845	10014.75
539.21	9971.36
539.575	9962.32
539.94	9980.63
540.305	9963.45
540.67	9963
541.034	9907.41
541.399	9879.39
541.764	9871.03
542.129	9881.65
542.494	9776.11
542.858	9777.24
543.223	9746.28
543.587	9732.95
543.952	9734.98
544.316	9701.76
544.681	9641.2
545.045	9644.82
545.41	9638.04
545.774	9626.29
546.138	9568.43
546.503	9517.59
546.867	9501.09
547.231	9519.4
547.595	9472.84
547.959	9435.56
548.324	9403.92
548.688	9389
549.052	9400.53
549.416	9341.77
549.779	9390.36
550.143	9261.32
550.507	9301.32
550.871	9222.68
551.235	9190.14
551.599	9213.19
551.962	9254.32
552.326	9190.14
552.689	9133.87
553.053	9078.05
553.417	9086.87
553.78	9149.24
554.143	9116.24
554.507	9004.38
554.87	9047.54
555.234	9074.89
555.597	8954.44
555.96	8956.7
556.323	8901.33
556.686	8899.53
557.05	8975.91
557.413	8922.12
557.776	8888.9
558.139	8878.06
558.502	8926.64
558.865	8911.5
559.228	8922.58
559.59	8851.39
559.953	8893.42
560.316	8854.1
560.679	8866.08
561.041	8877.61
561.404	8900.43
561.767	8888.9
562.129	8826.31
562.492	8963.25
562.854	8908.34
563.217	8817.27
563.579	8872.41
563.941	8883.48
564.304	8862.69
564.666	8904.95
565.028	8956.02
565.39	8899.3
565.753	8880.09
566.115	8917.6
566.477	8948.56
566.839	8899.75
567.201	8991.27
567.563	8974.55
567.925	9027.66
568.287	8984.5
568.648	8970.94
569.01	9028.11
569.372	9079.86
569.734	8949.69
570.095	9019.3
570.457	9047.09
570.819	9090.48
571.18	9044.83
571.542	9098.16
571.903	9044.83
572.265	9137.71
572.626	9214.32
572.987	9099.75
573.349	9110.37
573.71	9155.56
574.071	9148.78
574.432	9156.47
574.794	9238.95
575.155	9214.32
575.516	9188.78
575.877	9240.53
576.238	9152.85
576.599	9274.43
576.96	9248.67
577.32	9265.84
577.681	9269.46
578.042	9342.9
578.403	9299.52
578.763	9323.02
579.124	9368.67
579.485	9354.43
579.845	9329.57
580.206	9365.5
580.566	9345.84
580.927	9309.46
581.287	9465.84
581.648	9343.13
582.008	9416.12
582.368	9346.29
582.728	9380.87
583.089	9420.87
583.449	9445.05
583.809	9444.14
584.169	9478.27
584.529	9390.81
584.889	9466.06
585.249	9409.57
585.609	9333.64
585.969	9490.7
586.329	9415.67
586.688	9455.9
587.048	9468.32
587.408	9485.73
587.768	9447.76
588.127	9492.28
588.487	9476.91
588.846	9513.3
589.206	9381.1
589.565	9505.39
589.925	9531.6
590.284	9494.76
590.643	9545.38
591.003	9616.8
591.362	9570.69
591.721	9518.49
592.08	9530.24
592.44	9550.58
592.799	9592.84
593.158	9529.34
593.517	9526.85
593.876	9553.52
594.235	9600.52
594.593	9549.45
594.952	9505.61
595.311	9518.94
595.67	9544.25
596.029	9653.18
596.387	9618.15
596.746	9639.17
597.104	9610.69
597.463	9643.24
597.822	9646.62
598.18	9598.72
598.538	9513.75
598.897	9626.29
599.255	9524.37
599.613	9583.8
599.972	9664.7
600.33	9629.45
600.688	9557.14
601.046	9625.61
601.404	9679.62
601.762	9724.59
602.12	9685.04
602.478	9641.43
602.836	9669.45
603.194	9581.99
603.552	9654.31
603.91	9566.63
604.268	9633.52
604.625	9649.56
604.983	9684.82
605.341	9629
605.698	9664.7
606.056	9715.32
606.413	9633.97
606.771	9630.13
607.128	9680.97
607.485	9612.5
607.843	9649.11
608.2	9691.82
608.557	9692.05
608.914	9653.86
609.272	9728.66
609.629	9780.86
609.986	9722.56
610.343	9682.33
610.7	9773.85
611.057	9709.67
611.414	9770.01
611.771	9740.18
612.127	9769.33
612.484	9742.44
612.841	9767.3
613.198	9731.82
613.554	9755.55
613.911	9843.68
614.267	9800.97
614.624	9814.3
614.98	9832.61
615.337	9898.37
615.693	9834.42
616.05	9830.8
616.406	9895.43
616.762	9821.08
617.118	9818.37
617.475	9851.82
617.831	9959.61
618.187	9877.58
618.543	9947.63
618.899	9946.73
619.255	9955.09
619.611	9882.55
619.967	9996.67
620.323	9960.51
620.678	9934.3
621.034	9907.18
621.39	9926.17
621.746	9931.59
622.101	9979.05
622.457	9899.95
622.812	9979.27
623.168	9913.74
623.523	9986.05
623.879	9973.17
624.234	9867.64
624.589	9952.61
624.945	9989.67
625.3	9978.82
625.655	9957.58
626.01	10018.82
626.365	9934.3
626.72	9900.63
627.075	9945.83
627.43	9960.06
627.785	9916
628.14	9892.27
628.495	9856.79
628.85	9989.44
629.205	9871.03
629.559	9931.59
629.914	9823.12
630.269	9889.56
630.623	9847.3
630.978	9755.55
631.332	9898.37
631.687	9929.56
632.041	9809.11
632.396	9788.77
632.75	9843.23
633.104	9752.16
633.459	9800.07
633.813	9761.42
634.167	9763.23
634.521	9732.72
634.875	9778.6
635.229	9726.85
635.583	9683.91
635.937	9700.86
636.291	9699.05
636.645	9661.99
636.999	9620.18
637.352	9684.14
637.706	9648.66
638.06	9750.35
638.413	9633.97
638.767	9550.81
639.121	9600.52
639.474	9582.22
639.828	9587.87
640.181	9599.17
640.534	9578.6
640.888	9507.19
641.241	9492.73
641.594	9588.55
641.947	9593.29
642.301	9556.46
642.654	9552.84
643.007	9580.64
643.36	9487.76
643.713	9472.84
644.066	9575.21
644.419	9460.87
644.771	9381.32
645.124	9364.37
645.477	9312.62
645.83	9252.74
646.182	9207.09
646.535	9165.28
646.888	9222.68
647.24	9189.24
647.593	9203.02
647.945	9147.43
648.298	9163.7
648.65	9131.84
649.002	9121.89
649.355	9193.53
649.707	9167.99
650.059	9189.91
650.411	9301.1
650.763	9234.66
651.115	9376.12
651.467	9337.25
651.819	9320.98
652.171	9435.11
652.523	9361.43
652.875	9359.17
653.227	9320.08
653.578	9397.59
653.93	9331.38
654.282	9334.54
654.633	9347.88
654.985	9354.66
655.337	9346.97
655.688	9298.61
656.039	9438.27
656.391	9304.94
656.742	9319.4
657.094	9362.11
657.445	9378.84
657.796	9413.41
658.147	9303.81
658.498	9341.55
658.849	9392.85
659.2	9373.86
659.551	9285.73
659.902	9385.84
660.253	9352.4
660.604	9360.08
660.955	9333.41
661.306	9411.38
661.656	9358.72
662.007	9389.23
662.358	9382.9
662.708	9431.04
663.059	9436.46
663.409	9387.42
663.76	9427.65
664.11	9400.08
664.461	9449.34
664.811	9441.88
665.161	9417.93
665.511	9467.87
665.862	9424.48
666.212	9437.36
666.562	9439.17
666.912	9484.14
667.262	9453.64
667.612	9437.36
667.962	9404.37
668.312	9408.44
668.662	9465.61
669.011	9403.47
669.361	9355.79
669.711	9402.11
670.06	9378.84
670.41	9363.92
670.76	9343.36
671.109	9413.64
671.459	9342.9
671.808	9395.78
672.157	9386.97
672.507	9318.05
672.856	9356.91
673.205	9381.55
673.554	9398.5
673.904	9333.64
674.253	9304.94
674.602	9339.06
674.951	9255.9
675.3	9163.25
675.649	9262.45
675.998	9289.35
676.346	9287.76
676.695	9355.79
677.044	9175.68
677.393	9248.9
677.741	9221.78
678.09	9199.41
678.438	9158.73
678.787	9195.79
679.135	9186.98
679.484	9156.02
679.832	9152.85
680.181	9175.9
680.529	9151.04
680.877	9117.6
681.225	9093.19
681.573	9187.43
681.922	9064.49
682.27	9010.26
682.618	8979.75
682.966	9010.71
683.314	8994.44
683.661	8970.26
684.009	8970.03
684.357	8961.45
684.705	8891.39
685.053	8954.89
685.4	8902.69
685.748	8828.12
686.095	8758.51
686.443	8760.77
686.79	8768.46
687.138	8791.73
687.485	8811.17
687.832	8743.15
688.18	8789.47
688.527	8714.9
688.874	8690.49
689.221	8707.89
689.568	8668.57
689.915	8587.22
690.262	8573.21
690.609	8582.02
690.956	8524.62
691.303	8521.91
691.65	8469.03
691.997	8497.95
692.344	8427.22
692.69	8395.58
693.037	8388.13
693.383	8308.13
693.73	8323.27
694.077	8292.31
694.423	8268.81
694.769	8248.7
695.116	8262.71
695.462	8182.48
695.808	8159.88
696.155	8183.84
696.501	8128.02
696.847	8081.47
697.193	8072.43
697.539	8054.8
697.885	7988.14
698.231	7972.09
698.577	7965.31
698.923	7966.22
699.269	7838.54
699.614	7844.41
699.96	7867.69
700.306	7820.23
700.651	7754.02
700.997	7728.94
701.342	7735.04
701.688	7683.96
702.033	7701.59
702.379	7645.1
702.724	7606.9
703.069	7644.19
703.415	7576.17
703.76	7558.54
704.105	7526
704.45	7474.93
704.795	7425.21
705.14	7447.59
705.485	7358.32
705.83	7385.22
706.175	7338.21
706.52	7321.71
706.865	7290.53
707.209	7337.99
707.554	7326.46
707.899	7241.72
708.243	7261.83
708.588	7256.41
708.932	7129.18
709.277	7184.09
709.621	7182.06
709.966	7144.77
710.31	7097.54
710.654	7032.23
710.998	7050.99
711.342	7087.37
711.687	6997.65
712.031	7007.37
712.375	7038.56
712.719	6958.33
713.063	6981.61
713.407	7025.68
713.75	6976.64
714.094	6907.04
714.438	6937.09
714.782	6962.4
715.125	6900.48
715.469	6928.28
715.812	6868.39
716.156	6761.05
716.499	6807.15
716.843	6903.87
717.186	6807.38
717.53	6881.05
717.873	6825.46
718.216	6796.53
718.559	6787.49
718.902	6730.09
719.246	6741.39
719.589	6743.65
719.932	6671.56
720.275	6708.17
720.617	6673.82
720.96	6714.72
721.303	6685.35
721.646	6699.58
721.989	6671.56
722.331	6703.88
722.674	6661.39
723.016	6648.74
723.359	6654.84
723.701	6681.28
724.044	6647.61
724.386	6576.42
724.729	6631.56
725.071	6610.32
725.413	6684.44
725.755	6608.29
726.097	6594.28
726.439	6554.95
726.782	6609.64
727.124	6590.21
727.465	6619.36
727.807	6571
728.149	6605.35
728.491	6585.01
728.833	6561.06
729.175	6559.02
729.516	6578.23
729.858	6544.56
730.199	6553.82
730.541	6499.59
730.882	6545.69
731.224	6613.26
731.565	6532.13
731.906	6553.82
732.248	6560.38
732.589	6570.55
732.93	6551.79
733.271	6507.27
733.612	6514.05
733.953	6557.89
734.294	6527.84
734.635	6514.28
734.976	6561.06
735.317	6525.8
735.658	6577.33
735.999	6546.37
736.339	6529.19
736.68	6601.73
737.021	6589.3
737.361	6566.93
737.702	6635.63
738.042	6555.86
738.383	6554.73
738.723	6526.25
739.063	6604.67
739.404	6596.08
739.744	6588.4
740.084	6570.77
740.424	6624.78
740.764	6571.9
741.104	6701.84
741.444	6649.64
741.784	6646.93
742.124	6720.15
742.464	6707.27
742.804	6715.18
743.143	6709.75
743.483	6756.31
743.823	6711.11
744.162	6759.7
744.502	6817.09
744.841	6822.29
745.181	6882.18
745.52	6865.46
745.86	6950.42
746.199	6976.64
746.538	6970.76
746.877	7011.21
747.216	7081.27
747.556	7088.27
747.895	7149.06
748.234	7182.06
748.573	7213.02
748.911	7195.84
749.25	7285.33
749.589	7384.09
749.928	7427.02
750.267	7525.78
750.605	7687.58
750.944	7637.19
751.283	7705.66
751.621	7852.77
751.96	7916.5
752.298	7968.7
752.636	8097.06
752.975	8125.99
753.313	8259.54
753.651	8383.16
753.989	8381.8
754.327	8565.07
754.666	8622.92
755.004	8715.35
755.342	8851.39
755.679	9010.48
756.017	9091.84
756.355	9267.43
756.693	9351.04
757.031	9482.11
757.368	9629.45
757.706	9794.19
758.044	9962.1
758.381	10026.05
758.719	10265.59
759.056	10462.87
759.394	10543.1
759.731	10674.62
760.068	10818.12
760.405	10940.6
760.743	11137.66
761.08	11405
761.417	11495.84
761.754	11663.52
762.091	11879.79
762.428	12105.54
762.765	12198.87
763.102	12419.89
763.438	12528.58
763.775	12678.41
764.112	12948.23
764.449	13069.36
764.785	13243.14
765.122	13379.86
765.458	13553.19
765.795	13707.08
766.131	13840.64
766.467	14047.64
766.804	14125.38
767.14	14253.74
767.476	14417.8
767.812	14618.25
