Data from hue_32_FLMS001491_00035.txt Node
Date: Tue Feb 07 17:23:18 GMT 2017
User: dcchb
Spectrometer: FLMS00149
Trigger mode: 0
Integration Time (sec): 2.000000E-2
Scans to average: 10
Electric dark correction enabled: true
Nonlinearity correction enabled: false
Boxcar width: 0
XAxis mode: Wavelengths
Number of Pixels in Spectrum: 2048
>>>>>Begin Spectral Data<<<<<
341.393	-33.21
341.776	-33.21
342.16	-33.21
342.543	-44.96
342.927	-85.63
343.31	-58.97
343.693	-66.2
344.077	-53.32
344.46	-67.78
344.843	-60.32
345.226	-43.6
345.61	-31.17
345.993	-18.74
346.376	-16.93
346.759	9.05
347.142	26.68
347.525	52.89
347.908	51.31
348.291	63.06
348.674	108.71
349.057	105.32
349.44	124.3
349.823	126.11
350.206	125.89
350.588	194.13
350.971	208.14
351.354	241.59
351.737	244.3
352.119	251.98
352.502	280.68
352.884	312.77
353.267	289.95
353.65	283.4
354.032	293.57
354.414	308.93
354.797	309.84
355.179	314.36
355.562	340.8
355.944	334.47
356.326	356.16
356.709	329.5
357.091	325.43
357.473	355.71
357.855	337.18
358.238	343.06
358.62	356.61
359.002	330.4
359.384	351.64
359.766	333.79
360.148	346.45
360.53	354.13
360.912	329.5
361.294	339.44
361.676	334.24
362.057	333.79
362.439	352.1
362.821	324.3
363.203	325.43
363.584	327.46
363.966	324.07
364.348	331.76
364.729	301.02
365.111	286.33
365.493	304.86
365.874	323.4
366.256	301.7
366.637	305.77
367.019	309.38
367.4	304.41
367.781	317.52
368.163	311.42
368.544	303.73
368.925	321.36
369.306	320.46
369.688	304.19
370.069	321.14
370.45	315.94
370.831	310.29
371.212	312.55
371.593	318.65
371.974	332.66
372.355	315.49
372.736	318.42
373.117	306.9
373.498	320.46
373.879	331.76
374.26	315.49
374.641	324.3
375.021	307.58
375.402	320.68
375.783	317.52
376.163	320.23
376.544	329.5
376.925	304.19
377.305	325.88
377.686	359.1
378.066	327.46
378.447	321.36
378.827	344.64
379.208	319.1
379.588	335.15
379.968	328.82
380.349	337.63
380.729	341.7
381.109	338.54
381.489	336.05
381.87	358.2
382.25	338.99
382.63	368.59
383.01	352.1
383.39	344.86
383.77	357.07
384.15	348.25
384.53	332.89
384.91	347.12
385.29	339.89
385.67	341.25
386.049	347.58
386.429	342.15
386.809	358.2
387.189	365.88
387.568	363.39
387.948	362.94
388.328	371.76
388.707	371.3
389.087	348.93
389.466	374.69
389.846	363.85
390.225	372.89
390.605	344.64
390.984	342.38
391.363	366.56
391.743	365.88
392.122	394.58
392.501	377.86
392.881	381.47
393.26	377.18
393.639	370.17
394.018	377.86
394.397	377.18
394.776	387.57
395.155	395.48
395.534	383.73
395.913	388.93
396.292	362.94
396.671	385.77
397.05	361.59
397.429	381.7
397.808	372.43
398.186	385.99
398.565	381.7
398.944	390.06
399.323	409.95
399.701	404.3
400.08	397.97
400.458	392.32
400.837	393
401.215	376.95
401.594	398.65
401.972	381.25
402.351	406.56
402.729	392.09
403.107	407.69
403.486	414.69
403.864	404.07
404.242	412.43
404.62	420.57
404.999	416.73
405.377	429.83
405.755	417.18
406.133	415.37
406.511	432.32
406.889	435.93
407.267	418.76
407.645	427.35
408.023	443.17
408.401	415.82
408.779	437.29
409.156	422.83
409.534	424.86
409.912	458.53
410.29	443.17
410.667	453.34
411.045	456.5
411.422	463.73
411.8	450.4
412.178	476.39
412.555	462.37
412.933	469.83
413.31	459.44
413.687	456.05
414.065	474.58
414.442	488.81
414.819	476.39
415.197	476.84
415.574	475.93
415.951	495.59
416.328	491.53
416.705	494.01
417.082	507.35
417.46	511.41
417.837	484.3
418.214	500.57
418.591	512.32
418.967	525.42
419.344	514.8
419.721	510.74
420.098	508.93
420.475	521.36
420.852	516.38
421.228	505.99
421.605	518.87
421.982	538.98
422.358	535.14
422.735	551.19
423.111	522.71
423.488	544.86
423.864	549.6
424.241	552.77
424.617	545.99
424.994	566.1
425.37	558.87
425.746	581.47
426.123	553.22
426.499	576.95
426.875	547.12
427.251	570.17
427.627	574.91
428.003	610.62
428.379	573.56
428.756	583.95
429.132	591.19
429.507	585.76
429.883	607.46
430.259	590.96
430.635	601.13
431.011	609.26
431.387	612.65
431.763	640.9
432.138	621.92
432.514	653.1
432.89	640.45
433.265	636.38
433.641	672.09
434.016	666.66
434.392	671.18
434.767	668.7
435.143	680.45
435.518	670.28
435.894	694.23
436.269	683.39
436.644	691.07
437.02	707.57
437.395	703.05
437.77	688.58
438.145	701.69
438.52	721.8
438.895	726.1
439.271	735.14
439.646	734.23
440.021	746.44
440.395	739.66
440.77	734.46
441.145	748.7
441.52	741.46
441.895	753.21
442.27	764.97
442.645	756.83
443.019	752.99
443.394	749.82
443.769	791.63
444.143	785.98
444.518	780.56
444.892	788.02
445.267	787.79
445.641	787.79
446.016	782.82
446.39	794.34
446.764	823.5
447.139	823.72
447.513	803.38
447.887	788.24
448.262	819.2
448.636	830.5
449.01	843.83
449.384	839.09
449.758	852.2
450.132	838.86
450.506	846.32
450.88	859.43
451.254	849.26
451.628	859.65
452.002	886.54
452.376	877.51
452.75	884.74
453.123	878.41
453.497	907.33
453.871	917.73
454.244	926.09
454.618	926.09
454.992	938.97
455.365	908.92
455.739	963.83
456.112	963.83
456.486	971.97
456.859	950.27
457.232	971.06
457.606	994.56
457.979	1024.85
458.352	1022.59
458.725	1034.79
459.099	1074.56
459.472	1025.75
459.845	1063.49
460.218	1050.61
460.591	1077.95
460.964	1062.59
461.337	1114.79
461.71	1104.39
462.083	1138.29
462.456	1129.02
462.829	1145.29
463.201	1151.85
463.574	1163.15
463.947	1162.92
464.32	1202.92
464.692	1204.05
465.065	1245.86
465.438	1215.58
465.81	1257.61
466.183	1306.42
466.555	1277.95
466.928	1277.04
467.3	1296.93
467.672	1300.54
468.045	1353.2
468.417	1371.96
468.789	1385.29
469.161	1384.16
469.534	1408.11
469.906	1474.78
470.278	1467.09
470.65	1463.48
471.022	1495.12
471.394	1543.7
471.766	1527.66
472.138	1567.66
472.51	1577.15
472.882	1604.04
473.253	1618.5
473.625	1654.89
473.997	1712.51
474.369	1714.09
474.74	1757.93
475.112	1802.68
475.484	1823.02
475.855	1888.1
476.227	1904.6
476.598	1965.39
476.97	1972.39
477.341	2042.45
477.713	2089.22
478.084	2086.51
478.455	2164.03
478.827	2199.73
479.198	2245.15
479.569	2329.44
479.94	2368.09
480.311	2362.44
480.682	2458.03
481.053	2500.51
481.424	2601.08
481.795	2639.72
482.166	2686.27
482.537	2722.2
482.908	2823.22
483.279	2856.44
483.65	2963.33
484.021	3033.38
484.391	3086.49
484.762	3119.25
485.133	3183.66
485.503	3217.33
485.874	3353.37
486.244	3367.16
486.615	3437.44
486.985	3582.29
487.356	3654.38
487.726	3737.09
488.097	3838.56
488.467	3834.04
488.837	3958.78
489.207	3999.68
489.578	4120.81
489.948	4159.23
490.318	4286.68
490.688	4318.32
491.058	4422.72
491.428	4519.67
491.798	4556.73
492.168	4706.11
492.538	4752.66
492.908	4842.15
493.278	4880.79
493.648	4947.23
494.017	5053.21
494.387	5116.04
494.757	5190.16
495.126	5292.53
495.496	5309.71
495.866	5396.71
496.235	5479.87
496.605	5535.69
496.974	5655.46
497.344	5710.6
497.713	5711.5
498.082	5810.03
498.452	5896.13
498.821	5957.15
499.19	5997.82
499.559	6093.87
499.928	6116.46
500.298	6203.01
500.667	6297.7
501.036	6335.67
501.405	6390.81
501.774	6396.68
502.143	6500.86
502.512	6561.2
502.88	6603.68
503.249	6616.79
503.618	6658.37
503.987	6713.28
504.356	6834.18
504.724	6857.91
505.093	6909.66
505.462	6953.96
505.83	7058.13
506.199	7084.8
506.567	7201.18
506.936	7176.77
507.304	7276.21
507.672	7264.46
508.041	7381.06
508.409	7449.08
508.777	7545.8
509.145	7526.82
509.514	7548.74
509.882	7616.31
510.25	7715.52
510.618	7741.05
510.986	7736.99
511.354	7843.88
511.722	7917.77
512.09	7932.46
512.458	7939.92
512.826	8035.96
513.193	8103.3
513.561	8088.62
513.929	8109.86
514.297	8301.26
514.664	8282.51
515.032	8320.25
515.4	8371.77
515.767	8350.3
516.135	8439.79
516.502	8364.99
516.869	8610.86
517.237	8550.75
517.604	8606.34
517.972	8677.98
518.339	8709.39
518.706	8679.56
519.073	8785.55
519.44	8806.79
519.808	8900.35
520.175	8905.09
520.542	8985.99
520.909	9031.64
521.276	9015.14
521.643	9076.16
522.009	9144.18
522.376	9195.93
522.743	9220.79
523.11	9325.42
523.477	9435.02
523.843	9447.68
524.21	9522.48
524.577	9546.66
524.943	9612.87
525.31	9661.68
525.676	9804.28
526.043	9828.46
526.409	9851.28
526.776	9927.66
527.142	9927.21
527.508	9982.58
527.874	10041.78
528.241	10111.84
528.607	10110.03
528.973	10231.16
529.339	10253.3
529.705	10387.99
530.071	10399.06
530.437	10435.67
530.803	10504.82
531.169	10586.18
531.535	10568.55
531.901	10638.15
532.267	10667.98
532.632	10693.29
532.998	10817.36
533.364	10851.03
533.73	10859.16
534.095	10946.39
534.461	10965.15
534.826	11061.19
535.192	11022.1
535.557	11103.45
535.923	11150.91
536.288	11261.19
536.653	11202.66
537.019	11175.54
537.384	11308.42
537.749	11370.79
538.114	11400.39
538.479	11388.19
538.845	11474.06
539.21	11473.84
539.575	11601.29
539.94	11624.34
540.305	11683.1
540.67	11691.68
541.034	11697.33
541.399	11782.08
541.764	11815.07
542.129	11837.44
542.494	11930.55
542.858	11965.12
543.223	11971.68
543.587	12099.36
543.952	12105.46
544.316	12127.38
544.681	12189.52
545.045	12210.77
545.41	12308.39
545.774	12288.73
546.138	12397.43
546.503	12324.66
546.867	12429.97
547.231	12533.92
547.595	12645.56
547.959	12665.44
548.324	12685.56
548.688	12730.3
549.052	12674.48
549.416	12787.7
549.779	12795.84
550.143	12827.93
550.507	12954.7
550.871	12943.18
551.235	12992.89
551.599	13034.7
551.962	13089.39
552.326	13089.39
552.689	13120.12
553.053	13141.59
553.417	13186.56
553.78	13403.05
554.143	13278.54
554.507	13355.82
554.87	13453.22
555.234	13526.66
555.597	13382.49
555.96	13587.68
556.323	13618.64
556.686	13610.5
557.05	13730.5
557.413	13710.16
557.776	13744.06
558.139	13789.93
558.502	13782.25
558.865	13956.48
559.228	14003.94
559.59	14005.75
559.953	14081.9
560.316	14180.88
560.679	14182.47
561.041	14231.5
561.404	14298.17
561.767	14301.33
562.129	14322.58
562.492	14506.3
562.854	14406.19
563.217	14454.1
563.579	14462.68
563.941	14610.25
564.304	14691.61
564.666	14710.14
565.028	14763.24
565.39	14723.69
565.753	14894.54
566.115	14911.71
566.477	14984.48
566.839	15127.53
567.201	15103.35
567.563	15131.37
567.925	15261.99
568.287	15312.15
568.648	15316
569.01	15385.6
569.372	15553.5
569.734	15469.66
570.095	15525.03
570.457	15613.61
570.819	15704.23
571.18	15692.48
571.542	15816.55
571.903	15884.79
572.265	15991.46
572.626	15959.37
572.987	16086.82
573.349	16096.54
573.71	16141.28
574.071	16260.38
574.432	16320.71
574.794	16489.07
575.155	16472.12
575.516	16589.63
575.877	16632.35
576.238	16762.74
576.599	16936.07
576.96	17064.88
577.32	17103.97
577.681	17342.16
578.042	17451.31
578.403	17508.93
578.763	17567.69
579.124	17658.31
579.485	17781.47
579.845	18029.37
580.206	18120.22
580.566	18337.39
580.927	18368.12
581.287	18649.92
581.648	18717.26
582.008	18969.23
582.368	19111.6
582.728	19280.86
583.089	19462.1
583.449	19646.28
583.809	19815.76
584.169	20111.35
584.529	20167.62
584.889	20523.54
585.249	20633.82
585.609	20781.84
585.969	21136.41
586.329	21221.83
586.688	21636.73
587.048	21751.53
587.408	21892.55
587.768	22166.66
588.127	22456.6
588.487	22674.9
588.846	22958.51
589.206	23020.2
589.565	23342.23
589.925	23756
590.284	23912.61
590.643	24232.82
591.003	24548.07
591.362	24841.62
591.721	24970.21
592.08	25393.24
592.44	25575.39
592.799	25892.89
593.158	26205.2
593.517	26444.29
593.876	26736.26
594.235	26866.88
594.593	27206.08
594.952	27541.21
595.311	27706.18
595.67	28013.29
596.029	28371.47
596.387	28644.91
596.746	28995.64
597.104	29118.57
597.463	29329.41
597.822	29615.96
598.18	29814.82
598.538	30045.78
598.897	30420.91
599.255	30510.85
599.613	31141.79
599.972	31181.34
600.33	31432.86
600.688	31696.81
601.046	32035.33
601.404	32365.72
601.762	32401.2
602.12	32640.74
602.478	32949.2
602.836	33115.75
603.194	33195.75
603.552	33596.19
603.91	33531.56
604.268	33908.5
604.625	34044.77
604.983	34409.28
605.341	34456.51
605.698	34892.66
606.056	34979.89
606.413	35203.38
606.771	35475.01
607.128	35664.84
607.485	35691.51
607.843	35877.49
608.2	36277.25
608.557	36589.56
608.914	36556.34
609.272	36930.79
609.629	37104.58
609.986	37241.52
610.343	37315.42
610.7	37479.48
611.057	37868.17
611.414	37977.77
611.771	38197.2
612.127	38298.44
612.484	38373.69
612.841	38488.72
613.198	38666.57
613.554	38759.45
613.911	38968.03
614.267	39088.25
614.624	39156.5
614.98	39286.66
615.337	39703.15
615.693	39772.08
616.05	39800.32
616.406	39974.33
616.762	40024.05
617.118	40231.5
617.475	40233.08
617.831	40386.52
618.187	40592.17
618.543	40555.33
618.899	41063.34
619.255	40982.44
619.611	40987.19
619.967	41402.54
620.323	41417.91
620.678	41355.99
621.034	41218.37
621.39	41478.7
621.746	41381.07
622.101	41908.74
622.457	41660.84
622.812	41880.27
623.168	42025.58
623.523	42002.75
623.879	42125.46
624.234	41877.56
624.589	42224.44
624.945	42394.15
625.3	42246.59
625.655	42292.01
626.01	42338.56
626.365	42389.63
626.72	42507.82
627.075	42543.98
627.43	42482.51
627.785	42509.18
628.14	42571.1
628.495	42673.47
628.85	42764.09
629.205	42411.55
629.559	42991.43
629.914	42801.15
630.269	42716.86
630.623	42717.99
630.978	42730.19
631.332	42770.87
631.687	42910.52
632.041	42801.6
632.396	43039.79
632.75	42714.82
633.104	42812.45
633.459	42672.34
633.813	42754.37
634.167	42888.38
634.521	42854.48
634.875	42891.54
635.229	42895.61
635.583	42687.03
635.937	42731.77
636.291	42718.44
636.645	42728.61
636.999	42695.16
637.352	42756.86
637.706	42619.68
638.06	42835.5
638.413	42771.09
638.767	42740.81
639.121	42732.9
639.474	42662.62
639.828	42691.55
640.181	42621.49
640.534	42663.53
640.888	42490.42
641.241	42401.39
641.594	42580.59
641.947	42732.22
642.301	42554.15
642.654	42557.99
643.007	42488.16
643.36	42506.92
643.713	42469.41
644.066	42539.69
644.419	42344.89
644.771	42075.97
645.124	41704.45
645.477	41662.42
645.83	41357.57
646.182	41334.52
646.535	41130.46
646.888	41334.75
647.24	41129.1
647.593	41322.54
647.945	41266.27
648.298	40967.75
648.65	41146.28
649.002	40959.16
649.355	41277.57
649.707	41186.95
650.059	41317.12
650.411	41661.07
650.763	41702.65
651.115	42138.12
651.467	41861.29
651.819	41936.76
652.171	41849.31
652.523	41688.86
652.875	41917.78
653.227	41674.17
653.578	41855.64
653.93	41744.45
654.282	41838.69
654.633	41673.95
654.985	41632.82
655.337	41584.23
655.688	41797.79
656.039	41868.07
656.391	41605.93
656.742	41588.53
657.094	41659.48
657.445	41836.88
657.796	41633.95
658.147	41538.81
658.498	41714.4
658.849	41728.18
659.2	41642.54
659.551	41412.48
659.902	41698.58
660.253	41472.37
660.604	41586.49
660.955	41344.01
661.306	41563.44
661.656	41552.37
662.007	41484.35
662.358	41503.78
662.708	41537.68
663.059	41538.58
663.409	41232.6
663.76	41521.63
664.11	41492.93
664.461	41372.26
664.811	41369.77
665.161	41651.57
665.511	41399.15
665.862	41390.34
666.212	41486.61
666.562	41396.89
666.912	41242.77
667.262	41242.55
667.612	41263.11
667.962	41235.54
668.312	41275.54
668.662	41597.56
669.011	41454.29
669.361	41191.25
669.711	41299.27
670.06	41321.64
670.41	41179.04
670.76	41127.75
671.109	41257.91
671.459	41199.83
671.808	41333.39
672.157	41288.65
672.507	41023.34
672.856	40961.87
673.205	41061.99
673.554	41038.94
673.904	41091.59
674.253	41287.74
674.602	41011.37
674.951	40539.74
675.3	40359.86
675.649	40940.63
675.998	40967.75
676.346	40990.8
676.695	41099.72
677.044	40732.05
677.393	40886.85
677.741	40859.5
678.09	40781.99
678.438	40653.86
678.787	40825.83
679.135	40779.73
679.484	40554.2
679.832	40736.8
680.181	40496.58
680.529	40781.09
680.877	40357.82
681.225	40492.51
681.573	40697.48
681.922	40434.21
682.27	40333.19
682.618	40242.35
682.966	40133.87
683.314	40257.03
683.661	40128.9
684.009	39977.95
684.357	39977.95
684.705	39940.21
685.053	40005.97
685.4	39860.21
685.748	39622.93
686.095	39663.15
686.443	39589.93
686.79	39357.85
687.138	39581.35
687.485	39531.4
687.832	39438.07
688.18	39509.71
688.527	39116.27
688.874	39123.73
689.221	39033.79
689.568	39020.23
689.915	39004.64
690.262	38936.62
690.609	38825.21
690.956	38693.69
691.303	38586.34
691.65	38485.56
691.997	38440.59
692.344	38213.7
692.69	38134.38
693.037	38298.67
693.383	37959.92
693.73	38139.58
694.077	37789.08
694.423	37883.31
694.769	37802.18
695.116	37763.54
695.462	37602.19
695.808	37572.81
696.155	37579.59
696.501	37237
696.847	37316.77
697.193	37059.83
697.539	37203.1
697.885	36984.13
698.231	36993.39
698.577	36929.44
698.923	36748.2
699.269	36606.51
699.614	36539.39
699.96	36399.06
700.306	36409.23
700.651	36345.05
700.997	36220.98
701.342	36014.89
701.688	36163.13
702.033	35962.46
702.379	35766.76
702.724	35772.18
703.069	35961.33
703.415	35407.9
703.76	35427.11
704.105	35469.59
704.45	35244.74
704.795	35102.59
705.14	35077.28
705.485	35009.04
705.83	34930.85
706.175	34915.71
706.52	34815.14
706.865	34709.38
707.209	34680.01
707.554	34596.62
707.899	34643.17
708.243	34478.43
708.588	34379.9
708.932	34094.94
709.277	34062.4
709.621	34162.96
709.966	34002.51
710.31	33926.58
710.654	33722.07
710.998	33701.5
711.342	33770.88
711.687	33720.94
712.031	33536.53
712.375	33362.07
712.719	33494.05
713.063	33329.76
713.407	33518.91
713.75	33281.4
714.094	33212.02
714.438	33105.36
714.782	33232.59
715.125	32892.71
715.469	33067.62
715.812	32868.08
716.156	32689.78
716.499	32675.54
716.843	32823.56
717.186	32509.67
717.53	32723.22
717.873	32638.25
718.216	32549.21
718.559	32525.49
718.902	32218.38
719.246	32296.57
719.589	32213.18
719.932	31993.75
720.275	32130.92
720.617	32198.04
720.96	31982.22
721.303	31994.2
721.646	32038.04
721.989	31625.62
722.331	31964.6
722.674	31775.45
723.016	31777.26
723.359	31865.39
723.701	31723.7
724.044	31553.99
724.386	31439.19
724.729	31530.48
725.071	31424.27
725.413	31508.56
725.755	31459.07
726.097	31249.81
726.439	31090.95
726.782	31217.05
727.124	31255.92
727.465	31003.27
727.807	30985.41
728.149	31003.94
728.491	30924.4
728.833	30929.82
729.175	30883.95
729.516	30823.38
729.858	30790.16
730.199	30610.96
730.541	30645.54
730.882	30614.8
731.224	30704.29
731.565	30500.23
731.906	30492.09
732.248	30492.32
732.589	30323.06
732.93	30151.99
733.271	30343.4
733.612	30256.62
733.953	30309.95
734.294	30228.37
734.635	29990.64
734.976	30291.42
735.317	30073.35
735.658	30048.04
735.999	30013.24
736.339	29912.22
736.68	30109.96
737.021	29870.87
737.361	29637.88
737.702	30022.95
738.042	29792.68
738.383	29754.94
738.723	29737.99
739.063	29754.71
739.404	29780.47
739.744	29628.84
740.084	29448.05
740.424	29555.4
740.764	29492.12
741.104	29540.25
741.444	29387.26
741.784	29196.08
742.124	29333.48
742.464	29202.18
742.804	29215.74
743.143	29121.73
743.483	29169.42
743.823	29045.13
744.162	28989.76
744.502	29029.99
744.841	28810.33
745.181	29036.09
745.52	28763.33
745.86	29008.74
746.199	28874.74
746.538	28766.49
746.877	28910.89
747.216	28657.34
747.556	28703.89
747.895	28854.17
748.234	28641.07
748.573	28557.23
748.911	28538.7
749.25	28507.97
749.589	28504.58
749.928	28442.66
750.267	28437.68
750.605	28433.16
750.944	28342.77
751.283	28260.06
751.621	28224.13
751.96	28250.12
752.298	28188.65
752.636	28087.41
752.975	27947.53
753.313	27850.36
753.651	27993.63
753.989	27816.46
754.327	27881.31
754.666	27716.57
755.004	27702.79
755.342	27643.13
755.679	27675.44
756.017	27492.62
756.355	27613.07
756.693	27470.93
757.031	27418.05
757.368	27266.64
757.706	27252.63
