Data from hue_230_FLMS001491_00044.txt Node
Date: Tue Feb 07 16:37:16 GMT 2017
User: dcchb
Spectrometer: FLMS00149
Trigger mode: 0
Integration Time (sec): 2.000000E-2
Scans to average: 10
Electric dark correction enabled: true
Nonlinearity correction enabled: false
Boxcar width: 0
XAxis mode: Wavelengths
Number of Pixels in Spectrum: 2048
>>>>>Begin Spectral Data<<<<<
341.393	-10.3
341.776	-10.3
342.16	-10.3
342.543	-29.96
342.927	-75.38
343.31	-64.98
343.693	-50.52
344.077	-68.15
344.46	-70.18
344.843	-67.02
345.226	-43.52
345.61	-50.97
345.993	-23.86
346.376	-4.19
346.759	20.44
347.142	33.32
347.525	44.62
347.908	55.46
348.291	81.9
348.674	92.53
349.057	115.12
349.44	130.26
349.823	136.59
350.206	150.6
350.588	173.88
350.971	213.2
351.354	216.59
351.737	218.4
352.119	246.19
352.502	251.39
352.884	278.28
353.267	258.4
353.65	274.67
354.032	291.39
354.414	290.94
354.797	310.15
355.179	328.23
355.562	312.63
355.944	318.73
356.326	311.73
356.709	298.62
357.091	330.94
357.473	319.19
357.855	332.75
358.238	337.94
358.62	342.01
359.002	323.48
359.384	343.37
359.766	347.66
360.148	335.68
360.53	330.94
360.912	306.08
361.294	316.7
361.676	314.21
362.057	337.94
362.439	311.5
362.821	329.13
363.203	311.73
363.584	290.03
363.966	325.06
364.348	329.58
364.729	326.19
365.111	310.15
365.493	323.25
365.874	292.29
366.256	327.55
366.637	313.08
367.019	295.46
367.4	318.06
367.781	302.01
368.163	299.53
368.544	300.2
368.925	295.91
369.306	290.71
369.688	300.66
370.069	295.68
370.45	306.76
370.831	287.32
371.212	283.93
371.593	277.61
371.974	304.5
372.355	304.72
372.736	312.63
373.117	310.15
373.498	310.6
373.879	306.98
374.26	302.01
374.641	316.25
375.021	319.86
375.402	306.98
375.783	293.88
376.163	309.02
376.544	311.96
376.925	314.44
377.305	299.53
377.686	322.58
378.066	314.21
378.447	300.88
378.827	319.86
379.208	320.77
379.588	315.12
379.968	323.48
380.349	330.49
380.729	322.8
381.109	321.67
381.489	324.38
381.87	340.88
382.25	325.74
382.63	337.72
383.01	341.56
383.39	329.36
383.77	333.2
384.15	338.4
384.53	325.51
384.91	340.88
385.29	329.36
385.67	363.48
386.049	338.4
386.429	337.94
386.809	344.5
387.189	356.7
387.568	336.14
387.948	373.65
388.328	344.95
388.707	327.1
389.087	329.13
389.466	355.34
389.846	355.57
390.225	337.72
390.605	347.21
390.984	356.93
391.363	353.31
391.743	358.06
392.122	355.8
392.501	360.32
392.881	370.94
393.26	374.33
393.639	388.79
394.018	349.02
394.397	373.65
394.776	356.7
395.155	361.67
395.534	365.51
395.913	363.03
396.292	382.24
396.671	384.27
397.05	382.91
397.429	387.21
397.808	367.55
398.186	362.12
398.565	388.34
398.944	387.89
399.323	396.92
399.701	397.15
400.08	369.81
400.458	382.24
400.837	379.52
401.215	407.09
401.594	419.52
401.972	407.77
402.351	404.38
402.729	407.09
403.107	404.61
403.486	410.48
403.864	415.46
404.242	418.17
404.62	417.04
404.999	414.78
405.377	410.48
405.755	413.65
406.133	427.21
406.511	417.26
406.889	443.25
407.267	426.3
407.645	464.72
408.023	453.65
408.401	449.8
408.779	436.02
409.156	456.13
409.534	478.05
409.912	452.29
410.29	488.45
410.667	470.59
411.045	490.26
411.422	490.03
411.8	496.58
412.178	513.76
412.555	503.59
412.933	513.31
413.31	519.63
413.687	513.08
414.065	531.84
414.442	528.67
414.819	537.94
415.197	567.54
415.574	558.28
415.951	560.99
416.328	555.56
416.705	565.96
417.082	581.1
417.46	584.26
417.837	606.86
418.214	613.87
418.591	615.45
418.967	610.48
419.344	614.77
419.721	633.53
420.098	640.76
420.475	640.08
420.852	645.96
421.228	647.77
421.605	656.8
421.982	675.79
422.358	676.69
422.735	702.45
423.111	717.82
423.488	699.74
423.864	704.49
424.241	734.09
424.617	741.1
424.994	755.79
425.37	743.81
425.746	745.62
426.123	774.99
426.499	793.07
426.875	796.01
427.251	793.75
427.627	824.03
428.003	845.73
428.379	841.66
428.756	833.98
429.132	859.96
429.507	882.56
429.883	867.87
430.259	902.67
430.635	878.72
431.011	903.13
431.387	917.59
431.763	929.79
432.138	925.05
432.514	939.28
432.89	967.08
433.265	984.25
433.641	983.8
434.016	991.26
434.392	986.06
434.767	1019.28
435.143	1061.54
435.518	1075.1
435.894	1051.14
436.269	1106.96
436.644	1119.62
437.02	1124.59
437.395	1123.91
437.77	1150.13
438.145	1182.44
438.52	1186.28
438.895	1211.14
439.271	1224.02
439.646	1228.09
440.021	1245.26
440.395	1272.61
440.77	1235.32
441.145	1272.61
441.52	1297.24
441.895	1316
442.27	1322.32
442.645	1335.21
443.019	1361.64
443.394	1355.32
443.769	1348.76
444.143	1363.45
444.518	1414.52
444.892	1411.81
445.267	1438.03
445.641	1432.15
446.016	1432.6
446.39	1447.74
446.764	1449.55
447.139	1481.64
447.513	1487.07
447.887	1516.67
448.262	1491.36
448.636	1489.1
449.01	1522.77
449.384	1514.41
449.758	1531.58
450.132	1558.25
450.506	1582.43
450.88	1572.03
451.254	1599.6
451.628	1598.25
452.002	1631.24
452.376	1627.63
452.75	1641.19
453.123	1649.1
453.497	1655.2
453.871	1684.12
454.244	1714.86
454.618	1706.04
454.992	1778.81
455.365	1750.79
455.739	1772.71
456.112	1784.23
456.486	1805.48
456.859	1838.02
457.232	1876.43
457.606	1844.12
457.979	1887.96
458.352	1901.74
458.725	1932.48
459.099	1947.39
459.472	1972.7
459.845	2019.03
460.218	2009.09
460.591	2015.87
460.964	2024.45
461.337	2075.75
461.71	2102.64
462.083	2100.83
462.456	2117.33
462.829	2107.84
463.201	2157.1
463.574	2167.5
463.947	2165.69
464.32	2237.78
464.692	2235.07
465.065	2270.1
465.438	2289.3
465.81	2341.96
466.183	2341.51
466.555	2396.42
466.928	2368.62
467.3	2392.58
467.672	2428.96
468.045	2511.45
468.417	2548.51
468.789	2532.24
469.161	2526.59
469.534	2541.73
469.906	2634.61
470.278	2619.24
470.65	2677.99
471.022	2714.38
471.394	2740.59
471.766	2737.65
472.138	2744.89
472.51	2871.66
472.882	2865.79
473.253	2908.95
473.625	2954.6
473.997	2997.76
474.369	3017.42
474.74	3043.63
475.112	3101.49
475.484	3116.4
475.855	3177.42
476.227	3211.77
476.598	3287.7
476.97	3287.02
477.341	3381.93
477.713	3390.29
478.084	3399.56
478.455	3503.28
478.827	3501.25
479.198	3593.45
479.569	3597.07
479.94	3710.28
480.311	3678.87
480.682	3818.76
481.053	3874.12
481.424	3866.21
481.795	3924.29
482.166	4015.81
482.537	4005.87
482.908	4094.91
483.279	4119.54
483.65	4202.47
484.021	4243.6
484.391	4333.09
484.762	4356.59
485.133	4365.86
485.503	4409.25
485.874	4515.69
486.244	4535.57
486.615	4584.61
486.985	4601.79
487.356	4683.82
487.726	4740.09
488.097	4802.01
488.467	4806.3
488.837	4901.44
489.207	4957.93
489.578	4996.35
489.948	5041.55
490.318	5109.8
490.688	5126.29
491.058	5222.33
491.428	5258.94
491.798	5251.94
492.168	5330.13
492.538	5355.21
492.908	5393.4
493.278	5482.67
493.648	5465.49
494.017	5546.17
494.387	5605.15
494.757	5631.59
495.126	5682.89
495.496	5676.33
495.866	5700.74
496.235	5724.69
496.605	5785.26
496.974	5804.24
497.344	5844.46
497.713	5867.29
498.082	5927.17
498.452	5917.23
498.821	5979.38
499.19	6008.53
499.559	5997.23
499.928	6053.73
500.298	6072.48
500.667	6120.16
501.036	6130.11
501.405	6176.43
501.774	6179.82
502.143	6226.38
502.512	6235.87
502.88	6228.86
503.249	6265.92
503.618	6316.54
503.987	6286.49
504.356	6327.84
504.724	6309.54
505.093	6350.21
505.462	6436.99
505.83	6424.11
506.199	6422.08
506.567	6470.44
506.936	6452.36
507.304	6498.01
507.672	6483.54
508.041	6475.18
508.409	6564.22
508.777	6584.78
509.145	6654.84
509.514	6589.3
509.882	6639.92
510.25	6634.5
510.618	6682.18
510.986	6657.32
511.354	6705.69
511.722	6773.03
512.09	6779.36
512.458	6765.57
512.826	6787.94
513.193	6800.82
513.561	6845.34
513.929	6838.56
514.297	6856.42
514.664	6894.38
515.032	6860.71
515.4	6877.66
515.767	6857.32
516.135	6988.62
516.502	6855.29
516.869	7010.99
517.237	6925.79
517.604	6911.78
517.972	6953.14
518.339	6999.24
518.706	6969.63
519.073	6999.91
519.44	6975.51
519.808	7067.94
520.175	6993.36
520.542	7050.08
520.909	7063.87
521.276	7082.62
521.643	7062.74
522.009	7113.58
522.376	7102.74
522.743	7112
523.11	7157.42
523.477	7210.3
523.843	7175.05
524.21	7252.34
524.577	7220.93
524.943	7258.21
525.31	7235.16
525.676	7328.27
526.043	7339.57
526.409	7336.18
526.776	7395.61
527.142	7362.39
527.508	7374.14
527.874	7363.3
528.241	7418.43
528.607	7350.41
528.973	7385.67
529.339	7343.86
529.705	7434.48
530.071	7424.54
530.437	7413.01
530.803	7365.33
531.169	7339.57
531.535	7377.98
531.901	7371.88
532.267	7431.32
532.632	7411.2
532.998	7345.44
533.364	7344.99
533.73	7399.45
534.095	7375.27
534.461	7442.84
534.826	7431.77
535.192	7378.21
535.557	7463.41
535.923	7337.99
536.288	7363.97
536.653	7370.98
537.019	7290.98
537.384	7302.05
537.749	7316.06
538.114	7274.03
538.479	7272.22
538.845	7267.7
539.21	7298.89
539.575	7248.5
539.94	7273.81
540.305	7260.47
540.67	7241.26
541.034	7231.77
541.399	7232.9
541.764	7191.77
542.129	7239.68
542.494	7184.77
542.858	7103.87
543.223	7193.36
543.587	7181.15
543.952	7149.06
544.316	7097.09
544.681	7105.22
545.045	7157.88
545.41	7111.78
545.774	7097.99
546.138	7121.49
546.503	7083.3
546.867	7094.6
547.231	7058.44
547.595	7063.19
547.959	7069.07
548.324	6942.74
548.688	6975.73
549.052	7001.04
549.416	7000.14
549.779	6947.94
550.143	6923.08
550.507	6990.42
550.871	6999.46
551.235	6964.66
551.599	6925.11
551.962	6894.83
552.326	6883.99
552.689	6898
553.053	6848.96
553.417	6885.12
553.78	6904.78
554.143	6836.3
554.507	6887.15
554.87	6866.58
555.234	6943.87
555.597	6843.53
555.96	6863.87
556.323	6869.52
556.686	6857.55
557.05	6829.98
557.413	6894.83
557.776	6782.97
558.139	6876.08
558.502	6848.96
558.865	6871.78
559.228	6867.71
559.59	6857.09
559.953	6808.73
560.316	6848.96
560.679	6841.05
561.041	6862.07
561.404	6929.41
561.767	6950.88
562.129	6891.67
562.492	6960.14
562.854	6917.21
563.217	6921.95
563.579	6935.74
563.941	6943.65
564.304	6895.96
564.666	6949.97
565.028	7022.74
565.39	6942.74
565.753	7016.86
566.115	7010.08
566.477	7009.41
566.839	7038.78
567.201	6993.59
567.563	7084.66
567.925	7102.06
568.287	7018.45
568.648	7066.81
569.01	7104.09
569.372	7123.53
569.734	7121.72
570.095	7189.29
570.457	7185.9
570.819	7177.99
571.18	7156.07
571.542	7239.23
571.903	7212.34
572.265	7209.63
572.626	7225.45
572.987	7281.26
573.349	7269.29
573.71	7313.35
574.071	7281.72
574.432	7307.25
574.794	7380.47
575.155	7323.52
575.516	7305.44
575.877	7357.65
576.238	7312.45
576.599	7429.73
576.96	7424.76
577.32	7444.65
577.681	7462.28
578.042	7512.44
578.403	7493.24
578.763	7457.3
579.124	7483.52
579.485	7504.08
579.845	7500.01
580.206	7512.44
580.566	7569.39
580.927	7501.14
581.287	7594.02
581.648	7540.92
582.008	7603.06
582.368	7595.38
582.728	7591.54
583.089	7575.27
583.449	7674.93
583.809	7644.42
584.169	7674.7
584.529	7659.56
584.889	7728.03
585.249	7657.52
585.609	7696.17
585.969	7722.83
586.329	7753.34
586.688	7714.25
587.048	7765.77
587.408	7804.64
587.768	7794.02
588.127	7780.69
588.487	7785.43
588.846	7852.77
589.206	7784.07
589.565	7809.61
589.925	7893.9
590.284	7882.38
590.643	7789.72
591.003	7911.98
591.362	7941.58
591.721	7917.63
592.08	7903.17
592.44	7933.45
592.799	7950.62
593.158	7914.47
593.517	7941.58
593.876	7894.81
594.235	7922.6
594.593	7937.97
594.952	7977.29
595.311	7921.47
595.67	7964.41
596.029	7999.44
596.387	7998.76
596.746	8011.19
597.104	7952.66
597.463	7974.8
597.822	8027.01
598.18	7948.14
598.538	8011.64
598.897	8014.8
599.255	8004.86
599.613	8095.71
599.972	8088.7
600.33	8051.41
600.688	8010.28
601.046	8083.5
601.404	8125.99
601.762	8091.86
602.12	8104.74
602.478	8090.73
602.836	8113.11
603.194	8131.18
603.552	8131.64
603.91	8023.39
604.268	8075.37
604.625	8095.48
604.983	8117.17
605.341	8090.73
605.698	8140
606.056	8051.41
606.413	8118.98
606.771	8210.96
607.128	8149.72
607.485	8113.33
607.843	8180.9
608.2	8142.71
608.557	8199.66
608.914	8197.17
609.272	8187.45
609.629	8185.87
609.986	8269.26
610.343	8215.48
610.7	8321.69
611.057	8268.13
611.414	8296.15
611.771	8275.36
612.127	8338.64
612.484	8223.61
612.841	8285.76
613.198	8323.04
613.554	8317.39
613.911	8375.7
614.267	8363.04
614.624	8323.95
614.98	8388.35
615.337	8336.83
615.693	8398.75
616.05	8307
616.406	8408.01
616.762	8371.4
617.118	8363.72
617.475	8362.14
617.831	8436.26
618.187	8431.06
618.543	8432.19
618.899	8421.8
619.255	8373.44
619.611	8435.81
619.967	8513.32
620.323	8472.42
620.678	8432.87
621.034	8462.48
621.39	8366.66
621.746	8434.23
622.101	8502.25
622.457	8479.65
622.812	8413.89
623.168	8444.62
623.523	8473.77
623.879	8490.27
624.234	8450.27
624.589	8435.36
624.945	8476.03
625.3	8461.57
625.655	8482.81
626.01	8471.29
626.365	8450.05
626.72	8473.1
627.075	8404.62
627.43	8454.11
627.785	8443.49
628.14	8454.57
628.495	8510.38
628.85	8457.96
629.205	8407.11
629.559	8437.39
629.914	8444.62
630.269	8333.89
630.623	8430.16
630.978	8400.56
631.332	8431.52
631.687	8417.05
632.041	8368.47
632.396	8433.32
632.75	8385.19
633.104	8360.11
633.459	8397.62
633.813	8345.87
634.167	8352.2
634.521	8341.35
634.875	8288.02
635.229	8326.21
635.583	8248.24
635.937	8317.85
636.291	8240.56
636.645	8259.77
636.999	8211.86
637.352	8244.18
637.706	8215.7
638.06	8276.94
638.413	8188.36
638.767	8132.09
639.121	8169.38
639.474	8101.58
639.828	8140
640.181	8126.44
640.534	8237.4
640.888	8129.38
641.241	8111.52
641.594	8154.01
641.947	8147.91
642.301	8141.58
642.654	8081.69
643.007	8102.71
643.36	8117.4
643.713	8084.86
644.066	8076.5
644.419	8090.06
644.771	8028.59
645.124	7947.01
645.477	7949.49
645.83	7882.38
646.182	7866.78
646.535	7853
646.888	7830.4
647.24	7787.92
647.593	7823.85
647.945	7814.13
648.298	7769.61
648.65	7768.71
649.002	7762.15
649.355	7764.64
649.707	7767.13
650.059	7809.84
650.411	7970.51
650.763	7891.87
651.115	7918.76
651.467	7962.38
651.819	8033.79
652.171	8040.79
652.523	7934.13
652.875	7988.82
653.227	7914.02
653.578	7944.97
653.93	7977.97
654.282	7966.22
654.633	7955.6
654.985	7953.11
655.337	8024.52
655.688	7937.97
656.039	7984.75
656.391	7899.55
656.742	7922.6
657.094	7878.31
657.445	7950.4
657.796	7914.69
658.147	7915.6
658.498	7941.13
658.849	7966.9
659.2	7992.66
659.551	7955.6
659.902	7934.81
660.253	7931.42
660.604	7954.47
660.955	8013.67
661.306	7973.22
661.656	7935.26
662.007	7968.02
662.358	7968.02
662.708	7924.86
663.059	7994.46
663.409	7867.91
663.76	7933.9
664.11	7978.42
664.461	7933.9
664.811	7896.16
665.161	7945.43
665.511	7921.02
665.862	7954.01
666.212	8005.09
666.562	7959.89
666.912	7973.45
667.262	7992.66
667.612	8003.96
667.962	7991.98
668.312	7977.97
668.662	7982.49
669.011	7969.83
669.361	7963.96
669.711	7881.93
670.06	7948.14
670.41	7964.18
670.76	7914.24
671.109	7915.14
671.459	7995.37
671.808	7873.56
672.157	7980.91
672.507	7910.17
672.856	7830.85
673.205	7906.11
673.554	7922.15
673.904	7862.49
674.253	7921.7
674.602	7950.17
674.951	7820.23
675.3	7720.35
675.649	7842.6
675.998	7937.74
676.346	7833.79
676.695	7869.72
677.044	7808.26
677.393	7818.88
677.741	7807.8
678.09	7829.72
678.438	7836.95
678.787	7810.06
679.135	7826.79
679.484	7734.58
679.832	7737.07
680.181	7704.08
680.529	7729.84
680.877	7712.66
681.225	7688.71
681.573	7715.15
681.922	7672.44
682.27	7712.44
682.618	7670.18
682.966	7648.49
683.314	7545.21
683.661	7575.94
684.009	7492.33
684.357	7554.25
684.705	7490.75
685.053	7569.62
685.4	7523.97
685.748	7491.2
686.095	7482.39
686.443	7446.68
686.79	7456.85
687.138	7456.4
687.485	7450.07
687.832	7386.8
688.18	7410.75
688.527	7369.85
688.874	7354.03
689.221	7322.62
689.568	7301.6
689.915	7350.64
690.262	7274.71
690.609	7291.66
690.956	7184.09
691.303	7246.24
691.65	7179.8
691.997	7170.53
692.344	7097.09
692.69	7115.39
693.037	7133.02
693.383	7093.7
693.73	7095.05
694.077	7067.94
694.423	7037.2
694.769	6970.99
695.116	7007.15
695.462	6942.29
695.808	6961.72
696.155	6928.05
696.501	6860.26
696.847	6862.74
697.193	6847.83
697.539	6866.13
697.885	6771.45
698.231	6723.09
698.577	6791.11
698.923	6772.35
699.269	6737.77
699.614	6645.8
699.96	6629.53
700.306	6650.09
700.651	6620.04
700.997	6592.24
701.342	6577.1
701.688	6567.16
702.033	6504.79
702.379	6523.54
702.724	6472.92
703.069	6535.97
703.415	6445.35
703.76	6451.45
704.105	6371.68
704.45	6404.9
704.795	6362.19
705.14	6290.1
705.485	6323.55
705.83	6347.95
706.175	6349.31
706.52	6262.08
706.865	6259.6
707.209	6234.74
707.554	6213.27
707.899	6229.54
708.243	6272.48
708.588	6238.8
708.932	6105.48
709.277	6153.16
709.621	6175.08
709.966	6106.38
710.31	6095.53
710.654	6052.37
710.998	6057.34
711.342	6039.49
711.687	6078.81
712.031	6070.22
712.375	6010.56
712.719	5996.1
713.063	6018.02
713.407	6039.04
713.75	5964.24
714.094	6035.65
714.438	5937.8
714.782	5935.54
715.125	5948.87
715.469	5964.46
715.812	5867.29
716.156	5915.2
716.499	5929.66
716.843	5896.44
717.186	5850.79
717.53	5846.72
717.873	5811.7
718.216	5851.92
718.559	5837.91
718.902	5798.36
719.246	5802.66
719.589	5820.28
719.932	5719.72
720.275	5731.93
720.617	5740.29
720.96	5779.38
721.303	5729.44
721.646	5755.43
721.989	5717.91
722.331	5761.08
722.674	5719.27
723.016	5757.24
723.359	5733.73
723.701	5768.76
724.044	5677.24
724.386	5730.8
724.729	5650.35
725.071	5710.91
725.413	5684.24
725.755	5719.5
726.097	5664.36
726.439	5658.48
726.782	5627.52
727.124	5653.74
727.465	5672.27
727.807	5651.25
728.149	5680.85
728.491	5654.19
728.833	5675.66
729.175	5608.76
729.516	5655.09
729.858	5630.69
730.199	5661.42
730.541	5640.18
730.882	5649.89
731.224	5623.68
731.565	5663.23
731.906	5678.37
732.248	5644.24
732.589	5618.26
732.93	5635.2
733.271	5602.66
733.612	5657.35
733.953	5683.11
734.294	5646.28
734.635	5607.41
734.976	5634.98
735.317	5601.53
735.658	5625.71
735.999	5632.49
736.339	5603.12
736.68	5616
737.021	5574.64
737.361	5596.56
737.702	5611.02
738.042	5624.36
738.383	5629.56
738.723	5630.91
739.063	5667.29
739.404	5636.56
739.744	5679.72
740.084	5663.9
740.424	5698.25
740.764	5615.32
741.104	5672.49
741.444	5629.33
741.784	5640.85
742.124	5690.57
742.464	5718.14
742.804	5719.27
743.143	5761.98
743.483	5793.17
743.823	5736.67
744.162	5745.71
744.502	5811.02
744.841	5815.31
745.181	5841.75
745.52	5881.53
745.86	5910.9
746.199	5893.28
746.538	5990.45
746.877	6001.07
747.216	5988.64
747.556	6020.51
747.895	6065.7
748.234	6096.89
748.573	6161.29
748.911	6088.75
749.25	6223.89
749.589	6252.59
749.928	6272.7
750.267	6314.74
750.605	6393.6
750.944	6429.31
751.283	6444.9
751.621	6509.76
751.96	6535.75
752.298	6657.55
752.636	6745.91
752.975	6754.27
753.313	6827.72
753.651	6958.56
753.989	6972.57
754.327	7046.92
754.666	7116.75
755.004	7211.43
755.342	7344.54
755.679	7389.51
756.017	7454.59
756.355	7609.84
756.693	7645.1
757.031	7839.44
757.368	7850.29
757.706	7951.98
758.044	8065.88
758.381	8199.43
758.719	8259.77
759.056	8380.44
759.394	8535.69
759.731	8589.93
760.068	8710.15
760.405	8815.01
760.743	8864.72
761.08	9092.06
761.417	9149.24
761.754	9298.84
762.091	9415.44
762.428	9539.06
762.765	9566.18
763.102	9766.4
763.438	9814.53
763.775	9984.92
764.112	10150.11
764.449	10264.01
764.785	10339.71
765.122	10413.38
765.458	10562.53
765.795	10556.43
766.131	10760.95
766.467	10787.61
766.804	10897.89
767.14	10940.15
767.476	11141.27
767.812	11190.77
768.148	11370.65
768.485	11309.63
768.821	11348.73
769.157	11514.15
769.492	11601.38
