Data from hue_260_FLMS001491_00043.txt Node
Date: Tue Feb 07 15:59:03 GMT 2017
User: dcchb
Spectrometer: FLMS00149
Trigger mode: 0
Integration Time (sec): 2.000000E-2
Scans to average: 10
Electric dark correction enabled: true
Nonlinearity correction enabled: false
Boxcar width: 0
XAxis mode: Wavelengths
Number of Pixels in Spectrum: 2048
>>>>>Begin Spectral Data<<<<<
341.393	-6.51
341.776	-6.51
342.16	-6.51
342.543	-66.4
342.927	-50.35
343.31	-84.48
343.693	-41.99
344.077	-60.07
344.46	-56.45
344.843	-51.03
345.226	-49.9
345.61	-41.99
345.993	-12.61
346.376	-12.61
346.759	6.37
347.142	13.15
347.525	38.91
347.908	61.28
348.291	84.56
348.674	107.84
349.057	99.02
349.44	136.54
349.823	145.12
350.206	155.07
350.588	200.26
350.971	217.21
351.354	204.33
351.737	212.47
352.119	227.83
352.502	249.75
352.884	277.1
353.267	266.7
353.65	273.71
354.032	291.11
354.414	292.01
354.797	319.81
355.179	296.08
355.562	305.12
355.944	312.35
356.326	317.1
356.709	323.2
357.091	324.78
357.473	321.16
357.855	323.65
358.238	308.06
358.62	319.13
359.002	331.79
359.384	346.93
359.766	335.4
360.148	326.81
360.53	322.07
360.912	309.41
361.294	326.36
361.676	325.01
362.057	315.06
362.439	328.17
362.821	302.41
363.203	315.97
363.584	318.23
363.966	324.1
364.348	305.35
364.729	315.74
365.111	306.02
365.493	320.26
365.874	314.61
366.256	321.84
366.637	300.15
367.019	291.33
367.4	305.12
367.781	287.04
368.163	306.02
368.544	317.32
368.925	303.31
369.306	307.6
369.688	304.67
370.069	289.98
370.45	318.45
370.831	292.92
371.212	329.53
371.593	314.16
371.974	297.44
372.355	314.16
372.736	320.26
373.117	300.83
373.498	295.18
373.879	301.96
374.26	321.16
374.641	307.38
375.021	313.93
375.402	312.12
375.783	301.96
376.163	315.97
376.544	300.37
376.925	317.77
377.305	317.77
377.686	316.19
378.066	318.23
378.447	330.66
378.827	325.01
379.208	325.46
379.588	305.8
379.968	323.88
380.349	322.29
380.729	327.72
381.109	328.4
381.489	348.28
381.87	310.09
382.25	329.75
382.63	327.72
383.01	321.84
383.39	348.28
383.77	330.88
384.15	354.38
384.53	333.37
384.91	332.24
385.29	334.5
385.67	346.25
386.049	351.67
386.429	330.88
386.809	354.61
387.189	348.28
387.568	345.34
387.948	366.13
388.328	349.64
388.707	354.38
389.087	370.43
389.466	351.22
389.846	368.62
390.225	354.38
390.605	366.59
390.984	348.28
391.363	364.78
391.743	372.91
392.122	340.82
392.501	353.03
392.881	345.34
393.26	382.41
393.639	358.9
394.018	363.65
394.397	357.1
394.776	398.22
395.155	397.55
395.534	383.54
395.913	374.72
396.292	377.66
396.671	400.03
397.05	403.2
397.429	372.24
397.808	406.13
398.186	393.03
398.565	403.42
398.944	393.25
399.323	391.44
399.701	404.55
400.08	389.18
400.458	402.07
400.837	414.95
401.215	381.05
401.594	386.47
401.972	418.56
402.351	437.32
402.729	409.98
403.107	410.88
403.486	424.89
403.864	413.36
404.242	409.52
404.62	438.9
404.999	420.6
405.377	414.04
405.755	420.37
406.133	433.25
406.511	466.24
406.889	447.94
407.267	430.09
407.645	459.01
408.023	473.48
408.401	459.24
408.779	459.92
409.156	488.62
409.534	454.72
409.912	493.36
410.29	509.86
410.667	498.33
411.045	513.93
411.422	513.48
411.8	542.18
412.178	512.8
412.555	515.74
412.933	537.88
413.31	552.8
413.687	557.77
414.065	551.44
414.442	591.21
414.819	590.08
415.197	588.05
415.574	588.95
415.951	591.21
416.328	569.74
416.705	619.01
417.082	601.61
417.46	608.61
417.837	623.75
418.214	641.83
418.591	657.65
418.967	637.54
419.344	641.16
419.721	649.06
420.098	668.05
420.475	689.97
420.852	683.87
421.228	690.42
421.605	713.02
421.982	720.48
422.358	726.8
422.735	728.61
423.111	747.37
423.488	749.85
423.864	756.63
424.241	750.53
424.617	797.54
424.994	782.62
425.37	809.96
425.746	798.21
426.123	816.07
426.499	828.04
426.875	847.25
427.251	858.55
427.627	886.12
428.003	871.88
428.379	886.12
428.756	876.86
429.132	892.67
429.507	941.26
429.883	935.61
430.259	913.46
430.635	934.03
431.011	951.66
431.387	974.25
431.763	993.91
432.138	987.14
432.514	994.37
432.89	1017.64
433.265	1034.37
433.641	1061.03
434.016	1055.16
434.392	1097.41
434.767	1115.49
435.143	1113.91
435.518	1150.75
435.894	1132.44
436.269	1162.27
436.644	1192.78
437.02	1190.75
437.395	1206.34
437.77	1243.4
438.145	1230.74
438.52	1262.38
438.895	1272.33
439.271	1288.82
439.646	1302.83
440.021	1311.87
440.395	1335.37
440.77	1343.06
441.145	1354.81
441.52	1379.67
441.895	1402.27
442.27	1411.08
442.645	1454.24
443.019	1430.74
443.394	1448.59
443.769	1442.26
444.143	1448.37
444.518	1481.59
444.892	1482.49
445.267	1498.31
445.641	1524.75
446.016	1515.93
446.39	1552.32
446.764	1559.32
447.139	1567.91
447.513	1540.11
447.887	1549.15
448.262	1558.19
448.636	1578.31
449.01	1596.84
449.384	1617.63
449.758	1621.69
450.132	1661.47
450.506	1652.2
450.88	1679.55
451.254	1678.64
451.628	1684.07
452.002	1692.43
452.376	1731.97
452.75	1711.64
453.123	1743.73
453.497	1781.92
453.871	1781.01
454.244	1790.28
454.618	1804.51
454.992	1820.33
455.365	1858.07
455.739	1876.6
456.112	1862.37
456.486	1889.94
456.859	1929.26
457.232	1974.91
457.606	1939.65
457.979	1977.39
458.352	2032.98
458.725	2038.63
459.099	2048.8
459.472	2084.51
459.845	2101
460.218	2146.2
460.591	2129.25
460.964	2144.17
461.337	2206.76
461.71	2212.19
462.083	2229.36
462.456	2224.62
462.829	2264.84
463.201	2241.79
463.574	2278.85
463.947	2307.55
464.32	2380.54
464.692	2372.18
465.065	2394.33
465.438	2413.99
465.81	2460.99
466.183	2468
466.555	2541.22
466.928	2557.26
467.3	2518.39
467.672	2571.73
468.045	2620.54
468.417	2660.99
468.789	2661.22
469.161	2675.9
469.534	2712.29
469.906	2805.62
470.278	2759.07
470.65	2797.93
471.022	2854.88
471.394	2882.45
471.766	2903.92
472.138	2963.35
472.51	3013.3
472.882	3063.24
473.253	3098.72
473.625	3127.64
473.997	3175.78
474.369	3180.98
474.74	3205.16
475.112	3241.99
475.484	3308.66
475.855	3342.55
476.227	3349.11
476.598	3475.43
476.97	3475.21
477.341	3518.37
477.713	3597.91
478.084	3629.55
478.455	3654.64
478.827	3700.51
479.198	3820.51
479.569	3820.05
479.94	3920.17
480.311	3943.44
480.682	4016.89
481.053	4100.95
481.424	4121.29
481.795	4144.11
482.166	4236.77
482.537	4225.02
482.908	4342.3
483.279	4372.13
483.65	4446.25
484.021	4522.86
484.391	4538.23
484.762	4580.71
485.133	4609.86
485.503	4685.79
485.874	4771.44
486.244	4735.51
486.615	4890.08
486.985	4872.23
487.356	4970.08
487.726	4961.27
488.097	5086.01
488.467	5136.18
488.837	5176.18
489.207	5242.39
489.578	5281.94
489.948	5376.4
490.318	5401.26
490.688	5385.44
491.058	5466.79
491.428	5507.02
491.798	5568.94
492.168	5695.49
492.538	5714.47
492.908	5737.52
493.278	5796.73
493.648	5829.72
494.017	5884.18
494.387	5883.73
494.757	5913.56
495.126	5972.31
495.496	6015.25
495.866	6044.86
496.235	6136.83
496.605	6104.06
496.974	6129.37
497.344	6246.66
497.713	6236.49
498.082	6293.66
498.452	6288.01
498.821	6333.89
499.19	6341.57
499.559	6407.56
499.928	6436.03
500.298	6446.88
500.667	6492.98
501.036	6494.79
501.405	6526.42
501.774	6557.61
502.143	6590.38
502.512	6629.25
502.88	6628.79
503.249	6674.67
503.618	6673.77
503.987	6680.77
504.356	6783.59
504.724	6742.24
505.093	6761.45
505.462	6755.57
505.83	6805.74
506.199	6850.26
506.567	6925.28
506.936	6921.67
507.304	6943.14
507.672	6992.17
508.041	6988.79
508.409	7023.59
508.777	7057.94
509.145	7080.08
509.514	7065.62
509.882	7063.81
510.25	7096.13
510.618	7119.63
510.986	7051.83
511.354	7185.16
511.722	7114.21
512.09	7185.39
512.458	7237.82
512.826	7273.3
513.193	7296.8
513.561	7269.46
513.929	7320.3
514.297	7357.36
514.664	7317.14
515.032	7374.99
515.4	7442.33
515.767	7398.72
516.135	7395.78
516.502	7358.49
516.869	7434.65
517.237	7473.74
517.604	7440.3
517.972	7526.17
518.339	7578.37
518.706	7501.09
519.073	7512.39
519.44	7555.55
519.808	7576.34
520.175	7543.57
520.542	7655.66
520.909	7649.56
521.276	7688.65
521.643	7714.19
522.009	7687.98
522.376	7738.6
522.743	7740.18
523.11	7750.35
523.477	7786.96
523.843	7774.53
524.21	7788.76
524.577	7874.86
524.943	7884.35
525.31	7839.16
525.676	7948.76
526.043	7908.76
526.409	7928.2
526.776	7923.68
527.142	8018.14
527.508	7967.52
527.874	8014.52
528.241	7991.7
528.607	8011.36
528.973	7998.93
529.339	8008.87
529.705	8069.66
530.071	8089.77
530.437	8090.45
530.803	8084.12
531.169	8074.41
531.535	8079.38
531.901	8090.68
532.267	8044.58
532.632	8047.97
532.998	8141.3
533.364	8070.56
533.73	8043.9
534.095	8081.64
534.461	8096.1
534.826	8087.29
535.192	8068.98
535.557	8106.95
535.923	8106.5
536.288	8171.8
536.653	8187.85
537.019	8075.08
537.384	8079.38
537.749	8050.9
538.114	8061.3
538.479	8068.3
538.845	8101.98
539.21	8064.01
539.575	8112.15
539.94	8009.1
540.305	8027.4
540.67	8019.49
541.034	8052.71
541.399	8007.29
541.764	8027.4
542.129	8029.66
542.494	7955.77
542.858	7971.36
543.223	8066.72
543.587	8054.52
543.952	7986.5
544.316	7930.46
544.681	7965.93
545.045	7970.23
545.41	7973.39
545.774	7991.7
546.138	7966.61
546.503	7927.74
546.867	7918.03
547.231	7934.75
547.595	7920.74
547.959	7842.77
548.324	7880.06
548.688	7879.16
549.052	7861.3
549.416	7901.08
549.779	7836.9
550.143	7828.09
550.507	7895.43
550.871	7852.04
551.235	7841.64
551.599	7826.5
551.962	7767.3
552.326	7816.11
552.689	7847.52
553.053	7789.22
553.417	7814.53
553.78	7914.41
554.143	7835.32
554.507	7889.1
554.87	7807.75
555.234	7857.69
555.597	7819.27
555.96	7756
556.323	7805.49
556.686	7814.07
557.05	7813.62
557.413	7833.28
557.776	7821.98
558.139	7779.95
558.502	7821.98
558.865	7804.81
559.228	7873.73
559.59	7845.03
559.953	7873.06
560.316	7922.77
560.679	7850.46
561.041	7899.72
561.404	7906.5
561.767	7937.91
562.129	7919.83
562.492	8036.89
562.854	7984.92
563.217	7940.85
563.579	7949.89
563.941	7936.33
564.304	8005.03
564.666	8024.01
565.028	7980.17
565.39	8011.81
565.753	8127.06
566.115	8082.32
566.477	8096.55
566.839	8047.29
567.201	8148.3
567.563	8148.98
567.925	8196.44
568.287	8132.03
568.648	8139.49
569.01	8225.36
569.372	8271.01
569.734	8238.7
570.095	8308.3
570.457	8304.23
570.819	8266.49
571.18	8293.38
571.542	8344
571.903	8299.71
572.265	8303.1
572.626	8377.22
572.987	8426.04
573.349	8382.65
573.71	8380.84
574.071	8461.74
574.432	8474.62
574.794	8546.03
575.155	8481.18
575.516	8534.06
575.877	8606.37
576.238	8534.96
576.599	8611.34
576.96	8632.58
577.32	8640.95
577.681	8642.75
578.042	8642.75
578.403	8738.57
578.763	8702.86
579.124	8697.21
579.485	8669.19
579.845	8803.65
580.206	8768.4
580.566	8681.62
580.927	8833.93
581.287	8900.6
581.648	8770.89
582.008	8874.84
582.368	8858.79
582.728	8861.05
583.089	8893.37
583.449	8872.35
583.809	8919.81
584.169	8958.45
584.529	8926.81
584.889	9043.42
585.249	8921.62
585.609	8913.48
585.969	8994.38
586.329	8984.21
586.688	9052.01
587.048	9014.72
587.408	9046.36
587.768	9086.36
588.127	9044.55
588.487	8996.64
588.846	9142.4
589.206	9086.13
589.565	9130.88
589.925	9186.92
590.284	9181.5
590.643	9117.77
591.003	9200.7
591.362	9197.99
591.721	9205.22
592.08	9184.89
592.44	9253.81
592.799	9270.08
593.158	9248.84
593.517	9306.24
593.876	9244.77
594.235	9339.68
594.593	9277.31
594.952	9297.88
595.311	9265.11
595.67	9269.86
596.029	9401.38
596.387	9281.15
596.746	9440.7
597.104	9398.21
597.463	9304.66
597.822	9341.04
598.18	9320.02
598.538	9389.17
598.897	9462.62
599.255	9327.93
599.613	9432.34
599.972	9433.47
600.33	9418.33
600.688	9368.61
601.046	9420.13
601.404	9429.4
601.762	9390.08
602.12	9527.02
602.478	9474.14
602.836	9517.31
603.194	9474.14
603.552	9473.01
603.91	9453.81
604.268	9489.74
604.625	9482.73
604.983	9411.77
605.341	9402.28
605.698	9512.33
606.056	9533.35
606.413	9463.75
606.771	9545.55
607.128	9565.67
607.485	9503.3
607.843	9491.54
608.2	9559.11
608.557	9615.16
608.914	9565.21
609.272	9599.56
609.629	9659.22
609.986	9702.16
610.343	9589.85
610.7	9774.47
611.057	9630.07
611.414	9689.51
611.771	9784.42
612.127	9734.25
612.484	9666.45
612.841	9641.37
613.198	9722.5
613.554	9678.21
613.911	9741.71
614.267	9674.82
614.624	9768.15
614.98	9723.85
615.337	9709.84
615.693	9784.42
616.05	9760.46
616.406	9829.61
616.762	9728.6
617.118	9787.13
617.475	9772.21
617.831	9805.43
618.187	9851.31
618.543	9819.45
618.899	9912.32
619.255	9853.57
619.611	9823.06
619.967	9861.7
620.323	9909.84
620.678	9862.16
621.034	9842.04
621.39	9862.38
621.746	9892.66
622.101	9939.44
622.457	9878.2
622.812	9856.73
623.168	9887.92
623.523	9916.17
623.879	9932.44
624.234	9894.47
624.589	9889.73
624.945	9872.78
625.3	9917.52
625.655	9915.26
626.01	9833.91
626.365	9877.52
626.72	9847.69
627.075	9860.57
627.43	9842.04
627.785	9827.58
628.14	9864.42
628.495	9809.28
628.85	9887.01
629.205	9811.31
629.559	9843.17
629.914	9827.35
630.269	9827.58
630.623	9772.67
630.978	9749.39
631.332	9823.06
631.687	9776.28
632.041	9814.7
632.396	9831.87
632.75	9765.21
633.104	9746.23
633.459	9666.91
633.813	9776.06
634.167	9720.69
634.521	9682.27
634.875	9728.6
635.229	9722.95
635.583	9706.68
635.937	9639.34
636.291	9639.79
636.645	9705.32
636.999	9577.87
637.352	9580.36
637.706	9613.35
638.06	9643.18
638.413	9588.49
638.767	9571.09
639.121	9550.98
639.474	9484.09
639.828	9537.19
640.181	9512.33
640.534	9483.86
640.888	9467.14
641.241	9461.04
641.594	9460.13
641.947	9514.14
642.301	9501.71
642.654	9479.57
643.007	9491.32
643.36	9459.68
643.713	9465.78
644.066	9456.52
644.419	9383.3
644.771	9384.2
645.124	9247.48
645.477	9269.63
645.83	9180.14
646.182	9206.58
646.535	9137.2
646.888	9141.95
647.24	9109.41
647.593	9175.85
647.945	9192.34
648.298	9119.12
648.65	9100.37
649.002	9079.8
649.355	9131.33
649.707	9083.19
650.059	9129.75
650.411	9239.57
650.763	9214.94
651.115	9290.65
651.467	9311.66
651.819	9302.4
652.171	9324.09
652.523	9274.6
652.875	9222.62
653.227	9335.62
653.578	9373.58
653.93	9368.61
654.282	9218.78
654.633	9276.41
654.985	9293.81
655.337	9268.27
655.688	9303.07
656.039	9284.09
656.391	9215.17
656.742	9295.62
657.094	9253.13
657.445	9307.37
657.796	9286.8
658.147	9276.86
658.498	9298.55
658.849	9329.51
659.2	9278.67
659.551	9259.23
659.902	9277.54
660.253	9298.78
660.604	9287.71
660.955	9220.36
661.306	9376.97
661.656	9291.1
662.007	9247.93
662.358	9281.61
662.708	9303.98
663.059	9281.83
663.409	9244.09
663.76	9327.93
664.11	9312.11
664.461	9313.02
664.811	9325.22
665.161	9297.88
665.511	9314.37
665.862	9341.94
666.212	9316.63
666.562	9317.99
666.912	9287.48
667.262	9199.8
667.612	9292
667.962	9286.35
668.312	9277.09
668.662	9302.17
669.011	9324.99
669.361	9337.42
669.711	9274.83
670.06	9264.88
670.41	9237.09
670.76	9271.21
671.109	9320.93
671.459	9244.55
671.808	9255.84
672.157	9304.43
672.507	9213.36
672.856	9299.01
673.205	9217.43
673.554	9243.19
673.904	9190.54
674.253	9241.83
674.602	9177.88
674.951	9177.43
675.3	9047.71
675.649	9186.02
675.998	9185.79
676.346	9188.73
676.695	9227.6
677.044	9121.84
677.393	9115.06
677.741	9068.73
678.09	9102.18
678.438	9074.15
678.787	9126.13
679.135	9090.65
679.484	9047.49
679.832	9030.54
680.181	9042.06
680.529	9021.5
680.877	8993.93
681.225	9056.53
681.573	9060.14
681.922	8900.6
682.27	8961.39
682.618	8961.16
682.966	8903.54
683.314	8896.53
683.661	8866.48
684.009	8928.62
684.357	8851.79
684.705	8824.9
685.053	8804.33
685.4	8834.84
685.748	8739.47
686.095	8837.55
686.443	8772.69
686.79	8746.25
687.138	8791.68
687.485	8668.06
687.832	8674.84
688.18	8699.7
688.527	8624
688.874	8632.58
689.221	8614.28
689.568	8576.31
689.915	8568.18
690.262	8545.81
690.609	8500.38
690.956	8451.12
691.303	8446.15
691.65	8449.76
691.997	8413.38
692.344	8356.43
692.69	8271.01
693.037	8329.09
693.383	8267.85
693.73	8302.87
694.077	8216.1
694.423	8249.77
694.769	8186.72
695.116	8182.2
695.462	8102.43
695.808	8150.56
696.155	8147.85
696.501	8020.4
696.847	8048.64
697.193	7994.63
697.539	8014.97
697.885	7920.51
698.231	7922.09
698.577	7937.91
698.923	7934.07
699.269	7773.85
699.614	7805.71
699.96	7772.72
700.306	7764.13
700.651	7760.06
700.997	7608.88
701.342	7703.57
701.688	7678.48
702.033	7641.42
702.379	7605.72
702.724	7640.52
703.069	7646.85
703.415	7477.81
703.76	7512.16
704.105	7534.08
704.45	7488.89
704.795	7443.46
705.14	7443.46
705.485	7401.2
705.83	7393.52
706.175	7372.28
706.52	7360.75
706.865	7346.29
707.209	7264.71
707.554	7252.28
707.899	7306.29
708.243	7239.17
708.588	7226.29
708.932	7136.13
709.277	7177.93
709.621	7168.22
709.966	7149.91
710.31	7165.05
710.654	7049.35
710.998	7053.87
711.342	7068.33
711.687	7007.99
712.031	7003.47
712.375	6977.03
712.719	7026.98
713.063	6925.96
713.407	6995.79
713.75	7007.09
714.094	6951.95
714.438	6923.02
714.782	6916.02
715.125	6883.93
715.469	6923.48
715.812	6872.4
716.156	6848.9
716.499	6777.49
716.843	6855.68
717.186	6820.88
717.53	6781.11
717.873	6846.19
718.216	6832.41
718.559	6767.1
718.902	6771.39
719.246	6749.02
719.589	6748.11
719.932	6722.13
720.275	6713.09
720.617	6707.44
720.96	6728.68
721.303	6720.77
721.646	6694.78
721.989	6677.38
722.331	6682.13
722.674	6692.07
723.016	6700.43
723.359	6706.53
723.701	6621.56
724.044	6622.69
724.386	6652.07
724.729	6634.44
725.071	6632.18
725.413	6601.9
725.755	6642.81
726.097	6566.65
726.439	6575.91
726.782	6562.36
727.124	6629.02
727.465	6604.16
727.807	6535.24
728.149	6562.13
728.491	6626.08
728.833	6596.93
729.175	6526.42
729.516	6589.47
729.858	6519.87
730.199	6585.18
730.541	6564.84
730.882	6522.81
731.224	6540.89
731.565	6471.28
731.906	6477.39
732.248	6521.68
732.589	6521.45
732.93	6515.13
733.271	6542.92
733.612	6502.47
733.953	6537.5
734.294	6524.16
734.635	6516.93
734.976	6508.12
735.317	6528.68
735.658	6455.01
735.999	6481
736.339	6493.66
736.68	6516.48
737.021	6546.76
737.361	6476.03
737.702	6575.24
738.042	6490.95
738.383	6467.89
738.723	6547.67
739.063	6533.2
739.404	6570.94
739.744	6628.34
740.084	6584.28
740.424	6607.1
740.764	6563.49
741.104	6549.47
741.444	6561.9
741.784	6559.19
742.124	6590.15
742.464	6652.97
742.804	6573.88
743.143	6610.04
743.483	6623.6
743.823	6653.65
744.162	6578.85
744.502	6625.63
744.841	6631.28
745.181	6728.9
745.52	6765.29
745.86	6788.11
746.199	6751.96
746.538	6831.73
746.877	6855.46
747.216	6855.23
747.556	6909.24
747.895	6953.08
748.234	6953.76
748.573	7063.81
748.911	6998.28
749.25	7093.42
749.589	7172.74
749.928	7248.44
750.267	7303.58
750.605	7299.74
750.944	7371.6
751.283	7414.31
751.621	7518.04
751.96	7510.58
752.298	7614.08
752.636	7681.65
752.975	7709.22
753.313	7770.23
753.651	7875.09
753.989	7992.15
754.327	8064.92
754.666	8111.24
755.004	8251.8
755.342	8408.41
755.679	8450.44
756.017	8468.52
756.355	8619.93
756.693	8714.84
757.031	8846.82
757.368	8882.29
757.706	9057.43
758.044	9113.93
758.381	9294.04
758.719	9339.01
759.056	9554.14
759.394	9600.92
759.731	9703.74
760.068	9885.88
760.405	9948.93
760.743	10059.21
761.08	10220.79
761.417	10342.82
761.754	10442.71
762.091	10540.56
762.428	10635.92
762.765	10758.63
763.102	10905.29
763.438	11080.65
763.775	11127.43
764.112	11251.72
764.449	11379.18
764.785	11464.37
765.122	11563.13
765.458	11733.52
765.795	11831.14
766.131	11959.95
766.467	12105.49
766.804	12141.64
767.14	12145.71
767.476	12237.46
767.812	12345.48
768.148	12494.86
768.485	12614.85
768.821	12584.34
