Data from hue_270_FLMS001491_00087.txt Node
Date: Tue Feb 07 15:57:49 GMT 2017
User: dcchb
Spectrometer: FLMS00149
Trigger mode: 0
Integration Time (sec): 2.000000E-2
Scans to average: 10
Electric dark correction enabled: true
Nonlinearity correction enabled: false
Boxcar width: 0
XAxis mode: Wavelengths
Number of Pixels in Spectrum: 2048
>>>>>Begin Spectral Data<<<<<
341.393	-16.21
341.776	-16.21
342.16	-16.21
342.543	-62.09
342.927	-68.19
343.31	-67.29
343.693	-77.46
344.077	-65.7
344.46	-42.65
344.843	-45.37
345.226	-59.38
345.61	-41.52
345.993	-20.73
346.376	-8.98
346.759	4.12
347.142	24.46
347.525	31.69
347.908	72.6
348.291	80.51
348.674	97.91
349.057	117.79
349.44	120.28
349.823	133.16
350.206	170.9
350.588	182.42
350.971	211.58
351.354	212.93
351.737	224.46
352.119	257.45
352.502	249.09
352.884	281.63
353.267	284.57
353.65	283.21
354.032	277.56
354.414	296.55
354.797	329.54
355.179	312.59
355.562	294.96
355.944	299.03
356.326	314.17
356.709	323.44
357.091	315.53
357.473	329.31
357.855	333.38
358.238	349.65
358.62	342.19
359.002	343.55
359.384	306.94
359.766	343.78
360.148	326.6
360.53	331.35
360.912	313.49
361.294	318.24
361.676	320.27
362.057	329.54
362.439	326.6
362.821	341.29
363.203	308.75
363.584	306.04
363.966	329.99
364.348	311.46
364.729	314.62
365.111	322.53
365.493	314.17
365.874	310.56
366.256	317.11
366.637	307.85
367.019	322.31
367.4	311.01
367.781	316.43
368.163	312.82
368.544	300.16
368.925	314.4
369.306	320.73
369.688	299.71
370.069	291.12
370.45	312.36
370.831	319.6
371.212	301.97
371.593	324.79
371.974	325.02
372.355	310.78
372.736	301.29
373.117	303.1
373.498	319.6
373.879	312.14
374.26	299.94
374.641	304.91
375.021	309.88
375.402	318.47
375.783	313.27
376.163	332.48
376.544	316.21
376.925	330.22
377.305	317.34
377.686	299.71
378.066	312.59
378.447	337.67
378.827	319.6
379.208	316.66
379.588	324.79
379.968	329.99
380.349	335.64
380.729	338.13
381.109	337.45
381.489	342.19
381.87	319.6
382.25	335.64
382.63	335.19
383.01	335.41
383.39	358.69
383.77	340.16
384.15	341.74
384.53	346.94
384.91	346.04
385.29	351.23
385.67	333.16
386.049	322.76
386.429	357.34
386.809	358.24
387.189	340.61
387.568	360.05
387.948	370.67
388.328	362.31
388.707	367.73
389.087	346.71
389.466	350.78
389.846	374.28
390.225	375.41
390.605	356.43
390.984	367.5
391.363	377.22
391.743	368.18
392.122	390.78
392.501	376.77
392.881	386.71
393.26	375.87
393.639	401.18
394.018	375.64
394.397	378.8
394.776	403.21
395.155	391.46
395.534	381.97
395.913	378.13
396.292	416.32
396.671	391.23
397.05	394.85
397.429	405.7
397.808	403.66
398.186	414.96
398.565	402.31
398.944	414.51
399.323	428.75
399.701	407.5
400.08	413.38
400.458	421.74
400.837	420.16
401.215	412.93
401.594	422.42
401.972	423.32
402.351	442.98
402.729	432.14
403.107	448.41
403.486	431.46
403.864	437.33
404.242	430.78
404.62	435.53
404.999	425.81
405.377	446.82
405.755	454.73
406.133	449.31
406.511	471
406.889	472.81
407.267	474.85
407.645	478.69
408.023	470.55
408.401	469.65
408.779	476.88
409.156	501.51
409.534	503.77
409.912	487.28
410.29	520.49
410.667	514.39
411.045	539.7
411.422	539.25
411.8	540.61
412.178	558.23
412.555	548.52
412.933	555.3
413.31	559.59
413.687	566.37
414.065	563.66
414.442	590.1
414.819	593.49
415.197	587.84
415.574	602.53
415.951	623.99
416.328	609.08
416.705	629.64
417.082	619.02
417.46	617.44
417.837	628.29
418.214	663.32
418.591	642.07
418.967	648.63
419.344	685.01
419.721	688.4
420.098	669.19
420.475	695.86
420.852	693.82
421.228	695.63
421.605	726.14
421.982	733.6
422.358	731.34
422.735	738.57
423.111	740.15
423.488	754.39
423.864	788.28
424.241	780.15
424.617	817.89
424.994	805.23
425.37	824.22
425.746	822.18
426.123	815.18
426.499	847.27
426.875	848.4
427.251	882.52
427.627	883.42
428.003	882.75
428.379	872.8
428.756	896.98
429.132	924.1
429.507	918
429.883	940.82
430.259	947.15
430.635	918.22
431.011	983.53
431.387	1005.23
431.763	992.35
432.138	999.58
432.514	1006.13
432.89	1021.95
433.265	1046.81
433.641	1055.4
434.016	1094.27
434.392	1094.04
434.767	1117.99
435.143	1128.39
435.518	1152.34
435.894	1170.87
436.269	1166.81
436.644	1198.67
437.02	1207.48
437.395	1242.06
437.77	1226.92
438.145	1270.76
438.52	1280.7
438.895	1304.43
439.271	1294.94
439.646	1343.3
440.021	1349.4
440.395	1358.66
440.77	1323.64
441.145	1376.74
441.52	1393.92
441.895	1390.53
442.27	1404.54
442.645	1402.96
443.019	1437.76
443.394	1425.56
443.769	1445.22
444.143	1472.79
444.518	1466.46
444.892	1460.36
445.267	1481.83
445.641	1502.39
446.016	1521.82
446.39	1526.57
446.764	1516.85
447.139	1555.72
447.513	1547.13
447.887	1562.95
448.262	1552.11
448.636	1569.96
449.01	1572.9
449.384	1626.68
449.758	1639.56
450.132	1622.84
450.506	1624.42
450.88	1663.52
451.254	1666.91
451.628	1675.49
452.002	1644.31
452.376	1689.05
452.75	1716.17
453.123	1708.49
453.497	1745.32
453.871	1758.2
454.244	1770.63
454.618	1795.94
454.992	1814.02
455.365	1801.37
455.739	1824.19
456.112	1851.99
456.486	1883.17
456.859	1888.37
457.232	1899.44
457.606	1893.11
457.979	1943.28
458.352	1937.18
458.725	1955.03
459.099	1987.12
459.472	2051.08
459.845	2030.96
460.218	2061.92
460.591	2097.85
460.964	2069.83
461.337	2090.17
461.71	2139.21
462.083	2179.21
462.456	2151.86
462.829	2126.33
463.201	2205.65
463.574	2202.26
463.947	2243.16
464.32	2279.54
464.692	2308.92
465.065	2324.74
465.438	2311.18
465.81	2348.7
466.183	2340.33
466.555	2419.43
466.928	2438.18
467.3	2428.24
467.672	2481.57
468.045	2525.41
468.417	2534.23
468.789	2548.24
469.161	2577.84
469.534	2595.69
469.906	2633.21
470.278	2656.03
470.65	2665.75
471.022	2721.79
471.394	2742.13
471.766	2782.81
472.138	2790.04
472.51	2817.61
472.882	2875.24
473.253	2874.56
473.625	2942.13
473.997	2957.49
474.369	3009.24
474.74	3027.77
475.112	3044.27
475.484	3165.17
475.855	3147.54
476.227	3170.37
476.598	3275
476.97	3257.82
477.341	3321.78
477.713	3349.8
478.084	3370.14
478.455	3433.41
478.827	3451.04
479.198	3539.62
479.569	3547.99
479.94	3657.59
480.311	3636.35
480.682	3693.29
481.053	3805.15
481.424	3859.16
481.795	3807.41
482.166	3909.78
482.537	3894.87
482.908	4008.54
483.279	4004.24
483.65	4042.21
484.021	4109.55
484.391	4144.81
484.762	4235.2
485.133	4235.2
485.503	4255.54
485.874	4370.56
486.244	4414.86
486.615	4485.59
486.985	4459.37
487.356	4567.85
487.726	4589.31
488.097	4640.61
488.467	4680.84
488.837	4732.59
489.207	4776.88
489.578	4878.8
489.948	4844.22
490.318	4875.41
490.688	4903.2
491.058	4960.15
491.428	5019.36
491.798	5079.02
492.168	5090.09
492.538	5165.8
492.908	5173.93
493.278	5290.99
493.648	5290.54
494.017	5287.15
494.387	5340.03
494.757	5323.53
495.126	5425
495.496	5433.59
495.866	5448.5
496.235	5507.03
496.605	5559.01
496.974	5535.96
497.344	5559.68
497.713	5618.21
498.082	5671.55
498.452	5716.29
498.821	5707.7
499.19	5715.16
499.559	5740.02
499.928	5799.9
500.298	5773.01
500.667	5836.51
501.036	5828.83
501.405	5915.38
501.774	5889.39
502.143	5959.22
502.512	5932.1
502.88	5967.58
503.249	5951.31
503.618	6005.1
503.987	6017.98
504.356	6008.94
504.724	6035.15
505.093	6051.87
505.462	6147.24
505.83	6150.18
506.199	6179.56
506.567	6194.7
506.936	6260
507.304	6246.67
507.672	6210.51
508.041	6275.37
508.409	6343.62
508.777	6353.79
509.145	6333.22
509.514	6315.6
509.882	6353.56
510.25	6355.14
510.618	6368.93
510.986	6410.96
511.354	6509.72
511.722	6480.34
512.09	6534.12
512.458	6445.08
512.826	6544.52
513.193	6568.25
513.561	6498.64
513.929	6572.99
514.297	6642.59
514.664	6621.58
515.032	6612.54
515.4	6676.94
515.767	6610.73
516.135	6662.25
516.502	6591.97
516.869	6664.51
517.237	6725.98
517.604	6694.8
517.972	6746.09
518.339	6770.05
518.706	6735.02
519.073	6781.12
519.44	6786.09
519.808	6884.4
520.175	6818.41
520.542	6878.75
520.909	6881.91
521.276	6853.66
521.643	6862.7
522.009	6943.38
522.376	6996.03
522.743	7030.61
523.11	6975.69
523.477	7058.18
523.843	7069.93
524.21	7110.15
524.577	7098.4
524.943	7135.46
525.31	7093.43
525.676	7201.22
526.043	7212.97
526.409	7216.59
526.776	7289.58
527.142	7279.87
527.508	7250.49
527.874	7355.8
528.241	7316.02
528.607	7404.83
528.973	7419.07
529.339	7418.84
529.705	7480.99
530.071	7456.36
530.437	7528.22
530.803	7546.52
531.169	7566.86
531.535	7513.53
531.901	7535
532.267	7525.28
532.632	7610.48
532.998	7556.24
533.364	7581.55
533.73	7618.39
534.095	7561.44
534.461	7621.55
534.826	7710.59
535.192	7652.51
535.557	7697.26
535.923	7680.31
536.288	7686.86
536.653	7721.89
537.019	7704.03
537.384	7751.72
537.749	7717.82
538.114	7715.11
538.479	7718.5
538.845	7761.89
539.21	7751.72
539.575	7761.66
539.94	7760.76
540.305	7710.81
540.67	7816.8
541.034	7800.3
541.399	7819.96
541.764	7821.77
542.129	7815.44
542.494	7823.13
542.858	7891.6
543.223	7852.51
543.587	7892.28
543.952	7914.65
544.316	7862.22
544.681	7885.5
545.045	7921.66
545.41	7931.6
545.774	7958.94
546.138	7840.75
546.503	7902.22
546.867	7895.44
547.231	8007.76
547.595	7911.26
547.959	7982.67
548.324	7941.99
548.688	7944.03
549.052	7970.02
549.416	8026.06
549.779	8017.7
550.143	7959.62
550.507	8014.99
550.871	7968.66
551.235	8032.61
551.599	8034.87
551.962	8063.8
552.326	8042.33
552.689	8054.31
553.053	8044.59
553.417	8065.38
553.78	8149.9
554.143	8095.44
554.507	8092.73
554.87	8174.3
555.234	8184.25
555.597	8171.37
555.96	8190.8
556.323	8158.49
556.686	8200.52
557.05	8273.51
557.413	8237.35
557.776	8221.99
558.139	8302.44
558.502	8293.62
558.865	8304.92
559.228	8394.86
559.59	8354.87
559.953	8363.23
560.316	8429.21
560.679	8432.6
561.041	8531.81
561.404	8532.04
561.767	8551.24
562.129	8481.64
562.492	8610.9
562.854	8547.85
563.217	8597.34
563.579	8601.19
563.941	8622.2
564.304	8671.24
564.666	8692.71
565.028	8762.09
565.39	8789.88
565.753	8782.2
566.115	8809.09
566.477	8830.56
566.839	8850.45
567.201	8911.46
567.563	8906.49
567.925	8929.77
568.287	8983.1
568.648	8960.05
569.01	9025.13
569.372	9077.78
569.734	9039.37
570.095	9125.01
570.457	9186.26
570.819	9098.57
571.18	9187.39
571.542	9243.2
571.903	9283.88
572.265	9307.83
572.626	9290.66
572.987	9402.75
573.349	9399.58
573.71	9468.51
574.071	9461.73
574.432	9544.44
574.794	9557.09
575.155	9513.48
575.516	9511.44
575.877	9589.86
576.238	9577.66
576.599	9663.53
576.96	9664.21
577.32	9691.1
577.681	9706.02
578.042	9739.69
578.403	9762.74
578.763	9800.7
579.124	9838.22
579.485	9914.6
579.845	9981.04
580.206	9936.07
580.566	9970.64
580.927	9934.03
581.287	10092.22
581.648	9958.21
582.008	10068.04
582.368	10082.05
582.728	10160.92
583.089	10095.61
583.449	10144.65
583.809	10195.95
584.169	10235.95
584.529	10187.81
584.889	10306.68
585.249	10287.47
585.609	10293.35
585.969	10274.36
586.329	10332.44
586.688	10418.31
587.048	10426.22
587.408	10424.42
587.768	10440.69
588.127	10528.14
588.487	10432.55
588.846	10543.28
589.206	10455.37
589.565	10548.93
589.925	10685.43
590.284	10637.52
590.643	10694.01
591.003	10701.47
591.362	10785.76
591.721	10694.01
592.08	10702.6
592.44	10762.26
592.799	10804.07
593.158	10837.96
593.517	10825.99
593.876	10843.61
594.235	10807
594.593	10845.87
594.952	10859.66
595.311	10853.1
595.67	10916.83
596.029	10990.5
596.387	10984.85
596.746	10934.23
597.104	10985.3
597.463	10965.19
597.822	11018.98
598.18	10986.66
598.538	11007.45
598.897	11088.58
599.255	10921.58
599.613	11150.27
599.972	11120.22
600.33	11151.63
600.688	11092.65
601.046	11155.92
601.404	11222.59
601.762	11219.65
602.12	11226.43
602.478	11234.34
602.836	11184.85
603.194	11221.68
603.552	11263.72
603.91	11209.71
604.268	11307.78
604.625	11249.03
604.983	11290.61
605.341	11241.79
605.698	11272.53
606.056	11290.38
606.413	11309.14
606.771	11377.61
607.128	11356.37
607.485	11357.27
607.843	11393.43
608.2	11403.37
608.557	11444.73
608.914	11421.45
609.272	11451.28
609.629	11510.94
609.986	11491.05
610.343	11465.74
610.7	11530.83
611.057	11545.52
611.414	11559.75
611.771	11473.88
612.127	11625.51
612.484	11573.99
612.841	11622.12
613.198	11542.58
613.554	11681.33
613.911	11687.43
614.267	11692.18
614.624	11576.7
614.98	11668.22
615.337	11744.38
615.693	11670.48
616.05	11641.56
616.406	11727.21
616.762	11659.18
617.118	11653.76
617.475	11692.86
617.831	11832.29
618.187	11778.5
618.543	11741.44
618.899	11865.06
619.255	11805.62
619.611	11772.63
619.967	11841.78
620.323	11855.56
620.678	11781.22
621.034	11833.87
621.39	11790.93
621.746	11827.54
622.101	11912.29
622.457	11847.43
622.812	11862.8
623.168	11863.7
623.523	11850.59
623.879	11914.55
624.234	11805.17
624.589	11851.27
624.945	11781.22
625.3	11853.53
625.655	11884.72
626.01	11917.26
626.365	11905.28
626.72	11784.61
627.075	11876.58
627.43	11864.83
627.785	11800.88
628.14	11901.66
628.495	11868.9
628.85	11818.05
629.205	11741.44
629.559	11828.9
629.914	11765.17
630.269	11815.11
630.623	11773.53
630.978	11725.4
631.332	11795.68
631.687	11771.5
632.041	11764.72
632.396	11839.75
632.75	11710.71
633.104	11721.1
633.459	11673.2
633.813	11679.98
634.167	11637.72
634.521	11688.79
634.875	11651.5
635.229	11649.02
635.583	11609.92
635.937	11651.73
636.291	11589.13
636.645	11533.54
636.999	11561.79
637.352	11550.94
637.706	11538.96
638.06	11562.01
638.413	11561.79
638.767	11446.31
639.121	11476.14
639.474	11442.47
639.828	11496.48
640.181	11447.44
640.534	11515.23
640.888	11396.37
641.241	11369.25
641.594	11477.95
641.947	11411.73
642.301	11397.27
642.654	11359.08
643.007	11450.83
643.36	11369.7
643.713	11330.83
644.066	11405.86
644.419	11321.57
644.771	11256.03
645.124	11152.76
645.477	11119.09
645.83	11069.6
646.182	11010.16
646.535	10917.06
646.888	10974.91
647.24	10931.07
647.593	10939.66
647.945	10946.21
648.298	10855.14
648.65	10924.06
649.002	10894.46
649.355	10930.39
649.707	10951.41
650.059	10962.25
650.411	11136.26
650.763	11125.19
651.115	11253.77
651.467	11135.13
651.819	11163.6
652.171	11228.69
652.523	11137.39
652.875	11158.86
653.227	11113.66
653.578	11230.95
653.93	11196.15
654.282	11084.28
654.633	11078.64
654.985	11176.94
655.337	11121.35
655.688	11112.98
656.039	11140.78
656.391	11102.14
656.742	11175.81
657.094	11196.15
657.445	11237.73
657.796	11222.13
658.147	11167.22
658.498	11174.9
658.849	11166.54
659.2	11165.41
659.551	11161.12
659.902	11207.9
660.253	11129.48
660.604	11199.31
660.955	11139.65
661.306	11141.68
661.656	11201.12
662.007	11179.65
662.358	11192.3
662.708	11245.86
663.059	11108.69
663.409	11157.5
663.76	11183.72
664.11	11205.64
664.461	11193.66
664.811	11214.68
665.161	11195.92
665.511	11166.77
665.862	11211.29
666.212	11247.44
666.562	11246.99
666.912	11162.02
667.262	11136.03
667.612	11123.83
667.962	11198.41
668.312	11199.31
668.662	11246.99
669.011	11179.65
669.361	11124.06
669.711	11210.16
670.06	11172.42
670.41	11079.77
670.76	11109.59
671.109	11181.01
671.459	11130.61
671.808	11094
672.157	11114.57
672.507	11075.02
672.856	11071.86
673.205	11037.51
673.554	11148.69
673.904	11053.1
674.253	11065.08
674.602	11056.71
674.951	10924.97
675.3	10853.1
675.649	11030.27
675.998	10981.69
676.346	10985.53
676.695	11065.53
677.044	10964.74
677.393	11061.91
677.741	11006.09
678.09	10875.02
678.438	10936.27
678.787	10927.45
679.135	10934.91
679.484	10863.95
679.832	10859.66
680.181	10860.11
680.529	10814.01
680.877	10817.85
681.225	10807.23
681.573	10827.34
681.922	10779.66
682.27	10738.76
682.618	10759.1
682.966	10738.53
683.314	10711.64
683.661	10671.87
684.009	10654.92
684.357	10623.28
684.705	10606.78
685.053	10611.08
685.4	10600.46
685.748	10508.25
686.095	10539.67
686.443	10423.51
686.79	10492.89
687.138	10462.38
687.485	10517.07
687.832	10439.56
688.18	10445.88
688.527	10395.26
688.874	10335.83
689.221	10312.55
689.568	10259.67
689.915	10270.07
690.262	10271.2
690.609	10200.24
690.956	10182.16
691.303	10129.73
691.65	10138.77
691.997	10114.59
692.344	10077.76
692.69	10061.94
693.037	10089.73
693.383	9897.88
693.73	10015.84
694.077	9899.46
694.423	9845
694.769	9852.68
695.116	9828.72
695.462	9782.62
695.808	9764.32
696.155	9729.07
696.501	9674.38
696.847	9704.89
697.193	9619.01
697.539	9612.01
697.885	9583.53
698.231	9552.35
698.577	9418.11
698.923	9482.52
699.269	9434.61
699.614	9351.68
699.96	9412.92
700.306	9332.01
700.651	9349.64
700.997	9326.14
701.342	9275.97
701.688	9236.2
702.033	9200.49
702.379	9145.35
702.724	9123.43
703.069	9151.68
703.415	8988.75
703.76	9043.43
704.105	9097.22
704.45	9059.25
704.795	8900.61
705.14	8908.97
705.485	8967.5
705.83	8864.46
706.175	8937.9
706.52	8815.19
706.865	8879.37
707.209	8818.58
707.554	8761.63
707.899	8775.64
708.243	8666.5
708.588	8700.62
708.932	8610.68
709.277	8571.36
709.621	8650.9
709.966	8560.96
710.31	8606.38
710.654	8489.55
710.998	8524.13
711.342	8481.87
711.687	8457.69
712.031	8485.94
712.375	8425.37
712.719	8471.7
713.063	8414.07
713.407	8428.54
713.75	8311.93
714.094	8390.12
714.438	8329.55
714.782	8381.98
715.125	8354.19
715.469	8331.14
715.812	8300.86
716.156	8214.3
716.499	8272.61
716.843	8265.6
717.186	8166.4
717.53	8183.57
717.873	8228.09
718.216	8206.17
718.559	8230.35
718.902	8149.9
719.246	8156.23
719.589	8092.95
719.932	8083.23
720.275	8119.84
720.617	8074.65
720.96	8072.84
721.303	8080.75
721.646	8067.41
721.989	8070.13
722.331	8090.01
722.674	8051.37
723.016	8081.2
723.359	8061.77
723.701	8047.75
724.044	8031.94
724.386	7871.71
724.729	7995.55
725.071	7978.83
725.413	7973.86
725.755	7949.9
726.097	7965.04
726.439	7941.32
726.782	7901.32
727.124	7920.07
727.465	7890.47
727.807	7923.92
728.149	7911.26
728.491	7880.3
728.833	7935.67
729.175	7860.41
729.516	7898.83
729.858	7844.37
730.199	7840.75
730.541	7846.18
730.882	7824.48
731.224	7886.18
731.565	7853.18
731.906	7826.74
732.248	7881.88
732.589	7810.47
732.93	7790.36
733.271	7829.68
733.612	7872.39
733.953	7805.73
734.294	7863.8
734.635	7782
734.976	7822.68
735.317	7828.78
735.658	7811.38
735.999	7833.52
736.339	7845.5
736.68	7895.44
737.021	7824.26
737.361	7798.5
737.702	7855.67
738.042	7856.57
738.383	7867.19
738.723	7838.49
739.063	7785.61
739.404	7838.27
739.744	7846.63
740.084	7850.25
740.424	7880.08
740.764	7849.34
741.104	7910.58
741.444	7884.37
741.784	7865.16
742.124	7924.59
742.464	7875.56
742.804	7896.35
743.143	7937.7
743.483	7882.56
743.823	7917.81
744.162	7955.78
744.502	8029.22
744.841	8003.24
745.181	8099.5
745.52	8005.27
745.86	8137.02
746.199	8094.98
746.538	8090.47
746.877	8198.48
747.216	8257.69
747.556	8285.71
747.895	8310.35
748.234	8344.92
748.573	8379.05
748.911	8410.23
749.25	8516.22
749.589	8508.53
749.928	8618.13
750.267	8523.45
750.605	8706.95
750.944	8769.09
751.283	8841.41
751.621	8889.99
751.96	8911.46
752.298	9008.41
752.636	9079.82
752.975	9122.3
753.313	9180.61
753.651	9363.65
753.989	9359.36
754.327	9530.43
754.666	9556.64
755.004	9746.01
755.342	9859.23
755.679	9999.57
756.017	10042.28
756.355	10217.87
756.693	10278.43
757.031	10440.91
757.368	10544.19
757.706	10675.26
758.044	10915.25
758.381	11035.92
758.719	11142.81
759.056	11257.84
759.394	11345.07
759.731	11446.08
760.068	11621.22
760.405	11757.04
760.743	11923.58
761.08	12136.91
761.417	12203.58
761.754	12426.62
762.091	12571.7
762.428	12664.13
762.765	12905.93
763.102	12976.21
