Data from hue_260_FLMS001491_00094.txt Node
Date: Tue Feb 07 15:59:53 GMT 2017
User: dcchb
Spectrometer: FLMS00149
Trigger mode: 0
Integration Time (sec): 2.000000E-2
Scans to average: 10
Electric dark correction enabled: true
Nonlinearity correction enabled: false
Boxcar width: 0
XAxis mode: Wavelengths
Number of Pixels in Spectrum: 2048
>>>>>Begin Spectral Data<<<<<
341.393	-18.12
341.776	-18.12
342.16	-18.12
342.543	-36.2
342.927	-73.26
343.31	-94.28
343.693	-70.1
344.077	-69.42
344.46	-46.37
344.843	-69.65
345.226	-51.57
345.61	-26.03
345.993	-17.44
346.376	-5.01
346.759	17.13
347.142	39.5
347.525	25.49
347.908	57.81
348.291	78.15
348.674	99.39
349.057	132.38
349.44	129.45
349.823	135.32
350.206	146.39
350.588	185.94
350.971	196.34
351.354	203.12
351.737	230.23
352.119	237.47
352.502	247.63
352.884	270.46
353.267	269.56
353.65	277.92
354.032	298.48
354.414	296.9
354.797	276.79
355.179	306.84
355.562	324.69
355.944	297.8
356.326	295.77
356.709	313.17
357.091	343.9
357.473	314.3
357.855	318.59
358.238	319.05
358.62	323.34
359.002	337.8
359.384	327.86
359.766	335.77
360.148	310.23
360.53	332.38
360.912	316.79
361.294	320.18
361.676	340.97
362.057	322.44
362.439	303.45
362.821	301.87
363.203	330.34
363.584	280.63
363.966	327.63
364.348	312.72
364.729	307.29
365.111	311.81
365.493	309.33
365.874	317.01
366.256	317.92
366.637	302.55
367.019	293.96
367.4	305.03
367.781	304.58
368.163	301.42
368.544	295.32
368.925	298.93
369.306	303.45
369.688	325.6
370.069	301.19
370.45	323.11
370.831	316.56
371.212	328.54
371.593	310.01
371.974	310.46
372.355	315.66
372.736	301.19
373.117	314.75
373.498	306.16
373.879	295.54
374.26	300.97
374.641	287.86
375.021	307.97
375.402	308.42
375.783	317.24
376.163	320.85
376.544	311.81
376.925	314.98
377.305	305.03
377.686	319.95
378.066	312.49
378.447	319.27
378.827	320.85
379.208	322.44
379.588	326.28
379.968	315.66
380.349	325.37
380.729	337.12
381.109	331.7
381.489	317.24
381.87	323.79
382.25	318.14
382.63	324.92
383.01	311.81
383.39	333.96
383.77	346.62
384.15	330.12
384.53	329.44
384.91	337.58
385.29	330.12
385.67	356.33
386.049	334.19
386.429	345.26
386.809	353.39
387.189	340.51
387.568	340.97
387.948	363.34
388.328	343.45
388.707	350.23
389.087	350
389.466	352.49
389.846	352.72
390.225	365.15
390.605	371.7
390.984	345.49
391.363	358.37
391.743	357.69
392.122	354.52
392.501	356.11
392.881	377.57
393.26	368.54
393.639	377.12
394.018	376.9
394.397	375.54
394.776	386.39
395.155	380.51
395.534	364.02
395.913	382.32
396.292	398.37
396.671	394.52
397.05	384.58
397.429	404.01
397.808	387.07
398.186	399.04
398.565	392.26
398.944	387.29
399.323	411.02
399.701	411.92
400.08	412.38
400.458	391.59
400.837	411.47
401.215	408.76
401.594	430.45
401.972	421.19
402.351	396.33
402.729	414.86
403.107	418.03
403.486	428.19
403.864	419.38
404.242	434.97
404.62	450.57
404.999	438.82
405.377	437.23
405.755	463.67
406.133	460.51
406.511	444.01
406.889	459.83
407.267	451.92
407.645	473.62
408.023	477.69
408.401	492.6
408.779	471.13
409.156	468.87
409.534	483.33
409.912	491.02
410.29	499.38
410.667	519.27
411.045	533.73
411.422	516.78
411.8	521.53
412.178	562.43
412.555	541.86
412.933	554.52
413.31	561.07
413.687	545.25
414.065	579.6
414.442	592.71
414.819	586.38
415.197	601.98
415.574	615.31
415.951	605.59
416.328	615.99
416.705	609.43
417.082	596.55
417.46	639.04
417.837	630.45
418.214	631.13
418.591	646.72
418.967	648.53
419.344	683.78
419.721	674.29
420.098	674.52
420.475	688.3
420.852	700.05
421.228	711.58
421.605	738.7
421.982	732.59
422.358	740.28
422.735	748.64
423.111	739.6
423.488	773.72
423.864	787.96
424.241	786.83
424.617	815.08
424.994	833.16
425.37	806.49
425.746	829.54
426.123	847.84
426.499	827.51
426.875	848.52
427.251	859.37
427.627	862.31
428.003	906.37
428.379	885.81
428.756	903.21
429.132	942.08
429.507	926.26
429.883	944.11
430.259	957.9
430.635	961.74
431.011	998.58
431.387	1004.68
431.763	1003.55
432.138	980.04
432.514	1035.86
432.89	1016.88
433.265	1066.82
433.641	1069.76
434.016	1098.46
434.392	1111.79
434.767	1163.77
435.143	1131.45
435.518	1136.65
435.894	1160.38
436.269	1176.65
436.644	1234.28
437.02	1228.4
437.395	1224.56
437.77	1260.94
438.145	1289.42
438.52	1291
438.895	1296.19
439.271	1340.49
439.646	1346.36
440.021	1357.66
440.395	1388.62
440.77	1375.97
441.145	1394.72
441.52	1419.81
441.895	1444.67
442.27	1445.8
442.645	1430.88
443.019	1480.37
443.394	1457.77
443.769	1510.65
444.143	1478.34
444.518	1513.36
444.892	1529.63
445.267	1525.79
445.641	1551.33
446.016	1563.53
446.39	1585.68
446.764	1557.66
447.139	1570.76
447.513	1582.51
447.887	1595.85
448.262	1633.59
448.636	1609.41
449.01	1665.9
449.384	1663.87
449.758	1678.33
450.132	1690.08
450.506	1670.65
450.88	1707.03
451.254	1745.67
451.628	1706.13
452.002	1729.63
452.376	1763.08
452.75	1806.69
453.123	1765.56
453.497	1845.11
453.871	1828.84
454.244	1815.28
454.618	1859.8
454.992	1891.66
455.365	1901.6
455.739	1922.39
456.112	1930.3
456.486	1967.14
456.859	1987.25
457.232	2000.58
457.606	1997.42
457.979	2052.33
458.352	2093.46
458.725	2087.81
459.099	2092.11
459.472	2147.47
459.845	2185.21
460.218	2151.99
460.591	2189.73
460.964	2201.03
461.337	2211.88
461.71	2244.42
462.083	2306.56
462.456	2320.57
462.829	2316.28
463.201	2337.3
463.574	2361.25
463.947	2413.91
464.32	2464.98
464.692	2454.36
465.065	2499.78
465.438	2494.36
465.81	2544.3
466.183	2554.24
466.555	2596.5
466.928	2628.82
467.3	2622.04
467.672	2641.24
468.045	2688.7
468.417	2716.27
468.789	2713.56
469.161	2777.96
469.534	2820.67
469.906	2864.74
470.278	2886.66
470.65	2905.19
471.022	2943.84
471.394	3010.27
471.766	3059.54
472.138	3084.4
472.51	3091.4
472.882	3123.27
473.253	3163.04
473.625	3203.26
473.997	3280.55
474.369	3285.29
474.74	3340.21
475.112	3349.7
475.484	3422.01
475.855	3464.95
476.227	3509.02
476.598	3591.73
476.97	3673.76
477.341	3691.16
477.713	3730.71
478.084	3730.48
478.455	3837.6
478.827	3856.81
479.198	3950.81
479.569	3940.64
479.94	3988.1
480.311	4083.24
480.682	4116.46
481.053	4221.99
481.424	4257.25
481.795	4279.17
482.166	4381.54
482.537	4393.97
482.908	4511.25
483.279	4536.11
483.65	4584.7
484.021	4696.56
484.391	4690
484.762	4705.37
485.133	4798.25
485.503	4843.45
485.874	4901.98
486.244	4991.92
486.615	5041.41
486.985	5067.62
487.356	5121.63
487.726	5163.44
488.097	5283.89
488.467	5294.96
488.837	5382.64
489.207	5450.66
489.578	5519.13
489.948	5495.63
490.318	5600.04
490.688	5636.87
491.058	5690.2
491.428	5743.76
491.798	5800.26
492.168	5899.69
492.538	5922.51
492.908	5955.28
493.278	5994.6
493.648	6034.6
494.017	6071.89
494.387	6117.76
494.757	6193.02
495.126	6186.46
495.496	6241.83
495.866	6279.34
496.235	6328.38
496.605	6394.37
496.974	6410.86
497.344	6381.48
497.713	6443.86
498.082	6469.62
498.452	6551.65
498.821	6576.96
499.19	6579.22
499.559	6600.24
499.928	6677.75
500.298	6695.37
500.667	6678.2
501.036	6734.02
501.405	6787.35
501.774	6792.77
502.143	6861.02
502.512	6857.18
502.88	6887.46
503.249	6897.86
503.618	6927.69
503.987	6964.52
504.356	6990.28
504.724	7014.46
505.093	7045.42
505.462	7076.83
505.83	7036.61
506.199	7205.42
506.567	7148.24
506.936	7205.19
507.304	7231.86
507.672	7230.05
508.041	7209.03
508.409	7251.52
508.777	7347.56
509.145	7412.64
509.514	7387.79
509.882	7422.14
510.25	7347.34
510.618	7417.16
510.986	7414
511.354	7479.99
511.722	7451.29
512.09	7540.1
512.458	7517.05
512.826	7554.34
513.193	7541.23
513.561	7593.88
513.929	7648.34
514.297	7693.09
514.664	7747.78
515.032	7681.79
515.4	7724.05
515.767	7784.39
516.135	7752.07
516.502	7728.57
516.869	7824.16
517.237	7788.23
517.604	7733.09
517.972	7797.04
518.339	7911.16
518.706	7838.62
519.073	7760.88
519.44	7924.27
519.808	7924.72
520.175	7853.99
520.542	7930.82
520.909	8006.3
521.276	7926.98
521.643	8014.44
522.009	7984.61
522.376	8073.19
522.743	8094.21
523.11	8121.1
523.477	8162.45
523.843	8184.83
524.21	8124.04
524.577	8139.63
524.943	8232.28
525.31	8203.81
525.676	8333.07
526.043	8300.08
526.409	8267.54
526.776	8348.66
527.142	8295.56
527.508	8328.55
527.874	8347.76
528.241	8357.93
528.607	8398.38
528.973	8393.41
529.339	8382.56
529.705	8440.19
530.071	8446.52
530.437	8490.58
530.803	8465.27
531.169	8488.55
531.535	8474.31
531.901	8445.84
532.267	8465.72
532.632	8529.9
532.998	8463.69
533.364	8519.51
533.73	8447.87
534.095	8451.49
534.461	8531.03
534.826	8528.09
535.192	8528.32
535.557	8508.43
535.923	8500.75
536.288	8477.25
536.653	8558.38
537.019	8471.37
537.384	8493.29
537.749	8483.35
538.114	8523.12
538.479	8554.53
538.845	8533.97
539.21	8460.53
539.575	8529.22
539.94	8452.39
540.305	8478.38
540.67	8482.67
541.034	8480.19
541.399	8470.92
541.764	8480.19
542.129	8467.31
542.494	8433.18
542.858	8449.9
543.223	8418.04
543.587	8464.59
543.952	8402
544.316	8390.47
544.681	8423.69
545.045	8397.25
545.41	8486.97
545.774	8380.98
546.138	8399.28
546.503	8465.27
546.867	8370.13
547.231	8379.4
547.595	8375.1
547.959	8399.74
548.324	8430.92
548.688	8396.8
549.052	8379.85
549.416	8370.81
549.779	8330.59
550.143	8251.04
550.507	8336.91
550.871	8365.61
551.235	8263.02
551.599	8311.15
551.962	8304.15
552.326	8286.52
552.689	8360.42
553.053	8242
553.417	8272.73
553.78	8372.17
554.143	8342.79
554.507	8272.96
554.87	8305.05
555.234	8376.46
555.597	8292.17
555.96	8281.32
556.323	8337.14
556.686	8346.63
557.05	8282.9
557.413	8393.18
557.776	8321.09
558.139	8359.29
558.502	8363.35
558.865	8359.51
559.228	8371.71
559.59	8404.48
559.953	8361.55
560.316	8469.11
560.679	8375.56
561.041	8417.82
561.404	8456.68
561.767	8499.85
562.129	8445.61
562.492	8513.63
562.854	8458.04
563.217	8414.65
563.579	8548.43
563.941	8548.89
564.304	8574.42
564.666	8541.2
565.028	8533.52
565.39	8557.7
565.753	8577.81
566.115	8615.1
566.477	8619.17
566.839	8612.84
567.201	8678.15
567.563	8655.32
567.925	8745.94
568.287	8793.85
568.648	8781.87
569.01	8733.29
569.372	8818.71
569.734	8823
570.095	8854.87
570.457	8888.99
570.819	8850.8
571.18	8852.15
571.542	8908.88
571.903	8907.97
572.265	8943.45
572.626	8946.39
572.987	8964.02
573.349	8997.91
573.71	9033.17
574.071	9040.62
574.432	9001.53
574.794	9177.12
575.155	9109.77
575.516	9100.06
575.877	9164.46
576.238	9191.35
576.599	9180.06
576.96	9220.73
577.32	9144.8
577.681	9285.82
578.042	9276.78
578.403	9260.73
578.763	9303.67
579.124	9297.57
579.485	9319.26
579.845	9330.33
580.206	9378.02
580.566	9405.13
580.927	9417.79
581.287	9437
581.648	9418.69
582.008	9523.32
582.368	9541.63
582.728	9549.54
583.089	9464.79
583.449	9553.83
583.809	9583.66
584.169	9547.73
584.529	9531.68
584.889	9560.84
585.249	9615.75
585.609	9565.58
585.969	9604.9
586.329	9643.55
586.688	9687.39
587.048	9617.56
587.408	9683.32
587.768	9664.56
588.127	9667.73
588.487	9692.13
588.846	9772.36
589.206	9715.41
589.565	9733.71
589.925	9825.24
590.284	9737.1
590.643	9841.51
591.003	9760.6
591.362	9825.01
591.721	9823.88
592.08	9842.41
592.44	9928.96
592.799	9866.82
593.158	9872.24
593.517	9905.01
593.876	9871.34
594.235	9891.67
594.593	9876.76
594.952	9909.53
595.311	9887.83
595.67	10027.26
596.029	10027.94
596.387	9982.97
596.746	10023.2
597.104	9953.59
597.463	10014.38
597.822	10093.93
598.18	10034.72
598.538	10042.63
598.897	10028.39
599.255	10036.76
599.613	10149.07
599.972	10045.57
600.33	10065.46
600.688	10085.79
601.046	10107.49
601.404	10122.86
601.762	10139.58
602.12	10188.39
602.478	10199.46
602.836	10175.06
603.194	10022.74
603.552	10074.04
603.91	10132.8
604.268	10119.01
604.625	10139.58
604.983	10137.09
605.341	10130.76
605.698	10185
606.056	10213.93
606.413	10151.1
606.771	10182.97
607.128	10202.63
607.485	10172.8
607.843	10239.91
608.2	10243.3
608.557	10314.49
608.914	10219.12
609.272	10306.35
609.629	10281.95
609.986	10314.94
610.343	10312.45
610.7	10273.59
611.057	10326.47
611.414	10377.99
611.771	10331.89
612.127	10407.59
612.484	10350.65
612.841	10420.47
613.198	10420.25
613.554	10435.39
613.911	10395.84
614.267	10419.34
614.624	10433.13
614.98	10418.44
615.337	10468.16
615.693	10430.19
616.05	10458.21
616.406	10479.68
616.762	10474.03
617.118	10429.97
617.475	10470.42
617.831	10520.13
618.187	10527.14
618.543	10569.62
618.899	10629.73
619.255	10541.38
619.611	10551.77
619.967	10589.96
620.323	10576.4
620.678	10628.6
621.034	10478.55
621.39	10542.05
621.746	10538.44
622.101	10662.05
622.457	10507.48
622.812	10547.7
623.168	10612.33
623.523	10613.92
623.879	10561.26
624.234	10554.71
624.589	10621.37
624.945	10580.02
625.3	10626.12
625.655	10563.52
626.01	10641.71
626.365	10514.03
626.72	10533.01
627.075	10494.6
627.43	10552.9
627.785	10482.17
628.14	10554.26
628.495	10461.83
628.85	10564.65
629.205	10557.19
629.559	10564.2
629.914	10497.08
630.269	10507.25
630.623	10475.16
630.978	10512.9
631.332	10481.49
631.687	10514.26
632.041	10478.33
632.396	10438.55
632.75	10495.05
633.104	10448.72
633.459	10434.71
633.813	10363.53
634.167	10404.43
634.521	10415.05
634.875	10335.96
635.229	10292.34
635.583	10252.8
635.937	10308.61
636.291	10351.32
636.645	10295.28
636.999	10250.99
637.352	10287.6
637.706	10223.42
638.06	10249.63
638.413	10233.59
638.767	10233.59
639.121	10232.68
639.474	10187.26
639.828	10166.02
640.181	10202.4
640.534	10179.58
640.888	10130.76
641.241	10122.63
641.594	10148.17
641.947	10185.23
642.301	10137.54
642.654	10140.03
643.007	10088.05
643.36	10122.86
643.713	10050.77
644.066	10108.17
644.419	10039.69
644.771	9973.48
645.124	9932.13
645.477	9876.99
645.83	9832.24
646.182	9822.52
646.535	9739.36
646.888	9763.32
647.24	9734.39
647.593	9771.9
647.945	9768.06
648.298	9718.8
648.65	9714.73
649.002	9642.64
649.355	9741.62
649.707	9718.12
650.059	9757.22
650.411	9869.75
650.763	9792.92
651.115	9944.55
651.467	9949.98
651.819	9874.5
652.171	9933.93
652.523	9915.86
652.875	9879.47
653.227	9863.43
653.578	9962.18
653.93	9885.8
654.282	9845.57
654.633	9853.71
654.985	9887.38
655.337	9902.3
655.688	9847.38
656.039	9940.49
656.391	9853.26
656.742	9915.63
657.094	9867.72
657.445	9908.85
657.796	9929.19
658.147	9882.18
658.498	9883.09
658.849	9896.19
659.2	9881.73
659.551	9857.78
659.902	9940.94
660.253	9902.52
660.604	9956.98
660.955	9947.49
661.306	9890.32
661.656	9897.78
662.007	9873.6
662.358	9897.32
662.708	9916.53
663.059	9885.8
663.409	9815.07
663.76	9950.88
664.11	9936.42
664.461	9935.29
664.811	9977.77
665.161	9920.37
665.511	9855.74
665.862	9926.7
666.212	9945.23
666.562	9905.91
666.912	9911.79
667.262	9938
667.612	9879.7
667.962	9915.4
668.312	9914.27
668.662	10001.95
669.011	9948.85
669.361	9867.95
669.711	9896.19
670.06	9880.38
670.41	9871.34
670.76	9881.05
671.109	9900.04
671.459	9898.68
671.808	9878.34
672.157	9916.31
672.507	9882.18
672.856	9867.72
673.205	9845.35
673.554	9862.52
673.904	9834.05
674.253	9861.17
674.602	9849.87
674.951	9705.24
675.3	9597.67
675.649	9831.34
675.998	9776.42
676.346	9794.05
676.695	9824.11
677.044	9757.44
677.393	9768.97
677.741	9777.78
678.09	9726.26
678.438	9768.74
678.787	9662.08
679.135	9680.16
679.484	9594.96
679.832	9655.52
680.181	9567.62
680.529	9669.76
680.877	9664.11
681.225	9587.95
681.573	9596.99
681.922	9566.94
682.27	9518.58
682.618	9524
682.966	9549.76
683.314	9512.7
683.661	9480.39
684.009	9454.17
684.357	9510.44
684.705	9342.31
685.053	9435.64
685.4	9396.32
685.748	9321.07
686.095	9365.14
686.443	9326.94
686.79	9336.44
687.138	9272.93
687.485	9335.76
687.832	9226.61
688.18	9255.31
688.527	9210.79
688.874	9144.8
689.221	9121.3
689.568	9160.17
689.915	9093.05
690.262	9151.36
690.609	9095.99
690.956	9099.61
691.303	9023.9
691.65	8969.67
691.997	8957.24
692.344	8942.1
692.69	8924.24
693.037	8863.91
693.383	8852.38
693.73	8880.85
694.077	8778.03
694.423	8704.14
694.769	8679.73
695.116	8702.1
695.462	8709.56
695.808	8667.07
696.155	8634.31
696.501	8637.24
696.847	8545.27
697.193	8545.5
697.539	8561.09
697.885	8436.35
698.231	8438.38
698.577	8438.61
698.923	8430.7
699.269	8345.05
699.614	8293.3
699.96	8266.18
700.306	8307.99
700.651	8295.78
700.997	8176.92
701.342	8207.43
701.688	8204.71
702.033	8148.67
702.379	8112.06
702.724	8121.55
703.069	8137.82
703.415	7975.12
703.76	8000.43
704.105	8032.97
704.45	8009.69
704.795	7993.42
705.14	7910.71
705.485	7912.29
705.83	7844.05
706.175	7861.67
706.52	7866.42
706.865	7783.26
707.209	7767.89
707.554	7784.39
707.899	7815.57
708.243	7662.13
708.588	7648.57
708.932	7625.07
709.277	7645.86
709.621	7633.66
709.966	7538.52
710.31	7587.78
710.654	7531.29
710.998	7589.59
711.342	7533.54
711.687	7495.13
712.031	7512.98
712.375	7477.28
712.719	7498.07
713.063	7408.58
713.407	7465.52
713.75	7413.1
714.094	7446.09
714.438	7406.77
714.782	7358.86
715.125	7382.81
715.469	7343.04
715.812	7349.59
716.156	7324.51
716.499	7315.02
716.843	7313.44
717.186	7233.89
717.53	7271.18
717.873	7262.59
718.216	7235.93
718.559	7217.62
718.902	7181.01
719.246	7235.25
719.589	7172.2
719.932	7157.28
720.275	7151.41
720.617	7139.88
720.96	7117.28
721.303	7151.63
721.646	7120
721.989	7086.55
722.331	7096.95
722.674	7072.54
723.016	7092.88
723.359	7108.02
723.701	7100.11
724.044	7027.8
724.386	7081.13
724.729	7037.06
725.071	7043.16
725.413	7060.11
725.755	6941.24
726.097	6998.19
726.439	6991.86
726.782	7015.82
727.124	6999.1
727.465	7007.68
727.807	6963.39
728.149	6946.67
728.491	6949.38
728.833	6943.05
729.175	6913.45
729.516	6926.1
729.858	6881.81
730.199	6904.86
730.541	6911.64
730.882	6895.14
731.224	6924.3
731.565	6940.57
731.906	6938.08
732.248	6861.25
732.589	6864.18
732.93	6887.01
733.271	6848.37
733.612	6927.69
733.953	6914.8
734.294	6901.25
734.635	6922.04
734.976	6884.97
735.317	6865.99
735.658	6905.76
735.999	6916.16
736.339	6877.74
736.68	6909.15
737.021	6888.82
737.361	6872.55
737.702	6934.24
738.042	6955.93
738.383	6890.17
738.723	6913.45
739.063	6876.39
739.404	6950.96
739.744	6900.12
740.084	6922.04
740.424	7015.59
740.764	6943.5
741.104	6989.15
741.444	6971.98
741.784	6987.12
742.124	7010.39
742.464	7061.69
742.804	7042.26
743.143	7031.41
743.483	6995.25
743.823	7030.51
744.162	7051.98
744.502	7055.59
744.841	7101.69
745.181	7134.69
745.52	7108.02
745.86	7207.68
746.199	7240.22
746.538	7216.72
746.877	7274.34
747.216	7311.4
747.556	7321.57
747.895	7370.84
748.234	7336.49
748.573	7406.32
748.911	7443.83
749.25	7519.76
749.589	7534
749.928	7629.14
750.267	7618.06
750.605	7710.04
750.944	7736.03
751.283	7829.13
751.621	7951.84
751.96	7961.78
752.298	7938.28
752.636	8052.4
752.975	8103.47
753.313	8197.26
753.651	8324.71
753.989	8404.26
754.327	8453.07
754.666	8540.75
755.004	8663.46
755.342	8753.63
755.679	8843.11
756.017	8901.42
756.355	9012.6
756.693	9122.43
757.031	9269.77
757.368	9357.23
757.706	9437.45
758.044	9480.39
758.381	9658.46
758.719	9785.24
759.056	9894.61
759.394	10043.54
759.731	10096.42
760.068	10253.7
760.405	10378.44
760.743	10464.99
761.08	10571.43
761.417	10678.09
761.754	10908.82
762.091	10955.83
762.428	11107.91
762.765	11179.55
763.102	11400.56
763.438	11478.07
763.775	11561.46
764.112	11763.04
764.449	11889.59
764.785	11912.86
765.122	12058.62
765.458	12162.58
765.795	12358.05
766.131	12422.23
766.467	12510.82
