Data from hue_200_FLMS001491_00070.txt Node
Date: Tue Feb 07 16:43:47 GMT 2017
User: dcchb
Spectrometer: FLMS00149
Trigger mode: 0
Integration Time (sec): 2.000000E-2
Scans to average: 10
Electric dark correction enabled: true
Nonlinearity correction enabled: false
Boxcar width: 0
XAxis mode: Wavelengths
Number of Pixels in Spectrum: 2048
>>>>>Begin Spectral Data<<<<<
341.393	-5.44
341.776	-5.44
342.16	-5.44
342.543	-67.81
342.927	-75.72
343.31	-64.19
343.693	-62.84
344.077	-63.52
344.46	-68.49
344.843	-61.93
345.226	-37.08
345.61	-38.43
345.993	2.7
346.376	-19.45
346.759	7.67
347.142	21
347.525	33.43
347.908	52.19
348.291	78.18
348.674	109.81
349.057	110.94
349.44	110.72
349.823	143.03
350.206	169.02
350.588	198.85
350.971	194.56
351.354	223.48
351.737	249.02
352.119	252.86
352.502	261.9
352.884	260.32
353.267	297.61
353.65	290.6
354.032	298.74
354.414	287.21
354.797	306.64
355.179	318.85
355.562	319.98
355.944	333.76
356.326	333.08
356.709	343.03
357.091	344.16
357.473	328.79
357.855	362.69
358.238	341.67
358.62	343.93
359.002	361.78
359.384	305.29
359.766	337.15
360.148	343.71
360.53	357.26
360.912	331.05
361.294	347.32
361.676	340.54
362.057	348.9
362.439	335.57
362.821	341.45
363.203	332.18
363.584	314.55
363.966	344.38
364.348	313.88
364.729	337.15
365.111	314.78
365.493	331.95
365.874	327.21
366.256	328.56
366.637	303.25
367.019	318.17
367.4	330.15
367.781	301.45
368.163	309.36
368.544	324.72
368.925	325.18
369.306	308.23
369.688	316.14
370.069	304.38
370.45	317.27
370.831	339.19
371.212	324.27
371.593	314.78
371.974	316.81
372.355	317.72
372.736	326.76
373.117	314.33
373.498	315.01
373.879	305.29
374.26	320.66
374.641	323.14
375.021	322.69
375.402	309.36
375.783	316.36
376.163	330.6
376.544	343.93
376.925	318.4
377.305	319.98
377.686	318.17
378.066	311.16
378.447	340.54
378.827	327.43
379.208	349.58
379.588	338.28
379.968	352.97
380.349	331.73
380.729	328.11
381.109	345.29
381.489	335.8
381.87	357.72
382.25	355.68
382.63	337.83
383.01	346.87
383.39	354.33
383.77	362.69
384.15	350.94
384.53	342.58
384.91	332.63
385.29	366.98
385.67	359.3
386.049	359.07
386.429	379.86
386.809	367.43
387.189	360.2
387.568	334.67
387.948	384.83
388.328	362.01
388.707	356.13
389.087	377.38
389.466	383.48
389.846	359.98
390.225	381.44
390.605	392.52
390.984	385.06
391.363	383.48
391.743	380.77
392.122	406.53
392.501	402.01
392.881	397.94
393.26	400.88
393.639	393.2
394.018	384.83
394.397	388.68
394.776	405.85
395.155	399.75
395.534	389.13
395.913	423.25
396.292	420.31
396.671	430.48
397.05	426.19
397.429	418.96
397.808	432.97
398.186	404.04
398.565	425.96
398.944	444.49
399.323	423.93
399.701	446.08
400.08	434.1
400.458	429.81
400.837	458.96
401.215	443.59
401.594	430.26
401.972	460.09
402.351	450.82
402.729	472.97
403.107	477.49
403.486	458.96
403.864	468.45
404.242	460.99
404.62	484.49
404.999	479.07
405.377	504.83
405.755	490.59
406.133	484.04
406.511	498.28
406.889	531.95
407.267	523.81
407.645	520.42
408.023	547.32
408.401	533.53
408.779	560.2
409.156	575.79
409.534	599.07
409.912	574.66
410.29	588.9
410.667	578.28
411.045	596.58
411.422	594.32
411.8	609.46
412.178	622.12
412.555	628.22
412.933	626.86
413.31	653.53
413.687	655.56
414.065	682.45
414.442	693.07
414.819	700.98
415.197	708.67
415.574	714.32
415.951	709.35
416.328	755.9
416.705	736.24
417.082	756.8
417.46	758.16
417.837	766.75
418.214	783.47
418.591	801.09
418.967	799.29
419.344	804.03
419.721	825.95
420.098	824.6
420.475	833.41
420.852	866.63
421.228	874.09
421.605	912.05
421.982	908.89
422.358	924.93
422.735	953.18
423.111	949.11
423.488	968.32
423.864	971.94
424.241	994.31
424.617	1016
424.994	1014.2
425.37	1029.79
425.746	1040.64
426.123	1067.08
426.499	1114.76
426.875	1101.65
427.251	1120.18
427.627	1130.35
428.003	1171.25
428.379	1168.54
428.756	1178.03
429.132	1209.67
429.507	1215.32
429.883	1233.63
430.259	1284.92
430.635	1263.68
431.011	1253.51
431.387	1309.56
431.763	1321.31
432.138	1337.8
432.514	1390.91
432.89	1372.15
433.265	1415.54
433.641	1453.06
434.016	1462.55
434.392	1483.56
434.767	1523.34
435.143	1549.55
435.518	1549.78
435.894	1591.81
436.269	1617.34
436.644	1657.57
437.02	1678.13
437.395	1708.64
437.77	1746.83
438.145	1761.07
438.52	1773.5
438.895	1812.59
439.271	1828.86
439.646	1912.25
440.021	1935.3
440.395	1940.27
440.77	1939.6
441.145	1958.8
441.52	2005.58
441.895	2034.73
442.27	2035.41
442.645	2065.47
443.019	2109.31
443.394	2111.57
443.769	2116.09
444.143	2173.04
444.518	2194.05
444.892	2228.63
445.267	2206.71
445.641	2260.04
446.016	2253.94
446.39	2278.8
446.764	2318.12
447.139	2326.25
447.513	2343.2
447.887	2349.53
448.262	2374.16
448.636	2391.79
449.01	2436.08
449.384	2409.64
449.758	2495.29
450.132	2507.04
450.506	2540.94
450.88	2520.6
451.254	2539.35
451.628	2556.75
452.002	2577.77
452.376	2644.21
452.75	2649.41
453.123	2660.03
453.497	2706.36
453.871	2717.88
454.244	2803.75
454.618	2792.68
454.992	2845.56
455.365	2817.31
455.739	2909.74
456.112	2968.04
456.486	2988.61
456.859	3021.38
457.232	3047.14
457.606	3045.33
457.979	3066.35
458.352	3171.2
458.725	3237.87
459.099	3191.09
459.472	3251.43
459.845	3282.84
460.218	3322.38
460.591	3345.66
460.964	3366.45
461.337	3488.93
461.71	3521.25
462.083	3566.9
462.456	3541.81
462.829	3579.33
463.201	3678.08
463.574	3648.48
463.947	3691.41
464.32	3799.43
464.692	3834.24
465.065	3809.83
465.438	3888.47
465.81	3973.67
466.183	3955.59
466.555	4096.15
466.928	4115.36
467.3	4127.56
467.672	4178.86
468.045	4290.04
468.417	4249.82
468.789	4321.68
469.161	4398.74
469.534	4449.59
469.906	4548.11
470.278	4554.89
470.65	4624.27
471.022	4743.36
471.394	4808.22
471.766	4820.42
472.138	4838.05
472.51	4988.78
472.882	5047.31
473.253	5087.08
473.625	5153.97
473.997	5247.31
474.369	5226.06
474.74	5363.46
475.112	5478.71
475.484	5520.74
475.855	5600.06
476.227	5619.27
476.598	5811.81
476.97	5873.96
477.341	5963.67
477.713	6045.25
478.084	6047.96
478.455	6232.59
478.827	6275.53
479.198	6425.81
479.569	6395.3
479.94	6605.24
480.311	6700.83
480.682	6828.73
481.053	6943.76
481.424	7024.66
481.795	7111.21
482.166	7171.77
482.537	7259.46
482.908	7382.39
483.279	7466.23
483.65	7623.51
484.021	7767.92
484.391	7803.4
484.762	7879.33
485.133	7949.38
485.503	8100.34
485.874	8271.41
486.244	8315.47
486.615	8383.27
486.985	8540.78
487.356	8673.88
487.726	8705.97
488.097	8928.56
488.467	8893.76
488.837	9064.38
489.207	9177.37
489.578	9235.9
489.948	9307.09
490.318	9451.94
490.688	9470.02
491.058	9573.75
491.428	9723.12
491.798	9796.34
492.168	9961.53
492.538	10022.1
492.908	10060.06
493.278	10189.55
493.648	10222.32
494.017	10311.13
494.387	10368.75
494.757	10433.84
495.126	10496.21
495.496	10586.15
495.866	10634.06
496.235	10713.6
496.605	10843.54
496.974	10894.84
497.344	10856.2
497.713	10942.3
498.082	11053.03
498.452	11109.3
498.821	11137.09
499.19	11132.57
499.559	11263.64
499.928	11285.79
500.298	11313.36
500.667	11483.07
501.036	11418.44
501.405	11506.12
501.774	11519.46
502.143	11520.59
502.512	11568.95
502.88	11651.88
503.249	11664.76
503.618	11707.47
503.987	11718.32
504.356	11744.99
504.724	11921.03
505.093	11858.43
505.462	11935.49
505.83	11941.37
506.199	11949.73
506.567	12096.62
506.936	12111.98
507.304	12195.15
507.672	12222.04
508.041	12163.51
508.409	12303.62
508.777	12327.8
509.145	12395.59
509.514	12383.39
509.882	12388.81
510.25	12437.4
510.618	12467.23
510.986	12486.66
511.354	12654.79
511.722	12657.28
512.09	12654.34
512.458	12529.83
512.826	12724.17
513.193	12760.1
513.561	12722.36
513.929	12765.98
514.297	12837.84
514.664	12864.73
515.032	12815.92
515.4	12896.14
515.767	12973.2
516.135	12965.29
516.502	12847.78
516.869	13033.09
517.237	13005.75
517.604	12993.54
517.972	13037.61
518.339	13054.11
518.706	13001.68
519.073	13107.89
519.44	13109.47
519.808	13298.17
520.175	13149.7
520.542	13275.12
520.909	13310.14
521.276	13241.45
521.643	13398.73
522.009	13395.34
522.376	13423.14
522.743	13385.62
523.11	13406.19
523.477	13490.48
523.843	13540.65
524.21	13589.69
524.577	13577.26
524.943	13591.94
525.31	13578.84
525.676	13654.32
526.043	13687.99
526.409	13616.58
526.776	13744.48
527.142	13804.82
527.508	13720.3
527.874	13841.66
528.241	13829.23
528.607	13749.68
528.973	13756.91
529.339	13664.94
529.705	13793.52
530.071	13822.45
530.437	13819.96
530.803	13737.7
531.169	13797.82
531.535	13704.71
531.901	13780.19
532.267	13679.4
532.632	13698.38
532.998	13705.39
533.364	13645.95
533.73	13676.91
534.095	13727.53
534.461	13609.57
534.826	13723.47
535.192	13676.91
535.557	13701.32
535.923	13675.78
536.288	13558.73
536.653	13597.14
537.019	13454.1
537.384	13464.49
537.749	13440.31
538.114	13410.03
538.479	13288.9
538.845	13380.43
539.21	13217.72
539.575	13175.46
539.94	13231.5
540.305	13189.92
540.67	13114.9
541.034	13116.93
541.399	13069.7
541.764	13011.62
542.129	13045.29
542.494	12923.49
542.858	12958.52
543.223	12925.52
543.587	12959.87
543.952	12881.91
544.316	12868.35
544.681	12719.2
545.045	12772.98
545.41	12797.39
545.774	12692.31
546.138	12685.3
546.503	12607.56
546.867	12546.1
547.231	12617.51
547.595	12506.1
547.959	12558.3
548.324	12439.43
548.688	12358.76
549.052	12356.72
549.416	12341.58
549.779	12309.27
550.143	12272.21
550.507	12271.3
550.871	12294.8
551.235	12152.21
551.599	12207.12
551.962	12179.1
552.326	12058.88
552.689	11996.05
553.053	11966.45
553.417	11938.88
553.78	12033.57
554.143	11914.02
554.507	11891.42
554.87	11860.92
555.234	11921.25
555.597	11799.9
555.96	11853.91
556.323	11879.67
556.686	11770.3
557.05	11776.63
557.413	11720.36
557.776	11733.46
558.139	11853.01
558.502	11827.47
558.865	11716.97
559.228	11720.81
559.59	11748.6
559.953	11659.11
560.316	11776.85
560.679	11692.11
561.041	11727.14
561.404	11729.85
561.767	11759.9
562.129	11655.95
562.492	11749.51
562.854	11659.11
563.217	11678.55
563.579	11677.42
563.941	11697.76
564.304	11730.07
564.666	11699.11
565.028	11702.05
565.39	11716.74
565.753	11812.56
566.115	11669.96
566.477	11788.38
566.839	11685.1
567.201	11706.8
567.563	11753.8
567.925	11846.23
568.287	11785.21
568.648	11873.8
569.01	11875.38
569.372	11815.95
569.734	11889.62
570.095	11874.02
570.457	11817.98
570.819	11874.7
571.18	11909.96
571.542	11869.5
571.903	11905.66
572.265	11934.36
572.626	11934.81
572.987	11928.26
573.349	11885.32
573.71	11979.11
574.071	11947.92
574.432	11949.05
574.794	12006.68
575.155	12010.07
575.516	11994.25
575.877	12011.42
576.238	12019.1
576.599	12080.12
576.96	11987.92
577.32	12049.16
577.681	12064.53
578.042	12026.11
578.403	12053
578.763	11989.05
579.124	12046.22
579.485	12126.9
579.845	12063.4
580.206	12077.63
580.566	12035.83
580.927	12016.17
581.287	12088.71
581.648	12083.96
582.008	12117.18
582.368	12025.21
582.728	12037.41
583.089	12067.47
583.449	11989.05
583.809	12080.57
584.169	12035.15
584.529	11994.47
584.889	12096.62
585.249	12043.06
585.609	11931.88
585.969	12001.93
586.329	12026.79
586.688	11980.46
587.048	12044.87
587.408	12027.24
587.768	11989.28
588.127	11989.28
588.487	11893.46
588.846	12053.91
589.206	11890.75
589.565	11898.88
589.925	12036.28
590.284	11931.88
590.643	11966.45
591.003	11942.5
591.362	11987.69
591.721	11918.77
592.08	11932.33
592.44	11998.09
592.799	11883.97
593.158	11898.88
593.517	11869.96
593.876	11899.79
594.235	11856.17
594.593	11888.03
594.952	11806.46
595.311	11846.68
595.67	11801.71
596.029	11850.3
596.387	11956.51
596.746	11964.19
597.104	11876.51
597.463	11845.32
597.822	11914.47
598.18	11767.59
598.538	11742.05
598.897	11881.26
599.255	11726.23
599.613	11908.83
599.972	11846.45
600.33	11844.42
600.688	11788.83
601.046	11862.05
601.404	11770.07
601.762	11759.45
602.12	11913.34
602.478	11901.82
602.836	11844.19
603.194	11833.12
603.552	11807.81
603.91	11835.83
604.268	11771.2
604.625	11723.97
604.983	11793.8
605.341	11746.8
605.698	11788.38
606.056	11849.39
606.413	11813.46
606.771	11882.61
607.128	11864.08
607.485	11808.26
607.843	11759.45
608.2	11816.62
608.557	11874.93
608.914	11865.89
609.272	11924.19
609.629	11893.23
609.986	11973
610.343	11919.67
610.7	11974.36
611.057	11930.97
611.414	11999.9
611.771	11933.68
612.127	12058.2
612.484	11968.94
612.841	12064.98
613.198	11889.16
613.554	12035.83
613.911	12033.34
614.267	12026.79
614.624	12001.48
614.98	11962.16
615.337	12118.54
615.693	12051.65
616.05	11987.69
616.406	12182.72
616.762	12078.31
617.118	11993.12
617.475	12066.11
617.831	12107.92
618.187	12101.14
618.543	12086
618.899	12145.88
619.255	12122.6
619.611	12095.71
619.967	12203.05
620.323	12133.45
620.678	12120.35
621.034	12035.15
621.39	12110.63
621.746	12024.3
622.101	12200.8
622.457	12068.6
622.812	12086.9
623.168	12120.57
623.523	12162.6
623.879	12179.55
624.234	12165.32
624.589	12110.18
624.945	12209.61
625.3	12106.56
625.655	12158.76
626.01	12155.37
626.365	12194.69
626.72	12098.42
627.075	12001.48
627.43	12104.07
627.785	12043.51
628.14	12030.18
628.495	12060.23
628.85	12029.95
629.205	12034.47
629.559	12016.85
629.914	12001.48
630.269	12056.39
630.623	11946.34
630.978	11925.1
631.332	11970.52
631.687	11966
632.041	11929.84
632.396	11945.66
632.75	11882.16
633.104	11979.56
633.459	11803.97
633.813	11811.88
634.167	11791.99
634.521	11859.11
634.875	11885.78
635.229	11803.52
635.583	11648.49
635.937	11771.88
636.291	11717.87
636.645	11745.44
636.999	11737.53
637.352	11749.51
637.706	11634.26
638.06	11666.12
638.413	11682.62
638.767	11649.62
639.121	11650.53
639.474	11597.42
639.828	11568.04
640.181	11622.05
640.534	11633.13
640.888	11589.06
641.241	11494.37
641.594	11507.03
641.947	11563.75
642.301	11524.88
642.654	11598.78
643.007	11524.65
643.36	11409.63
643.713	11486.46
644.066	11563.98
644.419	11425.22
644.771	11377.09
645.124	11245.57
645.477	11199.47
645.83	11205.34
646.182	11203.53
646.535	11164.21
646.888	11147.72
647.24	11158.11
647.593	11073.59
647.945	11129.86
648.298	11052.12
648.65	11042.41
649.002	11018
649.355	11152.01
649.707	11070.2
650.059	11093.03
650.411	11257.77
650.763	11282.4
651.115	11344.09
651.467	11342.06
651.819	11307.94
652.171	11297.32
652.523	11274.94
652.875	11252.12
653.227	11317.2
653.578	11299.35
653.93	11319.69
654.282	11234.72
654.633	11248.5
654.985	11276.53
655.337	11351.55
655.688	11375.51
656.039	11374.6
656.391	11295.73
656.742	11301.38
657.094	11308.39
657.445	11394.94
657.796	11304.32
658.147	11369.4
658.498	11265.68
658.849	11371.89
659.2	11407.6
659.551	11315.85
659.902	11399.91
660.253	11302.74
660.604	11320.82
660.955	11278.56
661.306	11287.15
661.656	11275.17
662.007	11370.53
662.358	11369.18
662.708	11331.21
663.059	11316.75
663.409	11251.89
663.76	11349.97
664.11	11297.32
664.461	11389.29
664.811	11429.74
665.161	11356.98
665.511	11359.24
665.862	11359.01
666.212	11376.64
666.562	11345.68
666.912	11365.11
667.262	11397.88
667.612	11354.49
667.962	11337.31
668.312	11378.44
668.662	11340.7
669.011	11334.38
669.361	11356.3
669.711	11300.93
670.06	11300.03
670.41	11286.24
670.76	11249.18
671.109	11306.36
671.459	11235.85
671.808	11281.72
672.157	11283.98
672.507	11130.09
672.856	11220.71
673.205	11214.61
673.554	11274.27
673.904	11174.83
674.253	11287.15
674.602	11171.67
674.951	11038.11
675.3	11069.98
675.649	11131.44
675.998	11161.5
676.346	11164.44
676.695	11131.44
677.044	11075.63
677.393	11118.56
677.741	11196.75
678.09	11073.37
678.438	11077.66
678.787	11095.06
679.135	11037.89
679.484	10995.18
679.832	11046.48
680.181	10916.53
680.529	11029.98
680.877	10961.96
681.225	10994.73
681.573	11035.18
681.922	10872.02
682.27	10864.11
682.618	10820.94
682.966	10856.65
683.314	10789.98
683.661	10807.61
684.009	10742.53
684.357	10720.38
684.705	10827.95
685.053	10736.88
685.4	10744.56
685.748	10564
686.095	10612.14
686.443	10524.68
686.79	10514.06
687.138	10589.54
687.485	10507.28
687.832	10508.18
688.18	10526.49
688.527	10449.2
688.874	10420.73
689.221	10481.52
689.568	10369.2
689.915	10421.63
690.262	10305.93
690.609	10274.74
690.956	10240.85
691.303	10211.69
691.65	10231.13
691.997	10188.42
692.344	10108.42
692.69	10179.15
693.037	10086.95
693.383	10006.73
693.73	10001.3
694.077	9989.78
694.423	9965.83
694.769	9866.17
695.116	9905.26
695.462	9890.57
695.808	9761.09
696.155	9801.76
696.501	9730.8
696.847	9743.46
697.193	9623.46
697.539	9676.79
697.885	9624.14
698.231	9632.05
698.577	9506.4
698.923	9493.97
699.269	9467.31
699.614	9461.21
699.96	9345.73
700.306	9450.36
700.651	9325.84
700.997	9338.27
701.342	9286.97
701.688	9237.48
702.033	9245.39
702.379	9204.94
702.724	9200.42
703.069	9131.95
703.415	9080.43
703.76	9057.15
704.105	9016.7
704.45	9035.45
704.795	8976.92
705.14	8923.14
705.485	8931.5
705.83	8898.96
706.175	8874.55
706.52	8848.34
706.865	8811.05
707.209	8817.16
707.554	8744.84
707.899	8780.32
708.243	8755.01
708.588	8716.59
708.932	8660.55
709.277	8664.62
709.621	8635.24
709.966	8554.79
710.31	8583.49
710.654	8526.99
710.998	8577.84
711.342	8536.03
711.687	8476.83
712.031	8399.77
712.375	8415.13
712.719	8374.68
713.063	8434.79
713.407	8485.19
713.75	8378.07
714.094	8358.86
714.438	8388.92
714.782	8316.83
715.125	8330.84
715.469	8308.24
715.812	8225.76
716.156	8269.6
716.499	8268.47
716.843	8202.03
717.186	8176.27
717.53	8204.74
717.873	8217.62
718.216	8204.52
718.559	8195.7
718.902	8138.75
719.246	8110.73
719.589	8086.33
719.932	8104.18
720.275	8068.25
720.617	8095.59
720.96	8061.92
721.303	8082.94
721.646	8050.62
721.989	8052.43
722.331	8054.92
722.674	8017.18
723.016	8032.32
723.359	8002.04
723.701	7983.96
724.044	7924.07
724.386	7941.47
724.729	7943.28
725.071	7932.66
725.413	7978.53
725.755	7930.17
726.097	7873.9
726.439	7856.05
726.782	7861.02
727.124	7983.28
727.465	7898.99
727.807	7883.39
728.149	7924.75
728.491	7851.08
728.833	7901.7
729.175	7822.61
729.516	7916.39
729.858	7804.3
730.199	7901.92
730.541	7834.36
730.882	7805.66
731.224	7854.69
731.565	7760.69
731.906	7844.98
732.248	7864.41
732.589	7746.45
732.93	7838.2
733.271	7794.36
733.612	7830.51
733.953	7819.67
734.294	7813.34
734.635	7774.02
734.976	7852.66
735.317	7831.64
735.658	7802.72
735.999	7812.44
736.339	7851.53
736.68	7881.59
737.021	7880
737.361	7842.04
737.702	7828.03
738.042	7870.06
738.383	7811.98
738.723	7842.94
739.063	7822.38
739.404	7931.3
739.744	7919.78
740.084	7869.61
740.424	7908.7
740.764	7901.92
741.104	7927.24
741.444	7918.65
741.784	7928.59
742.124	7917.74
742.464	7946.22
742.804	7991.19
743.143	7964.97
743.483	8024.41
743.823	8023.96
744.162	8037.74
744.502	8036.84
744.841	8136.5
745.181	8188.25
745.52	8094.01
745.86	8241.13
746.199	8208.36
746.538	8265.08
746.877	8376.94
747.216	8344.85
747.556	8367.22
747.895	8455.58
748.234	8484.28
748.573	8516.82
748.911	8558.18
749.25	8643.6
749.589	8696.48
749.928	8776.48
750.267	8805.63
750.605	8876.14
750.944	8932.86
751.283	9033.87
751.621	9143.02
751.96	9178.95
752.298	9271.83
752.636	9405.61
752.975	9517.48
753.313	9634.53
753.651	9684.25
753.989	9752.05
754.327	9914.75
754.666	9944.81
755.004	10096.22
755.342	10239.49
755.679	10386.15
756.017	10434.29
756.355	10665.69
756.693	10799.7
757.031	10920.38
757.368	11002.86
757.706	11215.06
758.044	11292.8
