Data from hue_290_FLMS001491_00051.txt Node
Date: Tue Feb 07 15:52:55 GMT 2017
User: dcchb
Spectrometer: FLMS00149
Trigger mode: 0
Integration Time (sec): 2.000000E-2
Scans to average: 10
Electric dark correction enabled: true
Nonlinearity correction enabled: false
Boxcar width: 0
XAxis mode: Wavelengths
Number of Pixels in Spectrum: 2048
>>>>>Begin Spectral Data<<<<<
341.393	-9.14
341.776	-9.14
342.16	-9.14
342.543	-36.26
342.927	-62.92
343.31	-76.48
343.693	-69.48
344.077	-66.09
344.46	-71.28
344.843	-54.56
345.226	-35.58
345.61	-25.63
345.993	-18.86
346.376	2.16
346.759	20.47
347.142	24.31
347.525	50.07
347.908	57.98
348.291	74.93
348.674	100.24
349.057	87.81
349.44	124.42
349.823	128.49
350.206	156.06
350.588	185.66
350.971	207.35
351.354	220.23
351.737	214.13
352.119	249.61
352.502	254.81
352.884	250.06
353.267	261.59
353.65	281.25
354.032	289.61
354.414	297.29
354.797	297.97
355.179	315.83
355.562	307.46
355.944	336.16
356.326	312.66
356.709	324.86
357.091	331.64
357.473	338.88
357.855	335.49
358.238	336.39
358.62	336.62
359.002	330.51
359.384	323.73
359.766	334.81
360.148	337.52
360.53	316.5
360.912	331.42
361.294	306.11
361.676	314.24
362.057	325.09
362.439	319.21
362.821	332.1
363.203	333.9
363.584	318.08
363.966	311.53
364.348	312.89
364.729	305.43
365.111	286.67
365.493	296.84
365.874	316.28
366.256	295.26
366.637	314.24
367.019	297.75
367.4	311.76
367.781	293.68
368.163	295.03
368.544	307.46
368.925	323.96
369.306	316.95
369.688	306.11
370.069	313.11
370.45	304.98
370.831	300.01
371.212	315.15
371.593	292.55
371.974	292.55
372.355	313.79
372.736	311.08
373.117	320.34
373.498	312.66
373.879	320.57
374.26	304.07
374.641	324.86
375.021	291.19
375.402	309.5
375.783	305.2
376.163	326.9
376.544	330.29
376.925	299.78
377.305	306.79
377.686	326.9
378.066	331.19
378.447	347.46
378.827	332.32
379.208	319.67
379.588	327.8
379.968	319.21
380.349	342.27
380.729	334.36
381.109	323.51
381.489	330.97
381.87	346.33
382.25	326.67
382.63	352.43
383.01	351.98
383.39	342.94
383.77	331.64
384.15	326.45
384.53	330.74
384.91	319.89
385.29	351.98
385.67	344.52
386.049	342.27
386.429	351.3
386.809	352.43
387.189	342.04
387.568	355.37
387.948	377.52
388.328	350.63
388.707	335.71
389.087	333.68
389.466	364.86
389.846	387.24
390.225	355.37
390.605	375.94
390.984	366.22
391.363	369.38
391.743	380
392.122	359.67
392.501	382.94
392.881	384.52
393.26	369.61
393.639	353.11
394.018	365.32
394.397	368.03
394.776	380.68
395.155	375.26
395.534	393.34
395.913	404.41
396.292	379.33
396.671	379.55
397.05	389.72
397.429	384.07
397.808	390.17
398.186	379.55
398.565	390.4
398.944	400.57
399.323	399.21
399.701	408.93
400.08	404.86
400.458	401.92
400.837	409.83
401.215	421.58
401.594	385.88
401.972	409.83
402.351	417.29
402.729	422.71
403.107	436.05
403.486	450.06
403.864	448.7
404.242	436.73
404.62	436.05
404.999	429.04
405.377	457.97
405.755	451.19
406.133	461.13
406.511	459.78
406.889	454.13
407.267	469.95
407.645	462.04
408.023	473.56
408.401	461.58
408.779	477.63
409.156	491.19
409.534	491.64
409.912	513.11
410.29	508.81
410.667	507.23
411.045	537.51
411.422	527.8
411.8	530.73
412.178	552.43
412.555	556.04
412.933	539.1
413.31	563.73
413.687	599.66
414.065	604.86
414.442	590.62
414.819	611.41
415.197	598.08
415.574	608.92
415.951	603.73
416.328	622.71
416.705	620.22
417.082	615.7
417.46	635.36
417.837	644.18
418.214	674.91
418.591	658.41
418.967	668.13
419.344	670.62
419.721	690.05
420.098	725.31
420.475	741.12
420.852	699.77
421.228	701.13
421.605	730.73
421.982	742.71
422.358	744.06
422.735	758.53
423.111	758.75
423.488	768.24
423.864	801.01
424.241	777.73
424.617	794.68
424.994	839.2
425.37	783.84
425.746	792.65
426.123	846.43
426.499	827.45
426.875	846.88
427.251	868.13
427.627	872.87
428.003	882.59
428.379	888.24
428.756	895.7
429.132	909.03
429.507	943.38
429.883	938.63
430.259	932.76
430.635	936.37
431.011	960.55
431.387	968.24
431.763	983.15
432.138	1029.03
432.514	1006.88
432.89	1010.72
433.265	1026.54
433.641	1073.09
434.016	1097.5
434.392	1074.68
434.767	1106.09
435.143	1117.16
435.518	1124.84
435.894	1136.82
436.269	1160.55
436.644	1137.27
437.02	1166.65
437.395	1206.42
437.77	1194.45
438.145	1208.46
438.52	1212.3
438.895	1243.94
439.271	1228.12
439.646	1229.93
440.021	1240.77
440.395	1261.11
440.77	1274.67
441.145	1264.5
441.52	1327.55
441.895	1306.76
442.27	1325.06
442.645	1305.86
443.019	1326.42
443.394	1358.74
443.769	1330.94
444.143	1340.43
444.518	1387.89
444.892	1350.15
445.267	1372.52
445.641	1384.05
446.016	1371.39
446.39	1393.99
446.764	1408.23
447.139	1409.81
447.513	1409.81
447.887	1405.97
448.262	1396.02
448.636	1403.71
449.01	1452.07
449.384	1459.07
449.758	1455.23
450.132	1474.21
450.506	1496.36
450.88	1481.9
451.254	1477.6
451.628	1491.61
452.002	1496.13
452.376	1494.55
452.75	1504.72
453.123	1537.26
453.497	1555.57
453.871	1549.01
454.244	1566.87
454.618	1608.22
454.992	1596.47
455.365	1597.6
455.739	1607.09
456.112	1637.37
456.486	1631.72
456.859	1654.32
457.232	1667.2
457.606	1668.33
457.979	1690.25
458.352	1716.92
458.725	1722.12
459.099	1704.26
459.472	1714.88
459.845	1790.81
460.218	1768.67
460.591	1813.41
460.964	1805.96
461.337	1800.53
461.71	1866.07
462.083	1854.77
462.456	1866.74
462.829	1834.2
463.201	1885.95
463.574	1917.59
463.947	1917.82
464.32	1950.36
464.692	1939.06
465.065	1977.48
465.438	1998.94
465.81	2039.17
466.183	2008.21
466.555	2082.11
466.928	2063.12
467.3	2046.85
467.672	2108.55
468.045	2125.95
468.417	2134.31
468.789	2125.04
469.161	2135.66
469.534	2182.22
469.906	2201.2
470.278	2234.87
470.65	2291.14
471.022	2283.91
471.394	2274.19
471.766	2330.46
472.138	2360.52
472.51	2362.1
472.882	2410.91
473.253	2423.79
473.625	2427.18
473.997	2505.37
474.369	2459.95
474.74	2464.92
475.112	2537.24
475.484	2536.56
475.855	2577.69
476.227	2597.8
476.598	2690.68
476.97	2695.2
477.341	2716.44
477.713	2761.41
478.084	2770.68
478.455	2841.18
478.827	2845.02
479.198	2894.29
479.569	2876.66
479.94	2927.28
480.311	2971.35
480.682	3030.56
481.053	3024
481.424	3112.59
481.795	3165.02
482.166	3113.04
482.537	3202.08
482.908	3252.47
483.279	3230.32
483.65	3306.71
484.021	3342.86
484.391	3339.93
484.762	3339.47
485.133	3397.78
485.503	3431.9
485.874	3483.43
486.244	3456.08
486.615	3586.25
486.985	3613.82
487.356	3702.18
487.726	3678.67
488.097	3715.06
488.467	3741.5
488.837	3795.28
489.207	3805
489.578	3867.14
489.948	3896.07
490.318	3961.38
490.688	3893.13
491.058	3962.51
491.428	4007.71
491.798	4036.18
492.168	4074.82
492.538	4097.19
492.908	4108.49
493.278	4171.77
493.648	4210.64
494.017	4235.5
494.387	4286.79
494.757	4276.17
495.126	4322.73
495.496	4305.55
495.866	4374.25
496.235	4345.55
496.605	4430.52
496.974	4408.82
497.344	4421.48
497.713	4468.03
498.082	4512.32
498.452	4518.65
498.821	4554.58
499.19	4532.21
499.559	4590.74
499.928	4610.18
500.298	4609.72
500.667	4628.48
501.036	4609.05
501.405	4711.42
501.774	4720.23
502.143	4674.13
502.512	4738.53
502.88	4760.91
503.249	4777.18
503.618	4776.05
503.987	4836.38
504.356	4829.83
504.724	4842.94
505.093	4851.07
505.462	4895.59
505.83	4852.2
506.199	4912.31
506.567	4929.94
506.936	4968.58
507.304	4969.26
507.672	4969.49
508.041	4976.49
508.409	5008.81
508.777	5035.47
509.145	5113.66
509.514	5075.02
509.882	5112.99
510.25	5072.76
510.618	5128.35
510.986	5141.01
511.354	5143.72
511.722	5207.45
512.09	5214.23
512.458	5126.77
512.826	5258.07
513.193	5215.81
513.561	5229.37
513.929	5289.48
514.297	5287.67
514.664	5317.28
515.032	5298.97
515.4	5322.7
515.767	5404.73
516.135	5370.83
516.502	5361.34
516.869	5411.74
517.237	5361.34
517.604	5393.43
517.972	5441.79
518.339	5417.39
518.706	5516.14
519.073	5447.44
519.44	5474.11
519.808	5541.45
520.175	5529.25
520.542	5557.5
520.909	5649.92
521.276	5601.79
521.643	5597.04
522.009	5646.08
522.376	5642.24
522.743	5667.77
523.11	5740.77
523.477	5784.38
523.843	5759.98
524.21	5784.16
524.577	5805.17
524.943	5831.39
525.31	5889.92
525.676	5844.72
526.043	5972.4
526.409	5981.21
526.776	6038.84
527.142	6025.73
527.508	6001.78
527.874	6048.1
528.241	6076.13
528.607	6138.27
528.973	6082.45
529.339	6082.23
529.705	6161.77
530.071	6197.48
530.437	6183.92
530.803	6319.96
531.169	6340.75
531.535	6260.75
531.901	6294.42
532.267	6298.49
532.632	6339.17
532.998	6374.87
533.364	6359.51
533.73	6369.68
534.095	6477.47
534.461	6477.92
534.826	6522.44
535.192	6490.58
535.557	6528.77
535.923	6511.59
536.288	6526.06
536.653	6570.12
537.019	6530.35
537.384	6653.51
537.749	6615.77
538.114	6692.38
538.479	6641.08
538.845	6721.98
539.21	6667.3
539.575	6693.96
539.94	6723.57
540.305	6799.04
540.67	6770.57
541.034	6854.86
541.399	6778.93
541.764	6832.04
542.129	6836.33
542.494	6849.89
542.858	6904.13
543.223	6895.99
543.587	6950
543.952	6951.58
544.316	6956.78
544.681	6912.94
545.045	7004.69
545.41	7041.98
545.774	7047.85
546.138	7061.18
546.503	7025.03
546.867	7099.83
547.231	7061.64
547.595	7184.34
547.959	7186.38
548.324	7144.8
548.688	7172.82
549.052	7206.27
549.416	7236.55
549.779	7197.45
550.143	7197.45
550.507	7245.36
550.871	7291.23
551.235	7304.57
551.599	7293.49
551.962	7309.09
552.326	7386.15
552.689	7395.86
553.053	7373.04
553.417	7364.45
553.78	7446.26
554.143	7414.4
554.507	7445.36
554.87	7437.45
555.234	7516.99
555.597	7461.17
555.96	7511.34
556.323	7571.23
556.686	7535.3
557.05	7600.15
557.413	7614.16
557.776	7622.07
558.139	7656.42
558.502	7602.19
558.865	7675.41
559.228	7715.86
559.59	7676.76
559.953	7731
560.316	7841.28
560.679	7763.09
561.041	7829.07
561.404	7814.38
561.767	7836.31
562.129	7847.15
562.492	7945.91
562.854	7985.91
563.217	7905.68
563.579	7924.21
563.941	7947.04
564.304	7992.91
564.666	8022.74
565.028	8036.53
565.39	8072.46
565.753	8147.94
566.115	8082.63
566.477	8126.02
566.839	8128.05
567.201	8239.01
567.563	8272.68
567.925	8325.11
568.287	8329.4
568.648	8345.9
569.01	8321.94
569.372	8357.42
569.734	8363.07
570.095	8434.93
570.457	8499.11
570.819	8505.44
571.18	8471.32
571.542	8545.21
571.903	8634.7
572.265	8602.61
572.626	8680.8
572.987	8732.33
573.349	8671.76
573.71	8775.72
574.071	8826.34
574.432	8805.32
574.794	8924.86
575.155	8959.21
575.516	8908.82
575.877	8978.65
576.238	9056.39
576.599	9150.85
576.96	9093.9
577.32	9140.45
577.681	9167.57
578.042	9292.76
578.403	9364.4
578.763	9404.4
579.124	9482.36
579.485	9578.86
579.845	9607.33
580.206	9644.17
580.566	9702.7
580.927	9807.1
581.287	9908.79
581.648	9963.03
582.008	10036.25
582.368	10163.93
582.728	10258.61
583.089	10331.38
583.449	10358.95
583.809	10475.56
584.169	10652.28
584.529	10657.93
584.889	10792.39
585.249	10947.86
585.609	10982.21
585.969	11139.04
586.329	11220.62
586.688	11345.14
587.048	11532.48
587.408	11613.83
587.768	11693.6
588.127	11792.59
588.487	11943.09
588.846	12163.2
589.206	12210.43
589.565	12350.76
589.925	12555.05
590.284	12525.9
590.643	12753.01
591.003	12880.92
591.362	13081.82
591.721	13224.86
592.08	13369.95
592.44	13523.84
592.799	13548.47
593.158	13803.83
593.517	13935.58
593.876	14037.05
594.235	14151.62
594.593	14267.1
594.952	14520.42
595.311	14524.72
595.67	14631.38
596.029	14888.78
596.387	15069.11
596.746	15194.08
597.104	15219.61
597.463	15424.13
597.822	15470.23
598.18	15608.98
598.538	15786.6
598.897	15937.11
599.255	16039.71
599.613	16306.37
599.972	16346.59
600.33	16465
600.688	16543.65
601.046	16711.78
601.404	16843.3
601.762	16864.09
602.12	17135.04
602.478	17197.42
602.836	17226.79
603.194	17398.54
603.552	17439.44
603.91	17532.1
604.268	17689.61
604.625	17685.31
604.983	17959.2
605.341	17900.22
605.698	18137.28
606.056	18191.74
606.413	18188.8
606.771	18416.59
607.128	18470.38
607.485	18510.15
607.843	18476.25
608.2	18654.78
608.557	18823.81
608.914	18865.85
609.272	19058.38
609.629	19067.87
609.986	19182.9
610.343	19138.61
610.7	19341.99
611.057	19397.81
611.414	19396.68
611.771	19500.63
612.127	19697.01
612.484	19727.29
612.841	19760.29
613.198	19748.99
613.554	19819.04
613.911	20002.31
614.267	20039.83
614.624	20086.15
614.98	20137.9
615.337	20314.85
615.693	20333.38
616.05	20293.6
616.406	20435.97
616.762	20394.39
617.118	20513.26
617.475	20444.56
617.831	20669.87
618.187	20650.88
618.543	20731.79
618.899	20802.74
619.255	20840.48
619.611	20789.86
619.967	20975.17
620.323	20956.86
620.678	21003.87
621.034	21033.47
621.39	21021.72
621.746	21143.98
622.101	21297.65
622.457	21180.81
622.812	21253.58
623.168	21397.08
623.523	21310.08
623.879	21428.72
624.234	21213.35
624.589	21348.49
624.945	21547.36
625.3	21384.65
625.655	21474.82
626.01	21510.52
626.365	21519.11
626.72	21557.3
627.075	21586.9
627.43	21685.43
627.785	21512.33
628.14	21569.28
628.495	21689.95
628.85	21623.29
629.205	21573.8
629.559	21655.83
629.914	21582.38
630.269	21641.82
630.623	21591.88
630.978	21521.14
631.332	21696.51
631.687	21646.56
632.041	21590.52
632.396	21744.41
632.75	21474.36
633.104	21564.53
633.459	21449.96
633.813	21391.2
634.167	21506
634.521	21407.93
634.875	21496.29
635.229	21517.98
635.583	21317.08
635.937	21419.9
636.291	21462.39
636.645	21382.62
636.999	21371.99
637.352	21386.23
637.706	21286.8
638.06	21404.76
638.413	21322.5
638.767	21293.13
639.121	21349.4
639.474	21334.03
639.828	21300.36
640.181	21288.83
640.534	21289.74
640.888	21255.16
641.241	21157.08
641.594	21292.9
641.947	21313.47
642.301	21265.78
642.654	21299.45
643.007	21248.83
643.36	21282.96
643.713	21168.61
644.066	21297.87
644.419	21083.64
644.771	20890.65
645.124	20838.45
645.477	20762.29
645.83	20634.16
646.182	20618.57
646.535	20549.87
646.888	20588.96
647.24	20668.06
647.593	20689.53
647.945	20593.71
648.298	20467.61
648.65	20523.66
649.002	20442.53
649.355	20511.9
649.707	20575.63
650.059	20677.55
650.411	20878.67
650.763	20919.13
651.115	21232.79
651.467	21139.46
651.819	21035.96
652.171	21072.79
652.523	20990.54
652.875	21054.49
653.227	20882.06
653.578	21086.58
653.93	21021.95
654.282	20962.51
654.633	20951.67
654.985	20979.91
655.337	20941.27
655.688	21028.27
656.039	21169.29
656.391	20865.79
656.742	20976.75
657.094	21054.26
657.445	21106.69
657.796	21117.54
658.147	21033.7
658.498	21007.71
658.849	20991.21
659.2	21059.23
659.551	21019.69
659.902	21130.19
660.253	21079.35
660.604	21099.91
660.955	20963.42
661.306	21205.45
661.656	21121.61
662.007	21228.27
662.358	21063.08
662.708	21165.9
663.059	21080.02
663.409	21021.95
663.76	21241.38
664.11	21170.87
664.461	21150.08
664.811	21101.95
665.161	21033.92
665.511	21104.66
665.862	21252.9
666.212	21197.54
666.562	21163.86
666.912	21132.68
667.262	21080.7
667.612	21107.82
667.962	21143.07
668.312	21075.28
668.662	21261.71
669.011	21216.07
669.361	21096.3
669.711	21075.51
670.06	20977.43
670.41	21000.03
670.76	21039.35
671.109	21088.16
671.459	21102.17
671.808	20934.94
672.157	21073.47
672.507	20851.1
672.856	20898.33
673.205	21014.26
673.554	21053.81
673.904	20954.38
674.253	21041.61
674.602	20970.2
674.951	20646.36
675.3	20565.69
675.649	20950.76
675.998	20877.54
676.346	20985.34
676.695	21044.55
677.044	20812.24
677.393	20866.25
677.741	20902.4
678.09	20787.15
678.438	20796.19
678.787	20753.71
679.135	20723.88
679.484	20614.5
679.832	20715.97
680.181	20518.46
680.529	20621.28
680.877	20618.12
681.225	20519.81
681.573	20650.66
681.922	20496.31
682.27	20442.75
682.618	20476.42
682.966	20418.35
683.314	20436.43
683.661	20375.18
684.009	20253.15
684.357	20217
684.705	20207.05
685.053	20236.43
685.4	20132.93
685.748	20072.82
686.095	19946.95
686.443	19908.98
686.79	19838.02
687.138	20016.1
687.485	19906.04
687.832	19769.55
688.18	19881.86
688.527	19732.04
688.874	19733.17
689.221	19673.96
689.568	19624.47
689.915	19530.91
690.262	19623.57
690.609	19443.68
690.956	19439.84
691.303	19410.46
691.65	19312.61
691.997	19310.35
692.344	19194.88
692.69	19181.32
693.037	19158.27
693.383	19050.7
693.73	19088.89
694.077	18928.89
694.423	18819.52
694.769	18859.52
695.116	18845.28
695.462	18680.31
695.808	18590.6
696.155	18705.4
696.501	18531.17
696.847	18549.92
697.193	18309.48
697.539	18354.45
697.885	18302.02
698.231	18248.01
698.577	18145.64
698.923	18201.23
699.269	18043.72
699.614	18040.78
699.96	17973.67
700.306	17982.93
700.651	17773.22
700.997	17849.38
701.342	17751.52
701.688	17709.94
702.033	17579.33
702.379	17616.39
702.724	17554.69
703.069	17562.38
703.415	17404.64
703.76	17405.32
704.105	17315.15
704.45	17318.32
704.795	17189.96
705.14	17112.67
705.485	17126
705.83	17043.52
706.175	17093.69
706.52	17044.42
706.865	16938.21
707.209	16902.06
707.554	16860.7
707.899	16862.96
708.243	16769.18
708.588	16773.25
708.932	16573.02
709.277	16517.88
709.621	16589.52
709.966	16413.03
710.31	16479.69
710.654	16377.1
710.998	16393.82
711.342	16337.32
711.687	16309.08
712.031	16382.3
712.375	16243.32
712.719	16277.89
713.063	16146.6
713.407	16211
713.75	16098.91
714.094	16048.97
714.438	16015.3
714.782	16079.48
715.125	16000.16
715.469	15960.39
715.812	15922.19
716.156	15756.1
716.499	15768.3
716.843	15863.89
717.186	15704.57
717.53	15806.94
717.873	15757.9
718.216	15752.71
718.559	15614.63
718.902	15537.12
719.246	15594.29
719.589	15562.2
719.932	15452.6
720.275	15569.66
720.617	15523.33
720.96	15515.2
721.303	15523.11
721.646	15555.65
721.989	15363.56
722.331	15494.63
722.674	15459.38
723.016	15451.92
723.359	15371.7
723.701	15427.74
724.044	15287.63
724.386	15277.69
724.729	15371.25
725.071	15347.97
725.413	15221.87
725.755	15146.4
726.097	15225.94
726.439	15091.26
726.782	15178.03
727.124	15242.89
727.465	15112.72
727.807	15192.04
728.149	15045.38
728.491	15117.47
728.833	15155.21
729.175	15065.49
729.516	15181.65
729.858	15040.86
730.199	15024.59
730.541	15029.79
730.882	15022.33
731.224	15088.77
731.565	14916.35
731.906	14946.4
732.248	15024.14
732.589	14918.6
732.93	14929.9
733.271	14967.87
733.612	14921.54
733.953	15042.22
734.294	14983.01
734.635	14875.22
734.976	14952.95
735.317	14823.92
735.658	14880.41
735.999	14876.12
736.339	14924.48
736.68	14935.33
737.021	14948.66
737.361	14907.98
737.702	14987.3
738.042	14942.33
738.383	14826.18
738.723	15019.62
739.063	14894.88
739.404	14900.3
739.744	14920.19
740.084	14891.71
740.424	14866.18
740.764	14907.76
741.104	15017.13
741.444	14892.39
741.784	14934.88
742.124	14966.06
742.464	15010.35
742.804	14968.1
743.143	15015.78
743.483	15080.18
743.823	14962.45
744.162	15012.16
744.502	15082.22
744.841	15036.57
745.181	15009.68
745.52	15167.86
745.86	15293.51
746.199	15148.66
746.538	15267.3
746.877	15413.28
747.216	15394.3
747.556	15364.02
747.895	15396.78
748.234	15446.95
748.573	15486.27
748.911	15538.93
749.25	15637.91
749.589	15595.42
749.928	15702.54
750.267	15819.37
750.605	15925.36
750.944	15898.92
751.283	15918.8
751.621	15991.8
751.96	15994.73
752.298	16170.78
752.636	16185.46
752.975	16347.72
753.313	16406.48
753.651	16538
753.989	16453.71
754.327	16525.12
754.666	16712
755.004	16836.07
755.342	16914.48
755.679	16939.79
756.017	17120.58
756.355	17232.22
756.693	17288.71
757.031	17477.63
757.368	17485.54
757.706	17547.24
758.044	17760.34
758.381	17809.38
758.719	17882.37
759.056	17994.91
759.394	18073.55
759.731	18137.05
