Data from hue_24_FLMS001491_00022.txt Node
Date: Tue Feb 07 17:12:01 GMT 2017
User: dcchb
Spectrometer: FLMS00149
Trigger mode: 0
Integration Time (sec): 2.000000E-2
Scans to average: 10
Electric dark correction enabled: true
Nonlinearity correction enabled: false
Boxcar width: 0
XAxis mode: Wavelengths
Number of Pixels in Spectrum: 2048
>>>>>Begin Spectral Data<<<<<
341.393	-23.13
341.776	-23.13
342.16	-23.13
342.543	-64.49
342.927	-47.32
343.31	-74.43
343.693	-58.84
344.077	-74.66
344.46	-47.09
344.843	-44.83
345.226	-50.03
345.61	-8.67
345.993	-13.42
346.376	-9.8
346.759	12.8
347.142	32.91
347.525	43.3
347.908	31.33
348.291	86.47
348.674	77.65
349.057	97.31
349.44	133.47
349.823	144.54
350.206	149.29
350.588	198.1
350.971	224.32
351.354	246.24
351.737	241.72
352.119	248.72
352.502	275.84
352.884	276.29
353.267	290.53
353.65	308.83
354.032	330.75
354.414	302.96
354.797	309.51
355.179	321.04
355.562	317.87
355.944	334.14
356.326	330.3
356.709	349.51
357.091	345.22
357.473	352
357.855	351.54
358.238	346.57
358.62	357.87
359.002	348.83
359.384	343.18
359.766	353.13
360.148	354.48
360.53	337.53
360.912	335.05
361.294	323.3
361.676	334.6
362.057	340.25
362.439	345.44
362.821	326.91
363.203	328.27
363.584	317.42
363.966	327.59
364.348	357.19
364.729	331.43
365.111	331.66
365.493	332.34
365.874	318.1
366.256	320.13
366.637	317.65
367.019	315.84
367.4	326.23
367.781	324.2
368.163	326.46
368.544	304.31
368.925	319.68
369.306	325.78
369.688	304.09
370.069	318.78
370.45	334.6
370.831	321.71
371.212	316.74
371.593	311.55
371.974	325.33
372.355	323.3
372.736	331.66
373.117	325.78
373.498	315.84
373.879	320.36
374.26	335.05
374.641	330.53
375.021	327.36
375.402	347.93
375.783	333.69
376.163	325.1
376.544	320.13
376.925	330.08
377.305	334.37
377.686	329.17
378.066	325.56
378.447	333.92
378.827	350.41
379.208	341.6
379.588	351.77
379.968	332.56
380.349	351.09
380.729	329.17
381.109	351.77
381.489	349.28
381.87	354.93
382.25	344.76
382.63	359
383.01	351.32
383.39	350.41
383.77	358.55
384.15	358.78
384.53	340.25
384.91	360.36
385.29	364.65
385.67	344.54
386.049	368.72
386.429	362.84
386.809	345.67
387.189	353.35
387.568	352.67
387.948	364.88
388.328	352.22
388.707	347.02
389.087	379.57
389.466	362.17
389.846	355.16
390.225	342.51
390.605	359.91
390.984	384.31
391.363	372.79
391.743	373.46
392.122	393.13
392.501	371.2
392.881	385.67
393.26	402.16
393.639	404.42
394.018	390.19
394.397	414.14
394.776	379.11
395.155	386.12
395.534	378.21
395.913	392.9
396.292	410.07
396.671	400.13
397.05	399.23
397.429	400.13
397.808	403.07
398.186	403.07
398.565	408.49
398.944	404.88
399.323	398.77
399.701	405.33
400.08	396.74
400.458	427.25
400.837	404.2
401.215	426.12
401.594	421.6
401.972	416.85
402.351	424.31
402.729	417.76
403.107	435.61
403.486	424.76
403.864	436.74
404.242	431.32
404.62	424.76
404.999	418.21
405.377	431.54
405.755	441.94
406.133	439
406.511	445.33
406.889	452.11
407.267	435.61
407.645	451.65
408.023	460.02
408.401	434.25
408.779	459.11
409.156	451.65
409.534	446.01
409.912	462.5
410.29	479.45
410.667	460.02
411.045	484.2
411.422	448.04
411.8	455.04
412.178	501.6
412.555	482.39
412.933	497.98
413.31	474.03
413.687	497.3
414.065	486.23
414.442	485.33
414.819	496.85
415.197	519
415.574	500.02
415.951	496.17
416.328	483.74
416.705	535.95
417.082	506.79
417.46	528.04
417.837	526
418.214	515.83
418.591	541.14
418.967	511.54
419.344	536.4
419.721	524.87
420.098	512.9
420.475	523.52
420.852	526.91
421.228	533.23
421.605	562.16
421.982	569.39
422.358	552.67
422.735	549.96
423.111	567.13
423.488	570.52
423.864	577.75
424.241	580.92
424.617	579.79
424.994	594.02
425.37	558.32
425.746	581.59
426.123	568.49
426.499	596.96
426.875	595.15
427.251	592.44
427.627	570.07
428.003	603.74
428.379	635.83
428.756	620.69
429.132	628.37
429.507	643.06
429.883	641.03
430.259	628.6
430.635	649.39
431.011	654.81
431.387	677.41
431.763	682.61
432.138	672.21
432.514	674.93
432.89	665.43
433.265	685.09
433.641	690.07
434.016	712.66
434.392	694.81
434.767	708.82
435.143	710.86
435.518	717.18
435.894	694.81
436.269	714.47
436.644	733.91
437.02	737.97
437.395	747.69
437.77	733.91
438.145	758.77
438.52	754.92
438.895	752.44
439.271	771.65
439.646	752.44
440.021	769.39
440.395	765.32
440.77	782.49
441.145	766.9
441.52	786.56
441.895	784.75
442.27	797.86
442.645	793.79
443.019	818.65
443.394	788.6
443.769	824.98
444.143	823.4
444.518	830.18
444.892	817.52
445.267	820.01
445.641	853.9
446.016	852.32
446.39	842.38
446.764	859.55
447.139	860.46
447.513	859.33
447.887	878.31
448.262	857.52
448.636	852.77
449.01	867.01
449.384	890.06
449.758	893
450.132	893
450.506	909.5
450.88	913.79
451.254	929.16
451.628	926.67
452.002	942.26
452.376	916.28
452.75	924.18
453.123	927.57
453.497	949.27
453.871	976.39
454.244	980.23
454.618	957.4
454.992	1019.78
455.365	986.1
455.739	1022.49
456.112	1049.15
456.486	1014.8
456.859	1021.13
457.232	1054.8
457.606	1052.54
457.979	1064.29
458.352	1078.53
458.725	1108.13
459.099	1100.45
459.472	1115.82
459.845	1130.28
460.218	1137.51
460.591	1139.09
460.964	1168.92
461.337	1166.21
461.71	1182.26
462.083	1196.04
462.456	1220.45
462.829	1228.81
463.201	1243.72
463.574	1235.14
463.947	1243.72
464.32	1274.46
464.692	1291.41
465.065	1268.13
465.438	1291.41
465.81	1320.78
466.183	1362.37
466.555	1344.74
466.928	1374.79
467.3	1390.16
467.672	1392.2
468.045	1449.82
468.417	1427.67
468.789	1420.67
469.161	1443.72
469.534	1482.14
469.906	1517.84
470.278	1504.51
470.65	1522.14
471.022	1571.85
471.394	1600.55
471.766	1591.96
472.138	1609.36
472.51	1640.55
472.882	1701.79
473.253	1721.45
473.625	1699.08
473.997	1783.37
474.369	1770.94
474.74	1807.33
475.112	1851.39
475.484	1898.85
475.855	1876.02
476.227	1919.41
476.598	1960.54
476.97	1979.52
477.341	2015.46
477.713	2055.68
478.084	2075.79
478.455	2190.82
478.827	2175
479.198	2222.91
479.569	2250.03
479.94	2296.13
480.311	2315.79
480.682	2372.51
481.053	2421.09
481.424	2479.4
481.795	2527.98
482.166	2546.06
482.537	2586.74
482.908	2648.21
483.279	2673.07
483.65	2725.27
484.021	2820.63
484.391	2796.9
484.762	2872.38
485.133	2905.6
485.503	2952.83
485.874	3058.14
486.244	3072.38
486.615	3140.17
486.985	3179.04
487.356	3223.56
487.726	3275.31
488.097	3334.52
488.467	3386.72
488.837	3426.27
489.207	3491.57
489.578	3611.57
489.948	3607.5
490.318	3601.85
490.688	3643.89
491.058	3720.04
491.428	3796.43
491.798	3896.54
492.168	3938.12
492.538	3955.97
492.908	3986.93
493.278	4056.31
493.648	4028.28
494.017	4130.88
494.387	4183.76
494.757	4162.74
495.126	4246.36
495.496	4263.98
495.866	4318.9
496.235	4367.26
496.605	4396.18
496.974	4445.45
497.344	4493.13
497.713	4538.78
498.082	4529.51
498.452	4577.42
498.821	4612.45
499.19	4626.23
499.559	4662.62
499.928	4749.62
500.298	4825.78
500.667	4809.73
501.036	4801.6
501.405	4841.6
501.774	4864.42
502.143	4910.29
502.512	4953.91
502.88	4962.27
503.249	4950.07
503.618	5036.84
503.987	5060.35
504.356	5140.35
504.724	5099.67
505.093	5166.33
505.462	5146.67
505.83	5225.31
506.199	5265.31
506.567	5296.27
506.936	5301.47
507.304	5322.26
507.672	5356.84
508.041	5389.38
508.409	5398.42
508.777	5502.82
509.145	5468.7
509.514	5529.26
509.882	5510.73
510.25	5571.52
510.618	5590.95
510.986	5594.12
511.354	5664.85
511.722	5718.86
512.09	5692.42
512.458	5724.06
512.826	5772.42
513.193	5783.49
513.561	5800.44
513.929	5885.86
514.297	5894
514.664	5917.95
515.032	5939.42
515.4	5939.19
515.767	5982.13
516.135	6012.64
516.502	6006.31
516.869	6098.29
517.237	6091.73
517.604	6118.85
517.972	6138.28
518.339	6163.14
518.706	6150.49
519.073	6192.52
519.44	6210.15
519.808	6265.06
520.175	6303.25
520.542	6374.44
520.909	6377.83
521.276	6361.56
521.643	6409.69
522.009	6454.43
522.376	6512.51
522.743	6540.76
523.11	6609.23
523.477	6629.35
523.843	6644.26
524.21	6681.32
524.577	6730.36
524.943	6743.69
525.31	6782.11
525.676	6810.13
526.043	6875.89
526.409	6977.36
526.776	6998.15
527.142	7028.43
527.508	7027.08
527.874	7064.36
528.241	7129.67
528.607	7142.55
528.973	7180.97
529.339	7164.92
529.705	7235.43
530.071	7278.59
530.437	7348.87
530.803	7383.68
531.169	7469.78
531.535	7394.75
531.901	7400.4
532.267	7532.6
532.632	7573.73
532.998	7500.28
533.364	7600.17
533.73	7630.68
534.095	7678.58
534.461	7733.05
534.826	7757.9
535.192	7769.43
535.557	7834.29
535.923	7902.76
536.288	7806.72
536.653	7889.2
537.019	7911.12
537.384	7965.36
537.749	7999.48
538.114	7987.5
538.479	8023.21
538.845	8032.25
539.21	8046.71
539.575	8099.82
539.94	8160.15
540.305	8155.18
540.67	8176.88
541.034	8262.3
541.399	8242.64
541.764	8284.44
542.129	8298.23
542.494	8431.33
542.858	8405.8
543.223	8451.22
543.587	8534.83
543.952	8529.63
544.316	8529.63
544.681	8555.85
545.045	8630.87
545.41	8622.51
545.774	8671.33
546.138	8709.29
546.503	8720.14
546.867	8693.7
547.231	8747.71
547.595	8830.19
547.959	8879.68
548.324	8867.03
548.688	8833.81
549.052	8891.88
549.416	8954.48
549.779	8947.02
550.143	9015.05
550.507	9126.68
550.871	9070.19
551.235	9078.77
551.599	9117.87
551.962	9259.78
552.326	9264.98
552.689	9221.59
553.053	9260.69
553.417	9277.19
553.78	9340.46
554.143	9332.33
554.507	9420.68
554.87	9414.13
555.234	9475.82
555.597	9514.02
555.96	9486.9
556.323	9539.55
556.686	9620.91
557.05	9616.39
557.413	9650.51
557.776	9693.45
558.139	9697.97
558.502	9766.44
558.865	9677.63
559.228	9871.29
559.59	9842.59
559.953	9843.05
560.316	9990.16
560.679	9959.2
561.041	10031.29
561.404	10004.62
561.767	10032.19
562.129	10031.52
562.492	10201.45
562.854	10127.56
563.217	10157.16
563.579	10168.91
563.941	10322.81
564.304	10326.42
564.666	10363.71
565.028	10340.66
565.39	10386.31
565.753	10522.35
566.115	10474.44
566.477	10525.51
566.839	10524.84
567.201	10615
567.563	10637.6
567.925	10783.81
568.287	10717.37
568.648	10763.02
569.01	10856.35
569.372	10934.32
569.734	10842.79
570.095	10923.7
570.457	10989.23
570.819	11067.65
571.18	11050.02
571.542	11132.73
571.903	11182.45
572.265	11195.78
572.626	11239.85
572.987	11328.2
573.349	11352.61
573.71	11431.48
574.071	11478.94
574.432	11526.39
574.794	11611.59
575.155	11664.69
575.516	11641.19
575.877	11780.4
576.238	11793.28
576.599	11874.63
576.96	11974.06
577.32	12027.17
577.681	12110.56
578.042	12300.16
578.403	12343.77
578.763	12445.46
579.124	12475.29
579.485	12578.34
579.845	12764.33
580.206	12826.02
580.566	12981.27
580.927	13026.69
581.287	13189.62
581.648	13312.11
582.008	13480.46
582.368	13571.31
582.728	13762.94
583.089	13892.88
583.449	13966.1
583.809	14164.74
584.169	14402.93
584.529	14479.31
584.889	14796.14
585.249	14934.44
585.609	15107.31
585.969	15366.97
586.329	15455.1
586.688	15676.34
587.048	15816.67
587.408	16051.92
587.768	16374.4
588.127	16535.98
588.487	16734.62
588.846	17188.84
589.206	17154.94
589.565	17509.06
589.925	17909.05
590.284	18126.22
590.643	18240.57
591.003	18637.84
591.362	19001.22
591.721	19099.53
592.08	19426.52
592.44	19728.44
592.799	19980.41
593.158	20289.55
593.517	20539.26
593.876	20970.66
594.235	21174.95
594.593	21498.11
594.952	21857.87
595.311	22028.49
595.67	22465.99
596.029	22855.13
596.387	23218.97
596.746	23503.93
597.104	23642.01
597.463	23892.39
597.822	24426.62
598.18	24454.41
598.538	24733.5
598.897	25385.69
599.255	25416.2
599.613	26021.15
599.972	26195.84
600.33	26634.7
600.688	26792.88
601.046	27136.6
601.404	27559.42
601.762	27655.23
602.12	28205.73
602.478	28491.14
602.836	28628.32
603.194	28864.02
603.552	29152.37
603.91	29393.27
604.268	29926.81
604.625	29823.99
604.983	30377.42
605.341	30387.36
605.698	30826.45
606.056	31272.09
606.413	31397.96
606.771	31716.6
607.128	31962.46
607.485	32032.52
607.843	32365.39
608.2	32825.72
608.557	32962.44
608.914	33126.5
609.272	33672.7
609.629	33904.11
609.986	34158.34
610.343	34252.35
610.7	34620.47
611.057	34730.53
611.414	35037.19
611.771	35201.93
612.127	35587
612.484	35687.56
612.841	35855.92
613.198	35890.95
613.554	36206.42
613.911	36539.75
614.267	36686.86
614.624	36828.55
614.98	36998.04
615.337	37182.21
615.693	37437.8
616.05	37562.77
616.406	37887.51
616.762	37802.31
617.118	38104.68
617.475	38160.95
617.831	38501.95
618.187	38627.37
618.543	38817.43
618.899	39023.52
619.255	39144.87
619.611	39321.14
619.967	39395.94
620.323	39654.01
620.678	39641.81
621.034	39615.37
621.39	39777.4
621.746	39784.18
622.101	40272.75
622.457	40087.67
622.812	40188.69
623.168	40491.51
623.523	40519.98
623.879	40709.13
624.234	40644.95
624.589	40890.37
624.945	41064.15
625.3	41119.29
625.655	41038.84
626.01	41199.96
626.365	41313.86
626.72	41354.76
627.075	41376.45
627.43	41447.64
627.785	41459.62
628.14	41694.86
628.495	41743.22
628.85	41720.17
629.205	41550.91
629.559	41847.85
629.914	41806.05
630.269	41873.84
630.623	41729.89
630.978	41755.65
631.332	42133.72
631.687	42201.97
632.041	42023.44
632.396	42140.5
632.75	42063.67
633.104	42089.43
633.459	42087.17
633.813	42098.92
634.167	42079.49
634.521	42006.95
634.875	42337.11
635.229	42122.2
635.583	42041.3
635.937	42117.9
636.291	42196.77
636.645	42130.56
636.999	42087.17
637.352	42368.74
637.706	41986.16
638.06	42321.29
638.413	42118.13
638.767	41976.44
639.121	42173.72
639.474	41929.89
639.828	41900.06
640.181	42063.89
640.534	42041.3
640.888	41965.37
641.241	41855.09
641.594	41997.46
641.947	42151.12
642.301	41931.24
642.654	42049.43
643.007	42121.07
643.36	42104.12
643.713	41924.24
644.066	42127.62
644.419	41773.05
644.771	41613.28
645.124	41279.51
645.477	41216.68
645.83	40961.55
646.182	40919.74
646.535	40805.4
646.888	40854.21
647.24	40696.92
647.593	41026.18
647.945	40919.97
648.298	40669.81
648.65	40509.81
649.002	40584.16
649.355	40759.97
649.707	40762.23
650.059	40840.65
650.411	41318.6
650.763	41320.18
651.115	41732.38
651.467	41536.45
651.819	41693.96
652.171	41525.38
652.523	41484.02
652.875	41616.22
653.227	41303.69
653.578	41697.8
653.93	41351.6
654.282	41456.45
654.633	41394.31
654.985	41372.84
655.337	41442.67
655.688	41349.56
656.039	41560.4
656.391	41119.51
656.742	41291.03
657.094	41291.26
657.445	41552.04
657.796	41364.48
658.147	41238.6
658.498	41092.39
658.849	41364.7
659.2	41213.75
659.551	41199.28
659.902	41292.39
660.253	41202.9
660.604	41308.66
660.955	41126.29
661.306	41367.87
661.656	41163.35
662.007	41295.55
662.358	41238.38
662.708	41188.89
663.059	41155.22
663.409	40903.7
663.76	41240.41
664.11	41244.48
664.461	41345.95
664.811	41096.91
665.161	41256.68
665.511	41081.55
665.862	41203.58
666.212	41231.83
666.562	41298.49
666.912	41234.99
667.262	41039.06
667.612	41112.96
667.962	41081.32
668.312	41126.52
668.662	41241.54
669.011	41049.68
669.361	40935.11
669.711	41097.82
670.06	41062.11
670.41	40917.48
670.76	40951.38
671.109	41043.58
671.459	40899.63
671.808	40828.9
672.157	41097.37
672.507	40825.73
672.856	40814.21
673.205	40859.86
673.554	41037.93
673.904	40768.56
674.253	40957.93
674.602	40804.04
674.951	40395.92
675.3	40267.56
675.649	40748.67
675.998	40773.31
676.346	40642.24
676.695	40846.75
677.044	40526.99
677.393	40593.2
677.741	40817.6
678.09	40582.8
678.438	40618.96
678.787	40637.04
679.135	40542.8
679.484	40399.3
679.832	40495.12
680.181	40282.47
680.529	40348.91
680.877	40315.47
681.225	40313.21
681.573	40472.98
681.922	40176.49
682.27	40192.53
682.618	40142.81
682.966	39947.11
683.314	40060.1
683.661	39846.55
684.009	39663.51
684.357	39695.59
684.705	39668.48
685.053	39748.7
685.4	39611.3
685.748	39636.16
686.095	39511.19
686.443	39432.32
686.79	39284.98
687.138	39518.42
687.485	39273.91
687.832	39195.72
688.18	39226.23
688.527	39057.65
688.874	38969.29
689.221	38901.27
689.568	38881.38
689.915	38883.86
690.262	38828.05
690.609	38638.22
690.956	38661.05
691.303	38400.04
691.65	38327.72
691.997	38347.61
692.344	38058.58
692.69	37977
693.037	38178.57
693.383	37819.26
693.73	37966.15
694.077	37657.23
694.423	37698.36
694.769	37616.1
695.116	37539.95
695.462	37492.04
695.808	37157.13
696.155	37421.53
696.501	37110.8
696.847	37207.52
697.193	36903.35
697.539	36957.14
697.885	36692.74
698.231	36640.76
698.577	36736.12
698.923	36624.94
699.269	36493.42
699.614	36363.48
699.96	36169.59
700.306	36290.49
700.651	36049.59
700.997	36002.36
701.342	36045.07
701.688	35894.34
702.033	35789.03
702.379	35761.91
702.724	35594.69
703.069	35707.22
703.415	35306.78
703.76	35321.47
704.105	35274.24
704.45	35247.12
704.795	35153.12
705.14	34997.41
705.485	34981.14
705.83	34748.83
706.175	34908.83
706.52	34777.31
706.865	34727.59
707.209	34596.29
707.554	34484.66
707.899	34488.95
708.243	34328.73
708.588	34296.87
708.932	34115.63
709.277	34094.16
709.621	34116.53
709.966	33926.03
710.31	33991.79
710.654	33774.39
710.998	33756.77
711.342	33732.59
711.687	33650.56
712.031	33564.23
712.375	33328.08
712.719	33507.51
713.063	33426.15
713.407	33482.2
713.75	33274.97
714.094	33174.64
714.438	33136.22
714.782	33090.8
715.125	33087.18
715.469	32970.8
715.812	32837.92
716.156	32632.05
716.499	32683.8
716.843	32635.89
717.186	32541.43
717.53	32734.65
717.873	32557.48
718.216	32599.74
718.559	32371.27
718.902	32188.22
719.246	32376.47
719.589	32248.11
719.932	32053.76
720.275	32030.03
720.617	31981.67
720.96	31882.92
721.303	32002.01
721.646	31983.03
721.989	31726.31
722.331	31826.65
722.674	31772.87
723.016	31777.16
723.359	31731.74
723.701	31716.14
724.044	31467.56
724.386	31361.35
724.729	31618.29
725.071	31489.48
725.413	31372.88
725.755	31357.73
726.097	31120.9
726.439	31108.7
726.782	31069.38
727.124	31234.12
727.465	31015.37
727.807	31037.07
728.149	30902.83
728.491	30787.81
728.833	30981.25
729.175	30734.02
729.516	30772.21
729.858	30753.46
730.199	30658.54
730.541	30660.58
730.882	30543.74
731.224	30833.68
731.565	30435.27
731.906	30543.07
732.248	30421.49
732.589	30360.92
732.93	30246.58
733.271	30166.13
733.612	30326.12
733.953	30348.72
734.294	30067.37
734.635	29918.45
734.976	30089.29
735.317	30077.09
735.658	29939.02
735.999	29961.39
736.339	29939.69
736.68	30077.99
737.021	29903.99
737.361	29785.8
737.702	29957.55
738.042	29771.34
738.383	29733.37
738.723	29772.01
739.063	29695.63
739.404	29759.36
739.744	29483.89
740.084	29571.34
740.424	29364.11
740.764	29420.16
741.104	29482.08
741.444	29389.42
741.784	29248.64
742.124	29392.59
742.464	29365.92
742.804	29052.03
743.143	29102.65
743.483	29172.48
743.823	29095.2
744.162	29026.27
744.502	29117.79
744.841	28873.51
745.181	29075.08
745.52	28994.18
745.86	28811.36
746.199	28833.73
746.538	28774.98
746.877	28803.45
747.216	28844.58
747.556	28706.05
747.895	28760.97
748.234	28675.77
748.573	28532.27
748.911	28601.65
749.25	28671.03
749.589	28391.03
749.928	28467.87
750.267	28447.53
750.605	28406.63
750.944	28313.75
751.283	28277.82
751.621	28183.58
751.96	28180.42
752.298	28174.77
752.636	28130.7
752.975	28009.35
753.313	27908.11
753.651	27960.76
753.989	27886.64
754.327	27914.44
754.666	27664.72
755.004	27579.53
755.342	27777.26
755.679	27735.91
756.017	27423.6
756.355	27587.66
756.693	27458.4
757.031	27490.04
757.368	27415.69
757.706	27322.81
758.044	27299.31
758.381	27262.93
758.719	27156.94
759.056	27225.64
759.394	26980.45
759.731	26955.59
