Data from hue_110_FLMS001491_00010.txt Node
Date: Tue Feb 07 17:00:50 GMT 2017
User: dcchb
Spectrometer: FLMS00149
Trigger mode: 0
Integration Time (sec): 2.000000E-2
Scans to average: 10
Electric dark correction enabled: true
Nonlinearity correction enabled: false
Boxcar width: 0
XAxis mode: Wavelengths
Number of Pixels in Spectrum: 2048
>>>>>Begin Spectral Data<<<<<
341.393	-1.75
341.776	-1.75
342.16	-1.75
342.543	-59.83
342.927	-77.46
343.31	-76.55
343.693	-65.03
344.077	-67.96
344.46	-81.07
344.843	-46.72
345.226	-45.14
345.61	-34.74
345.993	-7.17
346.376	-7.17
346.759	14.52
347.142	39.15
347.525	35.54
347.908	65.37
348.291	85.03
348.674	96.33
349.057	95.65
349.44	115.31
349.823	127.28
350.206	182.2
350.588	184.68
350.971	187.4
351.354	215.64
351.737	239.82
352.119	244.34
352.502	251.8
352.884	278.02
353.267	277.79
353.65	280.05
354.032	312.59
354.414	314.4
354.797	324.12
355.179	315.98
355.562	306.26
355.944	334.28
356.326	325.7
356.709	345.58
357.091	345.58
357.473	347.62
357.855	329.99
358.238	360.05
358.62	330.22
359.002	338.35
359.384	346.26
359.766	342.65
360.148	337.67
360.53	341.74
360.912	337.67
361.294	349.2
361.676	345.36
362.057	334.28
362.439	346.49
362.821	362.98
363.203	345.58
363.584	322.53
363.966	315.98
364.348	320.27
364.729	326.6
365.111	322.76
365.493	315.08
365.874	323.44
366.256	322.08
366.637	326.38
367.019	308.97
367.4	306.72
367.781	315.3
368.163	317.56
368.544	312.14
368.925	317.79
369.306	305.59
369.688	322.99
370.069	326.38
370.45	312.14
370.831	299.71
371.212	331.35
371.593	327.28
371.974	302.42
372.355	300.61
372.736	338.58
373.117	320.95
373.498	315.08
373.879	312.59
374.26	334.06
374.641	340.61
375.021	329.99
375.402	316.88
375.783	330.44
376.163	322.08
376.544	323.66
376.925	321.86
377.305	346.49
377.686	320.73
378.066	321.4
378.447	342.19
378.827	345.13
379.208	305.81
379.588	329.54
379.968	334.28
380.349	316.88
380.729	322.31
381.109	329.99
381.489	348.97
381.87	330.44
382.25	348.75
382.63	337.22
383.01	344.23
383.39	337.45
383.77	351.69
384.15	351.01
384.53	338.35
384.91	338.58
385.29	345.36
385.67	343.1
386.049	361.4
386.429	332.7
386.809	346.94
387.189	344.91
387.568	362.31
387.948	363.89
388.328	340.39
388.707	364.11
389.087	367.5
389.466	350.56
389.846	358.01
390.225	351.69
390.605	357.79
390.984	368.86
391.363	368.63
391.743	379.26
392.122	362.53
392.501	379.71
392.881	389.65
393.26	385.13
393.639	383.1
394.018	369.99
394.397	370.44
394.776	390.1
395.155	387.62
395.534	383.1
395.913	388.97
396.292	382.19
396.671	380.16
397.05	402.31
397.429	392.81
397.808	368.63
398.186	397.56
398.565	401.4
398.944	398.69
399.323	399.59
399.701	372.7
400.08	394.4
400.458	395.07
400.837	429.65
401.215	403.66
401.594	400.05
401.972	393.49
402.351	406.6
402.729	410.22
403.107	421.51
403.486	412.7
403.864	425.81
404.242	416.54
404.62	426.71
404.999	407.05
405.377	426.49
405.755	433.72
406.133	425.13
406.511	437.33
406.889	428.07
407.267	415.64
407.645	420.61
408.023	453.15
408.401	472.59
408.779	443.43
409.156	447.05
409.534	466.71
409.912	455.64
410.29	466.03
410.667	464.9
411.045	449.54
411.422	475.98
411.8	474.85
412.178	474.39
412.555	479.59
412.933	489.54
413.31	487.95
413.687	475.07
414.065	477.56
414.442	482.76
414.819	483.66
415.197	493.83
415.574	506.26
415.951	509.87
416.328	512.81
416.705	501.29
417.082	525.01
417.46	521.85
417.837	520.72
418.214	532.47
418.591	528.86
418.967	531.57
419.344	553.04
419.721	529.76
420.098	520.27
420.475	532.92
420.852	545.13
421.228	549.42
421.605	545.58
421.982	544.22
422.358	559.36
422.735	572.47
423.111	568.18
423.488	561.4
423.864	573.15
424.241	579.02
424.617	583.09
424.994	576.31
425.37	585.13
425.746	612.02
426.123	588.52
426.499	598.68
426.875	593.26
427.251	600.27
427.627	639.81
428.003	599.81
428.379	616.09
428.756	633.03
429.132	623.77
429.507	633.49
429.883	654.95
430.259	651.79
430.635	642.3
431.011	666.93
431.387	664.45
431.763	655.63
432.138	674.16
432.514	681.62
432.89	709.64
433.265	705.12
433.641	714.84
434.016	708.29
434.392	729.53
434.767	715.97
435.143	722.98
435.518	730.88
435.894	723.2
436.269	729.75
436.644	733.6
437.02	772.92
437.395	758.91
437.77	765.01
438.145	779.02
438.52	780.15
438.895	783.99
439.271	776.76
439.646	775.18
440.021	814.72
440.395	815.4
440.77	800.94
441.145	819.24
441.52	812.46
441.895	821.96
442.27	809.98
442.645	848.85
443.019	849.07
443.394	841.84
443.769	844.78
444.143	860.6
444.518	871.9
444.892	866.93
445.267	869.19
445.641	897.43
446.016	879.81
446.39	878
446.764	910.32
447.139	903.08
447.513	910.77
447.887	915.29
448.262	914.38
448.636	910.54
449.01	946.47
449.384	946.02
449.758	931.33
450.132	967.49
450.506	979.24
450.88	982.86
451.254	987.6
451.628	988.28
452.002	966.81
452.376	1009.97
452.75	986.47
453.123	1021.5
453.497	1021.05
453.871	1005.91
454.244	1040.71
454.618	1056.07
454.992	1070.54
455.365	1095.85
455.739	1117.54
456.112	1093.36
456.486	1109.18
456.859	1106.69
457.232	1136.3
457.606	1136.3
457.979	1138.56
458.352	1187.14
458.725	1184.43
459.099	1191.89
459.472	1210.19
459.845	1222.62
460.218	1234.15
460.591	1276.18
460.964	1258.78
461.337	1310.76
461.71	1307.37
462.083	1328.84
462.456	1373.35
462.829	1321.38
463.201	1347.37
463.574	1385.78
463.947	1417.42
464.32	1445.67
464.692	1486.35
465.065	1431.88
465.438	1466.68
465.81	1495.61
466.183	1506.68
466.555	1553.69
466.928	1589.39
467.3	1567.02
467.672	1633.01
468.045	1670.75
468.417	1667.13
468.789	1662.39
469.161	1708.94
469.534	1734.02
469.906	1762.72
470.278	1796.62
470.65	1826.68
471.022	1879.78
471.394	1944.86
471.766	1947.35
472.138	1953.23
472.51	2020.12
472.882	2066.67
473.253	2083.17
473.625	2132.2
473.997	2180.56
474.369	2233.9
474.74	2253.33
475.112	2321.13
475.484	2344.18
475.855	2436.38
476.227	2440.67
476.598	2545.75
476.97	2575.36
477.341	2684.51
477.713	2705.52
478.084	2745.3
478.455	2846.99
478.827	2914.78
479.198	3032.29
479.569	3077.04
479.94	3151.16
480.311	3214.66
480.682	3357.93
481.053	3458.5
481.424	3538.72
481.795	3599.96
482.166	3693.52
482.537	3738.94
482.908	3886.96
483.279	3963.34
483.65	4097.58
484.021	4209.21
484.391	4313.84
484.762	4416.21
485.133	4481.97
485.503	4567.39
485.874	4730.1
486.244	4825.24
486.615	4961.51
486.985	5100.94
487.356	5244.66
487.726	5315.62
488.097	5476.07
488.467	5589.74
488.837	5740.24
489.207	5821.82
489.578	5994.48
489.948	6138.88
490.318	6279.67
490.688	6336.16
491.058	6514.24
491.428	6698.64
491.798	6819.09
492.168	6945.86
492.538	7091.62
492.908	7251.84
493.278	7377.26
493.648	7439.86
494.017	7642.12
494.387	7744.71
494.757	7843.92
495.126	7998.72
495.496	8120.97
495.866	8175.89
496.235	8415.65
496.605	8539.27
496.974	8593.5
497.344	8799.83
497.713	8869.2
498.082	8933.15
498.452	9146.93
498.821	9169.98
499.19	9313.48
499.559	9414.5
499.928	9591.89
500.298	9645
500.667	9808.39
501.036	9822.85
501.405	10003.64
501.774	10041.6
502.143	10160.92
502.512	10277.75
502.88	10369.5
503.249	10421.03
503.618	10513.45
503.987	10578.08
504.356	10726.78
504.724	10720
505.093	10850.84
505.462	10937.62
505.83	11029.37
506.199	11112.31
506.567	11278.4
506.936	11276.82
507.304	11361.79
507.672	11474.11
508.041	11574.22
508.409	11641.11
508.777	11726.53
509.145	11865.51
509.514	11863.02
509.882	11944.15
510.25	12038.16
510.618	12089
510.986	12149.12
511.354	12247.19
511.722	12326.29
512.09	12423.46
512.458	12417.58
512.826	12504.59
513.193	12578.93
513.561	12566.28
513.929	12700.51
514.297	12755.65
514.664	12884.24
515.032	12788.19
515.4	12905.03
515.767	12992.26
516.135	12971.01
516.502	12943.44
516.869	13208.52
517.237	13161.52
517.604	13134.63
517.972	13260.05
518.339	13283.32
518.706	13345.24
519.073	13394.28
519.44	13393.83
519.808	13481.74
520.175	13505.69
520.542	13652.58
520.909	13687.61
521.276	13663.43
521.643	13751.56
522.009	13714.72
522.376	13793.14
522.743	13861.61
523.11	13959.92
523.477	13997.2
523.843	14014.15
524.21	14148.61
524.577	14223.41
524.943	14175.28
525.31	14243.98
525.676	14345.44
526.043	14347.25
526.409	14344.76
526.776	14389.73
527.142	14366.68
527.508	14491.65
527.874	14530.75
528.241	14541.82
528.607	14539.56
528.973	14645.32
529.339	14522.61
529.705	14670.86
530.071	14720.12
530.437	14678.09
530.803	14770.06
531.169	14671.54
531.535	14634.47
531.901	14672.89
532.267	14623.63
532.632	14741.59
532.998	14803.06
533.364	14710.63
533.73	14693
534.095	14820.68
534.461	14762.61
534.826	14759.44
535.192	14787.01
535.557	14836.28
535.923	14792.89
536.288	14769.16
536.653	14778.88
537.019	14699.56
537.384	14681.03
537.749	14771.87
538.114	14616.85
538.479	14615.72
538.845	14648.48
539.21	14614.59
539.575	14597.86
539.94	14537.98
540.305	14589.05
540.67	14484.65
541.034	14567.36
541.399	14495.27
541.764	14398.1
542.129	14449.85
542.494	14434.93
542.858	14475.16
543.223	14401.26
543.587	14413.69
543.952	14402.84
544.316	14376.4
544.681	14224.32
545.045	14252.11
545.41	14287.59
545.774	14297.76
546.138	14172.34
546.503	14202.85
546.867	14130.76
547.231	14169.63
547.595	14093.47
547.959	14178.44
548.324	14051.89
548.688	13999.01
549.052	14076.07
549.416	13987.26
549.779	14060.93
550.143	13956.75
550.507	13982.29
550.871	13956.98
551.235	13898.67
551.599	13996.07
551.962	13866.36
552.326	13865.45
552.689	13831.11
553.053	13746.36
553.417	13728.74
553.78	13901.39
554.143	13775.29
554.507	13771.67
554.87	13779.81
555.234	13883.08
555.597	13703.65
555.96	13757.21
556.323	13786.59
556.686	13682.86
557.05	13789.3
557.413	13777.77
557.776	13789.52
558.139	13731.67
558.502	13769.19
558.865	13666.59
559.228	13748.17
559.59	13767.15
559.953	13706.59
560.316	13865.68
560.679	13701.84
561.041	13757.66
561.404	13693.03
561.767	13716.98
562.129	13696.42
562.492	13844.21
562.854	13767.38
563.217	13698.91
563.579	13775.29
563.941	13780.94
564.304	13817.32
564.666	13924.21
565.028	13885.79
565.39	13852.12
565.753	14008.73
566.115	13884.21
566.477	13981.16
566.839	14002.4
567.201	13989.97
567.563	13998.56
567.925	14057.77
568.287	13942.74
568.648	14009.41
569.01	14069.29
569.372	14127.59
569.734	14076.3
570.095	14142.74
570.457	14188.38
570.819	14151.77
571.18	14139.57
571.542	14182.06
571.903	14194.49
572.265	14190.87
572.626	14282.39
572.987	14301.15
573.349	14249.17
573.71	14305.67
574.071	14279.23
574.432	14327.14
574.794	14342.28
575.155	14317.87
575.516	14248.04
575.877	14267.93
576.238	14322.62
576.599	14314.71
576.96	14388.6
577.32	14311.09
577.681	14348.15
578.042	14450.98
578.403	14407.14
578.763	14341.83
579.124	14457.98
579.485	14410.07
579.845	14422.5
580.206	14455.95
580.566	14385.21
580.927	14394.71
581.287	14425.44
581.648	14333.01
582.008	14499.79
582.368	14460.02
582.728	14452.11
583.089	14409.4
583.449	14264.54
583.809	14387.7
584.169	14372.33
584.529	14329.4
584.889	14415.95
585.249	14306.35
585.609	14233.81
585.969	14358.1
586.329	14406.68
586.688	14329.17
587.048	14322.62
587.408	14248.04
587.768	14214.15
588.127	14264.77
588.487	14319.68
588.846	14322.62
589.206	14174.37
589.565	14201.04
589.925	14284.65
590.284	14231.32
590.643	14220.93
591.003	14278.1
591.362	14233.58
591.721	14220.93
592.08	14193.13
592.44	14196.97
592.799	14204.2
593.158	14131.66
593.517	14173.47
593.876	14123.98
594.235	14092.34
594.593	14091.44
594.952	14084.88
595.311	14147.03
595.67	14164.88
596.029	14208.04
596.387	14127.37
596.746	14162.85
597.104	14095.96
597.463	14168.95
597.822	14161.04
598.18	14102.74
598.538	14082.85
598.897	14160.36
599.255	14062.96
599.613	14227.03
599.972	14186.35
600.33	14173.7
600.688	14138.89
601.046	14201.27
601.404	14256.4
601.762	14121.04
602.12	14163.3
602.478	14242.17
602.836	14257.99
603.194	14055.28
603.552	14079.01
603.91	14088.5
604.268	14123.3
604.625	14134.6
604.983	14172.34
605.341	14128.95
605.698	14073.81
606.056	14120.36
606.413	14099.8
606.771	14220.93
607.128	14131.21
607.485	14118.1
607.843	14132.79
608.2	14239.68
608.557	14197.65
608.914	14217.08
609.272	14190.42
609.629	14254.37
609.986	14307.02
610.343	14229.06
610.7	14307.93
611.057	14269.06
611.414	14259.12
611.771	14287.14
612.127	14323.52
612.484	14245.56
612.841	14350.64
613.198	14286.91
613.554	14331.21
613.911	14395.61
614.267	14347.02
614.624	14347.93
614.98	14302.96
615.337	14475.83
615.693	14363.97
616.05	14359.9
616.406	14511.77
616.762	14485.78
617.118	14424.08
617.475	14479.9
617.831	14506.34
618.187	14542.27
618.543	14475.83
618.899	14559.67
619.255	14507.47
619.611	14502.27
619.967	14585.66
620.323	14639.22
620.678	14506.57
621.034	14589.5
621.39	14539.56
621.746	14519.22
622.101	14756.28
622.457	14543.4
622.812	14581.82
623.168	14600.8
623.523	14606.45
623.879	14612.55
624.234	14528.71
624.589	14585.21
624.945	14648.71
625.3	14651.2
625.655	14577.53
626.01	14665.21
626.365	14581.37
626.72	14559.22
627.075	14659.11
627.43	14575.72
627.785	14545.89
628.14	14597.41
628.495	14629.5
628.85	14505.66
629.205	14474.93
629.559	14574.59
629.914	14495.04
630.269	14503.86
630.623	14450.98
630.978	14344.99
631.332	14461.37
631.687	14568.26
632.041	14464.53
632.396	14392.45
632.75	14460.24
633.104	14409.17
633.459	14401.03
633.813	14307.25
634.167	14348.83
634.521	14340.24
634.875	14393.12
635.229	14332.56
635.583	14268.38
635.937	14325.33
636.291	14238.33
636.645	14238.78
636.999	14152.45
637.352	14178.44
637.706	14120.14
638.06	14281.26
638.413	14185.22
638.767	14049.4
639.121	14156.52
639.474	14068.16
639.828	14064.09
640.181	14097.09
640.534	14119.01
640.888	14049.63
641.241	13973.02
641.594	14031.1
641.947	14136.41
642.301	14048.27
642.654	14056.64
643.007	14078.78
643.36	14006.47
643.713	13921.95
644.066	13984.1
644.419	13946.13
644.771	13871.1
645.124	13745.91
645.477	13741.84
645.83	13613.26
646.182	13590.21
646.535	13522.19
646.888	13569.87
647.24	13462.3
647.593	13411.46
647.945	13455.3
648.298	13397.9
648.65	13371
649.002	13452.58
649.355	13485.58
649.707	13458.69
650.059	13530.32
650.411	13749.07
650.763	13686.25
651.115	13843.53
651.467	13741.16
651.819	13789.75
652.171	13703.42
652.523	13675.4
652.875	13763.76
653.227	13726.7
653.578	13771.22
653.93	13631.56
654.282	13620.04
654.633	13694.16
654.985	13770.54
655.337	13753.82
655.688	13768.06
656.039	13790.65
656.391	13741.39
656.742	13744.78
657.094	13719.47
657.445	13829.3
657.796	13786.81
658.147	13712.24
658.498	13658.23
658.849	13807.15
659.2	13782.07
659.551	13764.67
659.902	13725.35
660.253	13750.43
660.604	13807.83
660.955	13738.68
661.306	13842.4
661.656	13746.36
662.007	13792.69
662.358	13774.38
662.708	13822.29
663.059	13744.78
663.409	13773.03
663.76	13846.7
664.11	13813.7
664.461	13837.66
664.811	13818.22
665.161	13778.45
665.511	13844.21
665.862	13780.03
666.212	13843.53
666.562	13929.18
666.912	13817.77
667.262	13874.72
667.612	13840.14
667.962	13808.96
668.312	13861.16
668.662	13834.49
669.011	13874.27
669.361	13831.56
669.711	13801.95
670.06	13749.07
670.41	13808.06
670.76	13754.72
671.109	13782.29
671.459	13764.21
671.808	13690.32
672.157	13700.94
672.507	13674.27
672.856	13665.23
673.205	13748.17
673.554	13778
673.904	13627.72
674.253	13809.86
674.602	13667.27
674.951	13495.29
675.3	13440.61
675.649	13609.42
675.998	13617.78
676.346	13575.52
676.695	13634.27
677.044	13558.34
677.393	13661.17
677.741	13626.82
678.09	13518.8
678.438	13511.34
678.787	13555.18
679.135	13557.67
679.484	13417.78
679.832	13468.18
680.181	13443.32
680.529	13492.81
680.877	13401.96
681.225	13398.35
681.573	13462.3
681.922	13379.82
682.27	13209.2
682.618	13312.25
682.966	13223.66
683.314	13289.2
683.661	13225.92
684.009	13184.57
684.357	13091.24
684.705	13129.43
685.053	13067.51
685.4	13127.17
685.748	13040.84
686.095	13041.3
686.443	13027.28
686.79	13001.75
687.138	12990
687.485	13006.04
687.832	12860.74
688.18	12939.38
688.527	12808.99
688.874	12807.63
689.221	12761.53
689.568	12784.35
689.915	12726.73
690.262	12669.1
690.609	12626.39
690.956	12520.86
691.303	12565.6
691.65	12485.38
691.997	12472.04
692.344	12461.88
692.69	12417.81
693.037	12374.65
693.383	12291.26
693.73	12273.18
694.077	12268.66
694.423	12286.97
694.769	12174.88
695.116	12140.3
695.462	12096.46
695.808	12086.52
696.155	12043.13
696.501	12001.77
696.847	11961.55
697.193	11839.52
697.539	11871.38
697.885	11809.24
698.231	11726.53
698.577	11730.14
698.923	11746.64
699.269	11620.54
699.614	11635.46
699.96	11558.85
700.306	11500.55
700.651	11430.49
700.997	11435.01
701.342	11428
701.688	11399.3
702.033	11366.31
702.379	11352.3
702.724	11216.48
703.069	11263.72
703.415	11114.57
703.76	11193.89
704.105	11115.02
704.45	11115.92
704.795	11052.2
705.14	10991.63
705.485	10961.58
705.83	10921.8
706.175	10954.57
706.52	10938.75
706.865	10806.78
707.209	10792.32
707.554	10707.8
707.899	10815.82
708.243	10695.14
708.588	10719.77
708.932	10680.23
709.277	10641.58
709.621	10610.85
709.966	10517.97
710.31	10592.09
710.654	10465.77
710.998	10433.23
711.342	10491.08
711.687	10392.1
712.031	10459.89
712.375	10425.77
712.719	10373.57
713.063	10342.61
713.407	10378.77
713.75	10331.99
714.094	10329.05
714.438	10323.63
714.782	10245.66
715.125	10224.87
715.469	10167.47
715.812	10157.08
716.156	10123.86
716.499	10097.87
716.843	10127.47
717.186	10091.09
717.53	10101.49
717.873	10116.17
718.216	10070.75
718.559	9990.53
718.902	9934.03
719.246	9983.97
719.589	9946.46
719.932	9939.91
720.275	9950.08
720.617	9882.06
720.96	9864.2
721.303	9955.05
721.646	9889.06
721.989	9800.02
722.331	9824.88
722.674	9838.22
723.016	9811.55
723.359	9780.14
723.701	9857.2
724.044	9821.27
724.386	9762.29
724.729	9729.74
725.071	9794.15
725.413	9761.16
725.755	9823.98
726.097	9718.45
726.439	9673.47
726.782	9723.64
727.124	9717.09
727.465	9687.94
727.807	9690.65
728.149	9708.5
728.491	9694.49
728.833	9691.1
729.175	9614.04
729.516	9679.35
729.858	9596.64
730.199	9620.82
730.541	9624.44
730.882	9599.8
731.224	9667.15
731.565	9579.69
731.906	9599.58
732.248	9655.4
732.589	9643.64
732.93	9577.43
733.271	9562.06
733.612	9596.87
733.953	9670.76
734.294	9577.66
734.635	9581.27
734.976	9513.48
735.317	9555.51
735.658	9546.92
735.999	9590.54
736.339	9561.39
736.68	9608.84
737.021	9583.31
737.361	9564.55
737.702	9645
738.042	9561.61
738.383	9550.99
738.723	9605.45
739.063	9576.75
739.404	9583.76
739.744	9677.09
740.084	9623.98
740.424	9652.23
740.764	9657.88
741.104	9650.2
741.444	9662.4
741.784	9727.03
742.124	9674.6
742.464	9757.99
742.804	9758.44
743.143	9788.73
743.483	9783.98
743.823	9774.26
744.162	9809.52
744.502	9869.63
744.841	9899.46
745.181	10014.26
745.52	10010.19
745.86	9900.81
746.199	9976.52
746.538	10009.51
746.877	10136.06
747.216	10133.35
747.556	10139.68
747.895	10260.8
748.234	10235.04
748.573	10313.46
748.911	10339.45
749.25	10454.47
749.589	10440.46
749.928	10530.63
750.267	10661.7
750.605	10599.78
750.944	10743.5
751.283	10818.3
751.621	10920
751.96	10985.76
752.298	11067.79
752.636	11159.54
752.975	11228.69
753.313	11312.3
753.651	11489.25
753.989	11426.87
754.327	11649.24
754.666	11665.29
755.004	11811.72
755.342	11967.2
755.679	12129.91
756.017	12222.79
756.355	12359.05
756.693	12456.45
757.031	12650.12
757.368	12745.03
757.706	12890.79
758.044	12985.25
