Data from hue_230_FLMS001491_00075.txt Node
Date: Tue Feb 07 16:37:43 GMT 2017
User: dcchb
Spectrometer: FLMS00149
Trigger mode: 0
Integration Time (sec): 2.000000E-2
Scans to average: 10
Electric dark correction enabled: true
Nonlinearity correction enabled: false
Boxcar width: 0
XAxis mode: Wavelengths
Number of Pixels in Spectrum: 2048
>>>>>Begin Spectral Data<<<<<
341.393	-18.7
341.776	-18.7
342.16	-18.7
342.543	-79.04
342.927	-88.98
343.31	-54.41
343.693	-70.9
344.077	-60.05
344.46	-63.67
344.843	-45.37
345.226	-31.81
345.61	-43.11
345.993	-2.88
346.376	-17.34
346.759	-1.53
347.142	18.36
347.525	47.29
347.908	58.81
348.291	92.26
348.674	82.31
349.057	92.03
349.44	122.77
349.823	137.68
350.206	159.15
350.588	197.34
350.971	180.84
351.354	214.97
351.737	224.91
352.119	241.18
352.502	261.97
352.884	265.36
353.267	272.14
353.65	279.82
354.032	272.59
354.414	298.58
354.797	299.48
355.179	283.66
355.562	317.56
355.944	321.18
356.326	312.36
356.709	321.4
357.091	318.69
357.473	317.34
357.855	327.73
358.238	339.93
358.62	347.62
359.002	343.32
359.384	324.12
359.766	329.54
360.148	327.51
360.53	329.09
360.912	320.73
361.294	309.65
361.676	312.82
362.057	334.51
362.439	333.38
362.821	323.21
363.203	319.6
363.584	317.34
363.966	312.14
364.348	304.91
364.729	324.57
365.111	308.3
365.493	317.79
365.874	304
366.256	291.35
366.637	297.22
367.019	299.03
367.4	300.61
367.781	318.47
368.163	310.78
368.544	300.84
368.925	302.2
369.306	307.39
369.688	315.08
370.069	322.99
370.45	306.04
370.831	309.65
371.212	320.27
371.593	311.69
371.974	313.72
372.355	276.21
372.736	301.07
373.117	293.61
373.498	295.64
373.879	317.34
374.26	288.41
374.641	306.49
375.021	296.55
375.402	323.89
375.783	292.48
376.163	335.64
376.544	297.68
376.925	306.49
377.305	312.14
377.686	320.5
378.066	312.36
378.447	304
378.827	322.53
379.208	322.99
379.588	320.73
379.968	317.79
380.349	298.58
380.729	294.74
381.109	327.28
381.489	329.99
381.87	338.8
382.25	313.04
382.63	330.9
383.01	337
383.39	335.64
383.77	311.46
384.15	328.86
384.53	334.06
384.91	319.37
385.29	327.51
385.67	343.78
386.049	331.35
386.429	339.26
386.809	342.42
387.189	344.45
387.568	324.57
387.948	339.71
388.328	344.45
388.707	374.06
389.087	353.95
389.466	348.75
389.846	352.14
390.225	356.66
390.605	367.05
390.984	348.75
391.363	364.57
391.743	353.27
392.122	351.46
392.501	358.69
392.881	356.21
393.26	365.7
393.639	382.19
394.018	386.49
394.397	367.96
394.776	360.5
395.155	380.84
395.534	388.07
395.913	363.89
396.292	372.7
396.671	381.74
397.05	391.91
397.429	380.61
397.808	392.81
398.186	363.44
398.565	389.42
398.944	384.23
399.323	405.92
399.701	395.53
400.08	412.7
400.458	380.39
400.837	416.54
401.215	411.8
401.594	400.05
401.972	391.68
402.351	401.63
402.729	408.86
403.107	404.34
403.486	411.35
403.864	414.06
404.242	424.45
404.62	442.3
404.999	439.59
405.377	445.47
405.755	429.42
406.133	440.72
406.511	435.07
406.889	446.15
407.267	476.65
407.645	470.78
408.023	446.15
408.401	451.8
408.779	456.54
409.156	507.16
409.534	461.74
409.912	480.95
410.29	516.43
410.667	491.34
411.045	504.9
411.422	516.43
411.8	517.56
412.178	518.91
412.555	499.03
412.933	515.75
413.31	537.44
413.687	541.51
414.065	537.44
414.442	562.3
414.819	561.17
415.197	561.17
415.574	574.5
415.951	579.25
416.328	594.62
416.705	592.81
417.082	616.99
417.46	602.3
417.837	606.37
418.214	598.23
418.591	616.54
418.967	617.89
419.344	617.22
419.721	638.01
420.098	642.07
420.475	657.89
420.852	680.72
421.228	652.92
421.605	661.96
421.982	678.23
422.358	699.02
422.735	695.86
423.111	748.06
423.488	727.72
423.864	720.26
424.241	762.3
424.617	761.39
424.994	801.84
425.37	776.99
425.746	789.41
426.123	798.45
426.499	828.06
426.875	816.76
427.251	801.84
427.627	847.27
428.003	846.59
428.379	878.23
428.756	868.51
429.132	875.51
429.507	896.98
429.883	905.57
430.259	887.72
430.635	899.69
431.011	942.18
431.387	943.31
431.763	959.58
432.138	962.97
432.514	941.5
432.89	977.21
433.265	1006.58
433.641	1015.62
434.016	1033.02
434.392	1045.9
434.767	1056.98
435.143	1077.54
435.518	1094.72
435.894	1105.56
436.269	1159.57
436.644	1116.64
437.02	1161.38
437.395	1166.81
437.77	1172
438.145	1207.48
438.52	1195.28
438.895	1238.67
439.271	1238.22
439.646	1265.79
440.021	1280.93
440.395	1307.82
440.77	1314.15
441.145	1302.85
441.52	1336.97
441.895	1350.76
442.27	1367.7
442.645	1363.86
443.019	1400.25
443.394	1369.96
443.769	1423.97
444.143	1417.42
444.518	1448.15
444.892	1411.54
445.267	1452.67
445.641	1442.96
446.016	1477.53
446.39	1470.07
446.764	1501.26
447.139	1488.38
447.513	1504.42
447.887	1513.91
448.262	1534.93
448.636	1519.34
449.01	1554.14
449.384	1555.72
449.758	1600.01
450.132	1599.34
450.506	1615.38
450.88	1604.99
451.254	1628.04
451.628	1640.01
452.002	1643.18
452.376	1676.62
452.75	1685.21
453.123	1661.03
453.497	1704.19
453.871	1739.22
454.244	1759.33
454.618	1746.9
454.992	1800.01
455.365	1800.91
455.739	1839.33
456.112	1879.56
456.486	1881.36
456.859	1868.26
457.232	1886.33
457.606	1891.31
457.979	1927.24
458.352	1978.99
458.725	1981.7
459.099	1984.86
459.472	2013.11
459.845	2067.8
460.218	2071.41
460.591	2065.99
460.964	2082.49
461.337	2112.09
461.71	2129.04
462.083	2181.69
462.456	2180.79
462.829	2176.72
463.201	2213.78
463.574	2265.08
463.947	2277.06
464.32	2321.58
464.692	2309.37
465.065	2331.52
465.438	2358.19
465.81	2409.26
466.183	2395.47
466.555	2501.46
466.928	2491.06
467.3	2482.7
467.672	2508.92
468.045	2601.57
468.417	2578.97
468.789	2581.01
469.161	2648.57
469.534	2665.07
469.906	2722.24
470.278	2764.73
470.65	2754.11
471.022	2814.9
471.394	2832.3
471.766	2876.37
472.138	2901.45
472.51	2974.89
472.882	3015.34
473.253	2985.74
473.625	3059.64
473.997	3123.36
474.369	3127.21
474.74	3159.97
475.112	3228.67
475.484	3284.26
475.855	3329.69
476.227	3312.96
476.598	3394.54
476.97	3501.43
477.341	3509.79
477.713	3533.52
478.084	3528.55
478.455	3641.77
478.827	3646.29
479.198	3782.33
479.569	3756.34
479.94	3835.44
480.311	3898.71
480.682	3964.7
481.053	4031.59
481.424	4106.62
481.795	4133.73
482.166	4182.32
482.537	4216.67
482.908	4340.96
483.279	4324.24
483.65	4382.77
484.021	4493.05
484.391	4479.94
484.762	4554.74
485.133	4582.31
485.503	4634.51
485.874	4702.76
486.244	4759.93
486.615	4811.91
486.985	4874.96
487.356	4942.3
487.726	4985.69
488.097	5096.87
488.467	5062.52
488.837	5139.13
489.207	5228.62
489.578	5348.39
489.948	5315.4
490.318	5415.06
490.688	5372.57
491.058	5536.63
491.428	5574.37
491.798	5560.59
492.168	5663.64
492.538	5710.19
492.908	5747.25
493.278	5813.24
493.648	5791.77
494.017	5860.24
494.387	5902.95
494.757	5933.01
495.126	5940.01
495.496	6034.7
495.866	6036.06
496.235	6088.26
496.605	6128.03
496.974	6219.55
497.344	6260.68
497.713	6255.71
498.082	6260.91
498.452	6306.33
498.821	6342.94
499.19	6337.52
499.559	6425.65
499.928	6408.7
500.298	6482.37
500.667	6543.61
501.036	6505.87
501.405	6524.4
501.774	6564.86
502.143	6619.77
502.512	6646.21
502.88	6657.96
503.249	6686.89
503.618	6735.7
503.987	6691.63
504.356	6734.57
504.724	6779.09
505.093	6854.79
505.462	6854.11
505.83	6821.12
506.199	6878.52
506.567	6899.08
506.936	6937.95
507.304	6943.6
507.672	7032.87
508.041	6935.47
508.409	7062.92
508.777	7041
509.145	7095.69
509.514	7214.56
509.882	7145.41
510.25	7157.16
510.618	7123.03
510.986	7249.36
511.354	7244.61
511.722	7294.1
512.09	7283.93
512.458	7273.99
512.826	7376.36
513.193	7355.12
513.561	7354.44
513.929	7360.09
514.297	7435.79
514.664	7399.18
515.032	7397.83
515.4	7452.29
515.767	7500.65
516.135	7501.33
516.502	7400.77
516.869	7472.63
517.237	7552.4
517.604	7531.16
517.972	7525.96
518.339	7623.58
518.706	7622
519.073	7529.58
519.44	7607.09
519.808	7629.23
520.175	7635.56
520.542	7690.48
520.909	7723.02
521.276	7698.84
521.643	7731.15
522.009	7782.22
522.376	7816.8
522.743	7709.91
523.11	7829.46
523.477	7908.55
523.843	7840.75
524.21	7883.47
524.577	7920.53
524.943	7986.97
525.31	7904.26
525.676	8020.18
526.043	8022.67
526.409	7990.35
526.776	8013.18
527.142	8018.15
527.508	8082.56
527.874	8086.4
528.241	8110.13
528.607	8066.74
528.973	8163.01
529.339	8107.19
529.705	8132.95
530.071	8191.25
530.437	8159.16
530.803	8125.27
531.169	8193.74
531.535	8113.52
531.901	8151.25
532.267	8177.92
532.632	8159.39
532.998	8188.77
533.364	8221.99
533.73	8133.18
534.095	8256.34
534.461	8224.47
534.826	8241.2
535.192	8199.39
535.557	8232.83
535.923	8158.26
536.288	8171.59
536.653	8271.7
537.019	8148.09
537.384	8188.32
537.749	8207.75
538.114	8191.93
538.479	8153.74
538.845	8084.59
539.21	8122.33
539.575	8125.27
539.94	8102.89
540.305	8124.81
540.67	8112.84
541.034	8104.93
541.399	8044.59
541.764	8138.83
542.129	8099.28
542.494	8104.7
542.858	8091.37
543.223	8039.39
543.587	8078.49
543.952	8090.24
544.316	8052.27
544.681	8070.13
545.045	8027.87
545.41	8032.61
545.774	8016.12
546.138	8032.61
546.503	8005.27
546.867	7971.37
547.231	7941.32
547.595	7954.42
547.959	7944.25
548.324	7966.4
548.688	7947.87
549.052	7941.54
549.416	7934.31
549.779	7951.49
550.143	7901.77
550.507	7925.95
550.871	7933.18
551.235	7929.34
551.599	7899.28
551.962	7939.28
552.326	7820.42
552.689	7916.68
553.053	7783.58
553.417	7863.35
553.78	7876.01
554.143	7841.66
554.507	7923.46
554.87	7880.3
555.234	7909.68
555.597	7775.22
555.96	7840.53
556.323	7836.69
556.686	7863.8
557.05	7849.12
557.413	7844.14
557.776	7841.43
558.139	7839.17
558.502	7845.27
558.865	7800.08
559.228	7863.13
559.59	7934.99
559.953	7871.04
560.316	7941.77
560.679	7881.88
561.041	7937.02
561.404	7980.19
561.767	7998.72
562.129	7915.78
562.492	7957.59
562.854	7982.67
563.217	7953.29
563.579	7972.05
563.941	8013.63
564.304	7995.33
564.666	8048.88
565.028	8121.2
565.39	8080.3
565.753	8112.84
566.115	8099.05
566.477	8123.23
566.839	8105.61
567.201	8134.76
567.563	8179.28
567.925	8161.42
568.287	8159.62
568.648	8139.05
569.01	8209.78
569.372	8261.31
569.734	8262.89
570.095	8217.47
570.457	8305.15
570.819	8300.4
571.18	8311.02
571.542	8315.54
571.903	8362.32
572.265	8365.26
572.626	8395.09
572.987	8382.89
573.349	8486.84
573.71	8414.75
574.071	8480.51
574.432	8491.81
574.794	8526.16
575.155	8480.51
575.516	8471.02
575.877	8576.55
576.238	8601.64
576.599	8634.18
576.96	8586.27
577.32	8612.03
577.681	8691.13
578.042	8631.02
578.403	8643.22
578.763	8672.6
579.124	8674.86
579.485	8741.75
579.845	8805.47
580.206	8684.8
580.566	8786.04
580.927	8780.39
581.287	8783.78
581.648	8785.81
582.008	8809.54
582.368	8844.8
582.728	8786.72
583.089	8810.9
583.449	8829.88
583.809	8892.03
584.169	8922.53
584.529	8896.77
584.889	8914.17
585.249	8872.82
585.609	8855.19
585.969	8930.67
586.329	8902.2
586.688	8990.78
587.048	8980.39
587.408	8881.4
587.768	8898.58
588.127	8890.9
588.487	8957.34
588.846	9003.21
589.206	8969.54
589.565	9001.4
589.925	9070.1
590.284	8942.42
590.643	9029.2
591.003	8988.97
591.362	9117.78
591.721	9096.54
592.08	9157.1
592.44	9062.64
592.799	9178.35
593.158	9074.39
593.517	9094.73
593.876	9195.75
594.235	9106.03
594.593	9162.98
594.952	9158.91
595.311	9096.54
595.67	9154.84
596.029	9167.05
596.387	9245.69
596.746	9202.53
597.104	9191.91
597.463	9148.74
597.822	9221.73
598.18	9227.61
598.538	9183.09
598.897	9309.19
599.255	9198.23
599.613	9324.78
599.972	9270.1
600.33	9193.71
600.688	9207.27
601.046	9306.7
601.404	9308.51
601.762	9290.66
602.12	9346.93
602.478	9321.17
602.836	9290.21
603.194	9291.79
603.552	9275.97
603.91	9274.16
604.268	9341.96
604.625	9318.68
604.983	9327.95
605.341	9320.04
605.698	9356.19
606.056	9351
606.413	9392.13
606.771	9390.09
607.128	9390.32
607.485	9359.36
607.843	9376.08
608.2	9385.35
608.557	9414.72
608.914	9344.22
609.272	9414.72
609.629	9417.66
609.986	9468.06
610.343	9418.34
610.7	9561.61
611.057	9506.02
611.414	9474.84
611.771	9452.46
612.127	9515.96
612.484	9510.31
612.841	9552.57
613.198	9463.31
613.554	9487.49
613.911	9515.51
614.267	9542.4
614.624	9521.84
614.98	9516.42
615.337	9489.98
615.693	9581.05
616.05	9562.97
616.406	9596.19
616.762	9601.16
617.118	9555.74
617.475	9593.02
617.831	9595.96
618.187	9681.38
618.543	9692.46
618.899	9715.73
619.255	9680.48
619.611	9669.41
619.967	9664.66
620.323	9711.89
620.678	9665.79
621.034	9700.14
621.39	9679.35
621.746	9642.06
622.101	9724.32
622.457	9641.16
622.812	9689.97
623.168	9691.33
623.523	9718.45
623.879	9783.08
624.234	9635.74
624.589	9643.64
624.945	9695.85
625.3	9688.62
625.655	9685.68
626.01	9660.59
626.365	9695.39
626.72	9728.39
627.075	9650.65
627.43	9649.75
627.785	9684.55
628.14	9706.92
628.495	9708.05
628.85	9682.06
629.205	9677.32
629.559	9629.63
629.914	9658.11
630.269	9577.21
630.623	9628.5
630.978	9594.61
631.332	9620.82
631.687	9612.69
632.041	9579.69
632.396	9544.66
632.75	9522.74
633.104	9567.49
633.459	9510.99
633.813	9485.68
634.167	9490.65
634.521	9489.07
634.875	9513.25
635.229	9501.5
635.583	9369.98
635.937	9460.6
636.291	9466.25
636.645	9460.15
636.999	9418.57
637.352	9465.57
637.706	9351.45
638.06	9403.2
638.413	9331.34
638.767	9363.43
639.121	9319.59
639.474	9280.49
639.828	9313.48
640.181	9330.88
640.534	9303.99
640.888	9276.42
641.241	9255.86
641.594	9278.23
641.947	9332.47
642.301	9266.25
642.654	9242.07
643.007	9331.56
643.36	9376.08
643.713	9302.41
644.066	9244.33
644.419	9244.56
644.771	9183.77
645.124	9095.86
645.477	9072.36
645.83	9047.73
646.182	8965.47
646.535	8949.88
646.888	8906.71
647.24	8893.83
647.593	8911.91
647.945	8911.69
648.298	8825.36
648.65	8871.01
649.002	8803.21
649.355	8906.26
649.707	8892.25
650.059	8960.05
650.411	9056.32
650.763	9080.27
651.115	9161.62
651.467	9114.85
651.819	9152.13
652.171	9075.3
652.523	9094.51
652.875	9076.43
653.227	9016.54
653.578	9084.34
653.93	9072.36
654.282	9009.76
654.633	9069.42
654.985	9114.39
655.337	9059.93
655.688	9079.82
656.039	9102.19
656.391	8971.57
656.742	9010.67
657.094	9042.3
657.445	9038.24
657.796	9023.77
658.147	9052.7
658.498	9007.05
658.849	9109.2
659.2	9006.83
659.551	9096.99
659.902	9066.26
660.253	9106.94
660.604	9087.73
660.955	9002.53
661.306	9078.69
661.656	9025.13
662.007	9153.94
662.358	9064.9
662.708	9077.56
663.059	9073.04
663.409	9056.32
663.76	9142.19
664.11	9107.61
664.461	9056.77
664.811	9122.53
665.161	9097.22
665.511	9122.75
665.862	9048.63
666.212	9081.63
666.562	9098.35
666.912	9068.29
667.262	9110.1
667.612	9068.07
667.962	9119.36
668.312	9079.59
668.662	9136.31
669.011	9079.59
669.361	9080.04
669.711	9048.18
670.06	9047.95
670.41	9063.1
670.76	9041.85
671.109	9029.65
671.459	9068.07
671.808	8996.43
672.157	9083.89
672.507	8977
672.856	8944.23
673.205	9000.27
673.554	9001.85
673.904	9027.16
674.253	9005.24
674.602	8994.62
674.951	8844.8
675.3	8805.93
675.649	8961.85
675.998	8931.35
676.346	8997.56
676.695	9045.92
677.044	8908.07
677.393	8899.94
677.741	8951.91
678.09	8887.51
678.438	8903.1
678.787	8968.41
679.135	8875.08
679.484	8822.42
679.832	8860.61
680.181	8807.06
680.529	8862.2
680.877	8763.44
681.225	8792.37
681.573	8802.99
681.922	8781.07
682.27	8724.12
682.618	8766.83
682.966	8713.27
683.314	8642.09
683.661	8694.52
684.009	8671.69
684.357	8612.94
684.705	8654.29
685.053	8666.72
685.4	8617.46
685.748	8559.83
686.095	8581.3
686.443	8571.13
686.79	8473.51
687.138	8504.24
687.485	8508.31
687.832	8491.13
688.18	8503.56
688.527	8413.62
688.874	8454.07
689.221	8411.81
689.568	8420.85
689.915	8345.83
690.262	8305.6
690.609	8338.59
690.956	8297.69
691.303	8294.75
691.65	8211.14
691.997	8279.61
692.344	8200.74
692.69	8203.91
693.037	8169.11
693.383	8030.35
693.73	8066.51
694.077	8101.09
694.423	8056.12
694.769	8044.14
695.116	7989.68
695.462	7988.32
695.808	7943.35
696.155	7950.58
696.501	7862.22
696.847	7873.97
697.193	7831.49
697.539	7894.54
697.885	7753.3
698.231	7785.84
698.577	7769.34
698.923	7719.85
699.269	7747.88
699.614	7647.09
699.96	7681.44
700.306	7607.31
700.651	7575
700.997	7540.88
701.342	7538.62
701.688	7550.59
702.033	7510.59
702.379	7453.87
702.724	7434.44
703.069	7412.97
703.415	7337.49
703.76	7354.44
704.105	7364.16
704.45	7312.86
704.795	7266.31
705.14	7244.61
705.485	7234.44
705.83	7210.94
706.175	7211.39
706.52	7197.83
706.865	7182.47
707.209	7173.65
707.554	7100.66
707.899	7135.01
708.243	7059.31
708.588	7083.94
708.932	7013.88
709.277	7011.17
709.621	7025.63
709.966	7046.2
710.31	6985.41
710.654	6933.43
710.998	6999.19
711.342	6948.35
711.687	6847.11
712.031	6844.17
712.375	6885.98
712.719	6818.86
713.063	6829.71
713.407	6868.58
713.75	6834.68
714.094	6805.53
714.438	6781.12
714.782	6780.44
715.125	6788.35
715.469	6776.6
715.812	6719.2
716.156	6699.32
716.499	6702.03
716.843	6713.55
717.186	6654.12
717.53	6687.34
717.873	6718.3
718.216	6671.29
718.559	6669.49
718.902	6628.36
719.246	6636.94
719.589	6569.15
719.932	6634.68
720.275	6581.13
720.617	6549.26
720.96	6579.32
721.303	6561.47
721.646	6582.48
721.989	6521.47
722.331	6527.12
722.674	6495.03
723.016	6548.81
723.359	6570.73
723.701	6536.61
724.044	6497.74
724.386	6476.72
724.729	6504.07
725.071	6506.55
725.413	6502.94
725.755	6522.14
726.097	6437.4
726.439	6402.37
726.782	6469.72
727.124	6457.51
727.465	6437.63
727.807	6428.81
728.149	6382.94
728.491	6422.94
728.833	6478.08
729.175	6368.7
729.516	6325.54
729.858	6388.36
730.199	6402.15
730.541	6357.4
730.882	6374.58
731.224	6389.72
731.565	6370.28
731.906	6377.97
732.248	6389.27
732.589	6379.55
732.93	6344.07
733.271	6410.06
733.612	6367.57
733.953	6402.6
734.294	6452.99
734.635	6403.5
734.976	6368.02
735.317	6361.02
735.658	6389.72
735.999	6422.94
736.339	6411.87
736.68	6456.84
737.021	6360.57
737.361	6361.47
737.702	6364.86
738.042	6400.79
738.383	6406.22
738.723	6435.14
739.063	6394.92
739.404	6377.29
739.744	6407.35
740.084	6451.86
740.424	6409.15
740.764	6349.49
741.104	6491.19
741.444	6416.61
741.784	6469.72
742.124	6474.01
742.464	6481.24
742.804	6516.5
743.143	6472.65
743.483	6532.31
743.823	6571.18
744.162	6461.81
744.502	6482.82
744.841	6512.88
745.181	6618.64
745.52	6558.3
745.86	6617.06
746.199	6601.46
746.538	6639.66
746.877	6703.84
747.216	6767.34
747.556	6743.61
747.895	6788.58
748.234	6781.57
748.573	6823.61
748.911	6827.45
749.25	6931.63
749.589	6946.99
749.928	6984.05
750.267	6993.32
750.605	7110.6
750.944	7093.88
751.283	7138.17
751.621	7227.21
751.96	7242.35
752.298	7413.87
752.636	7458.17
752.975	7462.23
753.313	7501.78
753.651	7640.76
753.989	7671.49
754.327	7793.07
754.666	7737.48
755.004	7854.99
755.342	8016.57
755.679	8110.13
756.017	8145.61
756.355	8262.21
756.693	8326.84
757.031	8482.77
757.368	8556.67
757.706	8590.57
758.044	8706.49
758.381	8845.7
758.719	8964.79
759.056	9024.23
759.394	9203.88
759.731	9258.8
760.068	9386.7
760.405	9456.53
760.743	9523.42
761.08	9759.12
761.417	9725.68
761.754	9922.51
762.091	9977.87
762.428	10085.89
762.765	10193.69
763.102	10413.79
763.438	10471.42
763.775	10505.09
764.112	10684.07
764.449	10832.99
764.785	10921.8
765.122	11004.96
765.458	11060.33
765.795	11150.5
766.131	11253.32
766.467	11289.48
766.804	11415.35
767.14	11503.03
767.476	11518.62
767.812	11717.94
768.148	11826.19
768.485	11811.05
768.821	11948.67
769.157	12006.75
