Data from hue_40_FLMS001491_20.txt Node
Date: Mon Feb 06 15:07:32 GMT 2017
User: dcchb
Spectrometer: FLMS00149
Trigger mode: 0
Integration Time (sec): 2.000000E-2
Scans to average: 10
Electric dark correction enabled: true
Nonlinearity correction enabled: false
Boxcar width: 0
XAxis mode: Wavelengths
Number of Pixels in Spectrum: 2048
>>>>>Begin Spectral Data<<<<<
341.393	-16.86
341.776	-16.86
342.16	-16.86
342.543	-52.34
342.927	-46.24
343.31	-76.3
343.693	-57.09
344.077	-43.53
344.46	-59.12
344.843	-73.59
345.226	-39.69
345.61	-28.62
345.993	-10.31
346.376	-8.28
346.759	21.78
347.142	23.59
347.525	47.77
347.908	30.14
348.291	81.44
348.674	78.27
349.057	113.53
349.44	130.02
349.823	134.54
350.206	180.19
350.588	214.09
350.971	217.93
351.354	229.01
351.737	246.18
352.119	259.96
352.502	286.4
352.884	252.06
353.267	269.91
353.65	296.57
354.032	312.84
354.414	299.06
354.797	305.16
355.179	345.39
355.562	324.37
355.944	337.03
356.326	329.12
356.709	338.38
357.091	361.21
357.473	349.45
357.855	347.65
358.238	348.55
358.62	352.62
359.002	337.48
359.384	356.69
359.766	352.39
360.148	349.23
360.53	347.42
360.912	334.31
361.294	351.49
361.676	333.86
362.057	336.35
362.439	344.93
362.821	338.61
363.203	310.81
363.584	327.99
363.966	327.53
364.348	336.8
364.729	324.37
365.111	322.56
365.493	339.96
365.874	335.22
366.256	311.49
366.637	304.94
367.019	318.95
367.4	321.88
367.781	323.92
368.163	325.05
368.544	305.84
368.925	325.95
369.306	322.11
369.688	328.89
370.069	330.7
370.45	314.2
370.831	328.21
371.212	332.73
371.593	330.02
371.974	303.81
372.355	329.57
372.736	321.43
373.117	321.66
373.498	323.47
373.879	316.69
374.26	311.71
374.641	322.79
375.021	305.61
375.402	323.01
375.783	330.25
376.163	337.03
376.544	332.73
376.925	333.64
377.305	321.88
377.686	344.48
378.066	341.54
378.447	357.14
378.827	356.23
379.208	333.18
379.588	342.67
379.968	347.42
380.349	321.66
380.729	345.16
381.109	341.09
381.489	344.03
381.87	348.1
382.25	343.58
382.63	360.98
383.01	352.62
383.39	350.36
383.77	349.23
384.15	340.87
384.53	345.39
384.91	349.91
385.29	332.28
385.67	337.25
386.049	375.89
386.429	341.77
386.809	360.53
387.189	376.35
387.568	348.55
387.948	356.46
388.328	349.91
388.707	368.44
389.087	370.24
389.466	336.12
389.846	373.41
390.225	361.66
390.605	360.3
390.984	379.74
391.363	359.62
391.743	370.02
392.122	380.41
392.501	379.06
392.881	385.39
393.26	359.85
393.639	374.54
394.018	402.11
394.397	360.3
394.776	361.88
395.155	375.67
395.534	383.13
395.913	369.11
396.292	386.29
396.671	376.57
397.05	394.88
397.429	368.44
397.808	401.43
398.186	403.92
398.565	378.61
398.944	386.97
399.323	395.78
399.701	388.78
400.08	401.43
400.458	407.31
400.837	391.26
401.215	402.11
401.594	414.99
401.972	379.06
402.351	417.02
402.729	420.64
403.107	425.61
403.486	410.02
403.864	416.8
404.242	441.43
404.62	409.11
404.999	413.63
405.377	400.75
405.755	437.14
406.133	431.94
406.511	436.91
406.889	442.11
407.267	435.55
407.645	432.84
408.023	451.15
408.401	417.93
408.779	442.56
409.156	433.97
409.534	450.24
409.912	441.88
410.29	456.34
410.667	450.47
411.045	457.02
411.422	473.97
411.8	454.76
412.178	456.57
412.555	461.32
412.933	482.11
413.31	444.14
413.687	462.67
414.065	468.55
414.442	480.07
414.819	448.66
415.197	487.53
415.574	469.9
415.951	460.86
416.328	495.21
416.705	500.64
417.082	519.85
417.46	492.95
417.837	511.26
418.214	489.56
418.591	506.74
418.967	521.2
419.344	511.26
419.721	514.2
420.098	513.07
420.475	533.18
420.852	529.56
421.228	532.95
421.605	535.66
421.982	517.36
422.358	534.08
422.735	528.88
423.111	543.12
423.488	524.59
423.864	559.62
424.241	560.75
424.617	579.28
424.994	554.87
425.37	551.48
425.746	556.68
426.123	556.45
426.499	559.39
426.875	560.52
427.251	575.21
427.627	568.43
428.003	565.95
428.379	578.37
428.756	582.22
429.132	596.91
429.507	589.67
429.883	609.33
430.259	639.84
430.635	629.22
431.011	618.15
431.387	619.05
431.763	660.18
432.138	641.65
432.514	635.77
432.89	644.81
433.265	649.56
433.641	670.35
434.016	661.54
434.392	676.23
434.767	673.97
435.143	676.23
435.518	696.56
435.894	673.29
436.269	709.9
436.644	702.21
437.02	710.12
437.395	730.91
437.77	693.17
438.145	735.66
438.52	722.1
438.895	730.01
439.271	738.6
439.646	748.31
440.021	740.4
440.395	760.97
440.77	750.12
441.145	756.9
441.52	754.42
441.895	741.31
442.27	780.4
442.645	772.27
443.019	798.03
443.394	776.11
443.769	778.6
444.143	775.21
444.518	784.24
444.892	780.18
445.267	805.49
445.641	806.39
446.016	788.99
446.39	814.98
446.764	808.65
447.139	822.66
447.513	809.55
447.887	830.12
448.262	831.02
448.636	821.76
449.01	844.13
449.384	840.74
449.758	837.12
450.132	871.02
450.506	849.55
450.88	864.24
451.254	859.72
451.628	850.23
452.002	861.76
452.376	894.52
452.75	875.32
453.123	916.67
453.497	880.29
453.871	908.76
454.244	919.83
454.618	956.67
454.992	941.75
455.365	955.99
455.739	972.49
456.112	968.65
456.486	972.26
456.859	973.39
457.232	1005.93
457.606	985.82
457.979	1017.23
458.352	1022.43
458.725	1032.37
459.099	1050.23
459.472	1061.53
459.845	1070.79
460.218	1079.38
460.591	1103.11
460.964	1089.32
461.337	1124.12
461.71	1127.29
462.083	1121.64
462.456	1141.98
462.829	1160.96
463.201	1193.95
463.574	1177.68
463.947	1195.31
464.32	1245.25
464.692	1236.44
465.065	1243.67
465.438	1265.59
465.81	1267.17
466.183	1282.99
466.555	1341.07
466.928	1315.53
467.3	1336.32
467.672	1371.35
468.045	1384.23
468.417	1396.21
468.789	1427.17
469.161	1437.11
469.534	1460.16
469.906	1496.09
470.278	1487.96
470.65	1511.46
471.022	1565.69
471.394	1620.61
471.766	1607.5
472.138	1638.69
472.51	1669.65
472.882	1703.77
473.253	1740.38
473.625	1764.33
473.997	1801.85
474.369	1813.14
474.74	1851.11
475.112	1910.32
475.484	1928.4
475.855	1989.86
476.227	2035.51
476.598	2054.27
476.97	2105.79
477.341	2176.52
477.713	2240.48
478.084	2247.71
478.455	2336.75
478.827	2362.96
479.198	2462.62
479.569	2483.64
479.94	2540.13
480.311	2616.51
480.682	2687.92
481.053	2794.81
481.424	2823.29
481.795	2917.52
482.166	2961.59
482.537	3037.07
482.908	3148.25
483.279	3176.72
483.65	3289.72
484.021	3391.86
484.391	3437.96
484.762	3519.99
485.133	3595.92
485.503	3667.11
485.874	3832.53
486.244	3866.42
486.615	4025.29
486.985	4042.24
487.356	4208.34
487.726	4276.81
488.097	4395.68
488.467	4448.33
488.837	4574.2
489.207	4665.27
489.578	4781.88
489.948	4871.14
490.318	5023.91
490.688	5096.22
491.058	5210.8
491.428	5316.78
491.798	5398.13
492.168	5558.58
492.538	5649.88
492.908	5723.32
493.278	5901.85
493.648	5979.36
494.017	6140.49
494.387	6133.26
494.757	6291.9
495.126	6436.3
495.496	6425.23
495.866	6560.36
496.235	6644.2
496.605	6746.35
496.974	6870.64
497.344	6970.3
497.713	7000.35
498.082	7149.95
498.452	7280.35
498.821	7333.23
499.19	7411.87
499.559	7547.23
499.928	7641.24
500.298	7725.08
500.667	7812.08
501.036	7871.06
501.405	8068.12
501.774	8040.33
502.143	8180.89
502.512	8253.2
502.88	8332.07
503.249	8368.68
503.618	8490.48
503.987	8567.77
504.356	8697.94
504.724	8759.63
505.093	8791.27
505.462	8853.19
505.83	8970.92
506.199	9032.84
506.567	9137.7
506.936	9194.42
507.304	9350.8
507.672	9449.78
508.041	9512.15
508.409	9518.25
508.777	9626.27
509.145	9733.61
509.514	9787.62
509.882	9861.75
510.25	9937.45
510.618	9974.51
510.986	10038.24
511.354	10103.77
511.722	10242.3
512.09	10372.24
512.458	10333.82
512.826	10454.5
513.193	10518.68
513.561	10597.32
513.929	10643.87
514.297	10785.79
514.664	10849.52
515.032	10810.2
515.4	11023.07
515.767	11037.08
516.135	11196.4
516.502	11095.39
516.869	11284.31
517.237	11298.09
517.604	11285.44
517.972	11494.25
518.339	11501.03
518.706	11588.03
519.073	11636.84
519.44	11700.79
519.808	11856.04
520.175	11811.07
520.542	11986.89
520.909	12069.37
521.276	12096.72
521.643	12245.86
522.009	12254
522.376	12362.02
522.743	12414.45
523.11	12546.87
523.477	12669.36
523.843	12681.56
524.21	12900.99
524.577	12832.06
524.943	12965.39
525.31	13042.23
525.676	13111.6
526.043	13285.16
526.409	13286.74
526.776	13377.81
527.142	13497.13
527.508	13608.99
527.874	13620.29
528.241	13832.94
528.607	13856.22
528.973	13895.99
529.339	13918.59
529.705	14079.49
530.071	14172.37
530.437	14262.08
530.803	14327.17
531.169	14340.72
531.535	14500.72
531.901	14453.26
532.267	14509.53
532.632	14620.04
532.998	14672.02
533.364	14768.96
533.73	14761.28
534.095	14944.78
534.461	14962.18
534.826	15026.81
535.192	15094.6
535.557	15276.29
535.923	15145.45
536.288	15267.71
536.653	15366.23
537.019	15395.16
537.384	15445.1
537.749	15443.97
538.114	15565.78
538.479	15562.84
538.845	15628.83
539.21	15730.29
539.575	15698.43
539.94	15840.8
540.305	15953.56
540.67	15918.08
541.034	15987.69
541.399	16125.08
541.764	16145.2
542.129	16140.68
542.494	16335.47
542.858	16372.54
543.223	16272.65
543.587	16460.89
543.952	16484.62
544.316	16554
544.681	16558.07
545.045	16671.28
545.41	16719.19
545.774	16820.21
546.138	16767.55
546.503	16871.96
546.867	16946.31
547.231	17029.02
547.595	17066.98
547.959	17179.07
548.324	17180.42
548.688	17235.11
549.052	17282.12
549.416	17400.31
549.779	17363.24
550.143	17444.6
550.507	17590.58
550.871	17634.65
551.235	17658.15
551.599	17829.22
551.962	17758.04
552.326	17878.48
552.689	17925.26
553.053	17914.87
553.417	17972.95
553.78	18233.5
554.143	18210.45
554.507	18206.39
554.87	18262.43
555.234	18369.32
555.597	18229.66
555.96	18454.97
556.323	18544.46
556.686	18539.03
557.05	18643.89
557.413	18786.48
557.776	18710.55
558.139	18899.02
558.502	18935.86
558.865	18926.59
559.228	19068.51
559.59	19069.19
559.953	19179.92
560.316	19360.03
560.679	19310.76
561.041	19378.78
561.404	19552.34
561.767	19597.99
562.129	19649.96
562.492	19792.56
562.854	19729.51
563.217	19806.12
563.579	19963.4
563.941	19975.83
564.304	20077.3
564.666	20354.8
565.028	20313
565.39	20328.14
565.753	20378.31
566.115	20578.53
566.477	20641.35
566.839	20595.02
567.201	20705.3
567.563	20794.34
567.925	20934.68
568.287	20953.43
568.648	20928.8
569.01	21136.48
569.372	21343.25
569.734	21195.01
570.095	21288.34
570.457	21322.01
570.819	21471.38
571.18	21431.84
571.542	21616.47
571.903	21740.76
572.265	21804.48
572.626	21863.24
572.987	21919.73
573.349	22019.17
573.71	22111.82
574.071	22203.34
574.432	22305.26
574.794	22623.22
575.155	22517.46
575.516	22622.77
575.877	22665.25
576.238	22957.9
576.599	22927.84
576.96	23103.21
577.32	23100.95
577.681	23302.75
578.042	23352.01
578.403	23575.28
578.763	23673.59
579.124	23691.21
579.485	23888.27
579.845	23991.54
580.206	24080.81
580.566	24182.27
580.927	24420.91
581.287	24584.07
581.648	24752.65
582.008	24885.31
582.368	24960.56
582.728	25121.23
583.089	25252.08
583.449	25511.28
583.809	25628.11
584.169	25834.43
584.529	25914.21
584.889	26219.73
585.249	26018.38
585.609	26288.66
585.969	26600.52
586.329	26647.97
586.688	26806.16
587.048	26994.63
587.408	27238.24
587.768	27423.54
588.127	27607.72
588.487	27726.36
588.846	27984.21
589.206	27991.67
589.565	28231.43
589.925	28544.87
590.284	28667.13
590.643	28790.29
591.003	28985.99
591.362	29484.96
591.721	29542.36
592.08	29642.24
592.44	29944.16
592.799	30034.32
593.158	30299.63
593.517	30427.31
593.876	30540.75
594.235	30732.61
594.593	30937.8
594.952	31252.82
595.311	31162.88
595.67	31433.61
596.029	31678.8
596.387	32006.25
596.746	32171.89
597.104	32146.58
597.463	32387.48
597.822	32761.71
598.18	32710.64
598.538	32906.79
598.897	33170.96
599.255	33126.45
599.613	33677.17
599.972	33546.55
600.33	33765.75
600.688	33812.08
601.046	34133.42
601.404	34339.29
601.762	34498.61
602.12	34699.96
602.478	34855.67
602.836	34942.89
603.194	34916
603.552	35174.98
603.91	35133.62
604.268	35469.21
604.625	35409.32
604.983	35745.36
605.341	35537.23
605.698	35858.35
606.056	36157.1
606.413	36162.98
606.771	36317.32
607.128	36453.14
607.485	36552.8
607.843	36608.16
608.2	36938.32
608.557	37020.58
608.914	37030.52
609.272	37277.52
609.629	37397.29
609.986	37682.26
610.343	37530.4
610.7	37998.86
611.057	37942.82
611.414	37915.47
611.771	38187.78
612.127	38190.94
612.484	38372.86
612.841	38498.06
613.198	38503.03
613.554	38610.59
613.911	38712.51
614.267	38926.07
614.624	38790.93
614.98	39035.67
615.337	39279.05
615.693	39195.89
616.05	39146.63
616.406	39531.02
616.762	39420.97
617.118	39531.7
617.475	39504.13
617.831	39796.78
618.187	39776.21
618.543	39821.18
618.899	40081.29
619.255	40052.59
619.611	40190.89
619.967	40317.89
620.323	40456.2
620.678	40281.51
621.034	40429.76
621.39	40563.76
621.746	40380.49
622.101	40809.18
622.457	40582.29
622.812	40664.55
623.168	40788.39
623.523	40751.33
623.879	40957.65
624.234	40676.53
624.589	40937.99
624.945	40885.11
625.3	40933.7
625.655	41027.25
626.01	41182.05
626.365	41039.91
626.72	41199
627.075	41139.34
627.43	41257.53
627.785	41140.7
628.14	41234.03
628.495	41305.67
628.85	41295.27
629.205	41235.84
629.559	41398.09
629.914	41271.32
630.269	41309.96
630.623	41320.13
630.978	41095.28
631.332	41307.25
631.687	41525.77
632.041	41279
632.396	41268.38
632.75	41194.03
633.104	41198.78
633.459	41162.39
633.813	41187.93
634.167	41203.3
634.521	41328.49
634.875	41249.17
635.229	41286.68
635.583	41159
635.937	41189.51
636.291	41172.34
636.645	41210.98
636.999	41132.34
637.352	41185.44
637.706	41088.04
638.06	41126.01
638.413	41130.75
638.767	40980.7
639.121	40995.84
639.474	40926.69
639.828	40943.64
640.181	41076.74
640.534	41002.17
640.888	40820.25
641.241	40692.8
641.594	40825.68
641.947	40965.11
642.301	41004.66
642.654	40930.99
643.007	40805.79
643.36	40723.76
643.713	40705.23
644.066	40947.93
644.419	40559.7
644.771	40357.44
645.124	40118.58
645.477	40062.53
645.83	39680.62
646.182	39641.75
646.535	39472.49
646.888	39619.61
647.24	39380.29
647.593	39630
647.945	39532.38
648.298	39218.26
648.65	39259.39
649.002	39203.12
649.355	39360.86
649.707	39307.53
650.059	39303.68
650.411	39893.5
650.763	39854.86
651.115	40235.41
651.467	40245.35
651.819	40126.49
652.171	40049.43
652.523	40075.87
652.875	40044.46
653.227	39857.79
653.578	40192.02
653.93	40060.27
654.282	39888.3
654.633	39876.78
654.985	39952.03
655.337	39821.41
655.688	39861.86
656.039	39963.78
656.391	39539.16
656.742	39758.59
657.094	39651.92
657.445	39894.18
657.796	39784.8
658.147	39611.7
658.498	39743.9
658.849	39822.31
659.2	39704.35
659.551	39593.85
659.902	39861.18
660.253	39598.37
660.604	39679.49
660.955	39530.12
661.306	39583.45
661.656	39632.71
662.007	39591.81
662.358	39525.37
662.708	39606.73
663.059	39497.58
663.409	39437.01
663.76	39673.39
664.11	39621.64
664.461	39611.25
664.811	39642.21
665.161	39500.06
665.511	39386.39
665.862	39582.55
666.212	39635.2
666.562	39743.9
666.912	39590.68
667.262	39566.73
667.612	39512.49
667.962	39506.84
668.312	39252.39
668.662	39620.74
669.011	39504.36
669.361	39290.35
669.711	39337.36
670.06	39263.69
670.41	39191.82
670.76	39232.5
671.109	39232.05
671.459	39340.07
671.808	39194.53
672.157	39384.81
672.507	38960.19
672.856	38990.02
673.205	39174.2
673.554	39191.14
673.904	39187.08
674.253	39241.76
674.602	39202.9
674.951	38640.42
675.3	38528.56
675.649	39015.56
675.998	39062.56
676.346	38957.25
676.695	39121.77
677.044	38900.98
677.393	39008.55
677.741	38951.83
678.09	38815.11
678.438	38679.97
678.787	38802.91
679.135	38910.47
679.484	38613.08
679.832	38761.33
680.181	38645.4
680.529	38775.11
680.877	38624.38
681.225	38520.88
681.573	38764.94
681.922	38444.72
682.27	38298.96
682.618	38385.52
682.966	38293.09
683.314	38315.46
683.661	38155.24
684.009	38049.25
684.357	38050.38
684.705	37935.36
685.053	37977.39
685.4	37963.61
685.748	37787.34
686.095	37699.21
686.443	37759.54
686.79	37640
687.138	37680.22
687.485	37749.83
687.832	37400.68
688.18	37605.88
688.527	37341.25
688.874	37297.18
689.221	37258.77
689.568	37187.36
689.915	36927.25
690.262	36899
690.609	36927.48
690.956	36843.41
691.303	36746.24
691.65	36538.33
691.997	36562.74
692.344	36407.26
692.69	36429.18
693.037	36299.02
693.383	36171.34
693.73	36241.84
694.077	36026.26
694.423	36063.54
694.769	35971.34
695.116	35885.69
695.462	35840.95
695.808	35642.99
696.155	35785.58
696.501	35500.85
696.847	35499.94
697.193	35314.86
697.539	35286.84
697.885	35113.51
698.231	35040.29
698.577	35020.18
698.923	35016.79
699.269	34744.71
699.614	34585.16
699.96	34688.66
700.306	34567.76
700.651	34462
700.997	34373.19
701.342	34332.29
701.688	34316.92
702.033	33994.67
702.379	34032.18
702.724	34147.21
703.069	33991.51
703.415	33715.81
703.76	33626.32
704.105	33686.43
704.45	33501.12
704.795	33320.34
705.14	33285.09
705.485	33401.01
705.83	33243.5
706.175	33312.88
706.52	33180.91
706.865	33058.42
707.209	33032.44
707.554	33044.87
707.899	33081.7
708.243	32828.6
708.588	32698.66
708.932	32502.06
709.277	32496.63
709.621	32604.88
709.966	32267.48
710.31	32345.9
710.654	32139.58
710.998	32379.57
711.342	32227.03
711.687	32057.77
712.031	31978.68
712.375	31980.03
712.719	31929.87
713.063	31773.26
713.407	31893.26
713.75	31663.43
714.094	31750.44
714.438	31424.8
714.782	31542.31
715.125	31298.92
715.469	31385.93
715.812	31296.21
716.156	31138.93
716.499	31088.08
716.843	31129.21
717.186	30906.84
717.53	31114.07
717.873	31101.19
718.216	31004.92
718.559	30758.37
718.902	30661.65
719.246	30796.79
719.589	30507.98
719.932	30461.2
720.275	30582.11
720.617	30467.08
720.96	30382.79
721.303	30409.68
721.646	30375.78
721.989	30209.46
722.331	30399.06
722.674	30184.83
723.016	30128.33
723.359	30178.27
723.701	30024.83
724.044	30031.61
724.386	29863.71
724.729	29888.56
725.071	29919.3
725.413	29902.8
725.755	29838.62
726.097	29755.01
726.439	29549.14
726.782	29569.02
727.124	29721.56
727.465	29458.29
727.807	29492.87
728.149	29352.08
728.491	29405.41
728.833	29447.45
729.175	29303.95
729.516	29264.4
729.858	29213.78
730.199	29147.34
730.541	29100.79
730.882	29121.58
731.224	29147.11
731.565	28936.95
731.906	28955.48
732.248	29158.19
732.589	28731.98
732.93	28752.32
733.271	28817.41
733.612	28743.28
733.953	28813.34
734.294	28656.51
734.635	28504.87
734.976	28718.2
735.317	28511.43
735.658	28504.65
735.999	28513.01
736.339	28352.33
736.68	28459
737.021	28326.8
737.361	28181.72
737.702	28281.83
738.042	28257.19
738.383	28226.46
738.723	28272.79
739.063	28060.82
739.404	28115.5
739.744	28117.76
740.084	27912.12
740.424	27958.22
740.764	27930.88
741.104	28005.9
741.444	27778.56
741.784	27677.78
742.124	27800.48
742.464	27768.85
742.804	27548.96
743.143	27617.44
743.483	27691.79
743.823	27479.36
744.162	27398.91
744.502	27532.69
744.841	27321.85
745.181	27523.65
745.52	27367.73
745.86	27334.28
746.199	27265.58
746.538	27233.72
746.877	27311.01
747.216	27288.63
747.556	27080.73
747.895	27231.69
748.234	27133.83
748.573	26941.75
748.911	26862.2
749.25	26958.7
749.589	26617.24
749.928	26784.01
750.267	26781.08
750.605	26682.55
750.944	26689.55
751.283	26568.2
751.621	26670.57
751.96	26472.38
752.298	26410.69
752.636	26430.35
752.975	26251.37
753.313	26344.25
753.651	26274.87
753.989	26161.2
754.327	26190.58
754.666	25912.85
755.004	26012.06
755.342	25985.84
755.679	25961.89
756.017	25815.9
756.355	25928.44
756.693	25875.56
757.031	25895.22
