Data from hue_80_FLMS001491_97.txt Node
Date: Mon Feb 06 15:24:05 GMT 2017
User: dcchb
Spectrometer: FLMS00149
Trigger mode: 0
Integration Time (sec): 2.000000E-2
Scans to average: 10
Electric dark correction enabled: true
Nonlinearity correction enabled: false
Boxcar width: 0
XAxis mode: Wavelengths
Number of Pixels in Spectrum: 2048
>>>>>Begin Spectral Data<<<<<
341.393	-15.2
341.776	-15.2
342.16	-15.2
342.543	-54.29
342.927	-59.49
343.31	-60.39
343.693	-61.98
344.077	-55.42
344.46	-65.37
344.843	-60.39
345.226	-35.76
345.61	-30.11
345.993	-17.91
346.376	-7.29
346.759	22.32
347.142	19.6
347.525	48.98
347.908	50.11
348.291	70
348.674	79.94
349.057	103.67
349.44	129.66
349.823	132.14
350.206	169.88
350.588	184.12
350.971	233.16
351.354	232.25
351.737	240.62
352.119	241.07
352.502	263.67
352.884	282.65
353.267	281.07
353.65	296.43
354.032	285.81
354.414	286.72
354.797	312.93
355.179	315.64
355.562	326.94
355.944	336.66
356.326	336.66
356.709	345.25
357.091	346.15
357.473	356.09
357.855	349.99
358.238	367.84
358.62	336.21
359.002	347.96
359.384	353.83
359.766	332.82
360.148	358.13
360.53	325.81
360.912	318.13
361.294	344.57
361.676	343.89
362.057	339.37
362.439	337.34
362.821	325.36
363.203	335.3
363.584	340.5
363.966	335.53
364.348	327.17
364.729	303.21
365.111	356.09
365.493	324.68
365.874	315.19
366.256	322.65
366.637	313.38
367.019	296.66
367.4	317.22
367.781	321.07
368.163	332.59
368.544	302.31
368.925	321.97
369.306	305.02
369.688	301.18
370.069	326.04
370.45	314.74
370.831	319.26
371.212	315.19
371.593	322.87
371.974	322.87
372.355	301.86
372.736	331.91
373.117	309.99
373.498	334.4
373.879	323.55
374.26	329.43
374.641	323.78
375.021	334.62
375.402	316.55
375.783	329.65
376.163	340.05
376.544	335.75
376.925	335.08
377.305	348.63
377.686	345.92
378.066	312.7
378.447	329.65
378.827	326.26
379.208	347.28
379.588	326.04
379.968	339.14
380.349	342.76
380.729	341.18
381.109	353.61
381.489	338.47
381.87	367.62
382.25	337.56
382.63	345.92
383.01	361.06
383.39	344.34
383.77	348.86
384.15	364
384.53	318.35
384.91	373.27
385.29	360.84
385.67	345.02
386.049	357.45
386.429	346.15
386.809	346.38
387.189	322.65
387.568	349.31
387.948	360.84
388.328	375.53
388.707	343.21
389.087	371.91
389.466	341.86
389.846	354.74
390.225	376.43
390.605	356.54
390.984	386.37
391.363	397.22
391.743	388.41
392.122	395.87
392.501	364.23
392.881	375.53
393.26	383.89
393.639	367.17
394.018	385.24
394.397	399.26
394.776	361.52
395.155	376.66
395.534	384.34
395.913	401.06
396.292	390.22
396.671	392.48
397.05	408.52
397.429	383.66
397.808	384.57
398.186	394.96
398.565	429.54
398.944	419.82
399.323	420.5
399.701	384.34
400.08	408.97
400.458	409.65
400.837	392.48
401.215	406.26
401.594	371.01
401.972	416.2
402.351	408.97
402.729	427.73
403.107	409.88
403.486	415.98
403.864	420.95
404.242	421.18
404.62	451.23
404.999	413.27
405.377	427.05
405.755	428.41
406.133	439.71
406.511	429.54
406.889	421.63
407.267	460.27
407.645	442.42
408.023	461.17
408.401	437.22
408.779	459.82
409.156	453.04
409.534	440.38
409.912	455.07
410.29	476.32
410.667	467.05
411.045	479.93
411.422	481.51
411.8	478.12
412.178	498.24
412.555	462.98
412.933	474.28
413.31	500.04
413.687	497.33
414.065	487.16
414.442	498.91
414.819	512.02
415.197	498.69
415.574	515.18
415.951	515.64
416.328	520.16
416.705	505.92
417.082	535.52
417.46	514.96
417.837	511.34
418.214	533.26
418.591	527.39
418.967	536.2
419.344	541.62
419.721	552.7
420.098	548.63
420.475	559.93
420.852	546.6
421.228	575.75
421.605	576.88
421.982	561.51
422.358	569.87
422.735	568.97
423.111	559.93
423.488	578.91
423.864	568.74
424.241	591.34
424.617	591.11
424.994	583.43
425.37	593.15
425.746	589.31
426.123	621.17
426.499	595.41
426.875	628.18
427.251	627.05
427.627	629.08
428.003	631.11
428.379	625.92
428.756	634.05
429.132	655.29
429.507	643.32
429.883	627.27
430.259	661.85
430.635	676.76
431.011	654.84
431.387	687.84
431.763	675.86
432.138	694.16
432.514	686.03
432.89	717.44
433.265	699.59
433.641	694.39
434.016	726.93
434.392	722.18
434.767	731
435.143	707.95
435.518	728.74
435.894	758.34
436.269	736.2
436.644	743.88
437.02	777.55
437.395	769.19
437.77	772.8
438.145	772.13
438.52	775.52
438.895	792.01
439.271	790.21
439.646	819.81
440.021	801.5
440.395	813.26
440.77	815.06
441.145	828.62
441.52	800.6
441.895	823.88
442.27	840.83
442.645	859.36
443.019	831.33
443.394	874.72
443.769	871.33
444.143	858.23
444.518	862.75
444.892	867.27
445.267	881.73
445.641	890.54
446.016	847.6
446.39	928.51
446.764	919.92
447.139	904.33
447.513	923.08
447.887	913.59
448.262	911.78
448.636	925.79
449.01	946.81
449.384	948.39
449.758	939.81
450.132	959.47
450.506	960.6
450.88	964.66
451.254	968.05
451.628	978.22
452.002	1001.05
452.376	994.27
452.75	977.54
453.123	1021.61
453.497	1037.88
453.871	1023.19
454.244	1025.91
454.618	1046.7
454.992	1079.92
455.365	1062.06
455.739	1075.4
456.112	1096.19
456.486	1100.03
456.859	1113.81
457.232	1115.39
457.606	1131.89
457.979	1168.5
458.352	1183.87
458.725	1198.33
459.099	1196.07
459.472	1224.09
459.845	1200.59
460.218	1235.62
460.591	1237.65
460.964	1241.49
461.337	1273.13
461.71	1282.62
462.083	1318.1
462.456	1332.79
462.829	1314.71
463.201	1377.08
463.574	1347.03
463.947	1379.79
464.32	1412.11
464.692	1429.28
465.065	1447.36
465.438	1460.7
465.81	1495.05
466.183	1511.09
466.555	1527.59
466.928	1523.29
467.3	1551.77
467.672	1596.96
468.045	1596.06
468.417	1614.36
468.789	1620.01
469.161	1650.07
469.534	1709.96
469.906	1742.72
470.278	1767.58
470.65	1794.02
471.022	1827.47
471.394	1858.43
471.766	1890.97
472.138	1934.13
472.51	1964.64
472.882	1972.1
473.253	2045.09
473.625	2064.97
473.997	2122.37
474.369	2170.96
474.74	2187.68
475.112	2225.42
475.484	2293.89
475.855	2381.35
476.227	2386.55
476.598	2476.71
476.97	2492.76
477.341	2588.35
477.713	2664.73
478.084	2686.88
478.455	2793.32
478.827	2811.85
479.198	2915.12
479.569	2963.71
479.94	3078.73
480.311	3128.67
480.682	3260.65
481.053	3324.6
481.424	3424.49
481.795	3464.94
482.166	3605.27
482.537	3663.12
482.908	3752.61
483.279	3830.58
483.65	3959.39
484.021	4093.85
484.391	4155.77
484.762	4242.54
485.133	4350.56
485.503	4459.94
485.874	4641.4
486.244	4745.58
486.615	4833.71
486.985	4964.33
487.356	5100.6
487.726	5219.47
488.097	5372.46
488.467	5505.79
488.837	5635.73
489.207	5774.03
489.578	5910.3
489.948	6042.04
490.318	6170.4
490.688	6235.49
491.058	6450.4
491.428	6525.87
491.798	6742.37
492.168	6906.2
492.538	7034.33
492.908	7155.46
493.278	7289.02
493.648	7388
494.017	7525.62
494.387	7681.78
494.757	7913.18
495.126	8049
495.496	8121.76
495.866	8202.21
496.235	8441.08
496.605	8538.93
496.974	8612.82
497.344	8816.43
497.713	8921.52
498.082	9079.25
498.452	9186.82
498.821	9319.02
499.19	9431.11
499.559	9568.05
499.928	9756.07
500.298	9798.56
500.667	9967.37
501.036	9948.83
501.405	10142.28
501.774	10243.74
502.143	10431.53
502.512	10571.64
502.88	10605.54
503.249	10721.7
503.618	10910.84
503.987	10930.28
504.356	11069.93
504.724	11138.86
505.093	11243.04
505.462	11290.49
505.83	11474.9
506.199	11537.04
506.567	11779.07
506.936	11750.59
507.304	11923.7
507.672	12033.53
508.041	12088.89
508.409	12302.22
508.777	12273.97
509.145	12498.6
509.514	12465.15
509.882	12641.87
510.25	12722.55
510.618	12740.63
510.986	12858.36
511.354	13020.39
511.722	13060.39
512.09	13219.03
512.458	13179.71
512.826	13393.04
513.193	13333.15
513.561	13488.18
513.929	13614.05
514.297	13779.02
514.664	13722.75
515.032	13928.84
515.4	13947.6
515.767	14043.19
516.135	14084.54
516.502	14043.87
516.869	14264.65
517.237	14306.91
517.604	14283.86
517.972	14493.35
518.339	14503.06
518.706	14574.02
519.073	14635.72
519.44	14762.27
519.808	14832.55
520.175	14799.33
520.542	15035.93
520.909	15055.14
521.276	15000.68
521.643	15177.4
522.009	15245.87
522.376	15373.1
522.743	15363.38
523.11	15552.08
523.477	15710.49
523.843	15726.31
524.21	15879.75
524.577	15788.23
524.943	15934.67
525.31	15962.69
525.676	16135.34
526.043	16141.21
526.409	16193.19
526.776	16398.83
527.142	16365.39
527.508	16427.53
527.874	16482.9
528.241	16526.29
528.607	16584.82
528.973	16670.69
529.339	16587.98
529.705	16773.51
530.071	16909.56
530.437	16872.04
530.803	17017.8
531.169	17000.17
531.535	16948.2
531.901	17028.87
532.267	16979.16
532.632	17116.56
532.998	17124.69
533.364	17189.55
533.73	17155.88
534.095	17332.14
534.461	17258.02
534.826	17297.79
535.192	17417.11
535.557	17457.11
535.923	17425.7
536.288	17408.53
536.653	17458.24
537.019	17356.78
537.384	17437.68
537.749	17467.05
538.114	17426.83
538.479	17483.33
538.845	17381.18
539.21	17383.89
539.575	17465.7
539.94	17371.24
540.305	17444
540.67	17528.97
541.034	17466.38
541.399	17433.61
541.764	17457.79
542.129	17468.18
542.494	17503.21
542.858	17482.2
543.223	17540.95
543.587	17566.04
543.952	17512.93
544.316	17554.51
544.681	17564.23
545.045	17431.8
545.41	17601.29
545.774	17550.67
546.138	17558.58
546.503	17486.72
546.867	17418.02
547.231	17556.32
547.595	17549.09
547.959	17511.12
548.324	17584.34
548.688	17475.42
549.052	17508.64
549.416	17507.05
549.779	17465.25
550.143	17488.52
550.507	17514.74
550.871	17534.62
551.235	17443.78
551.599	17596.54
551.962	17558.13
552.326	17608.75
552.689	17571.68
553.053	17437.23
553.417	17552.02
553.78	17811.23
554.143	17622.08
554.507	17637.45
554.87	17732.81
555.234	17827.05
555.597	17626.37
555.96	17613.72
556.323	17715.86
556.686	17642.64
557.05	17733.26
557.413	17761.96
557.776	17566.94
558.139	17737.78
558.502	17733.04
558.865	17793.83
559.228	17884.9
559.59	17974.84
559.953	17786.82
560.316	17988.85
560.679	17961.28
561.041	18004.89
561.404	18069.98
561.767	18051.22
562.129	18096.42
562.492	18227.49
562.854	18145.91
563.217	18000.83
563.579	18146.36
563.941	18242.63
564.304	18255.06
564.666	18288.05
565.028	18394.04
565.39	18366.24
565.753	18464.09
566.115	18478.33
566.477	18544.77
566.839	18565.11
567.201	18634.48
567.563	18683.07
567.925	18629.96
568.287	18600.36
568.648	18622.5
569.01	18701.82
569.372	18763.74
569.734	18697.08
570.095	18994.7
570.457	18969.39
570.819	18971.2
571.18	18829.28
571.542	18960.8
571.903	19125.09
572.265	19056.62
572.626	19084.64
572.987	19004.87
573.349	19117.41
573.71	19213.45
574.071	19161.47
574.432	19257.52
574.794	19340
575.155	19349.04
575.516	19304.52
575.877	19219.78
576.238	19374.35
576.599	19358.76
576.96	19410.28
577.32	19391.52
577.681	19432.88
578.042	19577.51
578.403	19544.51
578.763	19514.91
579.124	19501.58
579.485	19473.1
579.845	19523.95
580.206	19563.5
580.566	19496.15
580.927	19488.47
581.287	19617.05
581.648	19482.14
582.008	19570.5
582.368	19422.94
582.728	19582.48
583.089	19504.74
583.449	19572.08
583.809	19610.05
584.169	19522.82
584.529	19502.03
584.889	19674.45
585.249	19441.01
585.609	19416.16
585.969	19518.3
586.329	19533.44
586.688	19473.78
587.048	19416.16
587.408	19368.7
587.768	19388.59
588.127	19428.36
588.487	19490.28
588.846	19547
589.206	19456.61
589.565	19363.28
589.925	19458.41
590.284	19391.52
590.643	19378.19
591.003	19456.61
591.362	19445.08
591.721	19427.46
592.08	19469.94
592.44	19465.87
592.799	19528.02
593.158	19356.95
593.517	19332.09
593.876	19371.19
594.235	19237.86
594.593	19358.98
594.952	19445.53
595.311	19334.58
595.67	19349.04
596.029	19499.32
596.387	19469.04
596.746	19523.05
597.104	19338.19
597.463	19288.7
597.822	19497.51
598.18	19304.52
598.538	19304.97
598.897	19553.55
599.255	19296.61
599.613	19593.78
599.972	19441.24
600.33	19507.91
600.688	19481.01
601.046	19468.13
601.404	19525.53
601.762	19471.3
602.12	19519.88
602.478	19590.39
602.836	19491.86
603.194	19425.65
603.552	19415.7
603.91	19377.74
604.268	19443.5
604.625	19314.92
604.983	19455.7
605.341	19326.67
605.698	19504.52
606.056	19445.31
606.413	19563.5
606.771	19598.3
607.128	19580.45
607.485	19527.34
607.843	19572.76
608.2	19608.47
608.557	19631.97
608.914	19528.02
609.272	19674.23
609.629	19683.95
609.986	19723.27
610.343	19705.19
610.7	19838.97
611.057	19796.49
611.414	19797.39
611.771	19800.55
612.127	19873.32
612.484	19839.65
612.841	19919.42
613.198	19814.11
613.554	19768.46
613.911	19939.98
614.267	19853.21
614.624	19784.28
614.98	19976.59
615.337	20023.6
615.693	19979.53
616.05	19958.06
616.406	20038.29
616.762	19943.15
617.118	20039.64
617.475	19953.09
617.831	20122.13
618.187	20099.75
618.543	20106.31
618.899	20199.41
619.255	20178.62
619.611	20182.24
619.967	20353.98
620.323	20259.3
620.678	20167.77
621.034	20201.22
621.39	20262.01
621.746	20191.05
622.101	20366.87
622.457	20236.93
622.812	20151.5
623.168	20294.78
623.523	20330.03
623.879	20346.75
624.234	20224.95
624.589	20243.48
624.945	20179.75
625.3	20311.73
625.655	20262.24
626.01	20397.37
626.365	20157.83
626.72	20249.58
627.075	20274.66
627.43	20264.5
627.785	20161
628.14	20253.87
628.495	20283.03
628.85	20234.21
629.205	20113.09
629.559	20379.07
629.914	20220.88
630.269	20201.45
630.623	20093.43
630.978	20129.58
631.332	20204.84
631.687	20236.93
632.041	20078.96
632.396	20148.11
632.75	20109.7
633.104	20164.61
633.459	19931.62
633.813	19919.87
634.167	20013.88
634.521	20074.22
634.875	19981.79
635.229	19995.58
635.583	19986.54
635.937	19902.47
636.291	19859.99
636.645	19777.28
636.999	19810.04
637.352	19899.99
637.706	19664.06
638.06	19804.62
638.413	19727.11
638.767	19765.07
639.121	19741.8
639.474	19664.51
639.828	19632.2
640.181	19721.46
640.534	19688.47
640.888	19565.98
641.241	19461.35
641.594	19624.06
641.947	19613.89
642.301	19565.53
642.654	19572.99
643.007	19548.36
643.36	19534.12
643.713	19470.62
644.066	19624.06
644.419	19381.81
644.771	19310.17
645.124	19147.01
645.477	19118.99
645.83	19007.13
646.182	18955.83
646.535	18948.15
646.888	18905.44
647.24	18897.07
647.593	18943.4
647.945	18815.95
648.298	18823.63
648.65	18725.78
649.002	18650.3
649.355	18845.1
649.707	18717.87
650.059	18925.1
650.411	19069.5
650.763	19086.67
651.115	19271.3
651.467	19191.3
651.819	19245.99
652.171	19248.93
652.523	19224.97
652.875	19118.08
653.227	19183.62
653.578	19319.21
653.93	19309.49
654.282	19084.87
654.633	19144.52
654.985	19216.39
655.337	19245.09
655.688	19234.92
656.039	19322.37
656.391	19191.3
656.742	19222.94
657.094	19183.17
657.445	19211.64
657.796	19086.22
658.147	19211.19
658.498	19128.71
658.849	19234.01
659.2	19159.21
659.551	19100.91
659.902	19165.09
660.253	19213.9
660.604	19203.73
660.955	19104.53
661.306	19191.3
661.656	19259.1
662.007	19158.31
662.358	19162.83
662.708	19198.31
663.059	19186.33
663.409	19149.95
663.76	19257.74
664.11	19253.45
664.461	19237.86
664.811	19307.23
665.161	19220
665.511	19086
665.862	19268.36
666.212	19283.05
666.562	19311.75
666.912	19244.41
667.262	19186.33
667.612	19223.39
667.962	19226.33
668.312	19183.17
668.662	19380
669.011	19267.01
669.361	19208.93
669.711	19175.26
670.06	19131.42
670.41	19159.21
670.76	19154.92
671.109	19161.93
671.459	19198.53
671.808	19157.86
672.157	19208.48
672.507	18972.55
672.856	19112.89
673.205	19147.24
673.554	19124.64
673.904	19024.08
674.253	19170.06
674.602	19105.2
674.951	18788.83
675.3	18702.73
675.649	19082.15
675.998	18929.84
676.346	18894.36
676.695	19001.7
677.044	18832.67
677.393	18932.1
677.741	18934.81
678.09	18738.66
678.438	18902.27
678.787	18846.45
679.135	18908.6
679.484	18711.77
679.832	18715.16
680.181	18679
680.529	18701.82
680.877	18680.13
681.225	18608.72
681.573	18740.69
681.922	18539.57
682.27	18495.5
682.618	18485.79
682.966	18542.96
683.314	18503.64
683.661	18460.7
684.009	18359.01
684.357	18297.09
684.705	18241.5
685.053	18339.35
685.4	18252.34
685.748	18141.61
686.095	18116.3
686.443	18168.96
686.79	18151.56
687.138	18077.21
687.485	18072.69
687.832	18027.72
688.18	17952.69
688.527	17845.35
688.874	17846.25
689.221	17795.41
689.568	17723.09
689.915	17678.57
690.262	17727.16
690.609	17653.26
690.956	17578.01
691.303	17522.65
691.65	17462.76
691.997	17512.48
692.344	17364.68
692.69	17295.76
693.037	17253.05
693.383	17113.39
693.73	17222.09
694.077	17082.88
694.423	17047.4
694.769	17024.13
695.116	16974.19
695.462	16893.28
695.808	16853.29
696.155	16838.14
696.501	16761.99
696.847	16770.35
697.193	16550.47
697.539	16614.87
697.885	16444.93
698.231	16431.6
698.577	16396.8
698.923	16356.12
699.269	16268.44
699.614	16209.91
699.96	16188.44
700.306	16179.86
700.651	16106.86
700.997	16036.36
701.342	16064.38
701.688	15997.71
702.033	15935.12
702.379	15898.51
702.724	15781.22
703.069	15833.88
703.415	15652.19
703.76	15660.77
704.105	15565.64
704.45	15593.66
704.795	15408.8
705.14	15375.36
705.485	15478.63
705.83	15319.54
706.175	15313.44
706.52	15241.58
706.865	15254.46
707.209	15215.81
707.554	15089.94
707.899	15285.19
708.243	15047.91
708.588	15027.34
708.932	14928.82
709.277	14878.65
709.621	14913.22
709.966	14826.9
710.31	14852.21
710.654	14739.22
710.998	14727.92
711.342	14701.03
711.687	14679.78
712.031	14637.75
712.375	14522.5
712.719	14554.82
713.063	14517.98
713.407	14536.06
713.75	14564.76
714.094	14387.81
714.438	14430.52
714.782	14418.32
715.125	14342.62
715.469	14289.06
715.812	14259.91
716.156	14215.61
716.499	14291.09
716.843	14242.73
717.186	14117.99
717.53	14153.24
717.873	14179.01
718.216	14199.12
718.559	14018.33
718.902	13979.24
719.246	14010.42
719.589	13986.02
719.932	13899.92
720.275	13952.12
720.617	13922.52
720.96	13883.65
721.303	13861.5
721.646	13921.61
721.989	13782.18
722.331	13842.52
722.674	13765.68
723.016	13846.13
723.359	13794.84
723.701	13918.45
724.044	13785.34
724.386	13644.1
724.729	13720.94
725.071	13724.1
725.413	13750.32
725.755	13724.33
726.097	13676.87
726.439	13635.97
726.782	13622.18
727.124	13694.5
727.465	13608.17
727.807	13633.71
728.149	13539.02
728.491	13566.37
728.833	13636.2
729.175	13542.41
729.516	13576.54
729.858	13504.9
730.199	13435.3
730.541	13459.02
730.882	13565.24
731.224	13570.89
731.565	13415.18
731.906	13440.04
732.248	13424.45
732.589	13366.82
732.93	13388.74
733.271	13384.9
733.612	13400.72
733.953	13455.63
734.294	13391
734.635	13416.77
734.976	13420.16
735.317	13350.1
735.658	13380.16
735.999	13436.88
736.339	13313.94
736.68	13483.43
737.021	13378.57
737.361	13304.45
737.702	13477.33
738.042	13376.09
738.383	13373.6
738.723	13370.21
739.063	13355.75
739.404	13395.98
739.744	13362.08
740.084	13302.87
740.424	13464.45
740.764	13329.31
741.104	13396.43
741.444	13453.38
741.784	13448.63
742.124	13461.28
742.464	13482.07
742.804	13461.74
743.143	13466.93
743.483	13478.23
743.823	13522.98
744.162	13561.17
744.502	13583.09
744.841	13532.02
745.181	13646.59
745.52	13665.12
745.86	13625.12
746.199	13693.37
746.538	13689.3
746.877	13864.89
747.216	13824.89
747.556	13855.17
747.895	13842.29
748.234	13920.48
748.573	13994.83
748.911	13961.61
749.25	14073.92
749.589	14091.32
749.928	14226.46
750.267	14330.19
750.605	14274.37
750.944	14390.98
751.283	14348.94
751.621	14614.7
751.96	14521.82
752.298	14640.24
752.636	14749.61
752.975	14736.73
753.313	14880.23
753.651	14996.61
753.989	15099.66
754.327	15110.05
754.666	15124.74
755.004	15298.3
755.342	15518.86
755.679	15551.62
756.017	15599.31
756.355	15686.08
756.693	15881.11
