Data from hue_140_FLMS001491_00017.txt Node
Date: Tue Feb 07 16:55:29 GMT 2017
User: dcchb
Spectrometer: FLMS00149
Trigger mode: 0
Integration Time (sec): 2.000000E-2
Scans to average: 10
Electric dark correction enabled: true
Nonlinearity correction enabled: false
Boxcar width: 0
XAxis mode: Wavelengths
Number of Pixels in Spectrum: 2048
>>>>>Begin Spectral Data<<<<<
341.393	1.74
341.776	1.74
342.16	1.74
342.543	-69.9
342.927	-56.11
343.31	-79.84
343.693	-57.47
344.077	-87.07
344.46	-74.19
344.843	-46.17
345.226	-42.1
345.61	-30.58
345.993	-3.91
346.376	0.16
346.759	23.66
347.142	33.6
347.525	40.83
347.908	46.26
348.291	97.33
348.674	81.96
349.057	97.55
349.44	145.69
349.823	147.95
350.206	163.54
350.588	187.72
350.971	199.25
351.354	220.49
351.737	234.73
352.119	255.74
352.502	261.17
352.884	266.14
353.267	276.76
353.65	268.85
354.032	281.5
354.414	277.44
354.797	312.24
355.179	318.34
355.562	328.28
355.944	318.34
356.326	331.9
356.709	338.23
357.091	329.19
357.473	340.71
357.855	332.8
358.238	327.83
358.62	324.21
359.002	332.35
359.384	309.07
359.766	333.71
360.148	330.09
360.53	327.83
360.912	352.69
361.294	328.96
361.676	326.25
362.057	319.69
362.439	328.73
362.821	323.54
363.203	326.02
363.584	297.77
363.966	330.77
364.348	330.77
364.729	334.61
365.111	316.53
365.493	319.24
365.874	332.58
366.256	315.63
366.637	310.2
367.019	319.47
367.4	315.18
367.781	310.43
368.163	291.22
368.544	322.86
368.925	315.85
369.306	298.45
369.688	298.23
370.069	295.97
370.45	308.85
370.831	319.92
371.212	313.37
371.593	328.28
371.974	315.4
372.355	315.63
372.736	303.65
373.117	328.96
373.498	324.89
373.879	305.91
374.26	333.03
374.641	318.34
375.021	311.56
375.402	307.49
375.783	335.51
376.163	319.02
376.544	335.29
376.925	311.56
377.305	306.14
377.686	330.09
378.066	325.34
378.447	316.98
378.827	320.6
379.208	323.31
379.588	307.72
379.968	324.21
380.349	328.73
380.729	320.15
381.109	340.71
381.489	324.67
381.87	348.85
382.25	330.99
382.63	337.32
383.01	348.85
383.39	344.33
383.77	344.33
384.15	336.87
384.53	335.29
384.91	338.45
385.29	347.72
385.67	342.97
386.049	347.94
386.429	347.04
386.809	356.3
387.189	349.52
387.568	353.37
387.948	346.59
388.328	350.88
388.707	332.8
389.087	349.75
389.466	361.95
389.846	363.54
390.225	363.31
390.605	383.65
390.984	377.09
391.363	375.74
391.743	362.86
392.122	357.89
392.501	370.09
392.881	363.99
393.26	375.74
393.639	370.77
394.018	352.24
394.397	387.04
394.776	385.91
395.155	377.32
395.534	410.77
395.913	376.19
396.292	385.91
396.671	386.59
397.05	401.27
397.429	396.08
397.808	377.77
398.186	378.45
398.565	392.46
398.944	375.74
399.323	372.57
399.701	398.56
400.08	385.23
400.458	396.3
400.837	387.72
401.215	402.63
401.594	391.78
401.972	397.66
402.351	404.21
402.729	387.49
403.107	400.82
403.486	401.73
403.864	399.47
404.242	417.55
404.62	439.92
404.999	417.55
405.377	411.22
405.755	435.62
406.133	443.76
406.511	418
406.889	436.75
407.267	419.81
407.645	450.31
408.023	426.13
408.401	450.31
408.779	433.82
409.156	430.43
409.534	432.46
409.912	436.75
410.29	447.15
410.667	457.77
411.045	452.35
411.422	455.28
411.8	483.08
412.178	475.85
412.555	467.94
412.933	464.1
413.31	478.79
413.687	472.01
414.065	480.37
414.442	479.24
414.819	493.7
415.197	487.6
415.574	500.48
415.951	501.16
416.328	499.35
416.705	491.67
417.082	482.18
417.46	512.01
417.837	510.65
418.214	489.86
418.591	517.66
418.967	511.33
419.344	514.27
419.721	533.47
420.098	523.53
420.475	537.54
420.852	522.18
421.228	514.49
421.605	528.28
421.982	556.07
422.358	542.97
422.735	543.87
423.111	551.1
423.488	552.46
423.864	561.95
424.241	558.56
424.617	557.88
424.994	555.4
425.37	573.7
425.746	573.25
426.123	567.37
426.499	594.49
426.875	596.98
427.251	576.64
427.627	611.66
428.003	594.94
428.379	588.61
428.756	579.8
429.132	653.7
429.507	612.12
429.883	609.63
430.259	632.46
430.635	652.79
431.011	649.4
431.387	660.03
431.763	669.06
432.138	665.9
432.514	667.03
432.89	666.35
433.265	670.19
433.641	660.25
434.016	679.01
434.392	690.53
434.767	694.37
435.143	693.24
435.518	709.97
435.894	724.66
436.269	728.95
436.644	722.17
437.02	744.32
437.395	754.49
437.77	746.35
438.145	737.31
438.52	740.02
438.895	795.16
439.271	753.13
439.646	770.76
440.021	793.35
440.395	795.84
440.77	770.53
441.145	772.56
441.52	804.43
441.895	805.11
442.27	824.99
442.645	781.15
443.019	815.28
443.394	830.64
443.769	814.15
444.143	797.87
444.518	829.06
444.892	848.95
445.267	857.76
445.641	858.66
446.016	852.34
446.39	855.05
446.764	869.29
447.139	872.9
447.513	873.35
447.887	869.29
448.262	875.16
448.636	869.96
449.01	890.75
449.384	923.52
449.758	901.83
450.132	907.93
450.506	907.7
450.88	930.07
451.254	925.1
451.628	943.63
452.002	956.97
452.376	954.93
452.75	977.98
453.123	958.32
453.497	978.89
453.871	1000.13
454.244	1020.47
454.618	1003.07
454.992	1015.04
455.365	1039
455.739	1053.46
456.112	1061.82
456.486	1088.94
456.859	1060.69
457.232	1100.01
457.606	1088.49
457.979	1104.53
458.352	1140.92
458.725	1158.99
459.099	1167.81
459.472	1168.94
459.845	1183.18
460.218	1213
460.591	1205.1
460.964	1218.65
461.337	1235.83
461.71	1278.77
462.083	1284.19
462.456	1273.57
462.829	1285.77
463.201	1320.35
463.574	1310.86
463.947	1337.75
464.32	1355.37
464.692	1361.7
465.065	1406.22
465.438	1415.03
465.81	1438.31
466.183	1445.54
466.555	1510.85
466.928	1504.3
467.3	1518.31
467.672	1547.69
468.045	1568.25
468.417	1591.07
468.789	1617.74
469.161	1622.94
469.534	1642.82
469.906	1709.49
470.278	1732.54
470.65	1762.14
471.022	1804.63
471.394	1812.54
471.766	1870.16
472.138	1897.05
472.51	1942.48
472.882	1986.32
473.253	2031.51
473.625	2049.37
473.997	2069.93
474.369	2125.75
474.74	2171.85
475.112	2238.74
475.484	2281.23
475.855	2316.7
476.227	2360.55
476.598	2388.34
476.97	2467.89
477.341	2551.95
477.713	2600.54
478.084	2680.76
478.455	2725.73
478.827	2803.25
479.198	2891.6
479.569	2952.85
479.94	3045.05
480.311	3115.33
480.682	3191.71
481.053	3304.02
481.424	3359.39
481.795	3485.04
482.166	3577.91
482.537	3625.6
482.908	3758.7
483.279	3861.97
483.65	3944.91
484.021	4056.77
484.391	4170.67
484.762	4286.6
485.133	4351.91
485.503	4453.15
485.874	4613.14
486.244	4709.18
486.615	4816.07
486.985	4931.33
487.356	5095.84
487.726	5170.41
488.097	5391.2
488.467	5450.41
488.837	5577.64
489.207	5727.01
489.578	5873.45
489.948	5926.33
490.318	6112.09
490.688	6176.72
491.058	6369.93
491.428	6451.74
491.798	6643.37
492.168	6745.06
492.538	6874.1
492.908	7022.34
493.278	7194.09
493.648	7230.25
494.017	7366.06
494.387	7558.15
494.757	7691.7
495.126	7811.48
495.496	7897.12
495.866	8050.11
496.235	8088.3
496.605	8259.15
496.974	8398.13
497.344	8524.68
497.713	8599.25
498.082	8704.33
498.452	8827.04
498.821	9003.31
499.19	9039.69
499.559	9150.42
499.928	9260.25
500.298	9344.99
500.667	9452.34
501.036	9521.49
501.405	9662.95
501.774	9733.68
502.143	9820.69
502.512	9927.8
502.88	9985.88
503.249	10074.69
503.618	10153.11
503.987	10217.74
504.356	10323.73
504.724	10387.23
505.093	10431.52
505.462	10512.2
505.83	10638.29
506.199	10727.33
506.567	10819.31
506.936	10840.55
507.304	10991.05
507.672	11026.08
508.041	11095.68
508.409	11157.15
508.777	11271.27
509.145	11349.91
509.514	11349.24
509.882	11416.13
510.25	11466.07
510.618	11524.37
510.986	11564.6
511.354	11668.55
511.722	11749.22
512.09	11855.21
512.458	11897.7
512.826	11879.17
513.193	11906.73
513.561	11983.12
513.929	12061.53
514.297	12146.5
514.664	12240.06
515.032	12192.15
515.4	12322.32
515.767	12297.91
516.135	12301.53
516.502	12258.14
516.869	12513.05
517.237	12480.96
517.604	12481.18
517.972	12505.82
518.339	12566.6
518.706	12565.47
519.073	12598.02
519.44	12637.56
519.808	12722.31
520.175	12690.44
520.542	12793.49
520.909	12860.61
521.276	12737.9
521.643	12898.35
522.009	12966.82
522.376	13037.78
522.743	13053.6
523.11	13113.93
523.477	13168.17
523.843	13189.41
524.21	13266.7
524.577	13268.96
524.943	13279.35
525.31	13312.8
525.676	13363.19
526.043	13396.41
526.409	13455.85
526.776	13485.68
527.142	13470.54
527.508	13532
527.874	13541.95
528.241	13557.54
528.607	13534.71
528.973	13560.02
529.339	13489.52
529.705	13709.63
530.071	13673.92
530.437	13621.72
530.803	13642.06
531.169	13661.04
531.535	13608.16
531.901	13670.53
532.267	13633.24
532.632	13742.17
532.998	13703.75
533.364	13664.88
533.73	13683.64
534.095	13599.35
534.461	13652.45
534.826	13619.68
535.192	13685.22
535.557	13700.36
535.923	13651.1
536.288	13625.79
536.653	13589.4
537.019	13506.69
537.384	13501.04
537.749	13509.4
538.114	13460.59
538.479	13388.96
538.845	13422.85
539.21	13444.55
539.575	13431.67
539.94	13350.31
540.305	13421.05
540.67	13323.42
541.034	13257.43
541.399	13244.55
541.764	13240.26
542.129	13231.45
542.494	13222.18
542.858	13200.94
543.223	13172.69
543.587	13147.38
543.952	13083.88
544.316	13094.27
544.681	13016.08
545.045	12999.36
545.41	12952.13
545.774	12930.44
546.138	12869.87
546.503	12854.96
546.867	12792.36
547.231	12921.62
547.595	12895.41
547.959	12860.61
548.324	12751.01
548.688	12734.96
549.052	12742.19
549.416	12692.03
549.779	12669.2
550.143	12611.58
550.507	12612.93
550.871	12611.8
551.235	12545.81
551.599	12569.54
551.962	12506.95
552.326	12459.26
552.689	12570.45
553.053	12434.63
553.417	12404.12
553.78	12463.78
554.143	12385.14
554.507	12346.95
554.87	12385.14
555.234	12444.8
555.597	12337.68
555.96	12232.6
556.323	12320.51
556.686	12324.8
557.05	12319.38
557.413	12276.67
557.776	12283
558.139	12308.08
558.502	12245.71
558.865	12238.03
559.228	12414.52
559.59	12255.65
559.953	12219.95
560.316	12339.04
560.679	12325.71
561.041	12308.53
561.404	12379.94
561.767	12382.65
562.129	12296.1
562.492	12317.8
562.854	12299.49
563.217	12268.31
563.579	12342.2
563.941	12339.94
564.304	12294.07
564.666	12334.97
565.028	12352.37
565.39	12374.97
565.753	12407.74
566.115	12377.68
566.477	12367.06
566.839	12447.06
567.201	12400.06
567.563	12456.78
567.925	12462.65
568.287	12514.18
568.648	12448.19
569.01	12539.94
569.372	12560.5
569.734	12456.78
570.095	12537
570.457	12552.37
570.819	12631.24
571.18	12535.19
571.542	12604.12
571.903	12632.37
572.265	12647.96
572.626	12616.32
572.987	12555.08
573.349	12586.49
573.71	12611.8
574.071	12667.39
574.432	12796.43
574.794	12797.11
575.155	12677.11
575.516	12633.27
575.877	12733.15
576.238	12699.26
576.599	12769.09
576.96	12722.98
577.32	12789.65
577.681	12784.9
578.042	12799.59
578.403	12738.35
578.763	12739.26
579.124	12768.18
579.485	12852.92
579.845	12772.02
580.206	12763.44
580.566	12741.06
580.927	12746.03
581.287	12816.99
581.648	12813.83
582.008	12796.88
582.368	12690.67
582.728	12760.05
583.089	12766.15
583.449	12757.33
583.809	12782.87
584.169	12832.81
584.529	12709.65
584.889	12783.77
585.249	12737
585.609	12591.01
585.969	12699.71
586.329	12643.66
586.688	12714.4
587.048	12649.99
587.408	12622.42
587.768	12617.9
588.127	12657.22
588.487	12547.4
588.846	12666.71
589.206	12623.33
589.565	12632.14
589.925	12630.11
590.284	12648.64
590.643	12591.91
591.003	12657
591.362	12638.69
591.721	12551.46
592.08	12608.86
592.44	12511.24
592.799	12551.69
593.158	12579.71
593.517	12541.97
593.876	12570.67
594.235	12611.12
594.593	12594.17
594.952	12559.37
595.311	12470.34
595.67	12551.01
596.029	12558.47
596.387	12567.51
596.746	12524.57
597.104	12489.32
597.463	12495.42
597.822	12569.32
598.18	12379.94
598.538	12552.14
598.897	12523.44
599.255	12422.43
599.613	12566.38
599.972	12490.9
600.33	12590.11
600.688	12404.12
601.046	12534.74
601.404	12608.64
601.762	12550.79
602.12	12654.06
602.478	12514.4
602.836	12567.51
603.194	12487.74
603.552	12452.94
603.91	12499.71
604.268	12489.77
604.625	12420.85
604.983	12501.07
605.341	12445.7
605.698	12590.56
606.056	12524.57
606.413	12467.85
606.771	12569.09
607.128	12535.87
607.485	12521.63
607.843	12540.84
608.2	12580.16
608.557	12588.3
608.914	12560.28
609.272	12553.05
609.629	12595.3
609.986	12705.81
610.343	12590.78
610.7	12641.63
611.057	12620.84
611.414	12652.48
611.771	12641.63
612.127	12619.71
612.484	12681.86
612.841	12718.01
613.198	12679.82
613.554	12616.55
613.911	12722.98
614.267	12696.32
614.624	12703.78
614.98	12712.14
615.337	12811.57
615.693	12803.66
616.05	12760.95
616.406	12867.84
616.762	12832.81
617.118	12754.62
617.475	12774.73
617.831	12896.09
618.187	12844.34
618.543	12826.26
618.899	12920.49
619.255	12911.68
619.611	12870.33
619.967	12849.31
620.323	12924.56
620.678	12822.42
621.034	12755.07
621.39	12847.05
621.746	12871.23
622.101	12973.15
622.457	12857.67
622.812	12915.07
623.168	12973.83
623.523	12892.02
623.879	12940.38
624.234	12857.9
624.589	12866.94
624.945	12941.28
625.3	12860.83
625.655	12926.82
626.01	12905.8
626.365	12951.68
626.72	12903.32
627.075	12898.35
627.43	12948.29
627.785	12861.96
628.14	12882.3
628.495	12932.24
628.85	12885.01
629.205	12820.38
629.559	12997.33
629.914	12816.32
630.269	12887.73
630.623	12832.36
630.978	12727.28
631.332	12822.42
631.687	12832.36
632.041	12770.22
632.396	12843.89
632.75	12749.2
633.104	12806.37
633.459	12666.26
633.813	12746.71
634.167	12700.84
634.521	12735.64
634.875	12697.45
635.229	12692.03
635.583	12622.87
635.937	12619.71
636.291	12658.13
636.645	12573.38
636.999	12511.92
637.352	12619.94
637.706	12600.05
638.06	12577
638.413	12545.36
638.767	12420.17
639.121	12543.33
639.474	12461.75
639.828	12498.36
640.181	12476.44
640.534	12519.6
640.888	12437.79
641.241	12401.19
641.594	12394.63
641.947	12473.73
642.301	12418.13
642.654	12402.09
643.007	12353.95
643.36	12420.39
643.713	12331.13
644.066	12378.59
644.419	12339.04
644.771	12257.69
645.124	12164.13
645.477	12093.4
645.83	12131.81
646.182	11980.41
646.535	11980.41
646.888	11996.45
647.24	11983.12
647.593	12052.72
647.945	11951.48
648.298	11940.63
648.65	11972.27
649.002	11912.38
649.355	11899.73
649.707	11939.5
650.059	12005.04
650.411	12153.73
650.763	12110.57
651.115	12284.58
651.467	12218.14
651.819	12172.26
652.171	12214.98
652.523	12194.86
652.875	12188.99
653.227	12059.73
653.578	12180.4
653.93	12205.26
654.282	12168.42
654.633	12129.33
654.985	12154.86
655.337	12164.36
655.688	12173.17
656.039	12245.71
656.391	12104.24
656.742	12142.89
657.094	12139.72
657.445	12243.68
657.796	12274.63
658.147	12127.29
658.498	12189.44
658.849	12288.42
659.2	12212.04
659.551	12165.94
659.902	12241.64
660.253	12174.98
660.604	12149.44
660.955	12245.03
661.306	12185.15
661.656	12214.07
662.007	12236.9
662.358	12295.43
662.708	12190.34
663.059	12198.7
663.409	12165.71
663.76	12262.88
664.11	12311.24
664.461	12282.77
664.811	12222.43
665.161	12247.29
665.511	12150.12
665.862	12217.46
666.212	12204.58
666.562	12268.99
666.912	12183.56
667.262	12280.96
667.612	12325.03
667.962	12297.69
668.312	12328.19
668.662	12308.31
669.011	12220.63
669.361	12175.2
669.711	12256.56
670.06	12153.51
670.41	12134.3
670.76	12200.29
671.109	12220.85
671.459	12222.88
671.808	12232.15
672.157	12193.28
672.507	12219.72
672.856	12103.11
673.205	12202.55
673.554	12172.04
673.904	12121.19
674.253	12091.59
674.602	12085.71
674.951	11958.71
675.3	11963.23
675.649	12062.89
675.998	12071.48
676.346	12054.53
676.695	12134.75
677.044	12035.77
677.393	12043.91
677.741	12079.16
678.09	12005.49
678.438	12016.34
678.787	12068.09
679.135	12018.82
679.484	11901.09
679.832	11998.94
680.181	11937.47
680.529	11907.41
680.877	11895.66
681.225	11852.27
681.573	11910.8
681.922	11831.48
682.27	11751.26
682.618	11797.59
682.966	11791.03
683.314	11774.54
683.661	11727.53
684.009	11650.02
684.357	11670.36
684.705	11626.52
685.053	11662
685.4	11681.2
685.748	11584.94
686.095	11611.15
686.443	11460.42
686.79	11537.71
687.138	11500.87
687.485	11539.29
687.832	11492.28
688.18	11439.85
688.527	11351.95
688.874	11343.81
689.221	11348.33
689.568	11363.92
689.915	11356.01
690.262	11237.15
690.609	11199.63
690.956	11196.47
691.303	11069.24
691.65	11155.57
691.997	11094.33
692.344	11039.64
692.69	10900.89
693.037	11033.09
693.383	10869.47
693.73	10883.71
694.077	10812.3
694.423	10843.49
694.769	10777.73
695.116	10759.87
695.462	10700.21
695.808	10717.16
696.155	10721.46
696.501	10622.93
696.847	10648.69
697.193	10517.62
697.539	10592.42
697.885	10453.67
698.231	10428.13
698.577	10456.83
698.923	10374.8
699.269	10374.35
699.614	10272.43
699.96	10292.54
700.306	10221.58
700.651	10206.67
700.997	10106.78
701.342	10150.85
701.688	10063.85
702.033	10006.9
702.379	10062.49
702.724	10001.7
703.069	10016.16
703.415	9829.05
703.76	9908.14
704.105	9868.37
704.45	9902.49
704.795	9738.2
705.14	9763.74
705.485	9739.33
705.83	9675.83
706.175	9689.39
706.52	9702.73
706.865	9611.2
707.209	9623.86
707.554	9655.49
707.899	9567.36
708.243	9511.54
708.588	9561.49
708.932	9430.64
709.277	9437.65
709.621	9522.62
709.966	9368.72
710.31	9390.42
710.654	9305.45
710.998	9385.9
711.342	9378.44
711.687	9239.23
712.031	9277.88
712.375	9243.3
712.719	9176.64
713.063	9210.31
713.407	9221.16
713.75	9126.47
714.094	9156.07
714.438	9131.67
714.782	9156.07
715.125	9057.32
715.469	9147.49
715.812	9122.4
716.156	9054.83
716.499	8924.44
716.843	9046.92
717.186	9024.1
717.53	8992.91
717.873	8975.96
718.216	8977.77
718.559	8942.29
718.902	8945.23
719.246	8928.96
719.589	8915.18
719.932	8798.12
720.275	8838.12
720.617	8784.78
720.96	8810.77
721.303	8820.71
721.646	8847.83
721.989	8752.92
722.331	8814.16
722.674	8774.39
723.016	8799.47
723.359	8750.89
723.701	8763.09
724.044	8707.05
724.386	8730.32
724.729	8684.67
725.071	8661.4
725.413	8644
725.755	8684.9
726.097	8671.11
726.439	8670.21
726.782	8643.09
727.124	8668.85
727.465	8617.56
727.807	8591.57
728.149	8650.55
728.491	8600.61
728.833	8618.01
729.175	8566.94
729.516	8618.69
729.858	8647.39
730.199	8653.26
730.541	8563.55
730.882	8585.69
731.224	8568.97
731.565	8564.68
731.906	8565.13
732.248	8620.72
732.589	8543.66
732.93	8527.39
733.271	8609.42
733.612	8566.48
733.953	8532.81
734.294	8537.56
734.635	8554.51
734.976	8546.6
735.317	8553.6
735.658	8541.17
735.999	8538.01
736.339	8522.64
736.68	8574.39
737.021	8513.38
737.361	8515.19
737.702	8565.35
738.042	8501.17
738.383	8580.04
738.723	8584.56
739.063	8525.35
739.404	8599.93
739.744	8625.24
740.084	8561.06
740.424	8651.91
740.764	8641.74
741.104	8665.46
741.444	8611
741.784	8681.96
742.124	8686.71
742.464	8713.37
742.804	8682.19
743.143	8752.69
743.483	8761.51
743.823	8702.53
744.162	8778.46
744.502	8835.86
744.841	8774.39
745.181	8889.41
745.52	8889.87
745.86	8932.58
746.199	8952.01
746.538	8944.33
746.877	9053.93
747.216	9091.89
747.556	9087.83
747.895	9147.03
748.234	9156.3
748.573	9187.26
748.911	9247.14
749.25	9314.71
749.589	9323.75
749.928	9413.02
750.267	9487.14
750.605	9549.28
750.944	9687.36
751.283	9724.19
751.621	9822.72
751.96	9848.71
752.298	9910.86
752.636	10001.02
752.975	10060.68
753.313	10173
753.651	10266.78
753.989	10312.43
754.327	10459.77
754.666	10476.04
755.004	10628.8
755.342	10850.49
755.679	11027.89
756.017	11031.28
756.355	11274.21
756.693	11311.27
757.031	11399.18
757.368	11562.34
757.706	11732.5
758.044	11824.93
758.381	11965.94
758.719	12178.14
759.056	12427.4
759.394	12425.59
