Data from hue_340_FLMS001491_20.txt Node
Date: Mon Feb 06 15:42:22 GMT 2017
User: dcchb
Spectrometer: FLMS00149
Trigger mode: 0
Integration Time (sec): 2.000000E-2
Scans to average: 10
Electric dark correction enabled: true
Nonlinearity correction enabled: false
Boxcar width: 0
XAxis mode: Wavelengths
Number of Pixels in Spectrum: 2048
>>>>>Begin Spectral Data<<<<<
341.393	-6.5
341.776	-6.5
342.16	-6.5
342.543	-76.1
342.927	-62.77
343.31	-76.78
343.693	-89.21
344.077	-65.03
344.46	-72.94
344.843	-46.04
345.226	-27.29
345.61	-37.23
345.993	-16.67
346.376	2.99
346.759	14.75
347.142	31.92
347.525	43.67
347.908	63.33
348.291	86.61
348.674	88.42
349.057	99.49
349.44	117.34
349.823	139.49
350.206	161.41
350.588	193.72
350.971	204.8
351.354	212.71
351.737	228.07
352.119	242.31
352.502	245.93
352.884	276.43
353.267	262.87
353.65	279.15
354.032	287.51
354.414	297.9
354.797	313.27
355.179	327.73
355.562	309.88
355.944	310.1
356.326	325.25
356.709	329.54
357.091	328.18
357.473	326.83
357.855	338.13
358.238	332.25
358.62	321.86
359.002	334.06
359.384	309.43
359.766	330.22
360.148	316.43
360.53	323.66
360.912	346.94
361.294	319.6
361.676	336.09
362.057	318.92
362.439	322.08
362.821	322.99
363.203	312.59
363.584	339.93
363.966	311.69
364.348	321.86
364.729	310.78
365.111	287.28
365.493	320.5
365.874	314.4
366.256	306.49
366.637	302.42
367.019	287.05
367.4	304.23
367.781	325.25
368.163	309.43
368.544	307.85
368.925	300.39
369.306	310.1
369.688	319.6
370.069	301.74
370.45	300.61
370.831	325.7
371.212	305.13
371.593	318.24
371.974	317.11
372.355	325.47
372.736	301.29
373.117	298.58
373.498	311.46
373.879	327.28
374.26	292.48
374.641	320.73
375.021	302.42
375.402	327.05
375.783	290.67
376.163	304
376.544	318.92
376.925	326.38
377.305	312.82
377.686	311.69
378.066	310.56
378.447	321.86
378.827	320.95
379.208	328.41
379.588	330.67
379.968	314.62
380.349	326.38
380.729	315.53
381.109	341.97
381.489	336.77
381.87	311.91
382.25	339.26
382.63	341.52
383.01	324.34
383.39	340.39
383.77	331.12
384.15	324.79
384.53	336.09
384.91	342.65
385.29	331.8
385.67	338.8
386.049	348.97
386.429	345.81
386.809	325.02
387.189	351.46
387.568	360.05
387.948	340.16
388.328	332.25
388.707	331.12
389.087	353.27
389.466	337.9
389.846	348.97
390.225	346.71
390.605	356.21
390.984	368.18
391.363	342.87
391.743	337.9
392.122	351.69
392.501	346.71
392.881	363.21
393.26	349.65
393.639	358.24
394.018	365.24
394.397	358.01
394.776	347.62
395.155	351.01
395.534	369.09
395.913	371.35
396.292	371.8
396.671	381.29
397.05	390.55
397.429	393.72
397.808	366.37
398.186	383.55
398.565	374.06
398.944	375.87
399.323	379.48
399.701	376.77
400.08	376.32
400.458	401.18
400.837	383.55
401.215	395.07
401.594	403.44
401.972	389.42
402.351	383.55
402.729	412.93
403.107	397.56
403.486	376.77
403.864	393.04
404.242	398.46
404.62	398.69
404.999	407.73
405.377	412.02
405.755	398.46
406.133	416.32
406.511	418.35
406.889	420.61
407.267	412.7
407.645	409.99
408.023	414.96
408.401	432.14
408.779	418.12
409.156	416.77
409.534	416.09
409.912	435.3
410.29	438.01
410.667	448.18
411.045	450.67
411.422	468.74
411.8	469.65
412.178	462.42
412.555	462.87
412.933	464
413.31	479.37
413.687	490.89
414.065	478.91
414.442	480.5
414.819	489.99
415.197	475.98
415.574	497.22
415.951	505.13
416.328	507.39
416.705	510.78
417.082	510.33
417.46	499.03
417.837	525.92
418.214	525.24
418.591	553.71
418.967	530.21
419.344	529.31
419.721	549.65
420.098	527.27
420.475	547.84
420.852	541.96
421.228	565.69
421.605	577.89
421.982	557.78
422.358	584.9
422.735	560.72
423.111	560.04
423.488	576.09
423.864	601.62
424.241	583.77
424.617	602.3
424.994	612.47
425.37	611.34
425.746	615.86
426.123	608.63
426.499	620.15
426.875	599.36
427.251	616.76
427.627	640.94
428.003	616.99
428.379	635.29
428.756	657.21
429.132	635.07
429.507	666.71
429.883	661.51
430.259	652.24
430.635	656.54
431.011	686.59
431.387	699.7
431.763	719.81
432.138	672.36
432.514	704.9
432.89	705.57
433.265	720.04
433.641	732.69
434.016	732.24
434.392	741.05
434.767	751
435.143	742.41
435.518	734.5
435.894	768.4
436.269	770.21
436.644	776.53
437.02	814.5
437.395	778.79
437.77	797.55
438.145	804.33
438.52	800.49
438.895	826.02
439.271	805.23
439.646	834.38
440.021	836.64
440.395	812.01
440.77	829.19
441.145	830.09
441.52	876.19
441.895	865.34
442.27	861.05
442.645	859.02
443.019	855.85
443.394	842.29
443.769	877.55
444.143	846.81
444.518	883.88
444.892	877.32
445.267	881.39
445.641	898.56
446.016	899.69
446.39	897.43
446.764	921.16
447.139	915.74
447.513	901.28
447.887	917.09
448.262	927.26
448.636	920.26
449.01	948.51
449.384	920.48
449.758	951.44
450.132	932.46
450.506	957.55
450.88	949.18
451.254	961.84
451.628	949.41
452.002	973.59
452.376	981.27
452.75	963.65
453.123	998.22
453.497	1031.22
453.871	989.18
454.244	1017.66
454.618	1019.92
454.992	1025.11
455.365	1030.76
455.739	1041.61
456.112	1049.97
456.486	1062.4
456.859	1063.98
457.232	1060.59
457.606	1068.5
457.979	1064.44
458.352	1091.33
458.725	1101.5
459.099	1125.45
459.472	1131.78
459.845	1158.9
460.218	1160.7
460.591	1139.46
460.964	1163.64
461.337	1184.88
461.71	1183.08
462.083	1190.31
462.456	1196.86
462.829	1211.78
463.201	1229.63
463.574	1222.62
463.947	1258.78
464.32	1264.2
464.692	1248.84
465.065	1297.88
465.438	1273.02
465.81	1314.15
466.183	1305.33
466.555	1323.86
466.928	1342.39
467.3	1369.96
467.672	1373.81
468.045	1402.96
468.417	1407.93
468.789	1412.9
469.161	1434.37
469.534	1448.38
469.906	1470.98
470.278	1463.97
470.65	1478.66
471.022	1511.66
471.394	1490.64
471.766	1534.48
472.138	1556.63
472.51	1573.12
472.882	1618.09
473.253	1610.18
473.625	1660.35
473.997	1680.69
474.369	1660.8
474.74	1699.67
475.112	1725.43
475.484	1755.94
475.855	1773.8
476.227	1763.63
476.598	1807.92
476.97	1812.21
477.341	1856.96
477.713	1883.17
478.084	1919.33
478.455	1926.11
478.827	1977.41
479.198	2014.47
479.569	2069.15
479.94	2058.99
480.311	2086.1
480.682	2133.56
481.053	2171.3
481.424	2196.83
481.795	2210.62
482.166	2232.09
482.537	2237.29
482.908	2289.71
483.279	2352.54
483.65	2358.19
484.021	2360.22
484.391	2428.69
484.762	2465.53
485.133	2491.29
485.503	2520.44
485.874	2568.8
486.244	2581.68
486.615	2608.35
486.985	2641.57
487.356	2717.5
487.726	2745.97
488.097	2729.7
488.467	2819.64
488.837	2825.97
489.207	2861.68
489.578	2850.6
489.948	2928.12
490.318	2964.27
490.688	2978.74
491.058	3027.32
491.428	3038.39
491.798	3091.73
492.168	3085.63
492.538	3124.72
492.908	3168.56
493.278	3217.6
493.648	3223.47
494.017	3261.21
494.387	3280.42
494.757	3313.64
495.126	3318.84
495.496	3311.38
495.866	3359.74
496.235	3420.98
496.605	3462.56
496.974	3447.2
497.344	3495.56
497.713	3494.88
498.082	3511.83
498.452	3534.43
498.821	3548.21
499.19	3570.36
499.559	3598.61
499.928	3630.7
500.298	3646.51
500.667	3654.2
501.036	3646.97
501.405	3702.56
501.774	3712.28
502.143	3737.81
502.512	3752.27
502.88	3799.96
503.249	3793.18
503.618	3821.2
503.987	3849.45
504.356	3812.39
504.724	3852.84
505.093	3888.54
505.462	3866.17
505.83	3921.99
506.199	3922.67
506.567	3985.04
506.936	3961.53
507.304	3998.37
507.672	4003.12
508.041	4025.04
508.409	4018.26
508.777	4027.52
509.145	4095.77
509.514	4066.84
509.882	4107.29
510.25	4092.6
510.618	4145.48
510.986	4129.21
511.354	4115.88
511.722	4227.97
512.09	4216.22
512.458	4200.85
512.826	4253.05
513.193	4293.95
513.561	4248.98
513.929	4279.27
514.297	4352.71
514.664	4310.45
515.032	4306.61
515.4	4374.4
515.767	4357
516.135	4362.2
516.502	4400.84
516.869	4413.05
517.237	4375.76
517.604	4437.23
517.972	4428.19
518.339	4509.32
518.706	4476.32
519.073	4491.46
519.44	4464.8
519.808	4528.98
520.175	4507.73
520.542	4539.15
520.909	4570.56
521.276	4567.17
521.643	4652.82
522.009	4636.77
522.376	4660.72
522.743	4699.14
523.11	4684.91
523.477	4755.64
523.843	4752.02
524.21	4804.45
524.577	4799.7
524.943	4815.3
525.31	4823.88
525.676	4823.21
526.043	4880.15
526.409	4898.23
526.776	4964.22
527.142	4991.11
527.508	4978.68
527.874	5018.46
528.241	5003.77
528.607	5033.82
528.973	5090.09
529.339	5116.98
529.705	5112.01
530.071	5232.69
530.437	5178.68
530.803	5216.42
531.169	5259.35
531.535	5236.53
531.901	5250.99
532.267	5281.05
532.632	5300.48
532.998	5341.84
533.364	5351.78
533.73	5416.86
534.095	5397.65
534.461	5439.24
534.826	5437.65
535.192	5459.57
535.557	5597.65
535.923	5566.46
536.288	5590.87
536.653	5545.67
537.019	5593.81
537.384	5530.53
537.749	5609.4
538.114	5648.04
538.479	5660.25
538.845	5668.16
539.21	5669.51
539.575	5686.69
539.94	5769.62
540.305	5780.24
540.67	5764.65
541.034	5824.54
541.399	5810.3
541.764	5831.09
542.129	5860.92
542.494	5944.08
542.858	5938.43
543.223	5926.68
543.587	5958.54
543.952	6000.35
544.316	5990.18
544.681	6034.25
545.045	6079.67
545.41	6113.57
545.774	6101.59
546.138	6141.36
546.503	6121.93
546.867	6131.87
547.231	6218.42
547.595	6258.65
547.959	6271.3
548.324	6279.21
548.688	6242.83
549.052	6316.05
549.416	6321.47
549.779	6335.26
550.143	6364.41
550.507	6408.93
550.871	6455.71
551.235	6434.01
551.599	6492.99
551.962	6442.82
552.326	6472.88
552.689	6574.57
553.053	6497.29
553.417	6515.59
553.78	6665.64
554.143	6585.42
554.507	6579.54
554.87	6630.39
555.234	6695.7
555.597	6663.61
555.96	6697.06
556.323	6740.9
556.686	6737.05
557.05	6790.39
557.413	6806.88
557.776	6788.8
558.139	6808.01
558.502	6805.98
558.865	6848.01
559.228	6898.86
559.59	6878.97
559.953	6906.32
560.316	7027.22
560.679	7003.94
561.041	7026.54
561.404	7080.77
561.767	7092.98
562.129	7105.86
562.492	7138.63
562.854	7159.19
563.217	7157.38
563.579	7164.16
563.941	7225.86
564.304	7215.23
564.666	7271.05
565.028	7263.37
565.39	7331.84
565.753	7370.94
566.115	7302.01
566.477	7401.9
566.839	7435.34
567.201	7449.35
567.563	7447.32
567.925	7513.53
568.287	7460.2
568.648	7537.71
569.01	7554.66
569.372	7647.99
569.734	7593.53
570.095	7711.27
570.457	7744.49
570.819	7716.24
571.18	7752.17
571.542	7843.69
571.903	7811.6
572.265	7921.66
572.626	7850.02
572.987	7941.99
573.349	7970.92
573.71	8071.26
574.071	8103.12
574.432	8152.16
574.794	8234.19
575.155	8254.3
575.516	8270.35
575.877	8392.6
576.238	8450.91
576.599	8522.32
576.96	8481.19
577.32	8599.83
577.681	8654.52
578.042	8816.32
578.403	8819.94
578.763	8901.74
579.124	9023.32
579.485	9059.03
579.845	9168.18
580.206	9300.15
580.566	9415.85
580.927	9422.86
581.287	9626.02
581.648	9682.29
582.008	9899.68
582.368	9975.39
582.728	10122.5
583.089	10240.92
583.449	10339.9
583.809	10569.5
584.169	10660.57
584.529	10796.83
584.889	11069.14
585.249	11198.18
585.609	11305.3
585.969	11553.43
586.329	11728.56
586.688	11891.72
587.048	12084.26
587.408	12284.03
587.768	12503.46
588.127	12689.21
588.487	12894.41
588.846	13253.27
589.206	13420.72
589.565	13620.72
589.925	13902.06
590.284	14086.47
590.643	14405.1
591.003	14584.53
591.362	14935.48
591.721	15103.39
592.08	15320.11
592.44	15688.23
592.799	15966.42
593.158	16214.55
593.517	16444.82
593.876	16747.86
594.235	17011.36
594.593	17192.6
594.952	17621.51
595.311	17887.5
595.67	18129.98
596.029	18536.74
596.387	18779.9
596.746	19018.31
597.104	19265.76
597.463	19520.45
597.822	19866.43
598.18	20234.1
598.538	20366.75
598.897	20759.28
599.255	20825.95
599.613	21402.43
599.972	21522.43
600.33	21832.93
600.688	22007.84
601.046	22387.72
601.404	22736.18
601.762	22830.19
602.12	23276.28
602.478	23488.93
602.836	23767.57
603.194	23948.13
603.552	24089.37
603.91	24377.72
604.268	24688.45
604.625	24822.23
604.983	25226.96
605.341	25333.85
605.698	25718.48
606.056	25963.44
606.413	26240.04
606.771	26509.42
607.128	26724.1
607.485	26869.18
607.843	27017.88
608.2	27391.88
608.557	27723.85
608.914	27830.51
609.272	28043.84
609.629	28247.22
609.986	28525.86
610.343	28609.7
610.7	29000.42
611.057	29133.53
611.414	29308.89
611.771	29399.06
612.127	29695.55
612.484	29894.19
612.841	30120.39
613.198	30131.69
613.554	30417.79
613.911	30772.81
614.267	30839.47
614.624	30994.04
614.98	31185.68
615.337	31463.18
615.693	31562.62
616.05	31702.5
616.406	31905.66
616.762	31937.3
617.118	32007.58
617.475	32133.9
617.831	32350.17
618.187	32744.05
618.543	32811.17
618.899	33078.73
619.255	33007.55
619.611	33182.46
619.967	33341.33
620.323	33537.25
620.678	33531.38
621.034	33495.67
621.39	33729.57
621.746	33704.26
622.101	34211.13
622.457	33973.4
622.812	34112.83
623.168	34264.01
623.523	34347.18
623.879	34588.3
624.234	34350.79
624.589	34597.11
624.945	34751.69
625.3	34719.14
625.655	34876.65
626.01	35016.31
626.365	35122.52
626.72	35059.93
627.075	35062.19
627.43	35224.22
627.785	35111.9
628.14	35395.74
628.495	35464.89
628.85	35386.92
629.205	35318.68
629.559	35628.27
629.914	35548.95
630.269	35650.87
630.623	35553.47
630.978	35455.85
631.332	35548.5
631.687	35790.3
632.041	35681.38
632.396	35737.87
632.75	35719.57
633.104	35812
633.459	35758.44
633.813	35702.85
634.167	35734.94
634.521	35698.78
634.875	35869.62
635.229	35913.24
635.583	35694.49
635.937	35854.48
636.291	35670.76
636.645	35789.17
636.999	35710.08
637.352	35912.56
637.706	35750.75
638.06	35700.36
638.413	35890.41
638.767	35736.97
639.121	35753.92
639.474	35792.56
639.828	35659.68
640.181	35733.35
640.534	35759.34
640.888	35644.32
641.241	35656.29
641.594	35710.3
641.947	35760.7
642.301	35678.21
642.654	35694.94
643.007	35712.79
643.36	35693.36
643.713	35663.07
644.066	35738.1
644.419	35679.8
644.771	35451.1
645.124	35060.38
645.477	35035.07
645.83	34815.19
646.182	34813.6
646.535	34765.02
646.888	34750.1
647.24	34551.69
647.593	34756.66
647.945	34663.33
648.298	34631.24
648.65	34477.79
649.002	34492.03
649.355	34600.95
649.707	34571.58
650.059	34828.29
650.411	35053.15
650.763	35147.15
651.115	35556.86
651.467	35405
651.819	35516.41
652.171	35287.72
652.523	35237.55
652.875	35276.64
653.227	35189.87
653.578	35447.26
653.93	35255.17
654.282	35198
654.633	35068.06
654.985	35220.15
655.337	35171.79
655.688	35200.49
656.039	35334.72
656.391	34996.2
656.742	34911.68
657.094	35100.15
657.445	35280.71
657.796	35021.51
658.147	34995.07
658.498	34976.54
658.849	35043.65
659.2	35027.16
659.551	34959.14
659.902	35135.18
660.253	35075.07
660.604	35136.08
660.955	34960.72
661.306	35013.83
661.656	35014.05
662.007	35012.47
662.358	34983.54
662.708	34982.41
663.059	35007.95
663.409	34896.31
663.76	35110.77
664.11	35089.08
664.461	35059.93
664.811	35025.12
665.161	34928.18
665.511	34765.7
665.862	34854.96
666.212	35105.57
666.562	35074.39
666.912	34980.83
667.262	34935.41
667.612	35036.65
667.962	35019.7
668.312	34928.63
668.662	35047.72
669.011	34896.99
669.361	34931.57
669.711	34915.07
670.06	34725.02
670.41	34749.43
670.76	34831.23
671.109	35014.73
671.459	34810.44
671.808	34737.9
672.157	34759.37
672.507	34613.16
672.856	34631.46
673.205	34786.03
673.554	34780.38
673.904	34736.54
674.253	34844.79
674.602	34713.04
674.951	34215.88
675.3	34097.01
675.649	34619.26
675.998	34688.41
676.346	34547.62
676.695	34789.88
677.044	34420.17
677.393	34642.99
677.741	34586.49
678.09	34473.27
678.438	34368.19
678.787	34519.83
679.135	34405.48
679.484	34200.97
679.832	34443.9
680.181	34144.47
680.529	34381.3
680.877	34318.25
681.225	34222.89
681.573	34407.97
681.922	34061.53
682.27	33982.44
682.618	34026.73
682.966	34043.68
683.314	34096.56
683.661	34050.01
684.009	33762.33
684.357	33704.26
684.705	33674.43
685.053	33575.67
685.4	33688.21
685.748	33560.98
686.095	33569.34
686.443	33461.55
686.79	33383.59
687.138	33570.25
687.485	33346.07
687.832	33253.19
688.18	33396.24
688.527	33182.91
688.874	33284.83
689.221	33115.57
689.568	32900.89
689.915	32947.89
690.262	32935.91
690.609	32887.55
690.956	32632.19
691.303	32643.49
691.65	32511.07
691.997	32569.6
692.344	32276.27
692.69	32357.17
693.037	32422.03
693.383	32043.96
693.73	32317.4
694.077	32023.4
694.423	31980.91
694.769	31909.73
695.116	31903.17
695.462	31879.67
695.808	31691.43
696.155	31800.8
696.501	31460.47
696.847	31447.82
697.193	31354.26
697.539	31456.63
697.885	31209.41
698.231	31141.16
698.577	31156.53
698.923	30950.66
699.269	30964.67
699.614	30756.08
699.96	30661.17
700.306	30728.51
700.651	30571.68
700.997	30453.95
701.342	30512.25
701.688	30342.76
702.033	30340.73
702.379	30189.55
702.724	30142.54
703.069	30260.05
703.415	29862.77
703.76	29915.88
704.105	29799.27
704.45	29927.86
704.795	29629.11
705.14	29558.83
705.485	29618.03
705.83	29426.85
706.175	29564.48
706.52	29422.79
706.865	29333.3
707.209	29294.65
707.554	29284.94
707.899	29190.48
708.243	29101.21
708.588	29148.44
708.932	28841.56
709.277	28784.61
709.621	29028.67
709.966	28805.17
710.31	28865.29
710.654	28597.95
710.998	28521.34
711.342	28548.23
711.687	28522.47
712.031	28447.22
712.375	28217.39
712.719	28333.32
713.063	28292.42
713.407	28404.51
713.75	28072.31
714.094	28047.23
714.438	27977.63
714.782	27993.44
715.125	27893.56
715.469	28006.1
715.812	27813.56
716.156	27704.64
716.499	27702.38
716.843	27671.42
717.186	27486.34
717.53	27688.59
717.873	27691.76
718.216	27508.49
718.559	27455.61
718.902	27157.08
719.246	27341.71
719.589	27264.42
719.932	27084.54
720.275	27152.56
720.617	27096.52
720.96	26934.49
721.303	26996.18
721.646	27042.74
721.989	26932.46
722.331	26891.78
722.674	26842.74
723.016	26826.47
723.359	26765.45
723.701	26888.84
724.044	26652.46
724.386	26548.28
724.729	26655.17
725.071	26574.5
725.413	26526.82
725.755	26578.79
726.097	26422.19
726.439	26310.33
726.782	26305.81
727.124	26457.21
727.465	26158.69
727.807	26273.49
728.149	26217.45
728.491	26093.38
728.833	26213.15
729.175	26010.67
729.516	26005.47
729.858	25992.14
730.199	25952.14
730.541	25904.23
730.882	25884.8
731.224	25958.7
731.565	25790.11
731.906	25822.43
732.248	25771.13
732.589	25525.94
732.93	25629.44
733.271	25506.28
733.612	25556.9
733.953	25581.76
734.294	25407.3
734.635	25444.13
734.976	25441.87
735.317	25278.71
735.658	25366.4
735.999	25287.3
736.339	25199.62
736.68	25244.82
737.021	25186.06
737.361	25003.69
737.702	25238.04
738.042	25182.22
738.383	25069
738.723	25140.41
739.063	24984.48
739.404	24941.32
739.744	24873.98
740.084	24884.6
740.424	24804.38
740.764	24799.4
741.104	24940.64
741.444	24758.95
741.784	24645.28
742.124	24832.17
742.464	24694.32
742.804	24661.33
743.143	24543.59
743.483	24571.16
743.823	24512.86
744.162	24409.81
744.502	24454.55
744.841	24369.81
745.181	24481.67
745.52	24405.52
745.86	24302.92
746.199	24266.99
746.538	24377.04
746.877	24209.36
747.216	24195.8
747.556	24223.15
747.895	24164.39
748.234	24017.96
748.573	24002.14
748.911	24082.81
749.25	23994.91
749.589	23880.11
749.928	23912.65
750.267	24026.77
750.605	23759.66
750.944	23748.36
751.283	23754.23
751.621	23843.5
751.96	23697.06
752.298	23635.82
752.636	23556.5
752.975	23551.3
753.313	23511.3
753.651	23575.03
753.989	23384.3
754.327	23344.98
754.666	23285.55
755.004	23313.57
755.342	23299.56
755.679	23220.01
756.017	23128.04
756.355	23238.09
756.693	22949.96
757.031	23008.27
757.368	22896.4
757.706	22972.33
758.044	22869.74
758.381	22773.02
758.719	22844.2
759.056	22782.96
759.394	22659.12
759.731	22505.68
760.068	22454.16
760.405	22414.16
760.743	22392.91
