Data from hue_200_FLMS001491_00049.txt Node
Date: Tue Feb 07 16:43:21 GMT 2017
User: dcchb
Spectrometer: FLMS00149
Trigger mode: 0
Integration Time (sec): 2.000000E-2
Scans to average: 10
Electric dark correction enabled: true
Nonlinearity correction enabled: false
Boxcar width: 0
XAxis mode: Wavelengths
Number of Pixels in Spectrum: 2048
>>>>>Begin Spectral Data<<<<<
341.393	-18.22
341.776	-18.22
342.16	-18.22
342.543	-65
342.927	-78.33
343.31	-70.87
343.693	-72.46
344.077	-72.68
344.46	-50.31
344.843	-70.2
345.226	-30.2
345.61	-25.45
345.993	-16.19
346.376	-10.54
346.759	24.49
347.142	20.65
347.525	33.98
347.908	49.8
348.291	75.56
348.674	104.49
349.057	109.91
349.44	116.47
349.823	164.83
350.206	168.44
350.588	174.77
350.971	194.88
351.354	205.28
351.737	238.27
352.119	233.75
352.502	273.07
352.884	278.95
353.267	280.98
353.65	300.87
354.032	298.16
354.414	288.89
354.797	303.35
355.179	330.02
355.562	331.38
355.944	319.17
356.326	325.27
356.709	328.21
357.091	343.35
357.473	340.64
357.855	332.73
358.238	325.95
358.62	327.76
359.002	348.78
359.384	339.06
359.766	339.51
360.148	318.27
360.53	355.56
360.912	332.51
361.294	332.05
361.676	332.28
362.057	349
362.439	317.82
362.821	329.57
363.203	305.16
363.584	325.5
363.966	340.64
364.348	318.04
364.729	327.76
365.111	293.18
365.493	329.12
365.874	328.89
366.256	309.46
366.637	309.68
367.019	313.3
367.4	316.01
367.781	310.81
368.163	322.56
368.544	290.7
368.925	301.55
369.306	309.68
369.688	307.42
370.069	337.7
370.45	311.49
370.831	296.57
371.212	322.56
371.593	311.71
371.974	330.25
372.355	304.71
372.736	311.04
373.117	321.66
373.498	309.91
373.879	315.1
374.26	335.9
374.641	335.22
375.021	320.3
375.402	323.24
375.783	324.14
376.163	318.27
376.544	324.14
376.925	315.78
377.305	332.73
377.686	334.09
378.066	294.54
378.447	329.79
378.827	317.59
379.208	317.14
379.588	345.39
379.968	325.95
380.349	344.03
380.729	325.5
381.109	351.71
381.489	340.64
381.87	333.18
382.25	344.26
382.63	345.39
383.01	347.42
383.39	327.31
383.77	340.64
384.15	339.51
384.53	363.92
384.91	347.87
385.29	356.23
385.67	354.2
386.049	342
386.429	357.36
386.809	358.95
387.189	363.01
387.568	346.06
387.948	372.5
388.328	373.41
388.707	359.4
389.087	352.39
389.466	362.79
389.846	340.87
390.225	385.39
390.605	369.79
390.984	373.41
391.363	374.31
391.743	373.41
392.122	382.9
392.501	343.58
392.881	381.77
393.26	354.2
393.639	377.7
394.018	386.52
394.397	372.73
394.776	386.97
395.155	400.07
395.534	385.16
395.913	412.5
396.292	398.04
396.671	382.22
397.05	376.57
397.429	408.66
397.808	410.92
398.186	397.59
398.565	405.72
398.944	416.34
399.323	413.41
399.701	419.06
400.08	430.13
400.458	411.15
400.837	413.41
401.215	437.14
401.594	420.86
401.972	409.57
402.351	430.36
402.729	433.29
403.107	434.88
403.486	441.43
403.864	460.64
404.242	448.89
404.62	438.49
404.999	443.46
405.377	441.2
405.755	458.38
406.133	472.39
406.511	454.76
406.889	450.69
407.267	472.16
407.645	478.94
408.023	500.86
408.401	501.77
408.779	502.9
409.156	504.93
409.534	530.69
409.912	534.31
410.29	525.27
410.667	555.78
411.045	545.61
411.422	571.14
411.8	553.29
412.178	567.3
412.555	588.77
412.933	622.89
413.31	616.34
413.687	612.27
414.065	624.48
414.442	646.17
414.819	647.53
415.197	657.92
415.574	668.99
415.951	668.09
416.328	687.3
416.705	701.08
417.082	717.13
417.46	708.99
417.837	720.29
418.214	734.53
418.591	755.55
418.967	732.27
419.344	766.39
419.721	799.16
420.098	769.33
420.475	811.14
420.852	824.24
421.228	819.27
421.605	849.33
421.982	847.29
422.358	844.36
422.735	844.58
423.111	901.08
423.488	908.31
423.864	929.33
424.241	950.57
424.617	989.21
424.994	996.89
425.37	991.7
425.746	1019.94
426.123	1021.07
426.499	1040.06
426.875	1069.21
427.251	1086.16
427.627	1099.72
428.003	1095.2
428.379	1122.09
428.756	1124.8
429.132	1133.61
429.507	1127.74
429.883	1163.9
430.259	1200.28
430.635	1191.92
431.011	1195.53
431.387	1231.01
431.763	1248.87
432.138	1261.07
432.514	1281.86
432.89	1287.06
433.265	1319.82
433.641	1361.63
434.016	1381.97
434.392	1414.74
434.767	1447.5
435.143	1457.9
435.518	1475.98
435.894	1542.42
436.269	1525.47
436.644	1576.09
437.02	1581.51
437.395	1593.04
437.77	1652.47
438.145	1663.32
438.52	1720.27
438.895	1730.43
439.271	1784.22
439.646	1784.22
440.021	1785.12
440.395	1819.47
440.77	1819.7
441.145	1881.17
441.52	1903.54
441.895	1946.7
442.27	1913.93
442.645	1971.33
443.019	1998
443.394	1988.96
443.769	2044.32
444.143	2036.87
444.518	2070.09
444.892	2093.59
445.267	2091.78
445.641	2110.31
446.016	2126.36
446.39	2157.09
446.764	2167.71
447.139	2179.91
447.513	2217.88
447.887	2221.04
448.262	2235.28
448.636	2257.88
449.01	2278.89
449.384	2306.01
449.758	2337.88
450.132	2366.8
450.506	2342.62
450.88	2374.03
451.254	2345.79
451.628	2408.83
452.002	2455.61
452.376	2461.71
452.75	2492.67
453.123	2526.35
453.497	2559.11
453.871	2610.86
454.244	2678.43
454.618	2652.67
454.992	2697.64
455.365	2681.6
455.739	2751.65
456.112	2784.87
456.486	2791.88
456.859	2806.34
457.232	2883.4
457.606	2854.7
457.979	2880.24
458.352	2953.68
458.725	2996.39
459.099	3042.94
459.472	3050.4
459.845	3104.64
460.218	3185.09
460.591	3170.17
460.964	3168.81
461.337	3278.64
461.71	3303.05
462.083	3333.33
462.456	3358.19
462.829	3383.27
463.201	3406.77
463.574	3422.59
463.947	3461.01
464.32	3582.14
464.692	3573.1
465.065	3597.5
465.438	3682.93
465.81	3749.82
466.183	3722.47
466.555	3838.63
466.928	3849.48
467.3	3809.48
467.672	3922.02
468.045	3999.08
468.417	3972.86
468.789	4029.13
469.161	4110.94
469.534	4141.67
469.906	4225.28
470.278	4260.99
470.65	4341.89
471.022	4330.37
471.394	4487.65
471.766	4475.45
472.138	4566.52
472.51	4626.18
472.882	4689.9
473.253	4765.84
473.625	4800.64
473.997	4896.45
474.369	4893.06
474.74	5003.79
475.112	5107.75
475.484	5094.64
475.855	5277.69
476.227	5251.7
476.598	5357.68
476.97	5441.98
477.341	5561.07
477.713	5599.49
478.084	5634.06
478.455	5820.72
478.827	5854.17
479.198	5964.22
479.569	6062.3
479.94	6195.18
480.311	6207.38
480.682	6334.38
481.053	6446.02
481.424	6545.68
481.795	6523.98
482.166	6686.69
482.537	6717.2
482.908	6878.1
483.279	6941.37
483.65	7027.02
484.021	7187.01
484.391	7224.3
484.762	7361.93
485.133	7369.38
485.503	7474.24
485.874	7620
486.244	7677.85
486.615	7831.74
486.985	7952.42
487.356	7996.71
487.726	8074
488.097	8191.06
488.467	8232.86
488.837	8390.6
489.207	8501.78
489.578	8550.37
489.948	8586.98
490.318	8726.18
490.688	8768.22
491.058	8919.62
491.428	8958.95
491.798	9050.69
492.168	9203.01
492.538	9239.39
492.908	9248.88
493.278	9389.67
493.648	9414.3
494.017	9508.76
494.387	9553.28
494.757	9703.56
495.126	9680.73
495.496	9791.47
495.866	9762.31
496.235	9976.09
496.605	9943.78
496.974	9983.1
497.344	10035.98
497.713	10054.96
498.082	10133.6
498.452	10266.03
498.821	10269.42
499.19	10189.87
499.559	10281.62
499.928	10338.12
500.298	10400.94
500.667	10482.97
501.036	10466.7
501.405	10590.31
501.774	10492.69
502.143	10574.04
502.512	10637.77
502.88	10731.33
503.249	10724.77
503.618	10761.61
503.987	10782.85
504.356	10794.83
504.724	10855.62
505.093	10857.2
505.462	10851.32
505.83	10917.54
506.199	10951.44
506.567	11111.43
506.936	11006.35
507.304	11156.85
507.672	11098.1
508.041	11221.26
508.409	11153.46
508.777	11300.13
509.145	11315.95
509.514	11283.18
509.882	11317.3
510.25	11339.9
510.618	11385.77
510.986	11299.9
511.354	11413.57
511.722	11444.08
512.09	11533.57
512.458	11467.13
512.826	11572.89
513.193	11578.99
513.561	11622.6
513.929	11570.18
514.297	11663.05
514.664	11671.64
515.032	11727.23
515.4	11755.71
515.767	11704.18
516.135	11714.13
516.502	11629.61
516.869	11724.75
517.237	11808.59
517.604	11678.65
517.972	11748.25
518.339	11858.53
518.706	11857.63
519.073	11780.57
519.44	11787.57
519.808	11873.9
520.175	11857.63
520.542	11935.59
520.909	11879.32
521.276	11896.27
521.643	11861.69
522.009	11893.33
522.376	11981.01
522.743	11948.25
523.11	12013.78
523.477	12042.93
523.843	12046.55
524.21	12102.14
524.577	12077.73
524.943	12165.19
525.31	12131.97
525.676	12242.93
526.043	12173.1
526.409	12162.48
526.776	12232.76
527.142	12158.86
527.508	12186.21
527.874	12202.48
528.241	12189.14
528.607	12204.96
528.973	12194.79
529.339	12193.66
529.705	12192.31
530.071	12203.83
530.437	12156.6
530.803	12189.59
531.169	12176.94
531.535	12115.7
531.901	12074.34
532.267	12046.32
532.632	12074.57
532.998	12035.47
533.364	12046.55
533.73	11977.62
534.095	12088.35
534.461	11931.07
534.826	11927.45
535.192	11962.71
535.557	11928.36
535.923	11933.56
536.288	11865.76
536.653	11861.92
537.019	11704.86
537.384	11722.04
537.749	11727.91
538.114	11609.5
538.479	11681.81
538.845	11653.34
539.21	11588.93
539.575	11552.78
539.94	11494.25
540.305	11469.39
540.67	11448.15
541.034	11364.08
541.399	11391.42
541.764	11312.33
542.129	11341.93
542.494	11221.48
542.858	11224.87
543.223	11120.92
543.587	11176.06
543.952	11130.64
544.316	11062.84
544.681	11040.92
545.045	11074.37
545.41	10922.06
545.774	10921.38
546.138	10883.64
546.503	10808.16
546.867	10757.99
547.231	10768.16
547.595	10647.04
547.959	10647.71
548.324	10552.58
548.688	10595.51
549.052	10494.95
549.416	10442.75
549.779	10437.32
550.143	10432.58
550.507	10383.31
550.871	10410.21
551.235	10301.51
551.599	10304.9
551.962	10279.59
552.326	10237.56
552.689	10204.34
553.053	10155.75
553.417	10066.71
553.78	10170.66
554.143	10079.59
554.507	10033.04
554.87	9994.85
555.234	9999.37
555.597	9992.14
555.96	9966.15
556.323	9911.46
556.686	9872.59
557.05	9844.12
557.413	9826.04
557.776	9760.51
558.139	9834.63
558.502	9807.74
558.865	9706.72
559.228	9745.59
559.59	9751.69
559.953	9777.68
560.316	9791.92
560.679	9692.03
561.041	9694.07
561.404	9771.81
561.767	9691.58
562.129	9623.79
562.492	9685.71
562.854	9640.74
563.217	9583.56
563.579	9606.61
563.941	9645.03
564.304	9639.61
564.666	9663.11
565.028	9615.43
565.39	9661.07
565.753	9624.46
566.115	9647.51
566.477	9672.6
566.839	9638.93
567.201	9619.94
567.563	9664.24
567.925	9705.37
568.287	9714.18
568.648	9665.59
569.01	9599.15
569.372	9680.28
569.734	9658.36
570.095	9708.3
570.457	9725.93
570.819	9756.21
571.18	9687.74
571.542	9639.83
571.903	9709.66
572.265	9705.82
572.626	9661.07
572.987	9709.66
573.349	9690.68
573.71	9728.64
574.071	9721.64
574.432	9714.63
574.794	9788.98
575.155	9683.22
575.516	9675.76
575.877	9722.09
576.238	9719.6
576.599	9759.6
576.96	9711.24
577.32	9709.89
577.681	9742.88
578.042	9752.6
578.403	9738.81
578.763	9739.04
579.124	9739.04
579.485	9812.26
579.845	9719.38
580.206	9748.3
580.566	9710.79
580.927	9758.25
581.287	9792.37
581.648	9759.38
582.008	9791.92
582.368	9660.62
582.728	9749.43
583.089	9650.68
583.449	9738.36
583.809	9651.58
584.169	9757.12
584.529	9664.92
584.889	9691.36
585.249	9672.15
585.609	9616.78
585.969	9654.52
586.329	9656.1
586.688	9602.09
587.048	9591.02
587.408	9643.67
587.768	9617.91
588.127	9625.59
588.487	9588.99
588.846	9663.79
589.206	9546.5
589.565	9589.89
589.925	9662.2
590.284	9573.17
590.643	9544.92
591.003	9570
591.362	9567.97
591.721	9621.98
592.08	9541.53
592.44	9630.11
592.799	9616.78
593.158	9501.98
593.517	9584.01
593.876	9591.24
594.235	9520.74
594.593	9507.63
594.952	9483.23
595.311	9465.6
595.67	9478.03
596.029	9522.55
596.387	9515.99
596.746	9584.92
597.104	9529.55
597.463	9471.25
597.822	9515.31
598.18	9470.8
598.538	9452.04
598.897	9457.69
599.255	9470.57
599.613	9529.78
599.972	9447.29
600.33	9487.74
600.688	9436.67
601.046	9466.5
601.404	9512.83
601.762	9395.09
602.12	9497.69
602.478	9481.64
602.836	9497.01
603.194	9484.36
603.552	9474.64
603.91	9399.84
604.268	9460.17
604.625	9366.62
604.983	9455.66
605.341	9407.52
605.698	9416.56
606.056	9530.91
606.413	9456.56
606.771	9468.76
607.128	9478.25
607.485	9391.25
607.843	9468.08
608.2	9440.06
608.557	9501.98
608.914	9534.75
609.272	9570.91
609.629	9512.83
609.986	9570.23
610.343	9473.51
610.7	9568.19
611.057	9474.64
611.414	9495.43
611.771	9500.63
612.127	9479.61
612.484	9504.24
612.841	9589.89
613.198	9475.54
613.554	9510.34
613.911	9505.82
614.267	9511.7
614.624	9474.19
614.98	9564.13
615.337	9649.55
615.693	9603
616.05	9534.75
616.406	9608.19
616.762	9535.2
617.118	9518.48
617.475	9621.3
617.831	9542.88
618.187	9663.56
618.543	9615.65
618.899	9682.09
619.255	9645.03
619.611	9603
619.967	9652.94
620.323	9611.58
620.678	9607.52
621.034	9597.8
621.39	9564.13
621.746	9594.18
622.101	9691.81
622.457	9597.35
622.812	9577.46
623.168	9668.31
623.523	9685.48
623.879	9676.89
624.234	9595.76
624.589	9600.06
624.945	9548.53
625.3	9594.63
625.655	9589.66
626.01	9648.87
626.365	9576.78
626.72	9660.62
627.075	9593.28
627.43	9612.26
627.785	9526.16
628.14	9567.52
628.495	9564.35
628.85	9620.85
629.205	9546.73
629.559	9572.26
629.914	9541.75
630.269	9542.43
630.623	9521.42
630.978	9494.75
631.332	9533.17
631.687	9538.14
632.041	9499.95
632.396	9511.02
632.75	9412.49
633.104	9509.44
633.459	9421.53
633.813	9412.49
634.167	9435.32
634.521	9390.35
634.875	9484.81
635.229	9421.31
635.583	9375.66
635.937	9421.98
636.291	9333.85
636.645	9359.84
636.999	9276
637.352	9320.97
637.706	9329.78
638.06	9320.52
638.413	9320.52
638.767	9303.57
639.121	9254.53
639.474	9248.43
639.828	9207.98
640.181	9242.1
640.534	9190.13
640.888	9213.63
641.241	9212.27
641.594	9182.44
641.947	9228.09
642.301	9130.01
642.654	9180.63
643.007	9161.65
643.36	9168.21
643.713	9216.79
644.066	9153.74
644.419	9181.99
644.771	9033.75
645.124	9008.66
645.477	9004.14
645.83	9003.24
646.182	8851.6
646.535	8862
646.888	8908.1
647.24	8850.93
647.593	8902
647.945	8905.16
648.298	8826.75
648.65	8829.23
649.002	8791.04
649.355	8888.66
649.707	8882.79
650.059	8909.46
650.411	8942.9
650.763	8972.73
651.115	9057.02
651.467	9024.71
651.819	8988.77
652.171	9096.79
652.523	9008.89
652.875	9027.87
653.227	8914.2
653.578	9117.13
653.93	9081.43
654.282	9042.56
654.633	8944.48
654.985	9006.4
655.337	8993.29
655.688	9055.21
656.039	9099.51
656.391	8996.23
656.742	9048.43
657.094	9111.48
657.445	9066.06
657.796	9017.02
658.147	9058.6
658.498	9036.91
658.849	9075.1
659.2	9058.6
659.551	9026.29
659.902	9098.83
660.253	9140.86
660.604	9132.95
660.955	9006.18
661.306	9113.52
661.656	9104.03
662.007	9097.92
662.358	9051.82
662.708	9135.44
663.059	9153.52
663.409	9063.12
663.76	9149.9
664.11	9134.76
664.461	9134.99
664.811	9122.56
665.161	9113.97
665.511	9132.05
665.862	9183.8
666.212	9178.6
666.562	9152.39
666.912	9116
667.262	9177.24
667.612	9118.49
667.962	9122.78
668.312	9112.84
668.662	9138.6
669.011	9127.98
669.361	9103.8
669.711	9145.38
670.06	9111.26
670.41	9071.48
670.76	9145.83
671.109	9144.48
671.459	9115.55
671.808	9066.51
672.157	9111.94
672.507	9090.47
672.856	9101.54
673.205	9094.53
673.554	9120.3
673.904	9030.13
674.253	9107.87
674.602	9037.81
674.951	8937.48
675.3	8925.27
675.649	9028.77
675.998	8972.5
676.346	8996.46
676.695	8977.02
677.044	8968.66
677.393	8935.67
677.741	8983.58
678.09	8933.64
678.438	8850.25
678.787	8927.76
679.135	8943.58
679.484	8878.5
679.832	8886.86
680.181	8820.19
680.529	8916.91
680.877	8832.85
681.225	8827.65
681.573	8851.6
681.922	8789.01
682.27	8723.47
682.618	8745.39
682.966	8673.08
683.314	8733.64
683.661	8775.45
684.009	8684.6
684.357	8665.62
684.705	8588.33
685.053	8634.43
685.4	8621.33
685.748	8596.02
686.095	8521.22
686.443	8513.31
686.79	8521.22
687.138	8545.4
687.485	8508.34
687.832	8459.3
688.18	8476.02
688.527	8353.31
688.874	8419.75
689.221	8390.37
689.568	8385.63
689.915	8323.03
690.262	8372.52
690.609	8304.05
690.956	8283.26
691.303	8334.78
691.65	8191.06
691.997	8203.71
692.344	8198.51
692.69	8132.53
693.037	8146.09
693.383	8118.06
693.73	8069.48
694.077	8043.04
694.423	7983.6
694.769	8011.63
695.116	7939.09
695.462	7908.8
695.808	7864.28
696.155	7883.95
696.501	7820.9
696.847	7846.66
697.193	7695.7
697.539	7779.99
697.885	7723.27
698.231	7620.68
698.577	7682.37
698.923	7658.64
699.269	7580.22
699.614	7566.67
699.96	7467.46
700.306	7499.1
700.651	7466.56
700.997	7464.52
701.342	7395.6
701.688	7406.22
702.033	7364.41
702.379	7371.42
702.724	7350.17
703.069	7312.43
703.415	7210.06
703.76	7202.83
704.105	7232.44
704.45	7187.92
704.795	7142.5
705.14	7113.57
705.485	7149.5
705.83	7083.06
706.175	7118.32
706.52	7112.89
706.865	7063.4
707.209	7020.24
707.554	6970.07
707.899	7001.48
708.243	6923.29
708.588	6949.51
708.932	6866.12
709.277	6866.8
709.621	6884.88
709.966	6799.45
710.31	6814.59
710.654	6810.08
710.998	6847.59
711.342	6802.84
711.687	6754.48
712.031	6675.39
712.375	6676.52
712.719	6694.37
713.063	6691.66
713.407	6807.59
713.75	6654.83
714.094	6685.33
714.438	6660.7
714.782	6670.42
715.125	6608.95
715.469	6608.95
715.812	6528.27
716.156	6559.46
716.499	6582.51
716.843	6536.64
717.186	6579.57
717.53	6572.57
717.873	6494.83
718.216	6509.29
718.559	6478.11
718.902	6533.47
719.246	6490.54
719.589	6493.25
719.932	6480.82
720.275	6509.07
720.617	6464.77
720.96	6446.69
721.303	6455.06
721.646	6449.86
721.989	6362.18
722.331	6445.56
722.674	6394.27
723.016	6390.43
723.359	6429.29
723.701	6379.58
724.044	6371.44
724.386	6353.82
724.729	6383.65
725.071	6314.27
725.413	6368.73
725.755	6354.72
726.097	6307.49
726.439	6323.99
726.782	6319.47
727.124	6348.84
727.465	6295.06
727.807	6308.85
728.149	6344.55
728.491	6304.55
728.833	6334.83
729.175	6310.2
729.516	6297.09
729.858	6312.91
730.199	6291.67
730.541	6289.64
730.882	6307.04
731.224	6277.43
731.565	6260.49
731.906	6257.77
732.248	6293.03
732.589	6283.31
732.93	6243.31
733.271	6266.81
733.612	6272.24
733.953	6329.64
734.294	6286.25
734.635	6302.74
734.976	6332.35
735.317	6269.3
735.658	6297.32
735.999	6304.78
736.339	6285.57
736.68	6346.81
737.021	6324.89
737.361	6270.65
737.702	6321.95
738.042	6354.27
738.383	6315.17
738.723	6353.82
739.063	6325.79
739.404	6354.95
739.744	6368.28
740.084	6409.41
740.424	6383.87
740.764	6386.13
741.104	6430.65
741.444	6459.35
741.784	6484.21
742.124	6482.17
742.464	6525.79
742.804	6492.12
743.143	6479.24
743.483	6589.06
743.823	6556.07
744.162	6566.69
744.502	6611.89
744.841	6637.42
745.181	6687.14
745.52	6652.79
745.86	6732.56
746.199	6745.67
746.538	6746.8
746.877	6854.37
747.216	6924.42
747.556	6916.74
747.895	6956.06
748.234	6968.49
748.573	7013.01
748.911	7119.67
749.25	7212.32
749.589	7204.64
749.928	7290.97
750.267	7382.04
750.605	7400.12
750.944	7528.7
751.283	7495.03
751.621	7658.64
751.96	7768.92
752.298	7826.55
752.636	7951.06
752.975	7964.62
753.313	8078.06
753.651	8191.51
753.989	8297.04
754.327	8377.72
754.666	8464.04
755.004	8642.8
755.342	8784.26
755.679	8920.08
756.017	8985.84
756.355	9205.49
756.693	9308.31
757.031	9504.69
757.368	9581.08
757.706	9645.48
758.044	9810.9
758.381	10025.36
758.719	10210.21
759.056	10322.3
759.394	10511.9
759.731	10606.36
760.068	10830.31
760.405	10922.96
760.743	11049.74
761.08	11275.49
761.417	11416.28
761.754	11590.06
762.091	11777.18
762.428	11972.43
762.765	12066.66
763.102	12335.81
763.438	12491.28
763.775	12604.73
764.112	12905.73
764.449	13061.21
764.785	13122.23
765.122	13256.91
765.458	13416.23
765.795	13666.39
766.131	13790
