Data from hue_70_FLMS001491_44.txt Node
Date: Mon Feb 06 15:20:57 GMT 2017
User: dcchb
Spectrometer: FLMS00149
Trigger mode: 0
Integration Time (sec): 2.000000E-2
Scans to average: 10
Electric dark correction enabled: true
Nonlinearity correction enabled: false
Boxcar width: 0
XAxis mode: Wavelengths
Number of Pixels in Spectrum: 2048
>>>>>Begin Spectral Data<<<<<
341.393	5.66
341.776	5.66
342.16	5.66
342.543	-37.95
342.927	-40.66
343.31	-62.81
343.693	-65.75
344.077	-77.95
344.46	-69.36
344.843	-48.35
345.226	-37.72
345.61	-35.92
345.993	-12.19
346.376	-8.57
346.759	-16.03
347.142	35.95
347.525	45.89
347.908	74.36
348.291	77.75
348.674	80.01
349.057	120.69
349.44	117.53
349.823	147.35
350.206	169.73
350.588	212.66
350.971	217.64
351.354	216.28
351.737	228.71
352.119	258.31
352.502	261.02
352.884	268.71
353.267	289.5
353.65	282.94
354.032	272.55
354.414	305.99
354.797	295.37
355.179	326.79
355.562	313.9
355.944	333.34
356.326	336.28
356.709	324.3
357.091	341.93
357.473	336.05
357.855	323.62
358.238	352.55
358.62	353.23
359.002	353.68
359.384	357.74
359.766	351.64
360.148	335.15
360.53	328.14
360.912	319.1
361.294	355.94
361.676	353
362.057	327.46
362.439	328.37
362.821	332.89
363.203	336.95
363.584	332.21
363.966	315.71
364.348	332.21
364.729	331.76
365.111	307.8
365.493	321.36
365.874	322.04
366.256	337.86
366.637	327.01
367.019	321.36
367.4	315.71
367.781	307.12
368.163	314.81
368.544	312.77
368.925	308.48
369.306	317.75
369.688	312.32
370.069	318.65
370.45	316.16
370.831	320.91
371.212	320.68
371.593	313.68
371.974	302.61
372.355	316.39
372.736	325.66
373.117	344.86
373.498	316.62
373.879	325.88
374.26	309.84
374.641	315.26
375.021	293.11
375.402	325.2
375.783	319.55
376.163	310.51
376.544	323.85
376.925	320.23
377.305	318.2
377.686	319.78
378.066	332.21
378.447	318.42
378.827	334.69
379.208	339.44
379.588	354.58
379.968	310.29
380.349	319.33
380.729	334.69
381.109	326.11
381.489	337.86
381.87	337.41
382.25	340.57
382.63	331.08
383.01	365.65
383.39	338.76
383.77	334.47
384.15	340.57
384.53	340.57
384.91	341.25
385.29	340.57
385.67	353.9
386.049	336.73
386.429	360
386.809	339.21
387.189	350.74
387.568	330.85
387.948	335.37
388.328	353.9
388.707	369.5
389.087	350.29
389.466	350.29
389.846	367.01
390.225	373.34
390.605	360.68
390.984	344.86
391.363	358.65
391.743	353.45
392.122	357.29
392.501	379.44
392.881	353
393.26	357.97
393.639	375.15
394.018	373.11
394.397	343.96
394.776	357.07
395.155	362.26
395.534	376.5
395.913	379.44
396.292	370.4
396.671	385.09
397.05	388.48
397.429	386.44
397.808	375.6
398.186	392.55
398.565	370.17
398.944	376.95
399.323	396.84
399.701	369.95
400.08	381.47
400.458	377.18
400.837	396.39
401.215	383.73
401.594	424.64
401.972	395.26
402.351	402.94
402.729	387.35
403.107	376.95
403.486	392.32
403.864	396.84
404.242	397.52
404.62	406.78
404.999	393.68
405.377	413.56
405.755	393.45
406.133	398.2
406.511	394.58
406.889	419.89
407.267	424.86
407.645	409.27
408.023	418.31
408.401	416.27
408.779	430.96
409.156	429.61
409.534	437.52
409.912	410.4
410.29	425.54
410.667	444.97
411.045	438.19
411.422	453.56
411.8	449.95
412.178	439.78
412.555	468.48
412.933	442.04
413.31	452.88
413.687	470.74
414.065	440.45
414.442	462.37
414.819	475.93
415.197	481.58
415.574	451.08
415.951	464.41
416.328	468.02
416.705	472.77
417.082	461.02
417.46	466.89
417.837	475.93
418.214	485.2
418.591	486.33
418.967	502.83
419.344	495.14
419.721	492.66
420.098	489.04
420.475	512.32
420.852	491.75
421.228	507.35
421.605	479.1
421.982	504.41
422.358	527.68
422.735	498.53
423.111	513.67
423.488	516.16
423.864	507.12
424.241	536.72
424.617	521.13
424.994	527.91
425.37	504.63
425.746	544.41
426.123	552.77
426.499	538.53
426.875	548.7
427.251	547.57
427.627	558.19
428.003	562.71
428.379	553.45
428.756	569.04
429.132	580.79
429.507	579.66
429.883	575.59
430.259	576.27
430.635	584.41
431.011	588.47
431.387	610.85
431.763	590.06
432.138	597.06
432.514	604.29
432.89	599.32
433.265	606.1
433.641	621.01
434.016	610.39
434.392	623.27
434.767	616.95
435.143	645.19
435.518	656.04
435.894	642.94
436.269	653.56
436.644	629.6
437.02	671.63
437.395	661.69
437.77	679.77
438.145	687.68
438.52	695.14
438.895	674.12
439.271	692.2
439.646	684.52
440.021	707.11
440.395	704.63
440.77	696.72
441.145	710.28
441.52	709.6
441.895	703.27
442.27	740.11
442.645	724.97
443.019	724.97
443.394	719.54
443.769	742.82
444.143	730.16
444.518	739.66
444.892	756.38
445.267	769.49
445.641	741.69
446.016	764.29
446.39	767.23
446.764	793.21
447.139	789.82
447.513	770.62
447.887	794.8
448.262	765.64
448.636	781.24
449.01	790.05
449.384	804.96
449.758	790.5
450.132	803.38
450.506	807.68
450.88	828.47
451.254	808.13
451.628	844.06
452.002	810.16
452.376	843.61
452.75	863.95
453.123	854.23
453.497	852.42
453.871	886.54
454.244	863.49
454.618	876.83
454.992	905.3
455.365	900.56
455.739	929.03
456.112	918.63
456.486	927.67
456.859	938.97
457.232	941.68
457.606	960.44
457.979	939.88
458.352	968.35
458.725	988.91
459.099	1002.93
459.472	1020.33
459.845	1013.09
460.218	1042.47
460.591	1033.43
460.964	1034.56
461.337	1068.23
461.71	1089.03
462.083	1085.18
462.456	1103.94
462.829	1098.74
463.201	1130.61
463.574	1124.96
463.947	1157.27
464.32	1172.19
464.692	1199.08
465.065	1213.54
465.438	1238.4
465.81	1221.45
466.183	1248.34
466.555	1257.38
466.928	1293.09
467.3	1302.35
467.672	1310.71
468.045	1339.41
468.417	1366.53
468.789	1355.01
469.161	1386.87
469.534	1393.88
469.906	1446.3
470.278	1466.64
470.65	1485.17
471.022	1522.91
471.394	1547.32
471.766	1586.64
472.138	1590.71
472.51	1605.85
472.882	1670.48
473.253	1681.55
473.625	1727.2
473.997	1777.37
474.369	1844.94
474.74	1853.07
475.112	1879.06
475.484	1911.15
475.855	1990.92
476.227	2018.72
476.598	2070.92
476.97	2116.57
477.341	2177.58
477.713	2223.01
478.084	2272.5
478.455	2319.28
478.827	2393.17
479.198	2501.42
479.569	2517.24
479.94	2621.64
480.311	2669.77
480.682	2754.52
481.053	2829.09
481.424	2935.98
481.795	2996.77
482.166	3078.58
482.537	3113.38
482.908	3215.52
483.279	3285.8
483.65	3422.97
484.021	3537.1
484.391	3638.34
484.762	3752.91
485.133	3791.1
485.503	3957.65
485.874	4053.47
486.244	4137.76
486.615	4265.44
486.985	4359.9
487.356	4483.29
487.726	4561.25
488.097	4759.44
488.467	4886.89
488.837	4968.47
489.207	5062.48
489.578	5201.23
489.948	5371.62
490.318	5490.49
490.688	5591.05
491.058	5774.33
491.428	5874.44
491.798	6022.45
492.168	6211.15
492.538	6254.31
492.908	6465.83
493.278	6607.3
493.648	6682.1
494.017	6869.44
494.387	7047.06
494.757	7136.55
495.126	7286.6
495.496	7341.06
495.866	7517.33
496.235	7720.49
496.605	7786.93
496.974	7970.43
497.344	8142.4
497.713	8201.61
498.082	8415.61
498.452	8472.56
498.821	8633.69
499.19	8643.85
499.559	8874.58
499.928	9045.88
500.298	9136.72
500.667	9273.22
501.036	9294.68
501.405	9515.02
501.774	9598.18
502.143	9652.64
502.512	9820.77
502.88	9964.72
503.249	10035
503.618	10249.01
503.987	10345.28
504.356	10363.13
504.724	10572.62
505.093	10596.12
505.462	10724.48
505.83	10831.59
506.199	10973.74
506.567	11156.1
506.936	11187.06
507.304	11381.41
507.672	11431.35
508.041	11600.16
508.409	11705.7
508.777	11876.31
509.145	11970.09
509.514	11993.82
509.882	12108.62
510.25	12224.78
510.618	12359.24
510.986	12401.5
511.354	12509.97
511.722	12702.28
512.09	12848.94
512.458	12813.24
512.826	12951.99
513.193	13049.61
513.561	13012.78
513.929	13124.64
514.297	13358.98
514.664	13490.28
515.032	13515.82
515.4	13590.17
515.767	13680.56
516.135	13766.43
516.502	13746.32
516.869	13982.7
517.237	14064.5
517.604	13998.52
517.972	14266.76
518.339	14293.65
518.706	14360.99
519.073	14395.12
519.44	14530.71
519.808	14650.93
520.175	14650.02
520.542	14909.45
520.909	14944.93
521.276	14937.47
521.643	15125.27
522.009	15211.82
522.376	15341.76
522.743	15277.13
523.11	15584.01
523.477	15665.82
523.843	15763.67
524.21	15866.94
524.577	16047.28
524.943	16042.76
525.31	16124.11
525.676	16143.32
526.043	16285.46
526.409	16354.39
526.776	16582.63
527.142	16614.72
527.508	16670.08
527.874	16762.29
528.241	16742.17
528.607	16826.69
528.973	16999.57
529.339	16982.62
529.705	17059.68
530.071	17223.74
530.437	17289.73
530.803	17322.95
531.169	17450.18
531.535	17355.49
531.901	17363.85
532.267	17608.59
532.632	17609.95
532.998	17587.12
533.364	17640.68
533.73	17656.27
534.095	17805.65
534.461	17773.33
534.826	17769.49
535.192	17992.99
535.557	17952.76
535.923	17870.96
536.288	18075.47
536.653	18122.7
537.019	18072.31
537.384	18098.52
537.749	18108.69
538.114	18212.87
538.479	18133.55
538.845	18214.9
539.21	18174.45
539.575	18258.74
539.94	18291.74
540.305	18384.39
540.67	18289.7
541.034	18294.67
541.399	18404.5
541.764	18419.64
542.129	18439.53
542.494	18477.95
542.858	18453.09
543.223	18428.68
543.587	18599.3
543.952	18584.16
544.316	18564.72
544.681	18483.14
545.045	18566.98
545.41	18637.72
545.774	18666.64
546.138	18750.71
546.503	18672.74
546.867	18672.52
547.231	18783.7
547.595	18685.62
547.959	18788.67
548.324	18859.86
548.688	18803.81
549.052	18830.93
549.416	18799.75
549.779	18855.34
550.143	18879.29
550.507	18964.71
550.871	18942.79
551.235	19011.94
551.599	19042.45
551.962	19025.5
552.326	19000.64
552.689	19142.56
553.053	19101.43
553.417	19012.17
553.78	19266.4
554.143	19234.08
554.507	19192.5
554.87	19219.4
555.234	19326.96
555.597	19270.24
555.96	19330.58
556.323	19364.25
556.686	19380.07
557.05	19448.77
557.413	19422.33
557.776	19561.53
558.139	19490.58
558.502	19634.75
558.865	19658.03
559.228	19763.34
559.59	19678.59
559.953	19709.78
560.316	19947.51
560.679	19855.09
561.041	19942.99
561.404	19995.19
561.767	20093.05
562.129	19976.21
562.492	20220.95
562.854	20188.41
563.217	20127.17
563.579	20214.62
563.941	20323.55
564.304	20337.78
564.666	20440.61
565.028	20421.85
565.39	20594.05
565.753	20681.28
566.115	20632.47
566.477	20739.36
566.839	20742.75
567.201	20895.51
567.563	20837.43
567.925	20948.39
568.287	21004.89
568.648	20973.25
569.01	21042.17
569.372	21181.15
569.734	21142.74
570.095	21186.12
570.457	21331.66
570.819	21287.14
571.18	21324.2
571.542	21390.19
571.903	21451.2
572.265	21566.9
572.626	21645.09
572.987	21610.52
573.349	21535.72
573.71	21743.4
574.071	21686.68
574.432	21682.83
574.794	21914.47
575.155	21803.28
575.516	21828.14
575.877	21879.21
576.238	21968.25
576.599	22040.79
576.96	22005.54
577.32	21998.98
577.681	22134.57
578.042	22180.45
578.403	22135.03
578.763	22201.24
579.124	22232.88
579.485	22259.09
579.845	22433.32
580.206	22252.99
580.566	22210.05
580.927	22176.38
581.287	22299.54
581.648	22245.98
582.008	22345.42
582.368	22263.16
582.728	22340.9
583.089	22320.33
583.449	22286.66
583.809	22429.71
584.169	22373.66
584.529	22377.05
584.889	22466.54
585.249	22309.03
585.609	22311.07
585.969	22442.36
586.329	22249.37
586.688	22391.97
587.048	22350.16
587.408	22368.47
587.768	22367.11
588.127	22259.54
588.487	22243.27
588.846	22409.59
589.206	22278.75
589.565	22318.3
589.925	22409.37
590.284	22282.14
590.643	22365.98
591.003	22411.85
591.362	22387.22
591.721	22344.06
592.08	22267
592.44	22445.98
592.799	22369.37
593.158	22365.53
593.517	22278.3
593.876	22429.03
594.235	22391.29
594.593	22326.66
594.952	22512.87
595.311	22251.41
595.67	22379.09
596.029	22437.62
596.387	22417.05
596.746	22427.45
597.104	22441.68
597.463	22497.5
597.822	22429.03
598.18	22377.96
598.538	22418.63
598.897	22498.63
599.255	22409.59
599.613	22617.05
599.972	22410.5
600.33	22479.42
600.688	22450.95
601.046	22621.79
601.404	22554
601.762	22612.3
602.12	22721.68
602.478	22595.13
602.836	22605.75
603.194	22518.52
603.552	22478.97
603.91	22524.85
604.268	22581.34
604.625	22602.81
604.983	22601.45
605.341	22421.57
605.698	22681.23
606.056	22743.82
606.413	22690.26
606.771	22742.47
607.128	22871.73
607.485	22741.56
607.843	22765.07
608.2	22833.09
608.557	22939.75
608.914	22862.46
609.272	22953.08
609.629	22970.26
609.986	23013.19
610.343	22935.46
610.7	23126.41
611.057	23170.7
611.414	22968
611.771	23155.11
612.127	23192.62
612.484	23189.01
612.841	23321.66
613.198	23204.15
613.554	23183.81
613.911	23279.4
614.267	23292.74
614.624	23303.13
614.98	23402.79
615.337	23437.82
615.693	23355.33
616.05	23475.78
616.406	23589.22
616.762	23528.66
617.118	23499.28
617.475	23575.21
617.831	23622.22
618.187	23556.91
618.543	23580.64
618.899	23799.84
619.255	23664.48
619.611	23713.51
619.967	23784.02
620.323	23687.07
620.678	23638.04
621.034	23611.37
621.39	23607.75
621.746	23620.41
622.101	23899.5
622.457	23737.7
622.812	23866.96
623.168	23815.89
623.523	23907.86
623.879	23905.15
624.234	23776.11
624.589	23788.54
624.945	23784.25
625.3	23857.92
625.655	23907.63
626.01	23865.83
626.365	23809.56
626.72	23852.95
627.075	23806.39
627.43	23872.38
627.785	23784.7
628.14	23870.57
628.495	23928.88
628.85	23928.88
629.205	23910.12
629.559	23871.93
629.914	23687.75
630.269	23920.52
630.623	23760.97
630.978	23799.16
631.332	23850.01
631.687	23917.8
632.041	23817.69
632.396	23808.2
632.75	23765.94
633.104	23674.87
633.459	23661.99
633.813	23705.38
634.167	23727.3
634.521	23586.29
634.875	23724.36
635.229	23606.17
635.583	23455.22
635.937	23547.87
636.291	23509.9
636.645	23538.38
636.999	23446.86
637.352	23527.53
637.706	23482.56
638.06	23504.93
638.413	23446.86
638.767	23276.01
639.121	23338.16
639.474	23315.11
639.828	23240.98
640.181	23297.25
640.534	23284.37
640.888	23158.73
641.241	23149.91
641.594	23326.41
641.947	23231.49
642.301	23184.26
642.654	23197.6
643.007	23228.78
643.36	23205.28
643.713	23084.38
644.066	23184.49
644.419	23112.63
644.771	22908.56
645.124	22682.81
645.477	22700.66
645.83	22636.48
646.182	22445.75
646.535	22519.65
646.888	22455.92
647.24	22290.28
647.593	22411.85
647.945	22394.68
648.298	22377.73
648.65	22361.91
649.002	22177.51
649.355	22383.15
649.707	22351.52
650.059	22403.94
650.411	22619.98
650.763	22658.85
651.115	22947.89
651.467	22837.15
651.819	22813.43
652.171	22831.96
652.523	22750.15
652.875	22766.87
653.227	22641
653.578	22865.85
653.93	22793.31
654.282	22742.69
654.633	22689.36
654.985	22731.17
655.337	22815.01
655.688	22791.51
656.039	22879.19
656.391	22630.61
656.742	22677.61
657.094	22676.48
657.445	22721.68
657.796	22675.12
658.147	22770.94
658.498	22646.2
658.849	22721.45
659.2	22646.42
659.551	22695.46
659.902	22786.99
660.253	22665.86
660.604	22714.45
660.955	22581.34
661.306	22684.16
661.656	22715.58
662.007	22713.54
662.358	22656.82
662.708	22803.71
663.059	22713.09
663.409	22586.54
663.76	22759.42
664.11	22619.53
664.461	22650.72
664.811	22797.83
665.161	22735.46
665.511	22651.85
665.862	22734.33
666.212	22817.04
666.562	22718.29
666.912	22738.17
667.262	22627.22
667.612	22787.66
667.962	22680.55
668.312	22702.24
668.662	22784.95
669.011	22759.42
669.361	22640.1
669.711	22664.05
670.06	22613.88
670.41	22596.03
670.76	22570.27
671.109	22610.72
671.459	22709.02
671.808	22603.26
672.157	22652.07
672.507	22464.06
672.856	22575.01
673.205	22602.13
673.554	22620.21
673.904	22475.58
674.253	22550.83
674.602	22584.05
674.951	22213.22
675.3	22062.94
675.649	22478.29
675.998	22325.3
676.346	22451.85
676.695	22567.33
677.044	22235.59
677.393	22343.16
677.741	22443.27
678.09	22349.48
678.438	22345.87
678.787	22233.55
679.135	22289.15
679.484	22097.96
679.832	22288.47
680.181	22107.91
680.529	22164.63
680.877	22146.55
681.225	22084.63
681.573	22142.71
681.922	22064.74
682.27	22003.5
682.618	22023.16
682.966	21876.73
683.314	21933.45
683.661	21827.24
684.009	21743.85
684.357	21714.25
684.705	21678.31
685.053	21714.02
685.4	21643.96
685.748	21531.2
686.095	21555.61
686.443	21392.45
686.79	21467.7
687.138	21434.7
687.485	21499.79
687.832	21446.23
688.18	21323.97
688.527	21252.79
688.874	21248.95
689.221	21221.38
689.568	21098.22
689.915	21050.99
690.262	21179.34
690.609	20986.58
690.956	20885.79
691.303	20898.67
691.65	20753.37
691.997	20800.37
692.344	20607.61
692.69	20656.65
693.037	20624.33
693.383	20411.45
693.73	20538.46
694.077	20304.34
694.423	20481.96
694.769	20374.39
695.116	20207.62
695.462	20141.18
695.808	20156.77
696.155	20182.76
696.501	20055.76
696.847	19957.91
697.193	19840.4
697.539	19919.94
697.885	19870.68
698.231	19701.19
698.577	19632.27
698.923	19579.16
699.269	19517.69
699.614	19338.71
699.96	19356.34
700.306	19286.74
700.651	19284.7
700.997	19181.43
701.342	19144.14
701.688	19173.3
702.033	19081.09
702.379	19068.44
702.724	19000.19
703.069	19036.8
703.415	18780.76
703.76	18856.92
704.105	18795
704.45	18691.5
704.795	18573.31
705.14	18490.15
705.485	18566.31
705.83	18365.18
706.175	18404.73
706.52	18372.41
706.865	18342.58
707.209	18376.25
707.554	18218.74
707.899	18263.94
708.243	18062.14
708.588	18097.62
708.932	17914.35
709.277	17970.39
709.621	17930.39
709.966	17903.95
710.31	17869.37
710.654	17731.07
710.998	17783.28
711.342	17809.72
711.687	17648.36
712.031	17518.88
712.375	17676.16
712.719	17605.2
713.063	17551.19
713.407	17527.46
713.75	17477.97
714.094	17404.75
714.438	17363.17
714.782	17362.27
715.125	17298.54
715.469	17369.95
715.812	17236.62
716.156	17058.55
716.499	17263.97
716.843	17236.62
717.186	17037.76
717.53	17044.99
717.873	17098.1
718.216	17141.26
718.559	17007.02
718.902	16815.84
719.246	16836.63
719.589	16871.43
719.932	16849.06
720.275	16888.38
720.617	16718.44
720.96	16706.47
721.303	16656.53
721.646	16812.23
721.989	16641.16
722.331	16747.14
722.674	16671.67
723.016	16728.16
723.359	16619.69
723.701	16650.88
724.044	16663.3
724.386	16515.74
724.729	16476.42
725.071	16405.68
725.413	16533.14
725.755	16508.51
726.097	16455.63
726.439	16399.81
726.782	16339.92
727.124	16452.91
727.465	16339.7
727.807	16329.75
728.149	16315.29
728.491	16247.5
728.833	16333.6
729.175	16198.23
729.516	16162.98
729.858	16225.8
730.199	16253.6
730.541	16127.73
730.882	16191.23
731.224	16170.89
731.565	16086.6
731.906	16129.76
732.248	16172.7
732.589	16034.39
732.93	15962.31
733.271	16077.33
733.612	16070.33
733.953	16098.12
734.294	16010.89
734.635	16053.38
734.976	16091.34
735.317	15945.58
735.658	16049.08
735.999	15983.32
736.339	15986.26
736.68	16046.15
737.021	15991.01
737.361	15976.77
737.702	16052.7
738.042	16034.39
738.383	15882.76
738.723	16094.05
739.063	15982.42
739.404	15999.14
739.744	15953.94
740.084	15912.59
740.424	15962.76
740.764	15953.04
741.104	15855.64
741.444	15896.32
741.784	15831.91
742.124	15982.64
742.464	15925.47
742.804	15951.01
743.143	15915.75
743.483	16036.65
743.823	15908.3
744.162	15973.61
744.502	16036.65
744.841	15940.39
745.181	16095.18
745.52	16071.91
745.86	16091.34
746.199	16153.04
746.538	16163.66
746.877	16185.58
747.216	16194.39
747.556	16199.14
747.895	16216.31
748.234	16210.66
748.573	16243.65
748.911	16339.02
749.25	16347.15
749.589	16332.69
749.928	16438.68
750.267	16529.07
750.605	16490.43
750.944	16546.92
751.283	16499.24
751.621	16603.87
751.96	16598
752.298	16742.17
752.636	16753.47
752.975	16782.4
753.313	16814.04
753.651	16960.47
753.989	16922.51
754.327	17077.76
754.666	17050.64
755.004	17112.11
755.342	17237.98
755.679	17281.37
756.017	17211.09
756.355	17524.3
756.693	17473.45
