Data from hue_320_FLMS001491_21.txt Node
Date: Mon Feb 06 15:46:57 GMT 2017
User: dcchb
Spectrometer: FLMS00149
Trigger mode: 0
Integration Time (sec): 2.000000E-2
Scans to average: 10
Electric dark correction enabled: true
Nonlinearity correction enabled: false
Boxcar width: 0
XAxis mode: Wavelengths
Number of Pixels in Spectrum: 2048
>>>>>Begin Spectral Data<<<<<
341.393	-22.03
341.776	-22.03
342.16	-22.03
342.543	-39.43
342.927	-72.65
343.31	-78.3
343.693	-80.11
344.077	-47.8
344.46	-70.62
344.843	-81.69
345.226	-42.6
345.61	-28.81
345.993	-13.67
346.376	-8.25
346.759	12.99
347.142	25.2
347.525	53.9
347.908	61.13
348.291	74.01
348.674	97.96
349.057	126.66
349.44	131.63
349.823	136.61
350.206	137.96
350.588	191.75
350.971	189.03
351.354	223.61
351.737	230.62
352.119	243.5
352.502	246.21
352.884	253.44
353.267	252.76
353.65	295.7
354.032	296.6
354.414	307.45
354.797	295.92
355.179	328.69
355.562	314.46
355.944	328.69
356.326	349.93
356.709	335.7
357.091	323.72
357.473	314.91
357.855	346.32
358.238	337.73
358.62	328.92
359.002	333.44
359.384	304.96
359.766	335.92
360.148	310.84
360.53	350.84
360.912	339.77
361.294	354.45
361.676	324.17
362.057	325.98
362.439	326.88
362.821	310.84
363.203	327.34
363.584	316.71
363.966	338.18
364.348	321.46
364.729	315.36
365.111	330.27
365.493	318.07
365.874	316.04
366.256	302.48
366.637	305.42
367.019	298.18
367.4	311.52
367.781	313.33
368.163	313.33
368.544	315.81
368.925	321.91
369.306	325.98
369.688	318.75
370.069	306.32
370.45	297.05
370.831	298.64
371.212	302.03
371.593	306.77
371.974	313.33
372.355	314.68
372.736	310.39
373.117	292.76
373.498	322.36
373.879	310.16
374.26	307.9
374.641	293.89
375.021	315.36
375.402	302.48
375.783	316.71
376.163	333.66
376.544	318.3
376.925	308.35
377.305	324.4
377.686	317.17
378.066	327.34
378.447	325.53
378.827	321.69
379.208	333.66
379.588	313.33
379.968	346.77
380.349	328.69
380.729	333.44
381.109	331.18
381.489	317.39
381.87	317.62
382.25	348.58
382.63	348.58
383.01	331.18
383.39	341.35
383.77	332.08
384.15	329.6
384.53	350.39
384.91	347
385.29	319.2
385.67	345.87
386.049	372.53
386.429	322.59
386.809	343.15
387.189	348.8
387.568	356.49
387.948	323.95
388.328	344.06
388.707	357.39
389.087	335.92
389.466	336.38
389.846	332.08
390.225	366.88
390.605	352.65
390.984	361.01
391.363	370.5
391.743	367.79
392.122	356.26
392.501	370.72
392.881	381.35
393.26	362.36
393.639	370.95
394.018	356.04
394.397	358.07
394.776	396.94
395.155	372.76
395.534	399.2
395.913	369.59
396.292	389.71
396.671	361.23
397.05	372.76
397.429	378.41
397.808	362.82
398.186	358.75
398.565	383.83
398.944	396.26
399.323	377.73
399.701	375.02
400.08	400.55
400.458	373.44
400.837	400.1
401.215	402.59
401.594	415.92
401.972	402.36
402.351	419.31
402.729	415.47
403.107	375.24
403.486	422.93
403.864	413.89
404.242	415.92
404.62	419.54
404.999	417.05
405.377	432.87
405.755	422.02
406.133	417.28
406.511	414.79
406.889	441.46
407.267	436.49
407.645	420.67
408.023	435.36
408.401	433.55
408.779	436.26
409.156	453.89
409.534	464.28
409.912	480.78
410.29	443.27
410.667	466.77
411.045	477.61
411.422	488.01
411.8	469.93
412.178	473.32
412.555	486.2
412.933	502.7
413.31	514.68
413.687	507.22
414.065	498.63
414.442	535.24
414.819	522.36
415.197	548.57
415.574	544.73
415.951	557.16
416.328	563.71
416.705	569.14
417.082	560.55
417.46	560.32
417.837	601.91
418.214	579.98
418.591	601.23
418.967	587.22
419.344	585.63
419.721	610.49
420.098	564.84
420.475	604.39
420.852	618.63
421.228	620.66
421.605	636.93
421.982	631.06
422.358	640.77
422.735	654.56
423.111	675.8
423.488	671.73
423.864	672.41
424.241	686.87
424.617	678.06
424.994	699.08
425.37	688
425.746	701.56
426.123	692.52
426.499	694.56
426.875	694.33
427.251	727.33
427.627	731.39
428.003	735.91
428.379	750.83
428.756	751.28
429.132	788.57
429.507	768.45
429.883	776.82
430.259	799.19
430.635	788.79
431.011	819.75
431.387	812.07
431.763	798.74
432.138	843.48
432.514	816.36
432.89	831.05
433.265	864.05
433.641	869.69
434.016	868.56
434.392	863.37
434.767	898.62
435.143	879.86
435.518	911.05
435.894	904.95
436.269	930.03
436.644	920.09
437.02	925.96
437.395	931.16
437.77	949.01
438.145	977.71
438.52	970.48
438.895	953.53
439.271	943.59
439.646	975
440.021	991.5
440.395	997.6
440.77	990.82
441.145	1015.68
441.52	1025.17
441.895	1012.74
442.27	1024.49
442.645	1029.69
443.019	1044.38
443.394	1025.85
443.769	1060.42
444.143	1040.76
444.518	1062.01
444.892	1056.58
445.267	1051.84
445.641	1067.2
446.016	1056.58
446.39	1063.14
446.764	1088.22
447.139	1057.94
447.513	1090.25
447.887	1103.59
448.262	1101.33
448.636	1090.25
449.01	1120.31
449.384	1087.09
449.758	1106.3
450.132	1111.5
450.506	1128.22
450.88	1129.8
451.254	1112.63
451.628	1150.59
452.002	1157.82
452.376	1151.04
452.75	1155.56
453.123	1164.83
453.497	1167.54
453.871	1206.86
454.244	1194.88
454.618	1210.7
454.992	1186.07
455.365	1201.66
455.739	1220.65
456.112	1229.23
456.486	1246.41
456.859	1248.67
457.232	1273.07
457.606	1246.18
457.979	1255.67
458.352	1285.5
458.725	1315.56
459.099	1305.16
459.472	1312.62
459.845	1342.45
460.218	1315.56
460.591	1327.31
460.964	1319.63
461.337	1351.04
461.71	1364.14
462.083	1391.71
462.456	1376.8
462.829	1390.36
463.201	1417.7
463.574	1410.92
463.947	1432.17
464.32	1446.85
464.692	1451.6
465.065	1464.71
465.438	1480.53
465.81	1473.07
466.183	1495.21
466.555	1524.14
466.928	1510.58
467.3	1557.59
467.672	1531.15
468.045	1586.51
468.417	1564.14
468.789	1571.15
469.161	1572.5
469.534	1608.21
469.906	1638.04
470.278	1611.37
470.65	1640.97
471.022	1667.64
471.394	1698.15
471.766	1693.18
472.138	1683.68
472.51	1728.43
472.882	1753.51
473.253	1763.91
473.625	1788.99
473.997	1804.36
474.369	1797.58
474.74	1817.92
475.112	1849.33
475.484	1865.15
475.855	1889.78
476.227	1912.61
476.598	1929.55
476.97	1959.38
477.341	1978.59
477.713	1995.54
478.084	2012.94
478.455	2080.74
478.827	2040.29
479.198	2092.26
479.569	2148.53
479.94	2125.71
480.311	2138.36
480.682	2202.31
481.053	2249.55
481.424	2241.41
481.795	2241.18
482.166	2259.04
482.537	2349.88
482.908	2340.16
483.279	2375.64
483.65	2395.08
484.021	2409.32
484.391	2443.66
484.762	2470.56
485.133	2467.17
485.503	2481.63
485.874	2532.7
486.244	2536.54
486.615	2582.87
486.985	2623.09
487.356	2617.9
487.726	2662.87
488.097	2730.66
488.467	2685.01
488.837	2737.44
489.207	2763.2
489.578	2819.7
489.948	2852.69
490.318	2866.7
490.688	2840.49
491.058	2870.77
491.428	2920.04
491.798	2931.34
492.168	2986.93
492.538	2997.1
492.908	3027.15
493.278	3019.02
493.648	3049.3
494.017	3076.64
494.387	3096.98
494.757	3168.17
495.126	3142.4
495.496	3147.37
495.866	3136.98
496.235	3229.63
496.605	3214.94
496.974	3215.17
497.344	3227.82
497.713	3251.78
498.082	3282.96
498.452	3287.48
498.821	3325.45
499.19	3315.05
499.559	3348.05
499.928	3379.69
500.298	3377.43
500.667	3404.77
501.036	3443.86
501.405	3470.98
501.774	3419.68
502.143	3458.55
502.512	3440.93
502.88	3463.3
503.249	3473.92
503.618	3487.48
503.987	3538.33
504.356	3554.14
504.724	3559.34
505.093	3515.27
505.462	3554.6
505.83	3603.63
506.199	3620.58
506.567	3609.28
506.936	3631.43
507.304	3615.61
507.672	3623.29
508.041	3614.26
508.409	3673.91
508.777	3685.44
509.145	3692.9
509.514	3724.99
509.882	3743.52
510.25	3712.11
510.618	3758.66
510.986	3764.53
511.354	3769.73
511.722	3773.8
512.09	3809.05
512.458	3783.06
512.826	3809.5
513.193	3823.97
513.561	3801.37
513.929	3812.67
514.297	3904.42
514.664	3875.04
515.032	3889.28
515.4	3894.93
515.767	3866.9
516.135	3896.73
516.502	3894.02
516.869	3941.25
517.237	3968.6
517.604	3938.31
517.972	3967.01
518.339	3974.25
518.706	3985.09
519.073	3960.69
519.44	3985.09
519.808	4025.32
520.175	4030.29
520.542	4063.28
520.909	4087.46
521.276	4051.76
521.643	4078.2
522.009	4104.19
522.376	4093.34
522.743	4113.23
523.11	4141.92
523.477	4157.07
523.843	4175.6
524.21	4228.7
524.577	4237.06
524.943	4303.73
525.31	4244.75
525.676	4274.58
526.043	4301.69
526.409	4312.32
526.776	4298.76
527.142	4336.04
527.508	4395.25
527.874	4399.77
528.241	4476.61
528.607	4420.56
528.973	4475.02
529.339	4475.48
529.705	4442.71
530.071	4495.14
530.437	4539.88
530.803	4516.6
531.169	4600.22
531.535	4537.62
531.901	4589.14
532.267	4644.74
532.632	4620.33
532.998	4667.11
533.364	4674.79
533.73	4681.8
534.095	4694.68
534.461	4748.46
534.826	4787.78
535.192	4758.63
535.557	4831.62
535.923	4809.03
536.288	4815.58
536.653	4845.86
537.019	4865.07
537.384	4902.13
537.749	4910.94
538.114	4891.28
538.479	4905.29
538.845	4908.91
539.21	4943.26
539.575	4983.71
539.94	4983.94
540.305	5058.06
540.67	5021.68
541.034	5083.37
541.399	5067.55
541.764	5061
542.129	5114.78
542.494	5145.97
542.858	5169.69
543.223	5176.02
543.587	5180.77
543.952	5226.87
544.316	5235
544.681	5261.44
545.045	5283.82
545.41	5319.3
545.774	5342.57
546.138	5319.52
546.503	5372.85
546.867	5420.54
547.231	5370.59
547.595	5388.9
547.959	5421.67
548.324	5442.91
548.688	5450.59
549.052	5495.79
549.416	5488.1
549.779	5551.83
550.143	5531.27
550.507	5556.58
550.871	5600.42
551.235	5596.35
551.599	5654.88
551.962	5606.75
552.326	5601.77
552.689	5690.36
553.053	5677.03
553.417	5710.25
553.78	5754.99
554.143	5722.22
554.507	5781.2
554.87	5765.84
555.234	5773.29
555.597	5793.86
555.96	5808.32
556.323	5830.24
556.686	5859.39
557.05	5871.82
557.413	5912.05
557.776	5930.13
558.139	5945.72
558.502	5962.44
558.865	5972.39
559.228	5986.17
559.59	5990.92
559.953	6000.18
560.316	6069.33
560.679	6093.51
561.041	6093.51
561.404	6099.16
561.767	6157.01
562.129	6111.82
562.492	6212.61
562.854	6142.1
563.217	6188.2
563.579	6258.25
563.941	6237.92
564.304	6227.07
564.666	6282.21
565.028	6300.51
565.39	6360.4
565.753	6343.45
566.115	6320.4
566.477	6430.23
566.839	6467.74
567.201	6437.01
567.563	6434.52
567.925	6519.72
568.287	6463.45
568.648	6503.67
569.01	6554.97
569.372	6582.31
569.734	6572.14
570.095	6692.37
570.457	6682.65
570.819	6673.61
571.18	6685.81
571.542	6707.06
571.903	6745.92
572.265	6809.65
572.626	6834.51
572.987	6865.02
573.349	6920.38
573.71	6987.05
574.071	6965.13
574.432	7001.96
574.794	7098.46
575.155	7192.47
575.516	7142.98
575.877	7150.43
576.238	7259.58
576.599	7332.12
576.96	7434.27
577.32	7441.05
577.681	7579.12
578.042	7615.05
578.403	7643.98
578.763	7778.89
579.124	7857.53
579.485	7972.11
579.845	8055.27
580.206	8141.59
580.566	8218.43
580.927	8342.49
581.287	8464.3
581.648	8595.59
582.008	8688.25
582.368	8782.71
582.728	8901.12
583.089	9143.15
583.449	9224.5
583.809	9358.74
584.169	9548.79
584.529	9736.35
584.889	9950.81
585.249	10078.49
585.609	10219.05
585.969	10486.39
586.329	10612.49
586.688	10835.76
587.048	11015.42
587.408	11203.21
587.768	11431.68
588.127	11762.52
588.487	11835.06
588.846	12208.61
589.206	12321.37
589.565	12623.06
589.925	12908.93
590.284	13062.37
590.643	13379.87
591.003	13724.5
591.362	13925.62
591.721	14171.49
592.08	14490.58
592.44	14699.84
592.799	15118.13
593.158	15206.72
593.517	15659.59
593.876	15872.01
594.235	16064.78
594.593	16508.61
594.952	16749.96
595.311	16871.76
595.67	17369.6
596.029	17767.56
596.387	17942.92
596.746	18346.98
597.104	18557.37
597.463	18903.12
597.822	19240.29
598.18	19361.41
598.538	19685.47
598.897	20007.72
599.255	20191.9
599.613	20829.85
599.972	20936.29
600.33	21201.14
600.688	21416.05
601.046	21767.22
601.404	22074.56
601.762	22380.77
602.12	22756.58
602.478	22969.45
602.836	23146.62
603.194	23422.77
603.552	23761.07
603.91	23924.46
604.268	24293.94
604.625	24409.41
604.983	24768.28
605.341	24940.47
605.698	25229.28
606.056	25631.3
606.413	25804.86
606.771	26135.25
607.128	26276.48
607.485	26424.05
607.843	26685.06
608.2	27206.4
608.557	27285.95
608.914	27414.99
609.272	27685.71
609.629	27969.55
609.986	28358.01
610.343	28362.53
610.7	28765.91
611.057	29001.61
611.414	29062.4
611.771	29294.48
612.127	29518.88
612.484	29747.58
612.841	30044.75
613.198	30053.11
613.554	30269.37
613.911	30501.01
614.267	30555.24
614.624	30774.9
614.98	31019.86
615.337	31245.17
615.693	31303.7
616.05	31420.3
616.406	31839.5
616.762	31802.44
617.118	31998.82
617.475	32126.73
617.831	32369.43
618.187	32354.52
618.543	32567.17
618.899	32963.09
619.255	32932.13
619.611	33071.33
619.967	33216.87
620.323	33336.86
620.678	33362.17
621.034	33382.51
621.39	33601.94
621.746	33579.8
622.101	34135.49
622.457	33956.28
622.812	34127.8
623.168	34232.43
623.523	34307.69
623.879	34532.76
624.234	34327.57
624.589	34585.42
624.945	34737.96
625.3	34789.71
625.655	34801.01
626.01	34974.33
626.365	35022.92
626.72	35116.93
627.075	35183.59
627.43	35170.26
627.785	35123.71
628.14	35337.94
628.495	35417.03
628.85	35377.26
629.205	35438.73
629.559	35655.22
629.914	35588.56
630.269	35650.48
630.623	35496.58
630.978	35598.27
631.332	35774.09
631.687	35914.42
632.041	35790.36
632.396	35907.42
632.75	35791.04
633.104	35911.03
633.459	35836.68
633.813	35889.56
634.167	35864.71
634.521	35689.8
634.875	35961.88
635.229	35818.61
635.583	35864.25
635.937	35784.03
636.291	35962.78
636.645	35949.22
636.999	35992.61
637.352	36030.58
637.706	35818.38
638.06	35936.34
638.413	35976.34
638.767	35807.08
639.121	35957.59
639.474	35827.42
639.828	35896.34
640.181	36025.61
640.534	35901.77
640.888	35885.05
641.241	35748.33
641.594	35852.5
641.947	35941.77
642.301	35696.58
642.654	35901.32
643.007	35898.15
643.36	35943.8
643.713	35771.38
644.066	35933.41
644.419	35790.13
644.771	35442.34
645.124	35147.89
645.477	35195.12
645.83	34957.39
646.182	34882.59
646.535	34812.98
646.888	34905.64
647.24	34721.91
647.593	34994.45
647.945	34847.11
648.298	34780.67
648.65	34690.95
649.002	34536.15
649.355	34696.83
649.707	34618.41
650.059	34865.64
650.411	35207.55
650.763	35328.9
651.115	35601.66
651.467	35571.61
651.819	35665.39
652.171	35318.28
652.523	35430.37
652.875	35398.73
653.227	35265.17
653.578	35480.08
653.93	35480.08
654.282	35264.72
654.633	35271.95
654.985	35453.19
655.337	35424.27
655.688	35224.5
656.039	35546.97
656.391	35065.41
656.742	35239.19
657.094	35361.9
657.445	35393.98
657.796	35297.94
658.147	35294.33
658.498	35220.2
658.849	35322.57
659.2	35196.93
659.551	35168.45
659.902	35286.19
660.253	35217.72
660.604	35378.84
660.955	35105.63
661.306	35198.96
661.656	35155.57
662.007	35061.56
662.358	35103.82
662.708	35145.86
663.059	35123.03
663.409	34945.41
663.76	35143.14
664.11	35200.77
664.461	35118.29
664.811	35064.95
665.161	35207.55
665.511	35069.7
665.862	35209.13
666.212	35202.8
666.562	35129.13
666.912	35198.28
667.262	35122.81
667.612	35017.95
667.962	35089.13
668.312	34976.37
668.662	35081.68
669.011	35059.08
669.361	35078.29
669.711	35055.46
670.06	34967.78
670.41	34884.17
670.76	34969.81
671.109	35054.56
671.459	35033.99
671.808	34790.38
672.157	35081.68
672.507	34725.75
672.856	34928.69
673.205	34965.52
673.554	34954.45
673.904	34814.56
674.253	34938.86
674.602	35029.93
674.951	34472.65
675.3	34306.33
675.649	34811.85
675.998	34741.12
676.346	34756.04
676.695	34913.09
677.044	34621.12
677.393	34739.76
677.741	34708.58
678.09	34558.75
678.438	34601.24
678.787	34648.47
679.135	34641.91
679.484	34382.71
679.832	34526.89
680.181	34422.94
680.529	34448.7
680.877	34500.22
681.225	34440.11
681.573	34514.91
681.922	34237.18
682.27	34134.13
682.618	34255.48
682.966	34241.47
683.314	34116.73
683.661	34095.26
684.009	33853.91
684.357	33978.2
684.705	33755.61
685.053	33857.08
685.4	33822.05
685.748	33619.79
686.095	33560.36
686.443	33678.55
686.79	33565.11
687.138	33596.97
687.485	33592.68
687.832	33386.35
688.18	33321.5
688.527	33271.78
688.874	33302.06
689.221	33192.46
689.568	33160.15
689.915	33104.55
690.262	32975.29
690.609	32938.91
690.956	32883.77
691.303	32916.31
691.65	32830.89
691.997	32647.84
692.344	32512.25
692.69	32469.99
693.037	32445.36
693.383	32199.94
693.73	32381.18
694.077	32111.36
694.423	32091.7
694.769	32024.36
695.116	32030.23
695.462	31973.06
695.808	31792.27
696.155	31967.86
696.501	31660.3
696.847	31744.36
697.193	31511.83
697.539	31574.65
697.885	31319.52
698.231	31264.38
698.577	31314.54
698.923	31132.85
699.269	31031.84
699.614	30893.54
699.96	30780.55
700.306	30882.92
700.651	30729.47
700.997	30712.75
701.342	30609.03
701.688	30620.55
702.033	30545.3
702.379	30459.88
702.724	30432.76
703.069	30462.14
703.415	30121.81
703.76	30175.36
704.105	30155.93
704.45	30096.72
704.795	29939.89
705.14	29783.28
705.485	29867.58
705.83	29666.23
706.175	29776.05
706.52	29675.94
706.865	29496.74
707.209	29531.09
707.554	29254.03
707.899	29382.84
708.243	29334.26
708.588	29284.09
708.932	29077.54
709.277	29127.26
709.621	29039.8
709.966	28875.51
710.31	28911.44
710.654	28607.5
710.998	28706.02
711.342	28774.5
711.687	28578.8
712.031	28581.06
712.375	28349.42
712.719	28525.92
713.063	28477.33
713.407	28521.85
713.75	28327.28
714.094	28244.12
714.438	28108.53
714.782	28144.23
715.125	28008.87
715.469	28079.6
715.812	27974.52
716.156	27777.01
716.499	27798.7
716.843	27765.94
717.186	27667.18
717.53	27831.92
717.873	27803.68
718.216	27651.36
718.559	27582.89
718.902	27400.75
719.246	27503.57
719.589	27446.62
719.932	27389.22
720.275	27296.8
720.617	27271.71
720.96	27108.1
721.303	27130.25
721.646	27083.47
721.989	27048.44
722.331	26995.79
722.674	27001.89
723.016	27095.22
723.359	26983.36
723.701	26917.15
724.044	26792.18
724.386	26775.91
724.729	26874.21
725.071	26691.39
725.413	26722.57
725.755	26642.35
726.097	26567.32
726.439	26490.72
726.782	26359.42
727.124	26629.47
727.465	26412.53
727.807	26447.33
728.149	26352.19
728.491	26267.22
728.833	26325.75
729.175	26182.48
729.516	26147.45
729.858	26111.06
730.199	26095.25
730.541	26102.48
730.882	26055.02
731.224	26049.15
731.565	25855.7
731.906	25940
732.248	25972.99
732.589	25873.11
732.93	25671.53
733.271	25684.18
733.612	25712.88
733.953	25700.45
734.294	25597.86
734.635	25490.52
734.976	25516.5
735.317	25428.6
735.658	25491.87
735.999	25457.97
736.339	25348.83
736.68	25506.33
737.021	25369.62
737.361	25285.55
737.702	25440.57
738.042	25299.79
738.383	25290.97
738.723	25371.42
739.063	25248.04
739.404	25251.88
739.744	25151.09
740.084	25065.67
740.424	25030.64
740.764	25033.35
741.104	25091.43
741.444	24849.86
741.784	24810.53
742.124	24829.97
742.464	25036.52
742.804	24705
743.143	24767.15
743.483	24703.64
743.823	24619.13
744.162	24557.43
744.502	24674.72
744.841	24562.41
745.181	24554.5
745.52	24489.41
745.86	24503.65
746.199	24446.7
746.538	24394.05
746.877	24356.99
747.216	24389.53
747.556	24363.31
747.895	24323.99
748.234	24238.57
748.573	24171
748.911	24101.85
749.25	24088.29
749.589	24004
749.928	24056.2
750.267	24049.2
750.605	24023.21
750.944	23902.76
751.283	24026.83
751.621	23888.98
751.96	23735.31
752.298	23626.16
752.636	23718.36
752.975	23585.71
753.313	23507.52
753.651	23627.06
753.989	23611.47
754.327	23450.34
754.666	23303.46
755.004	23382.32
755.342	23328.09
755.679	23342.1
756.017	23227.52
756.355	23274.98
756.693	23113.18
757.031	23260.07
757.368	23070.92
757.706	22922.9
758.044	22938.72
758.381	22851.49
758.719	22842.45
759.056	22825.05
759.394	22767.42
759.731	22674.77
760.068	22571.72
