Data from hue_310_FLMS001491_18.txt Node
Date: Mon Feb 06 15:48:55 GMT 2017
User: dcchb
Spectrometer: FLMS00149
Trigger mode: 0
Integration Time (sec): 2.000000E-2
Scans to average: 10
Electric dark correction enabled: true
Nonlinearity correction enabled: false
Boxcar width: 0
XAxis mode: Wavelengths
Number of Pixels in Spectrum: 2048
>>>>>Begin Spectral Data<<<<<
341.393	-12.57
341.776	-12.57
342.16	-12.57
342.543	-60.03
342.927	-64.32
343.31	-56.86
343.693	-55.06
344.077	-76.98
344.46	-79.46
344.843	-68.39
345.226	-46.69
345.61	-20.25
345.993	-25.68
346.376	-29.29
346.759	3.02
347.142	29.91
347.525	71.5
347.908	65.17
348.291	88.67
348.674	85.73
349.057	114.66
349.44	130.7
349.823	152.4
350.206	168.44
350.588	196.69
350.971	198.72
351.354	230.59
351.737	233.98
352.119	260.64
352.502	270.59
352.884	290.92
353.267	277.59
353.65	299.51
354.032	313.97
354.414	311.49
354.797	300.64
355.179	306.07
355.562	329.79
355.944	340.19
356.326	326.4
356.709	319.4
357.091	334.99
357.473	338.61
357.855	341.54
358.238	339.96
358.62	343.8
359.002	313.07
359.384	351.26
359.766	349.91
360.148	352.17
360.53	347.87
360.912	352.62
361.294	316.23
361.676	336.35
362.057	332.51
362.439	355.56
362.821	334.77
363.203	321.88
363.584	325.05
363.966	321.43
364.348	335.9
364.729	315.78
365.111	305.84
365.493	314.65
365.874	321.66
366.256	300.42
366.637	330.25
367.019	302
367.4	324.37
367.781	310.81
368.163	299.29
368.544	316.91
368.925	304.71
369.306	317.59
369.688	330.92
370.069	321.88
370.45	317.36
370.831	313.07
371.212	319.62
371.593	332.28
371.974	304.26
372.355	310.59
372.736	327.08
373.117	335.44
373.498	311.04
373.879	330.7
374.26	305.84
374.641	306.29
375.021	314.2
375.402	347.19
375.783	325.73
376.163	324.37
376.544	309.46
376.925	318.27
377.305	322.79
377.686	311.49
378.066	337.03
378.447	329.34
378.827	347.19
379.208	326.4
379.588	322.56
379.968	355.1
380.349	327.76
380.729	342.9
381.109	325.5
381.489	345.16
381.87	340.64
382.25	330.7
382.63	352.17
383.01	334.09
383.39	327.76
383.77	348.1
384.15	324.82
384.53	316.91
384.91	353.52
385.29	348.1
385.67	341.32
386.049	339.06
386.429	351.71
386.809	339.96
387.189	344.26
387.568	344.93
387.948	357.82
388.328	352.62
388.707	351.49
389.087	350.13
389.466	342.67
389.846	372.5
390.225	382.22
390.605	360.75
390.984	369.79
391.363	373.41
391.743	351.71
392.122	368.21
392.501	380.19
392.881	370.47
393.26	378.61
393.639	371.6
394.018	373.18
394.397	387.65
394.776	373.18
395.155	403.46
395.534	372.96
395.913	381.32
396.292	400.98
396.671	391.49
397.05	396.91
397.429	380.41
397.808	381.77
398.186	380.19
398.565	395.33
398.944	410.24
399.323	408.44
399.701	401.88
400.08	424.71
400.458	397.36
400.837	399.4
401.215	405.5
401.594	408.44
401.972	405.72
402.351	406.63
402.729	431.03
403.107	415.44
403.486	421.09
403.864	434.88
404.242	436.46
404.62	435.33
404.999	440.53
405.377	425.84
405.755	456.57
406.133	440.3
406.511	461.77
406.889	443.24
407.267	456.34
407.645	446.17
408.023	478.72
408.401	456.34
408.779	495.44
409.156	469.68
409.534	478.72
409.912	484.14
410.29	487.53
410.667	493.63
411.045	502.9
411.422	513.52
411.8	507.42
412.178	534.31
412.555	497.25
412.933	514.87
413.31	532.5
413.687	563.23
414.065	554.87
414.442	535.66
414.819	557.36
415.197	567.3
415.574	577.7
415.951	578.6
416.328	586.74
416.705	587.87
417.082	611.82
417.46	605.94
417.837	611.59
418.214	644.81
418.591	613.85
418.967	662.44
419.344	660.41
419.721	654.98
420.098	658.15
420.475	665.38
420.852	670.12
421.228	693.85
421.605	698.15
421.982	701.31
422.358	700.63
422.735	710.35
423.111	733.4
423.488	723.23
423.864	738.82
424.241	772.27
424.617	730.69
424.994	744.02
425.37	742.21
425.746	755.77
426.123	770.69
426.499	793.96
426.875	796.9
427.251	805.04
427.627	830.35
428.003	830.57
428.379	867.86
428.756	841.42
429.132	855.66
429.507	867.18
429.883	876.45
430.259	887.52
430.635	893.85
431.011	902.89
431.387	918.25
431.763	929.1
432.138	920.06
432.514	921.42
432.89	946.5
433.265	941.53
433.641	991.25
434.016	975.88
434.392	981.53
434.767	1000.74
435.143	1024.46
435.518	1006.39
435.894	1023.33
436.269	1060.85
436.644	1074.63
437.02	1060.4
437.395	1079.38
437.77	1108.3
438.145	1078.02
438.52	1092.49
438.895	1112.15
439.271	1089.32
439.646	1118.47
440.021	1120.73
440.395	1129.32
440.77	1130.68
441.145	1137.23
441.52	1164.8
441.895	1169.32
442.27	1179.49
442.645	1169.77
443.019	1179.49
443.394	1191.92
443.769	1208.41
444.143	1166.83
444.518	1224.01
444.892	1211.58
445.267	1229.2
445.641	1228.75
446.016	1232.59
446.39	1210.67
446.764	1242.76
447.139	1221.3
447.513	1234.63
447.887	1223.56
448.262	1235.53
448.636	1261.07
449.01	1274.4
449.384	1237.57
449.758	1273.27
450.132	1283.67
450.506	1286.38
450.88	1291.12
451.254	1300.84
451.628	1294.97
452.002	1289.99
452.376	1306.94
452.75	1314.17
453.123	1309.65
453.497	1374.29
453.871	1372.7
454.244	1368.18
454.618	1352.59
454.992	1344
455.365	1350.78
455.739	1386.49
456.112	1380.84
456.486	1421.52
456.859	1438.69
457.232	1435.98
457.606	1427.84
457.979	1448.86
458.352	1470.78
458.725	1466.49
459.099	1484.79
459.472	1500.84
459.845	1532.93
460.218	1525.02
460.591	1522.76
460.964	1510.55
461.337	1539.03
461.71	1541.97
462.083	1592.81
462.456	1586.94
462.829	1577.22
463.201	1577.44
463.574	1609.08
463.947	1594.39
464.32	1673.71
464.692	1656.54
465.065	1654.73
465.438	1659.48
465.81	1682.53
466.183	1694.5
466.555	1703.77
466.928	1733.82
467.3	1716.65
467.672	1778.57
468.045	1769.3
468.417	1792.81
468.789	1765.46
469.161	1793.94
469.534	1820.38
469.906	1832.8
470.278	1867.83
470.65	1886.36
471.022	1890.43
471.394	1926.59
471.766	1941.95
472.138	1931.11
472.51	1923.88
472.882	2019.24
473.253	1996.87
473.625	1986.47
473.997	2025.79
474.369	2044.55
474.74	2056.3
475.112	2114.38
475.484	2092.46
475.855	2106.7
476.227	2169.52
476.598	2196.64
476.97	2191.89
477.341	2237.77
477.713	2264.21
478.084	2270.08
478.455	2303.75
478.827	2295.84
479.198	2353.02
479.569	2344.66
479.94	2387.59
480.311	2427.82
480.682	2504.65
481.053	2507.36
481.424	2551.43
481.795	2524.31
482.166	2551.88
482.537	2586.68
482.908	2590.75
483.279	2649.28
483.65	2699.9
484.021	2673.91
484.391	2725.66
484.762	2743.52
485.133	2748.49
485.503	2794.81
485.874	2813.57
486.244	2826.9
486.615	2830.97
486.985	2894.25
487.356	2938.31
487.726	2923.4
488.097	2991.42
488.467	2963.62
488.837	3032.55
489.207	3058.31
489.578	3110.96
489.948	3118.19
490.318	3152.09
490.688	3195.25
491.058	3197.06
491.428	3214.92
491.798	3243.84
492.168	3312.77
492.538	3298.76
492.908	3328.81
493.278	3385.53
493.648	3388.24
494.017	3381.92
494.387	3384.85
494.757	3405.87
495.126	3420.11
495.496	3439.99
495.866	3494.23
496.235	3506.66
496.605	3528.81
496.974	3544.85
497.344	3566.77
497.713	3586.66
498.082	3593.66
498.452	3607.67
498.821	3635.7
499.19	3628.92
499.559	3677.95
499.928	3648.8
500.298	3732.19
500.667	3702.13
501.036	3725.41
501.405	3746.65
501.774	3764.73
502.143	3774.9
502.512	3779.42
502.88	3794.56
503.249	3788.46
503.618	3795.47
503.987	3831.4
504.356	3887.44
504.724	3871.17
505.093	3892.19
505.462	3889.02
505.83	3893.09
506.199	3908
506.567	3955.23
506.936	3917.72
507.304	3996.59
507.672	3958.4
508.041	4010.6
508.409	4042.92
508.777	3977.38
509.145	4015.35
509.514	4043.14
509.882	4059.19
510.25	4072.75
510.618	4129.24
510.986	4084.27
511.354	4096.02
511.722	4113.42
512.09	4141.44
512.458	4129.02
512.826	4176.25
513.193	4172.18
513.561	4180.77
513.929	4236.36
514.297	4256.92
514.664	4244.94
515.032	4249.46
515.4	4297.15
515.767	4265.51
516.135	4301.44
516.502	4276.58
516.869	4332.85
517.237	4340.31
517.604	4292.4
517.972	4396.58
518.339	4369.46
518.706	4383.7
519.073	4338.05
519.44	4362
519.808	4392.06
520.175	4423.47
520.542	4446.3
520.909	4477.03
521.276	4450.36
521.643	4454.2
522.009	4478.39
522.376	4503.47
522.743	4463.92
523.11	4576.91
523.477	4557.93
523.843	4608.33
524.21	4653.3
524.577	4652.17
524.943	4649.23
525.31	4707.53
525.676	4674.54
526.043	4685.39
526.409	4739.85
526.776	4792.5
527.142	4825.27
527.508	4766.06
527.874	4828.43
528.241	4806.51
528.607	4843.8
528.973	4868.88
529.339	4880.86
529.705	4940.97
530.071	4989.56
530.437	4988.43
530.803	5005.6
531.169	5040.63
531.535	5006.51
531.901	5022.78
532.267	5044.7
532.632	5109.1
532.998	5096
533.364	5159.5
533.73	5124.47
534.095	5173.96
534.461	5234.75
534.826	5196.11
535.192	5218.93
535.557	5291.47
535.923	5276.33
536.288	5329.66
536.653	5350.23
537.019	5314.3
537.384	5345.93
537.749	5368.31
538.114	5382.77
538.479	5404.91
538.845	5416.21
539.21	5446.04
539.575	5481.3
539.94	5467.74
540.305	5534.18
540.67	5549.09
541.034	5567.62
541.399	5580.28
541.764	5595.19
542.129	5661.4
542.494	5640.16
542.858	5655.53
543.223	5717
543.587	5739.14
543.952	5720.16
544.316	5721.29
544.681	5782.76
545.045	5755.64
545.41	5826.15
545.774	5844.68
546.138	5886.48
546.503	5904.11
546.867	5897.56
547.231	5943.66
547.595	5907.05
547.959	5986.59
548.324	6031.79
548.688	6016.88
549.052	6063.88
549.416	6081.51
549.779	6099.13
550.143	6088.51
550.507	6179.36
550.871	6164.44
551.235	6145.23
551.599	6191.79
551.962	6160.6
552.326	6249.41
552.689	6215.51
553.053	6255.29
553.417	6250.99
553.78	6300.26
554.143	6282.86
554.507	6362.4
554.87	6356.75
555.234	6385
555.597	6395.4
555.96	6401.95
556.323	6446.24
556.686	6424.1
557.05	6488.28
557.413	6468.84
557.776	6469.75
558.139	6545.45
558.502	6546.81
558.865	6576.18
559.228	6572.57
559.59	6620.02
559.953	6601.49
560.316	6704.99
560.679	6684.2
561.041	6673.36
561.404	6716.29
561.767	6742.96
562.129	6702.06
562.492	6766.46
562.854	6771.66
563.217	6796.06
563.579	6834.93
563.941	6831.32
564.304	6830.19
564.666	6911.09
565.028	6934.82
565.39	6959.68
565.753	6958.32
566.115	6941.37
566.477	7010.97
566.839	7044.42
567.201	7087.58
567.563	7046
567.925	7159.44
568.287	7158.54
568.648	7145.89
569.01	7218.2
569.372	7249.84
569.734	7215.94
570.095	7326.9
570.457	7329.84
570.819	7373.45
571.18	7406.22
571.542	7399.66
571.903	7426.56
572.265	7457.97
572.626	7530.73
572.987	7586.1
573.349	7559.66
573.71	7683.95
574.071	7718.3
574.432	7738.19
574.794	7828.58
575.155	7846.66
575.516	7846.21
575.877	7929.82
576.238	8013.21
576.599	8103.15
576.96	8098.18
577.32	8206.65
577.681	8332.3
578.042	8344.27
578.403	8419.98
578.763	8474.44
579.124	8622.23
579.485	8719.86
579.845	8820.19
580.206	8930.02
580.566	8981.77
580.927	9130.01
581.287	9299.05
581.648	9407.07
582.008	9568.19
582.368	9655.65
582.728	9769.55
583.089	9908.3
583.449	10090.89
583.809	10273.03
584.169	10426.93
584.529	10623.99
584.889	10826.01
585.249	10837.54
585.609	11105.1
585.969	11307.81
586.329	11563.4
586.688	11742.6
587.048	11921.81
587.408	12178.3
587.768	12400.89
588.127	12607.44
588.487	12798.39
588.846	13221.43
589.206	13329.45
589.565	13508.2
589.925	13893.96
590.284	14106.61
590.643	14401.29
591.003	14614.84
591.362	14959.47
591.721	15188.16
592.08	15458.21
592.44	15857.29
592.799	16005.99
593.158	16283.95
593.517	16561.01
593.876	16986.98
594.235	17113.99
594.593	17562.56
594.952	17852.27
595.311	17993.74
595.67	18496.32
596.029	18831.45
596.387	19132.92
596.746	19425.56
597.104	19525.45
597.463	19897.87
597.822	20270.96
598.18	20400.9
598.538	20850.38
598.897	21190.26
599.255	21350.71
599.613	21941.43
599.972	21981.65
600.33	22193.4
600.688	22530.11
601.046	22885.58
601.404	23228.17
601.762	23457.55
602.12	23882.39
602.478	24142.05
602.836	24367.81
603.194	24594.24
603.552	24815.93
603.91	25042.14
604.268	25390.6
604.625	25584.72
604.983	25882.79
605.341	25999.85
605.698	26447.3
606.056	26813.17
606.413	26956.66
606.771	27340.61
607.128	27460.61
607.485	27576.53
607.843	27811.1
608.2	28232.11
608.557	28546.68
608.914	28593.46
609.272	28869.38
609.629	29134.91
609.986	29469.59
610.343	29566.54
610.7	29938.51
611.057	29988.22
611.414	30148.67
611.771	30410.36
612.127	30713.63
612.484	30749.78
612.841	31109.55
613.198	31152.03
613.554	31188.42
613.911	31678.8
614.267	31713.38
614.624	31918.34
614.98	32102.74
615.337	32424.09
615.693	32505.67
616.05	32483.52
616.406	32895.49
616.762	32862.72
617.118	33138.42
617.475	33278.31
617.831	33473.1
618.187	33500.67
618.543	33773.43
618.899	34003.71
619.255	34040.55
619.611	34162.12
619.967	34422.91
620.323	34537.71
620.678	34526.41
621.034	34484.38
621.39	34674.43
621.746	34741.32
622.101	35221.98
622.457	34939.05
622.812	35186.28
623.168	35447.74
623.523	35516.89
623.879	35621.3
624.234	35481.41
624.589	35670.79
624.945	35813.61
625.3	35835.75
625.655	35990.55
626.01	36025.35
626.365	36160.94
626.72	36254.27
627.075	36285.23
627.43	36321.62
627.785	36259.47
628.14	36391.67
628.495	36614.94
628.85	36668.73
629.205	36467.37
629.559	36765.22
629.914	36656.07
630.269	36801.83
630.623	36656.75
630.978	36571.33
631.332	36817.65
631.687	36928.38
632.041	36916.18
632.396	36725.45
632.75	36788.72
633.104	36921.83
633.459	36847.03
633.813	36874.14
634.167	36775.61
634.521	36761.6
634.875	36821.04
635.229	36878.21
635.583	36805.9
635.937	36877.31
636.291	36893.35
636.645	37029.62
636.999	36866.46
637.352	37068.94
637.706	36784.88
638.06	36978.77
638.413	36929.06
638.767	36967.25
639.121	37021.71
639.474	36758.67
639.828	36712.11
640.181	36980.13
640.534	36994.14
640.888	36902.17
641.241	36670.08
641.594	36944.42
641.947	36742.17
642.301	36767.71
642.654	36905.78
643.007	36739.68
643.36	36874.37
643.713	36797.31
644.066	36963.18
644.419	36711.66
644.771	36556.64
645.124	36128.85
645.477	36145.58
645.83	35972.02
646.182	35783.1
646.535	35737.9
646.888	35795.98
647.24	35601.63
647.593	35666.94
647.945	35847.05
648.298	35577.23
648.65	35585.14
649.002	35534.74
649.355	35734.06
649.707	35551.92
650.059	35677.56
650.411	36154.61
650.763	36157.33
651.115	36630.76
651.467	36503.76
651.819	36419.01
652.171	36407.49
652.523	36272.13
652.875	36447.71
653.227	36288.4
653.578	36451.1
653.93	36369.07
654.282	36334.27
654.633	36137.44
654.985	36264.89
655.337	36231.67
655.688	36369.07
656.039	36299.02
656.391	35951.46
656.742	36223.09
657.094	36208.62
657.445	36371.11
657.796	36122.3
658.147	36197.55
658.498	36148.74
658.849	36263.31
659.2	36110.32
659.551	35953.26
659.902	36160.26
660.253	36146.48
660.604	36152.81
660.955	35939.93
661.306	36122.3
661.656	36000.27
662.007	36000.04
662.358	35988.52
662.708	36111.68
663.059	35961.4
663.409	35793.95
663.76	36090.44
664.11	35955.98
664.461	36077.55
664.811	36094.73
665.161	35920.95
665.511	35976.31
665.862	35958.91
666.212	36139.47
666.562	36098.34
666.912	36050.44
667.262	35919.59
667.612	36045.92
667.962	35980.83
668.312	35905.58
668.662	36057.89
669.011	35913.26
669.361	35918.69
669.711	35846.15
670.06	35798.24
670.41	35843.21
670.76	35761.86
671.109	35905.58
671.459	35829.88
671.808	35725.47
672.157	35898.35
672.507	35588.3
672.856	35681.86
673.205	35862.87
673.554	35760.95
673.904	35593.73
674.253	35826.26
674.602	35758.69
674.951	35219.95
675.3	34995.1
675.649	35631.92
675.998	35507.63
676.346	35537.68
676.695	35585.59
677.044	35475.08
677.393	35501.98
677.741	35629.88
678.09	35508.53
678.438	35484.8
678.787	35513.28
679.135	35625.36
679.484	35265.15
679.832	35397.8
680.181	35116.9
680.529	35393.05
680.877	35247.07
681.225	35223.79
681.573	35384.24
681.922	35049.78
682.27	35052.5
682.618	35124.36
682.966	34971.14
683.314	34944.7
683.661	34940.63
684.009	34743.13
684.357	34748.55
684.705	34682.34
685.053	34693.18
685.4	34654.77
685.748	34460.87
686.095	34466.75
686.443	34358.73
686.79	34310.6
687.138	34332.97
687.485	34266.75
687.832	34223.59
688.18	34326.19
688.527	34008.23
688.874	33921.9
689.221	33958.51
689.568	33832.87
689.915	33842.13
690.262	33831.29
690.609	33701.12
690.956	33596.04
691.303	33530.95
691.65	33425.65
691.997	33337.74
692.344	33100.68
692.69	33221.81
693.037	33247.12
693.383	32932.78
693.73	33161.02
694.077	32874.93
694.423	32888.26
694.769	32854.59
695.116	32801.48
695.462	32716.06
695.808	32445.11
696.155	32739.79
696.501	32320.59
696.847	32406.92
697.193	32102.07
697.539	32295.28
697.885	32020.94
698.231	31990.66
698.577	31885.35
698.923	31950.88
699.269	31784.11
699.614	31539.14
699.96	31655.52
700.306	31651.46
700.651	31577.11
700.997	31358.81
701.342	31408.52
701.688	31314.97
702.033	31148.19
702.379	31092.37
702.724	31094.41
703.069	31160.17
703.415	30805.83
703.76	30722.44
704.105	30809.9
704.45	30794.3
704.795	30502.56
705.14	30498.49
705.485	30451.04
705.83	30227.99
706.175	30408.1
706.52	30217.82
706.865	30044.72
707.209	30172.62
707.554	30052.63
707.899	30112.74
708.243	29822.8
708.588	29853.76
708.932	29712.75
709.277	29654.22
709.621	29650.15
709.966	29494.9
710.31	29572.41
710.654	29460.1
710.998	29356.38
711.342	29335.13
711.687	29345.98
712.031	29070.05
712.375	28981.92
712.719	29100.56
713.063	28977.4
713.407	29015.82
713.75	28910.74
714.094	28973.11
714.438	28682.27
714.782	28803.17
715.125	28566.57
715.469	28629.39
715.812	28402.28
716.156	28418.09
716.499	28428.04
716.843	28451.54
717.186	28318.44
717.53	28423.52
717.873	28390.52
718.216	28371.32
718.559	28135.39
718.902	27987.82
719.246	28019.69
719.589	28101.94
719.932	27935.62
720.275	28003.19
720.617	27771.78
720.96	27774.5
721.303	27762.74
721.646	27719.58
721.989	27564.78
722.331	27781.73
722.674	27678
723.016	27705.34
723.359	27596.87
723.701	27474.16
724.044	27310.55
724.386	27329.31
724.729	27296.54
725.071	27412.92
725.413	27334.28
725.755	27281.4
726.097	27226.94
726.439	27090.22
726.782	27087.96
727.124	27287.73
727.465	26888.87
727.807	26895.65
728.149	26949.88
728.491	26866.27
728.833	26824.46
729.175	26788.08
729.516	26759.83
729.858	26607.52
730.199	26727.29
730.541	26580.4
730.882	26584.92
731.224	26588.09
731.565	26469.45
731.906	26502.21
732.248	26384.7
732.589	26247.98
732.93	26222.45
733.271	26285.95
733.612	26353.29
733.953	26260.41
734.294	26209.79
734.635	26195.55
734.976	26248.89
735.317	25963.7
735.658	26019.29
735.999	26098.61
736.339	25815.45
736.68	26000.08
737.021	25897.71
737.361	25868.56
737.702	25856.13
738.042	25763.25
738.383	25794.43
738.723	25928.22
739.063	25637.38
739.404	25719.86
739.744	25672.4
740.084	25558.51
740.424	25577.94
740.764	25503.59
741.104	25664.72
741.444	25506.53
741.784	25288.46
742.124	25468.57
742.464	25291.62
742.804	25321
743.143	25184.28
743.483	25298.85
743.823	25110.16
744.162	25151.06
744.502	25054.34
744.841	25002.82
745.181	25216.6
745.52	24936.83
745.86	24972.31
746.199	24974.8
746.538	24936.38
746.877	24992.65
747.216	24916.27
747.556	24822.03
747.895	24852.09
748.234	24842.82
748.573	24782.03
748.911	24671.3
749.25	24593.11
749.589	24605.31
749.928	24549.04
750.267	24605.77
750.605	24492.32
750.944	24473.34
751.283	24413.45
751.621	24469.5
751.96	24316.06
752.298	24259.79
752.636	24245.55
752.975	24165.55
753.313	23981.38
753.651	24144.76
753.989	24087.36
754.327	23971.66
754.666	23909.51
755.004	23900.25
755.342	23889.85
755.679	23857.54
756.017	23682.17
756.355	23728.5
756.693	23690.31
757.031	23675.62
757.368	23473.37
757.706	23527.38
758.044	23434.27
758.381	23402.86
758.719	23410.09
759.056	23261.39
759.394	23268.85
759.731	23033.83
760.068	23051.68
