Data from hue_32_FLMS001491_00049.txt Node
Date: Tue Feb 07 17:23:27 GMT 2017
User: dcchb
Spectrometer: FLMS00149
Trigger mode: 0
Integration Time (sec): 2.000000E-2
Scans to average: 10
Electric dark correction enabled: true
Nonlinearity correction enabled: false
Boxcar width: 0
XAxis mode: Wavelengths
Number of Pixels in Spectrum: 2048
>>>>>Begin Spectral Data<<<<<
341.393	-17.9
341.776	-17.9
342.16	-17.9
342.543	-66.93
342.927	-73.49
343.31	-56.76
343.693	-79.81
344.077	-65.35
344.46	-59.7
344.843	-47.27
345.226	-33.04
345.61	-22.64
345.993	-32.81
346.376	-13.38
346.759	8.09
347.142	28.88
347.525	45.83
347.908	69.11
348.291	84.02
348.674	86.06
349.057	88.77
349.44	107.75
349.823	138.94
350.206	166.51
350.588	181.87
350.971	216.45
351.354	226.39
351.737	242.44
352.119	251.25
352.502	279.5
352.884	279.72
353.267	306.62
353.65	294.64
354.032	299.84
354.414	297.12
354.797	310.91
355.179	330.57
355.562	324.92
355.944	327.86
356.326	320.18
356.709	342.32
357.091	349.55
357.473	338.03
357.855	346.62
358.238	347.75
358.62	344.58
359.002	331.47
359.384	317.24
359.766	333.06
360.148	368.54
360.53	334.64
360.912	325.82
361.294	347.52
361.676	328.54
362.057	328.99
362.439	319.95
362.821	332.38
363.203	341.42
363.584	331.47
363.966	343.9
364.348	334.86
364.729	324.69
365.111	328.54
365.493	331.93
365.874	349.33
366.256	306.39
366.637	318.82
367.019	321.31
367.4	310.01
367.781	323.56
368.163	303.68
368.544	305.71
368.925	306.84
369.306	331.02
369.688	310.46
370.069	312.72
370.45	316.56
370.831	321.53
371.212	308.65
371.593	321.31
371.974	305.94
372.355	323.11
372.736	347.52
373.117	331.47
373.498	288.99
373.879	313.62
374.26	333.51
374.641	297.58
375.021	316.56
375.402	299.84
375.783	320.18
376.163	336.67
376.544	328.76
376.925	338.93
377.305	335.99
377.686	342.55
378.066	334.86
378.447	335.54
378.827	344.13
379.208	347.07
379.588	339.61
379.968	326.28
380.349	346.16
380.729	345.49
381.109	332.38
381.489	346.62
381.87	338.93
382.25	345.49
382.63	346.16
383.01	363.11
383.39	354.75
383.77	384.13
384.15	353.62
384.53	351.59
384.91	356.78
385.29	347.52
385.67	355.2
386.049	338.03
386.429	363.11
386.809	364.47
387.189	365.15
387.568	355.88
387.948	375.77
388.328	357.91
388.707	351.81
389.087	362.66
389.466	365.6
389.846	364.47
390.225	392.72
390.605	376.67
390.984	378.93
391.363	371.93
391.743	375.54
392.122	361.76
392.501	377.12
392.881	373.96
393.26	399.5
393.639	369.67
394.018	397.01
394.397	405.37
394.776	384.13
395.155	368.31
395.534	400.17
395.913	371.25
396.292	393.39
396.671	412.38
397.05	394.75
397.429	400.17
397.808	398.82
398.186	403.79
398.565	389.55
398.944	404.92
399.323	383
399.701	407.4
400.08	408.08
400.458	396.56
400.837	403.56
401.215	404.92
401.594	430.68
401.972	416.67
402.351	415.99
402.729	406.05
403.107	406.05
403.486	437.46
403.864	413.05
404.242	442.43
404.62	422.55
404.999	418.7
405.377	425.48
405.755	428.19
406.133	451.25
406.511	438.59
406.889	423.45
407.267	451.02
407.645	450.34
408.023	442.43
408.401	453.05
408.779	436.78
409.156	460.96
409.534	461.19
409.912	467.29
410.29	464.8
410.667	454.63
411.045	471.81
411.422	476.33
411.8	483.56
412.178	459.61
412.555	513.39
412.933	471.58
413.31	479.49
413.687	489.89
414.065	486.72
414.442	476.56
414.819	498.25
415.197	485.82
415.574	505.26
415.951	507.74
416.328	508.64
416.705	503.45
417.082	504.13
417.46	520.4
417.837	514.52
418.214	524.24
418.591	517.46
418.967	512.49
419.344	530.34
419.721	547.74
420.098	529.89
420.475	518.14
420.852	533.05
421.228	538.7
421.605	557.46
421.982	537.12
422.358	550.9
422.735	547.29
423.111	597.46
423.488	563.33
423.864	555.42
424.241	585.03
424.617	583.45
424.994	574.63
425.37	566.04
425.746	580.06
426.123	587.96
426.499	581.64
426.875	602.43
427.251	580.73
427.627	621.86
428.003	605.37
428.379	606.5
428.756	646.49
429.132	611.47
429.507	616.44
429.883	630.22
430.259	637
430.635	621.64
431.011	630.45
431.387	647.17
431.763	656.66
432.138	652.37
432.514	677.45
432.89	693.72
433.265	681.07
433.641	707.06
434.016	692.82
434.392	686.49
434.767	704.12
435.143	704.57
435.518	734.63
435.894	721.97
436.269	714.06
436.644	726.94
437.02	743.44
437.395	752.48
437.77	741.41
438.145	776.21
438.52	770.11
438.895	746.6
439.271	753.84
439.646	771.91
440.021	768.75
440.395	775.53
440.77	771.69
441.145	770.33
441.52	812.59
441.895	813.95
442.27	811.91
442.645	803.33
443.019	809.88
443.394	841.74
443.769	819.37
444.143	822.53
444.518	834.51
444.892	845.81
445.267	851.01
445.641	849.88
446.016	848.52
446.39	851.46
446.764	833.61
447.139	855.98
447.513	851.91
447.887	870.22
448.262	859.37
448.636	868.41
449.01	869.09
449.384	904.79
449.758	868.41
450.132	883.55
450.506	923.55
450.88	902.53
451.254	906.83
451.628	934.85
452.002	930.1
452.376	938.46
452.75	948.86
453.123	949.99
453.497	970.1
453.871	974.17
454.244	984.11
454.618	984.56
454.992	1010.78
455.365	1012.81
455.739	1051
456.112	1032.02
456.486	1053.49
456.859	1052.13
457.232	1059.36
457.606	1088.29
457.979	1070.44
458.352	1083.09
458.725	1102.75
459.099	1122.64
459.472	1114.5
459.845	1116.99
460.218	1168.06
460.591	1158.57
460.964	1151.34
461.337	1162.64
461.71	1204.22
462.083	1214.16
462.456	1211.23
462.829	1209.19
463.201	1251.22
463.574	1235.18
463.947	1278.79
464.32	1307.27
464.692	1299.13
465.065	1335.06
465.438	1326.02
465.81	1366.48
466.183	1378.9
466.555	1396.08
466.928	1403.99
467.3	1429.98
467.672	1416.42
468.045	1476.98
468.417	1474.72
468.789	1498.68
469.161	1495.74
469.534	1519.69
469.906	1551.78
470.278	1605.11
470.65	1587.26
471.022	1629.97
471.394	1657.54
471.766	1676.07
472.138	1694.6
472.51	1740.25
472.882	1792.45
473.253	1795.62
473.625	1801.94
473.997	1876.74
474.369	1918.78
474.74	1880.81
475.112	1975.72
475.484	2009.62
475.855	2014.14
476.227	2079.45
476.598	2109.51
476.97	2169.17
477.341	2247.58
477.713	2242.16
478.084	2299.11
478.455	2369.39
478.827	2394.02
479.198	2462.49
479.569	2481.02
479.94	2599.66
480.311	2636.95
480.682	2715.14
481.053	2801.69
481.424	2849.6
481.795	2882.14
482.166	2935.02
482.537	2977.51
482.908	3097.73
483.279	3182.92
483.65	3241.68
484.021	3304.05
484.391	3385.63
484.762	3445.06
485.133	3514.67
485.503	3569.81
485.874	3690.71
486.244	3723.7
486.615	3886.41
486.985	3961.66
487.356	4058.16
487.726	4064.71
488.097	4201.66
488.467	4226.51
488.837	4396.9
489.207	4427.19
489.578	4545.83
489.948	4659.27
490.318	4697.91
490.688	4756.22
491.058	4854.75
491.428	4995.53
491.798	5045.7
492.168	5159.14
492.538	5268.07
492.908	5379.93
493.278	5418.35
493.648	5473.71
494.017	5585.8
494.387	5635.06
494.757	5731.78
495.126	5807.26
495.496	5853.14
495.866	5974.49
496.235	6129.74
496.605	6139.46
496.974	6218.33
497.344	6294.26
497.713	6410.18
498.082	6443.18
498.452	6533.35
498.821	6655.6
499.19	6647.01
499.559	6746.45
499.928	6780.34
500.298	6875.71
500.667	6943.28
501.036	6996.38
501.405	7079.55
501.774	7093.78
502.143	7227.34
502.512	7291.52
502.88	7376.26
503.249	7357.73
503.618	7523.38
503.987	7543.04
504.356	7552.3
504.724	7621
505.093	7653.99
505.462	7712.98
505.83	7765.4
506.199	7871.39
506.567	7943.48
506.936	8022.12
507.304	8128.33
507.672	8152.06
508.041	8182.57
508.409	8281.55
508.777	8339.63
509.145	8366.97
509.514	8413.52
509.882	8528.77
510.25	8476.34
510.618	8582.56
510.986	8574.87
511.354	8777.58
511.722	8901.19
512.09	8870.46
512.458	8849.44
512.826	8998.37
513.193	8996.78
513.561	9014.41
513.929	9111.13
514.297	9146.61
514.664	9291.24
515.032	9304.35
515.4	9350.22
515.767	9413.04
516.135	9423.66
516.502	9387.51
516.869	9554.28
517.237	9550.67
517.604	9514.06
517.972	9660.72
518.339	9677.67
518.706	9688.97
519.073	9797.89
519.44	9832.92
519.808	9873.82
520.175	9875.18
520.542	10015.29
520.909	10060.48
521.276	10125.79
521.643	10158.56
522.009	10219.8
522.376	10353.13
522.743	10350.42
523.11	10448.04
523.477	10491.89
523.843	10586.8
524.21	10613.24
524.577	10731.43
524.943	10753.12
525.31	10789.96
525.676	10860.91
526.043	10879.22
526.409	10967.13
526.776	11080.57
527.142	11142.26
527.508	11270.17
527.874	11264.52
528.241	11284.86
528.607	11358.3
528.973	11405.08
529.339	11518.75
529.705	11558.75
530.071	11713.55
530.437	11725.07
530.803	11751.06
531.169	11937.04
531.535	11831.74
531.901	11871.51
532.267	12002.35
532.632	11988.57
532.998	12089.81
533.364	12164.38
533.73	12253.65
534.095	12336.58
534.461	12301.78
534.826	12379.97
535.192	12471.27
535.557	12595.78
535.923	12549.46
536.288	12588.1
536.653	12597.82
537.019	12573.86
537.384	12711.94
537.749	12714.65
538.114	12764.37
538.479	12874.65
538.845	12927.98
539.21	12975.89
539.575	12991.03
539.94	13077.58
540.305	13094.3
540.67	13121.65
541.034	13227.41
541.399	13250.68
541.764	13293.17
542.129	13339.49
542.494	13371.13
542.858	13546.27
543.223	13496.78
543.587	13567.06
543.952	13530.68
544.316	13646.6
544.681	13631.24
545.045	13767.96
545.41	13830.78
545.774	13881.63
546.138	13886.15
546.503	13961.85
546.867	13974.96
547.231	14127.27
547.595	14100.83
547.959	14151.68
548.324	14230.77
548.688	14330.65
549.052	14386.47
549.416	14347.83
549.779	14310.54
550.143	14415.62
550.507	14494.04
550.871	14585.56
551.235	14560.7
551.599	14694.26
551.962	14698.33
552.326	14704.66
552.689	14823.75
553.053	14723.41
553.417	14842.05
553.78	14971.99
554.143	14928.38
554.507	15062.39
554.87	15056.28
555.234	15164.76
555.597	15157.98
555.96	15214.7
556.323	15266.67
556.686	15284.98
557.05	15367.69
557.413	15412.21
557.776	15384.41
558.139	15516.84
558.502	15583.73
558.865	15686.78
559.228	15710.05
559.59	15752.09
559.953	15753.22
560.316	15962.93
560.679	15921.35
561.041	16005.86
561.404	16015.13
561.767	16191.85
562.129	16094.45
562.492	16237.27
562.854	16309.59
563.217	16303.03
563.579	16312.3
563.941	16461.9
564.304	16479.98
564.666	16610.37
565.028	16588
565.39	16609.92
565.753	16671.38
566.115	16836.8
566.477	16843.81
566.839	16863.47
567.201	17036.35
567.563	17063.01
567.925	17174.87
568.287	17139.39
568.648	17178.26
569.01	17307.75
569.372	17444.47
569.734	17378.94
570.095	17526.95
570.457	17547.07
570.819	17641.08
571.18	17663.67
571.542	17735.31
571.903	17879.04
572.265	17891.01
572.626	18097.11
572.987	18119.93
573.349	18229.99
573.71	18253.71
574.071	18355.63
574.432	18422.98
574.794	18587.27
575.155	18723.99
575.516	18667.26
575.877	18822.74
576.238	18901.83
576.599	19054.6
576.96	19162.17
577.32	19196.97
577.681	19339.79
578.042	19564.87
578.403	19626.79
578.763	19684.19
579.124	19830.85
579.485	20108.81
579.845	20079.88
580.206	20424.05
580.566	20456.37
580.927	20577.27
581.287	20840.31
581.648	20996.47
582.008	21096.8
582.368	21218.61
582.728	21542.67
583.089	21679.61
583.449	21857.91
583.809	22028.08
584.169	22337
584.529	22421.29
584.889	22945.57
585.249	22822.18
585.609	22981.27
585.969	23412.45
586.329	23539.45
586.688	23827.35
587.048	24076.61
587.408	24186.89
587.768	24359.09
588.127	24614.9
588.487	24881.34
588.846	25239.07
589.206	25373.98
589.565	25673.18
589.925	25954.98
590.284	26121.98
590.643	26506.83
591.003	26757.22
591.362	26949.76
591.721	27245.57
592.08	27629.51
592.44	27858.66
592.799	28158.99
593.158	28270.4
593.517	28505.65
593.876	28935.47
594.235	28938.63
594.593	29310.15
594.952	29648.9
595.311	29740.64
595.67	30244.13
596.029	30469.89
596.387	30748.08
596.746	31219.25
597.104	31230.32
597.463	31492.69
597.822	31823.53
598.18	31952.79
598.538	32208.83
598.897	32567.91
599.255	32614.24
599.613	33390.72
599.972	33291.51
600.33	33582.58
600.688	33738.05
601.046	34105.5
601.404	34323.57
601.762	34454.87
602.12	34839.27
602.478	34952.94
602.836	35090.56
603.194	35290.33
603.552	35349.99
603.91	35551.11
604.268	36006.92
604.625	35996.75
604.983	36352.45
605.341	36356.52
605.698	36689.39
606.056	37005.99
606.413	37140.22
606.771	37339.77
607.128	37412.76
607.485	37550.83
607.843	37719.42
608.2	37974.1
608.557	38355.11
608.914	38344.49
609.272	38511.04
609.629	38824.02
609.986	39162.32
610.343	38948.99
610.7	39425.81
611.057	39508.3
611.414	39663.1
611.771	39694.06
612.127	39991.67
612.484	40241.84
612.841	40279.35
613.198	40397.54
613.554	40417.43
613.911	40892.22
614.267	40858.77
614.624	40964.53
614.98	41075.71
615.337	41228.7
615.693	41221.7
616.05	41443.61
616.406	41630.5
616.762	41680.9
617.118	41796.6
617.475	41767.9
617.831	42010.15
618.187	42135.57
618.543	42144.84
618.899	42561.55
619.255	42546.86
619.611	42647.88
619.967	42876.12
620.323	42925.38
620.678	42824.82
621.034	42726.29
621.39	42900.52
621.746	42948.66
622.101	43403.56
622.457	43166.73
622.812	43323.34
623.168	43461.87
623.523	43492.37
623.879	43796.55
624.234	43492.37
624.589	43707.51
624.945	43839.03
625.3	43947.95
625.655	43928.75
626.01	44020.27
626.365	44033.83
626.72	44007.61
627.075	44039.25
627.43	44128.29
627.785	44014.85
628.14	44120.38
628.495	44216.65
628.85	44175.97
629.205	44007.16
629.559	44403.54
629.914	44131.68
630.269	44268.4
630.623	44154.95
630.978	44229.08
631.332	44451.22
631.687	44509.3
632.041	44375.74
632.396	44393.59
632.75	44299.58
633.104	44390.43
633.459	44171.9
633.813	44269.75
634.167	44202.41
634.521	44199.47
634.875	44307.27
635.229	44344.33
635.583	44058.69
635.937	44232.47
636.291	44142.53
636.645	44273.6
636.999	44097.33
637.352	44263.2
637.706	44093.49
638.06	44318.11
638.413	44147.27
638.767	43987.5
639.121	44243.31
639.474	43941.18
639.828	43941.85
640.181	44015.52
640.534	44135.52
640.888	43959.48
641.241	43838.35
641.594	44054.17
641.947	43989.54
642.301	43870.22
642.654	43914.06
643.007	43978.69
643.36	43900.27
643.713	43857.34
644.066	44006.94
644.419	43917.45
644.771	43561.98
645.124	43272.27
645.477	43056
645.83	42876.12
646.182	42633.41
646.535	42644.71
646.888	42722
647.24	42335.79
647.593	42756.12
647.945	42625.5
648.298	42546.41
648.65	42375.11
649.002	42301.9
649.355	42555
649.707	42271.39
650.059	42703.02
650.411	43033.63
650.763	43091.93
651.115	43524.69
651.467	43331.7
651.819	43392.26
652.171	43330.12
652.523	43195.21
652.875	43277.01
653.227	43027.75
653.578	43407.63
653.93	43220.97
654.282	43106.85
654.633	43124.47
654.985	43173.96
655.337	43231.36
655.688	43139.16
656.039	43231.59
656.391	42893.97
656.742	43029.56
657.094	42958.6
657.445	43300.51
657.796	42954.31
658.147	42922.9
658.498	42983.23
658.849	43048.09
659.2	42892.39
659.551	42833.63
659.902	42936.23
660.253	42924.7
660.604	42972.16
660.955	42825.27
661.306	42954.08
661.656	42804.93
662.007	42801.32
662.358	42822.33
662.708	42811.71
663.059	42858.94
663.409	42566.97
663.76	42870.24
664.11	42832.28
664.461	43038.37
664.811	42857.36
665.161	42849.45
665.511	42806.52
665.862	42881.77
666.212	42945.95
666.562	42894.65
666.912	42883.35
667.262	42719.51
667.612	42765.84
667.962	42825.5
668.312	42806.06
668.662	42834.54
669.011	42710.47
669.361	42599.29
669.711	42759.29
670.06	42636.58
670.41	42456.02
670.76	42366.75
671.109	42674.77
671.459	42657.82
671.808	42518.39
672.157	42666.18
672.507	42403.81
672.856	42363.36
673.205	42496.69
673.554	42408.56
673.904	42435.9
674.253	42652.62
674.602	42396.13
674.951	41813.32
675.3	41775.81
675.649	42314.55
675.998	42280.88
676.346	42339.86
676.695	42487.88
677.044	42023.26
677.393	42348.67
677.741	42330.14
678.09	42159.53
678.438	42204.5
678.787	42228
679.135	42122.69
679.484	41979.42
679.832	42034.33
680.181	41882.47
680.529	41970.61
680.877	41811.51
681.225	41754.34
681.573	42091.51
681.922	41673.66
682.27	41613.78
682.618	41527
682.966	41608.13
683.314	41635.93
683.661	41432.99
684.009	41338.76
684.357	41328.59
684.705	41247.46
685.053	41227.8
685.4	41148.48
685.748	40976.96
686.095	40918.43
686.443	40951.42
686.79	40850.86
687.138	40869.17
687.485	40795.72
687.832	40664.2
688.18	40713.01
688.527	40532.45
688.874	40487.03
689.221	40448.16
689.568	40321.38
689.915	40190.31
690.262	40224.66
690.609	40158.68
690.956	39995.52
691.303	40090.43
691.65	39863.54
691.997	39821.96
692.344	39557.79
692.69	39522.53
693.037	39593.94
693.383	39173.16
693.73	39297.91
694.077	39157.57
694.423	39049.55
694.769	39040.96
695.116	38939.05
695.462	38881.87
695.808	38774.98
696.155	38851.37
696.501	38572.28
696.847	38481.43
697.193	38458.38
697.539	38436.01
697.885	38215.45
698.231	38135.23
698.577	37986.53
698.923	38052.52
699.269	37823.37
699.614	37657.95
699.96	37692.98
700.306	37673.54
700.651	37469.25
700.997	37364.17
701.342	37390.84
701.688	37201.24
702.033	37168.25
702.379	36959.89
702.724	37091.41
703.069	37108.81
703.415	36640.8
703.76	36746.34
704.105	36785.66
704.45	36608.71
704.795	36455.5
705.14	36264.31
705.485	36329.85
705.83	36227.03
706.175	36277.42
706.52	36154.94
706.865	35998.79
707.209	35863.2
707.554	35737.32
707.899	35957.43
708.243	35657.78
708.588	35542.53
708.932	35376.2
709.277	35459.59
709.621	35364
709.966	35175.98
710.31	35207.85
710.654	34958.13
710.998	35079.04
711.342	34908.87
711.687	34927.63
712.031	34656.9
712.375	34662.1
712.719	34691.47
713.063	34602.66
713.407	34766.5
713.75	34514.53
714.094	34430.01
714.438	34394.76
714.782	34408.54
715.125	34173.3
715.469	34286.97
715.812	34092.17
716.156	33903.02
716.499	33910.25
716.843	34046.97
717.186	33779.18
717.53	33977.6
717.873	33886.3
718.216	33796.81
718.559	33617.15
718.902	33477.04
719.246	33497.83
719.589	33367.44
719.932	33341.23
720.275	33229.37
720.617	33297.84
720.96	33302.81
721.303	33162.02
721.646	33151.4
721.989	33006.55
722.331	33124.51
722.674	32915.48
723.016	32959.99
723.359	32946.66
723.701	32896.04
724.044	32792.32
724.386	32555.71
724.729	32733.79
725.071	32575.6
725.413	32556.39
725.755	32501.02
726.097	32356.17
726.439	32264.87
726.782	32368.37
727.124	32449.27
727.465	32269.84
727.807	32243.4
728.149	32310.29
728.491	32225.32
728.833	32130.86
729.175	31984.88
729.516	32098.55
729.858	31854.26
730.199	31919.8
730.541	31811.32
730.882	31811.55
731.224	31758.44
731.565	31774.26
731.906	31670.76
732.248	31678.45
732.589	31379.02
732.93	31323.43
733.271	31433.48
733.612	31440.94
733.953	31433.48
734.294	31308.96
734.635	31257.67
734.976	31372.92
735.317	31040.05
735.658	31063.55
735.999	31105.58
736.339	31024.9
736.68	31182.19
737.021	31082.98
737.361	30866.26
737.702	31047.5
738.042	30891.8
738.383	30746.27
738.723	30739.71
739.063	30608.64
739.404	30751.69
739.744	30726.16
740.084	30476.44
740.424	30533.39
740.764	30548.53
741.104	30689.55
741.444	30432.6
741.784	30310.12
742.124	30422.21
742.464	30329.33
742.804	30265.6
743.143	30184.02
743.483	30203.01
743.823	30049.79
744.162	30136.57
744.502	30130.92
744.841	29922.11
745.181	30065.83
745.52	29959.17
745.86	29904.71
746.199	29959.62
746.538	29885.27
746.877	29873.75
747.216	29907.19
747.556	29701.78
747.895	29753.53
748.234	29685.28
748.573	29614.55
748.911	29480.99
749.25	29586.52
749.589	29415.23
749.928	29438.28
750.267	29521.89
750.605	29341.78
750.944	29229.92
751.283	29196.48
751.621	29282.58
751.96	29047.78
752.298	29125.97
752.636	29077.16
752.975	28982.92
753.313	28879.65
753.651	29026.77
753.989	28779.31
754.327	28722.82
754.666	28703.16
755.004	28729.82
755.342	28655.25
755.679	28551.75
756.017	28445.09
756.355	28566.66
756.693	28394.69
757.031	28391.75
757.368	28268.14
