Data from hue_60_FLMS001491_88.txt Node
Date: Mon Feb 06 15:18:03 GMT 2017
User: dcchb
Spectrometer: FLMS00149
Trigger mode: 0
Integration Time (sec): 2.000000E-2
Scans to average: 10
Electric dark correction enabled: true
Nonlinearity correction enabled: false
Boxcar width: 0
XAxis mode: Wavelengths
Number of Pixels in Spectrum: 2048
>>>>>Begin Spectral Data<<<<<
341.393	-25.47
341.776	-25.47
342.16	-25.47
342.543	-50.78
342.927	-77.89
343.31	-85.12
343.693	-77.67
344.077	-64.11
344.46	-49.19
344.843	-41.96
345.226	-40.15
345.61	-36.31
345.993	-9.65
346.376	7.98
346.759	7.3
347.142	19.28
347.525	49.11
347.908	51.37
348.291	73.97
348.674	95.21
349.057	99.95
349.44	119.84
349.823	131.59
350.206	160.29
350.588	204.59
350.971	196.45
351.354	228.54
351.737	238.48
352.119	241.42
352.502	259.05
352.884	266.73
353.267	298.59
353.65	291.36
354.032	311.02
354.414	314.64
354.797	312.38
355.179	330.46
355.562	338.37
355.944	341.98
356.326	330.01
356.709	327.52
357.091	336.11
357.473	344.92
357.855	331.81
358.238	338.59
358.62	345.37
359.002	345.82
359.384	342.21
359.766	341.08
360.148	332.04
360.53	313.28
360.912	327.29
361.294	323.23
361.676	330.46
362.057	342.66
362.439	328.42
362.821	310.12
363.203	353.96
363.584	331.59
363.966	321.87
364.348	311.47
364.729	307.18
365.111	311.7
365.493	323
365.874	313.96
366.256	332.27
366.637	319.61
367.019	338.37
367.4	325.26
367.781	308.99
368.163	307.86
368.544	320.06
368.925	314.41
369.306	318.25
369.688	291.14
370.069	302.66
370.45	321.64
370.831	303.34
371.212	309.89
371.593	307.63
371.974	322.55
372.355	309.89
372.736	328.88
373.117	319.38
373.498	321.87
373.879	313.73
374.26	315.77
374.641	314.19
375.021	301.53
375.402	321.19
375.783	299.72
376.163	322.32
376.544	320.97
376.925	315.99
377.305	330.68
377.686	340.17
378.066	332.04
378.447	337.01
378.827	315.99
379.208	329.78
379.588	320.74
379.968	335.66
380.349	340.85
380.729	323.45
381.109	333.4
381.489	339.72
381.87	334.53
382.25	314.64
382.63	331.59
383.01	351.02
383.39	332.49
383.77	359.16
384.15	316.22
384.53	328.42
384.91	338.14
385.29	330.23
385.67	349.89
386.049	335.88
386.429	351.7
386.809	358.25
387.189	358.03
387.568	358.25
387.948	369.55
388.328	363.45
388.707	358.93
389.087	342.89
389.466	359.61
389.846	350.8
390.225	349.89
390.605	347.63
390.984	364.58
391.363	360.74
391.743	362.09
392.122	360.51
392.501	354.64
392.881	366.39
393.26	382.43
393.639	375.88
394.018	361.19
394.397	380.4
394.776	381.08
395.155	355.32
395.534	360.51
395.913	377.46
396.292	376.78
396.671	386.73
397.05	354.86
397.429	387.63
397.808	368.42
398.186	357.35
398.565	369.78
398.944	390.57
399.323	370.23
399.701	360.51
400.08	396.22
400.458	377.24
400.837	386.5
401.215	395.99
401.594	386.95
401.972	394.41
402.351	409.55
402.729	412.26
403.107	398.7
403.486	395.31
403.864	422.43
404.242	411.13
404.62	398.25
404.999	411.59
405.377	381.76
405.755	414.3
406.133	406.84
406.511	410.91
406.889	421.3
407.267	402.09
407.645	409.1
408.023	423.56
408.401	426.27
408.779	419.95
409.156	433.96
409.534	423.56
409.912	418.59
410.29	428.08
410.667	431.92
411.045	424.69
411.422	437.12
411.8	449.78
412.178	447.97
412.555	433.51
412.933	469.66
413.31	451.81
413.687	464.01
414.065	466.05
414.442	447.97
414.819	480.06
415.197	479.61
415.574	470.11
415.951	464.92
416.328	465.37
416.705	484.58
417.082	491.58
417.46	474.86
417.837	501.98
418.214	469.44
418.591	476.22
418.967	490.91
419.344	490
419.721	489.32
420.098	500.85
420.475	473.73
420.852	504.24
421.228	493.39
421.605	491.36
421.982	506.27
422.358	529.1
422.735	509.89
423.111	522.09
423.488	507.85
423.864	522.77
424.241	540.17
424.617	515.76
424.994	526.84
425.37	561.19
425.746	546.27
426.123	550.56
426.499	537.68
426.875	554.86
427.251	546.5
427.627	544.69
428.003	566.61
428.379	552.15
428.756	568.87
429.132	568.87
429.507	549.21
429.883	588.76
430.259	588.53
430.635	585.14
431.011	574.74
431.387	585.14
431.763	593.73
432.138	596.21
432.514	588.3
432.89	607.96
433.265	598.25
433.641	620.62
434.016	629.21
434.392	643.67
434.767	635.31
435.143	631.69
435.518	620.85
435.894	620.17
436.269	642.54
436.644	646.83
437.02	672.14
437.395	650.22
437.77	660.39
438.145	666.49
438.52	682.09
438.895	685.25
439.271	685.93
439.646	673.95
440.021	680.05
440.395	673.05
440.77	704.01
441.145	707.85
441.52	693.84
441.895	699.26
442.27	721.63
442.645	720.96
443.019	701.07
443.394	725.48
443.769	706.04
444.143	717.79
444.518	732.48
444.892	730.9
445.267	742.88
445.641	746.04
446.016	732.48
446.39	753.95
446.764	771.12
447.139	760.95
447.513	761.86
447.887	769.09
448.262	781.52
448.636	783.78
449.01	781.97
449.384	786.49
449.758	796.66
450.132	813.61
450.506	792.37
450.88	814.29
451.254	799.37
451.628	809.54
452.002	823.33
452.376	819.26
452.75	845.7
453.123	832.37
453.497	852.03
453.871	872.59
454.244	858.81
454.618	869.2
454.992	871.01
455.365	861.29
455.739	882.31
456.112	912.59
456.486	920.27
456.859	921.63
457.232	910.33
457.606	937.22
457.979	951.46
458.352	957.56
458.725	955.3
459.099	991.91
459.472	1002.08
459.845	987.39
460.218	1009.08
460.591	996.88
460.964	1033.04
461.337	1038.91
461.71	1037.33
462.083	1063.55
462.456	1064.45
462.829	1076.43
463.201	1094.28
463.574	1102.87
463.947	1124.79
464.32	1136.54
464.692	1149.42
465.065	1166.37
465.438	1190.77
465.81	1193.26
466.183	1219.7
466.555	1250.66
466.928	1268.51
467.3	1279.58
467.672	1287.72
468.045	1305.12
468.417	1324.1
468.789	1337.89
469.161	1348.96
469.534	1387.83
469.906	1379.47
470.278	1450.88
470.65	1424.21
471.022	1492.91
471.394	1508.96
471.766	1517.09
472.138	1550.54
472.51	1621.27
472.882	1629.63
473.253	1647.26
473.625	1680.25
473.997	1751.66
474.369	1731.32
474.74	1799.8
475.112	1844.09
475.484	1881.6
475.855	1938.32
476.227	1964.09
476.598	2058.32
476.97	2072.11
477.341	2161.14
477.713	2182.84
478.084	2224.87
478.455	2340.35
478.827	2392.78
479.198	2486.11
479.569	2500.8
479.94	2582.6
480.311	2651.75
480.682	2743.05
481.053	2822.82
481.424	2920.9
481.795	3001.57
482.166	3067.79
482.537	3141
482.908	3266.43
483.279	3304.84
483.65	3448.57
484.021	3584.16
484.391	3665.51
484.762	3757.94
485.133	3832.06
485.503	3921.55
485.874	4067.31
486.244	4169.23
486.615	4338.04
486.985	4384.14
487.356	4573.28
487.726	4691.7
488.097	4844.46
488.467	4872.26
488.837	5131.01
489.207	5190.44
489.578	5370.32
489.948	5521.96
490.318	5621.84
490.688	5747.04
491.058	5902.06
491.428	6078.1
491.798	6254.37
492.168	6420.01
492.538	6467.92
492.908	6650.74
493.278	6841.92
493.648	6949.49
494.017	7121.69
494.387	7284.17
494.757	7438.52
495.126	7624.05
495.496	7714.9
495.866	7830.37
496.235	7986.75
496.605	8162.57
496.974	8362.11
497.344	8511.03
497.713	8634.19
498.082	8765.72
498.452	8927.75
498.821	9090.45
499.19	9167.06
499.559	9372.48
499.928	9551.46
500.298	9655.18
500.667	9856.53
501.036	9929.98
501.405	10182.4
501.774	10248.39
502.143	10377.42
502.512	10519.57
502.88	10709.62
503.249	10795.72
503.618	10918.43
503.987	11041.81
504.356	11201.58
504.724	11390.96
505.093	11499.43
505.462	11623.04
505.83	11780.55
506.199	11883.37
506.567	12178.51
506.936	12203.59
507.304	12452.85
507.672	12488.1
508.041	12637.25
508.409	12779.17
508.777	12995.21
509.145	13235.43
509.514	13155.88
509.882	13337.35
510.25	13453.95
510.618	13622.09
510.986	13654.85
511.354	13898.46
511.722	14158.79
512.09	14253.93
512.458	14320.37
512.826	14451.22
513.193	14529.86
513.561	14669.06
513.929	14844.2
514.297	15109.73
514.664	15022.73
515.032	15195.38
515.4	15340.01
515.767	15521.24
516.135	15706.78
516.502	15637.85
516.869	15933.44
517.237	16048.91
517.604	15987.45
517.972	16262.92
518.339	16317.83
518.706	16512.63
519.073	16663.59
519.44	16739.97
519.808	16943.35
520.175	16885.95
520.542	17222.67
520.909	17311.48
521.276	17380.4
521.643	17643
522.009	17738.81
522.376	17945.14
522.743	18093.15
523.11	18180.16
523.477	18463.77
523.843	18470.77
524.21	18668.05
524.577	18921.38
524.943	18993.24
525.31	19125.67
525.676	19387.58
526.043	19483.63
526.409	19510.74
526.776	19808.59
527.142	19858.08
527.508	19955.48
527.874	20199.09
528.241	20314.79
528.607	20325.19
528.973	20540.1
529.339	20620.77
529.705	20827.32
530.071	20884.04
530.437	21012.4
530.803	21147.31
531.169	21266.4
531.535	21141.66
531.901	21431.37
532.267	21410.13
532.632	21614.42
532.998	21801.31
533.364	21893.28
533.73	21861.64
534.095	22093.28
534.461	22167.4
534.826	22328.98
535.192	22462.76
535.557	22596.76
535.923	22567.84
536.288	22686.93
536.653	22870.66
537.019	22808.51
537.384	22957.43
537.749	23050.09
538.114	23084.89
538.479	23235.17
538.845	23324.43
539.21	23248.05
539.575	23385.44
539.94	23412.34
540.305	23526.91
540.67	23658.88
541.034	23750.86
541.399	23825.66
541.764	23918.76
542.129	24002.83
542.494	24129.15
542.858	24106.78
543.223	24115.59
543.587	24345.42
543.952	24291.41
544.316	24446.21
544.681	24496.38
545.045	24553.1
545.41	24742.47
545.774	24690.72
546.138	24775.01
546.503	24883.94
546.867	24901.79
547.231	25061.78
547.595	25158.73
547.959	25251.84
548.324	25275.56
548.688	25450.02
549.052	25455.9
549.416	25578.38
549.779	25633.07
550.143	25626.06
550.507	25783.8
550.871	25826.06
551.235	25891.82
551.599	26096.56
551.962	26144.92
552.326	26252.49
552.689	26324.12
553.053	26260.85
553.417	26357.34
553.78	26727.28
554.143	26613.83
554.507	26569.09
554.87	26872.81
555.234	27055.18
555.597	26997.55
555.96	27147.83
556.323	27296.3
556.686	27267.15
557.05	27511.21
557.413	27483.42
557.776	27619.91
558.139	27830.75
558.502	27903.52
558.865	27913.23
559.228	28155.04
559.59	28100.8
559.953	28281.36
560.316	28566.78
560.679	28542.6
561.041	28806.54
561.404	28870.05
561.767	28948.24
562.129	29002.02
562.492	29378.28
562.854	29323.37
563.217	29350.71
563.579	29475.68
563.941	29692.85
564.304	29839.29
564.666	29943.69
565.028	30073.63
565.39	30230.01
565.753	30278.6
566.115	30391.81
566.477	30449.44
566.839	30606.05
567.201	30738.25
567.563	30853.95
567.925	30983.21
568.287	31236.54
568.648	31243.09
569.01	31405.57
569.372	31555.63
569.734	31512.01
570.095	31640.82
570.457	31770.99
570.819	31909.97
571.18	31965.33
571.542	32140.69
571.903	32096.85
572.265	32250.75
572.626	32306.11
572.987	32343.17
573.349	32584.52
573.71	32671.98
574.071	32707.23
574.432	32890.96
574.794	32972.76
575.155	32957.85
575.516	32916.95
575.877	33081.69
576.238	33183.38
576.599	33274.45
576.96	33493.43
577.32	33390.61
577.681	33531.17
578.042	33549.47
578.403	33619.98
578.763	33648
579.124	33819.97
579.485	33749.01
579.845	33960.76
580.206	33737.04
580.566	33923.02
580.927	33947.43
581.287	34085.95
581.648	34029.01
582.008	34091.83
582.368	34073.98
582.728	34125.28
583.089	34225.61
583.449	34085.95
583.809	34330.69
584.169	34318.04
584.529	34241.2
584.889	34466.73
585.249	34295.67
585.609	34212.28
585.969	34485.72
586.329	34256.8
586.688	34324.14
587.048	34378.83
587.408	34396
587.768	34419.73
588.127	34315.1
588.487	34314.42
588.846	34575.43
589.206	34510.58
589.565	34463.8
589.925	34548.31
590.284	34528.88
590.643	34527.3
591.003	34577.01
591.362	34720.97
591.721	34610.69
592.08	34752.15
592.44	34715.99
592.799	34828.76
593.158	34810.91
593.517	34869.44
593.876	34850.45
594.235	34775.88
594.593	34767.52
594.952	34855.2
595.311	34816.56
595.67	35015.2
596.029	35131.58
596.387	34986.27
596.746	35188.75
597.104	34945.59
597.463	35013.39
597.822	35222.87
598.18	35029.66
598.538	35115.53
598.897	35213.61
599.255	35039.83
599.613	35561.17
599.972	35126.38
600.33	35366.15
600.688	35211.35
601.046	35408.18
601.404	35532.7
601.762	35506.26
602.12	35648.85
602.478	35734.27
602.836	35720.71
603.194	35433.94
603.552	35600.26
603.91	35613.6
604.268	35844.1
604.625	35714.16
604.983	35848.17
605.341	35751.67
605.698	36001.84
606.056	36037.77
606.413	35912.57
606.771	36109.86
607.128	36224.2
607.485	36058.56
607.843	36089.29
608.2	36370.87
608.557	36431.43
608.914	36341.26
609.272	36432.56
609.629	36587.58
609.986	36790.97
610.343	36509.62
610.7	36864.19
611.057	36923.39
611.414	36744.42
611.771	36926.33
612.127	37134.46
612.484	37167.68
612.841	37171.75
613.198	37071.19
613.554	37037.29
613.911	37439.09
614.267	37429.37
614.624	37392.76
614.98	37253.78
615.337	37526.99
615.693	37511.4
616.05	37494.23
616.406	37596.14
616.762	37594.11
617.118	37613.09
617.475	37669.14
617.831	37857.83
618.187	37804.27
618.543	38033.19
618.899	38176.02
619.255	38024.83
619.611	38058.28
619.967	38222.12
620.323	38231.38
620.678	38122.23
621.034	38168.78
621.39	38100.31
621.746	38244.94
622.101	38523.35
622.457	38340.31
622.812	38402.45
623.168	38444.48
623.523	38489.91
623.879	38581.43
624.234	38321.55
624.589	38513.63
624.945	38505.95
625.3	38622.33
625.655	38456.01
626.01	38618.49
626.365	38636.34
626.72	38595.89
627.075	38671.37
627.43	38533.75
627.785	38561.09
628.14	38609.9
628.495	38704.59
628.85	38702.1
629.205	38576.01
629.559	38821.2
629.914	38585.72
630.269	38754.98
630.623	38568.1
630.978	38561.77
631.332	38599.06
631.687	38678.6
632.041	38529
632.396	38705.04
632.75	38518.15
633.104	38650.35
633.459	38465.5
633.813	38519.06
634.167	38377.59
634.521	38543.69
634.875	38402
635.229	38424.15
635.583	38369.01
635.937	38392.96
636.291	38296.69
636.645	38322
636.999	38263.7
637.352	38429.57
637.706	38200.65
638.06	38300.31
638.413	38147.54
638.767	38013.31
639.121	38073.42
639.474	37968.79
639.828	38069.58
640.181	38061.44
640.534	38054.89
640.888	38006.3
641.241	37906.19
641.594	37927.89
641.947	38052.4
642.301	37797.72
642.654	37991.16
643.007	37964.5
643.36	37897.38
643.713	37811.73
644.066	37950.49
644.419	37815.8
644.771	37426.66
645.124	37069.6
645.477	37103.28
645.83	36899.21
646.182	36820.57
646.535	36619.22
646.888	36734.25
647.24	36523.86
647.593	36639.11
647.945	36663.51
648.298	36527.02
648.65	36478.89
649.002	36373.35
649.355	36434.14
649.707	36388.49
650.059	36602.27
650.411	37053.79
650.763	37077.06
651.115	37461.23
651.467	37278.86
651.819	37367.9
652.171	37308.47
652.523	37051.53
652.875	37084.07
653.227	36972.21
653.578	37261.69
653.93	37383.27
654.282	37131.07
654.633	36922.26
654.985	37172.88
655.337	37129.26
655.688	37098.3
656.039	37127.46
656.391	36864.19
656.742	36848.59
657.094	36860.12
657.445	36951.64
657.796	37054.92
658.147	36857.63
658.498	36817.18
658.849	36893.56
659.2	36804.75
659.551	36874.13
659.902	36891.08
660.253	36947.12
660.604	36835.03
660.955	36600.01
661.306	36879.33
661.656	36695.83
662.007	36738.54
662.358	36747.35
662.708	36925.2
663.059	36731.08
663.409	36455.61
663.76	36744.87
664.11	36738.09
664.461	36723.62
664.811	36754.36
665.161	36630.97
665.511	36527.92
665.862	36522.05
666.212	36681.14
666.562	36658.32
666.912	36675.94
667.262	36511.88
667.612	36611.54
667.962	36724.3
668.312	36488.6
668.662	36700.8
669.011	36624.87
669.361	36519.56
669.711	36505.33
670.06	36445.89
670.41	36594.81
670.76	36561.37
671.109	36630.97
671.459	36454.93
671.808	36505.78
672.157	36494.7
672.507	36234.37
672.856	36399.34
673.205	36327.03
673.554	36545.32
673.904	36289.96
674.253	36471.43
674.602	36279.79
674.951	35788.51
675.3	35705.35
675.649	36236.18
675.998	36197.08
676.346	36137.88
676.695	36369.96
677.044	35874.83
677.393	36120.25
677.741	35999.8
678.09	35904.21
678.438	35944.66
678.787	35878.9
679.135	35800.26
679.484	35747.15
679.832	35939.46
680.181	35653.6
680.529	35916.87
680.877	35655.4
681.225	35723.2
681.573	35850.65
681.922	35622.18
682.27	35547.61
682.618	35583.77
682.966	35461.51
683.314	35556.65
683.661	35348.07
684.009	35296.09
684.357	35210.67
684.705	35146.94
685.053	35249.99
685.4	35151.46
685.748	35091.35
686.095	34987.17
686.443	34931.13
686.79	34779.5
687.138	34926.84
687.485	34996.44
687.832	34810.45
688.18	34779.27
688.527	34677.12
688.874	34618.6
689.221	34421.31
689.568	34377.92
689.915	34334.54
690.262	34377.02
690.609	34280.75
690.956	34164.37
691.303	34015.45
691.65	34048.67
691.997	33905.62
692.344	33551.5
692.69	33695.23
693.037	33769.8
693.383	33494.56
693.73	33655.68
694.077	33312.64
694.423	33524.84
694.769	33152.65
695.116	33127.34
695.462	33177.05
695.808	33035.13
696.155	33152.19
696.501	32784.75
696.847	32815.25
697.193	32698.65
697.539	32883.27
697.885	32514.24
698.231	32464.08
698.577	32358.09
698.923	32431.99
699.269	32191.77
699.614	32074.26
699.96	32003.75
700.306	32002.17
700.651	31917.42
700.997	31833.13
701.342	31825.22
701.688	31857.31
702.033	31654.61
702.379	31566.02
702.724	31399.25
703.069	31659.8
703.415	31203.54
703.76	31181.85
704.105	31253.71
704.45	31190.21
704.795	30960.16
705.14	30804.46
705.485	30961.29
705.83	30700.51
706.175	30882.2
706.52	30786.83
706.865	30544.35
707.209	30466.39
707.554	30450.8
707.899	30556.1
708.243	30397.24
708.588	30387.52
708.932	30137.58
709.277	30043.35
709.621	30116.57
709.966	29957.25
710.31	29981.2
710.654	29700.98
710.998	29753.19
711.342	29839.51
711.687	29818.04
712.031	29638.61
712.375	29500.31
712.719	29538.95
713.063	29468.22
713.407	29540.54
713.75	29324.27
714.094	29345.06
714.438	29159.53
714.782	29254.22
715.125	29124.28
715.469	29094.22
715.812	29006.09
716.156	28828.92
716.499	28856.04
716.843	28980.78
717.186	28658.75
717.53	28798.18
717.873	28792.99
718.216	28618.53
718.559	28514.12
718.902	28487.01
719.246	28519.32
719.589	28271.87
719.932	28315.26
720.275	28276.39
720.617	28168.14
720.96	28159.1
721.303	28191.65
721.646	28163.4
721.989	28020.8
722.331	28015.83
722.674	27976.28
723.016	27933.35
723.359	27861.71
723.701	27872.33
724.044	27683.64
724.386	27547.59
724.729	27706.01
725.071	27677.76
725.413	27634.15
725.755	27666.91
726.097	27484.09
726.439	27423.3
726.782	27463.76
727.124	27430.99
727.465	27260.14
727.807	27315.96
728.149	27272.57
728.491	27137.89
728.833	27212.46
729.175	27133.37
729.516	27140.83
729.858	27060.38
730.199	27081.17
730.541	26976.08
730.882	26935.63
731.224	27028.74
731.565	26900.61
731.906	26847.5
732.248	26878.69
732.589	26700.61
732.93	26718.92
733.271	26678.24
733.612	26647.51
733.953	26664.68
734.294	26531.8
734.635	26482.99
734.976	26571.35
735.317	26393.27
735.658	26442.77
735.999	26404.35
736.339	26299.72
736.68	26299.27
737.021	26346.04
737.361	26162.55
737.702	26229.44
738.042	26145.82
738.383	26078.25
738.723	26149.67
739.063	26030.35
739.404	26113.96
739.744	25914.64
740.084	25964.59
740.424	26004.36
740.764	25920.29
741.104	25952.38
741.444	25767.3
741.784	25730.69
742.124	25732.05
742.464	25721.43
742.804	25587.19
743.143	25625.84
743.483	25565.05
743.823	25479.85
744.162	25527.53
744.502	25479.4
744.841	25317.82
745.181	25472.4
745.52	25300.42
745.86	25301.1
746.199	25186.3
746.538	25165.96
746.877	25171.61
747.216	25092.97
747.556	25092.29
747.895	25091.84
748.234	25010.94
748.573	25053.65
748.911	25024.05
749.25	24843.71
749.589	24759.65
749.928	24849.59
750.267	24876.7
750.605	24821.79
750.944	24670.38
751.283	24718.52
751.621	24683.72
751.96	24475.36
752.298	24619.99
752.636	24565.07
752.975	24381.58
753.313	24263.61
753.651	24391.52
753.989	24227.68
754.327	24276.04
754.666	24066.33
755.004	24183.62
755.342	24130.06
755.679	24220.9
756.017	23918.99
756.355	23960.8
756.693	23851.87
