Data from hue_100_FLMS001491_00050.txt Node
Date: Tue Feb 07 17:03:15 GMT 2017
User: dcchb
Spectrometer: FLMS00149
Trigger mode: 0
Integration Time (sec): 2.000000E-2
Scans to average: 10
Electric dark correction enabled: true
Nonlinearity correction enabled: false
Boxcar width: 0
XAxis mode: Wavelengths
Number of Pixels in Spectrum: 2048
>>>>>Begin Spectral Data<<<<<
341.393	-21.27
341.776	-21.27
342.16	-21.27
342.543	-70.31
342.927	-78.67
343.31	-66.92
343.693	-53.36
344.077	-50.65
344.46	-67.82
344.843	-56.3
345.226	-40.48
345.61	-35.28
345.993	-15.4
346.376	-4.32
346.759	20.76
347.142	33.42
347.525	29.58
347.908	50.82
348.291	63.02
348.674	86.3
349.057	106.64
349.44	123.13
349.823	132.4
350.206	189.35
350.588	194.77
350.971	207.42
351.354	215.33
351.737	224.15
352.119	257.14
352.502	297.14
352.884	276.35
353.267	295.11
353.65	291.04
354.032	311.15
354.414	318.61
354.797	309.34
355.179	320.19
355.562	329.68
355.944	346.4
356.326	317.7
356.709	339.4
357.091	342.11
357.473	361.54
357.855	327.87
358.238	338.72
358.62	356.35
359.002	345.27
359.384	347.76
359.766	362.45
360.148	323.35
360.53	334.2
360.912	322.9
361.294	329.91
361.676	326.06
362.057	329.45
362.439	341.43
362.821	323.35
363.203	324.03
363.584	340.98
363.966	332.62
364.348	326.97
364.729	329.91
365.111	323.58
365.493	318.16
365.874	322.45
366.256	316.35
366.637	304.6
367.019	338.49
367.4	323.13
367.781	329.23
368.163	310.92
368.544	302.79
368.925	329.68
369.306	361.09
369.688	326.29
370.069	303.47
370.45	325.84
370.831	311.38
371.212	321.09
371.593	304.82
371.974	317.03
372.355	298.72
372.736	333.07
373.117	327.19
373.498	331.94
373.879	325.39
374.26	339.4
374.641	325.61
375.021	321.55
375.402	329.91
375.783	330.13
376.163	335.33
376.544	337.36
376.925	341.43
377.305	333.3
377.686	315.67
378.066	327.87
378.447	338.72
378.827	354.99
379.208	336.01
379.588	344.6
379.968	361.09
380.349	358.83
380.729	346.18
381.109	344.82
381.489	339.85
381.87	357.02
382.25	355.44
382.63	345.5
383.01	360.87
383.39	354.76
383.77	365.39
384.15	363.13
384.53	348.44
384.91	357.02
385.29	356.35
385.67	371.49
386.049	376.69
386.429	361.32
386.809	377.59
387.189	383.46
387.568	372.17
387.948	407.87
388.328	370.58
388.707	358.83
389.087	380.53
389.466	376.69
389.846	374.43
390.225	389.79
390.605	408.1
390.984	387.76
391.363	388.66
391.743	396.35
392.122	395.22
392.501	394.31
392.881	402.45
393.26	409
393.639	381.66
394.018	399.28
394.397	402.67
394.776	406.06
395.155	390.47
395.534	393.86
395.913	397.48
396.292	405.16
396.671	425.72
397.05	418.94
397.429	374.65
397.808	404.93
398.186	424.37
398.565	421.2
398.944	405.84
399.323	403.12
399.701	421.66
400.08	410.58
400.458	429.79
400.837	425.72
401.215	414.88
401.594	427.08
401.972	415.1
402.351	432.28
402.729	440.41
403.107	460.75
403.486	464.14
403.864	458.72
404.242	450.81
404.62	443.8
404.999	456.91
405.377	449.68
405.755	451.49
406.133	446.74
406.511	467.98
406.889	470.69
407.267	463.91
407.645	487.87
408.023	465.72
408.401	496.23
408.779	495.55
409.156	519.51
409.534	507.98
409.912	487.87
410.29	479.51
410.667	511.6
411.045	498.04
411.422	527.19
411.8	523.35
412.178	498.04
412.555	541.2
412.933	537.58
413.31	525.38
413.687	531.03
414.065	538.49
414.442	551.37
414.819	539.17
415.197	545.04
415.574	559.73
415.951	566.51
416.328	553.4
416.705	568.54
417.082	536.68
417.46	566.96
417.837	559.28
418.214	568.32
418.591	572.61
418.967	573.74
419.344	605.15
419.721	588.43
420.098	583.23
420.475	589.11
420.852	591.82
421.228	586.62
421.605	625.94
421.982	627.75
422.358	627.53
422.735	635.89
423.111	615.77
423.488	632.27
423.864	633.63
424.241	662.1
424.617	631.37
424.994	639.95
425.37	656.45
425.746	656.9
426.123	665.26
426.499	677.24
426.875	680.18
427.251	680.41
427.627	667.07
428.003	708.43
428.379	705.72
428.756	711.82
429.132	709.56
429.507	718.14
429.883	723.57
430.259	736.22
430.635	761.08
431.011	732.83
431.387	734.42
431.763	750.23
432.138	800.63
432.514	769.22
432.89	780.29
433.265	774.87
433.641	783.68
434.016	806.73
434.392	798.37
434.767	822.32
435.143	823.9
435.518	838.37
435.894	829.78
436.269	841.98
436.644	877.91
437.02	872.49
437.395	878.14
437.77	855.99
438.145	887.86
438.52	887.86
438.895	910.46
439.271	900.74
439.646	915.88
440.021	932.6
440.395	929.89
440.77	911.81
441.145	939.16
441.52	953.84
441.895	952.04
442.27	958.14
442.645	968.76
443.019	962.66
443.394	978.7
443.769	983.9
444.143	977.12
444.518	1005.37
444.892	996.56
445.267	984.8
445.641	999.95
446.016	1025.93
446.39	1025.71
446.764	1011.02
447.139	1035.88
447.513	1053.96
447.887	1062.32
448.262	1065.93
448.636	1058.02
449.01	1075.88
449.384	1069.77
449.758	1098.93
450.132	1084.91
450.506	1088.98
450.88	1089.43
451.254	1106.38
451.628	1120.39
452.002	1139.38
452.376	1138.25
452.75	1165.82
453.123	1189.77
453.497	1197
453.871	1186.61
454.244	1215.53
454.618	1208.98
454.992	1217.57
455.365	1246.27
455.739	1285.36
456.112	1247.4
456.486	1285.81
456.859	1291.46
457.232	1341.63
457.606	1338.69
457.979	1349.09
458.352	1382.76
458.725	1381.63
459.099	1390.9
459.472	1432.7
459.845	1446.71
460.218	1420.5
460.591	1463.89
460.964	1478.8
461.337	1525.81
461.71	1537.33
462.083	1543.21
462.456	1563.09
462.829	1556.99
463.201	1598.12
463.574	1604.22
463.947	1635.86
464.32	1646.71
464.692	1683.09
465.065	1722.41
465.438	1728.29
465.81	1747.04
466.183	1778.46
466.555	1798.12
466.928	1863.2
467.3	1859.81
467.672	1857.55
468.045	1923.76
468.417	1883.76
468.789	1959.47
469.161	1986.59
469.534	2023.65
469.906	2089.86
470.278	2088.5
470.65	2126.92
471.022	2189.29
471.394	2254.83
471.766	2249.18
472.138	2293.24
472.51	2344.32
472.882	2385.45
473.253	2423.86
473.625	2487.14
473.997	2547.25
474.369	2599
474.74	2596.06
475.112	2655.5
475.484	2737.75
475.855	2818.43
476.227	2846.22
476.598	2927.58
476.97	3017.29
477.341	3085.77
477.713	3177.74
478.084	3179.55
478.455	3302.03
478.827	3387.91
479.198	3516.49
479.569	3513.33
479.94	3693.43
480.311	3739.76
480.682	3860.44
481.053	3985.4
481.424	4045.29
481.795	4151.05
482.166	4212.06
482.537	4347.43
482.908	4462
483.279	4567.99
483.65	4658.15
484.021	4831.71
484.391	4971.82
484.762	5062.66
485.133	5141.76
485.503	5271.02
485.874	5480.96
486.244	5557.11
486.615	5729.54
486.985	5859.48
487.356	6046.37
487.726	6205.01
488.097	6357.54
488.467	6397.32
488.837	6585.79
489.207	6728.16
489.578	6922.5
489.948	7030.52
490.318	7202.04
490.688	7355.71
491.058	7474.8
491.428	7697.4
491.798	7768.81
492.168	8041.12
492.538	8158.85
492.908	8343.48
493.278	8516.58
493.648	8564.49
494.017	8664.6
494.387	8851.49
494.757	9003.12
495.126	9178.49
495.496	9219.62
495.866	9389.78
496.235	9658.25
496.605	9714.97
496.974	9886.27
497.344	10057.79
497.713	10200.16
498.082	10300.49
498.452	10431.79
498.821	10551.11
499.19	10623.2
499.559	10760.14
499.928	10866.35
500.298	11037.2
500.667	11159.23
501.036	11261.6
501.405	11387.02
501.774	11445.55
502.143	11570.74
502.512	11611.19
502.88	11787.23
503.249	11866.1
503.618	11977.51
503.987	12109.48
504.356	12239.2
504.724	12274.23
505.093	12353.55
505.462	12371.4
505.83	12536.14
506.199	12676.7
506.567	12846.19
506.936	12891.38
507.304	13049.8
507.672	13130.93
508.041	13157.14
508.409	13296.12
508.777	13409.56
509.145	13427.87
509.514	13491.37
509.882	13541.31
510.25	13605.72
510.618	13702.89
510.986	13775.65
511.354	13934.52
511.722	14027.17
512.09	14146.72
512.458	14150.56
512.826	14224.68
513.193	14308.52
513.561	14356.66
513.929	14422.19
514.297	14573.83
514.664	14660.83
515.032	14685.01
515.4	14744.44
515.767	14846.81
516.135	14930.88
516.502	14703.09
516.869	15054.94
517.237	15018.56
517.604	15023.53
517.972	15104.21
518.339	15193.7
518.706	15234.15
519.073	15275.05
519.44	15253.81
519.808	15363.18
520.175	15374.71
520.542	15617.87
520.909	15626.91
521.276	15557.75
521.643	15642.27
522.009	15730.86
522.376	15848.37
522.743	15840.23
523.11	15882.49
523.477	16111.64
523.843	16023.96
524.21	16195.48
524.577	16235.93
524.943	16286.1
525.31	16308.92
525.676	16355.02
526.043	16529.48
526.409	16470.5
526.776	16512.76
527.142	16547.11
527.508	16540.78
527.874	16679.76
528.241	16651.29
528.607	16702.81
528.973	16805.41
529.339	16723.37
529.705	16850.38
530.071	16838.63
530.437	16933.09
530.803	16881.11
531.169	16842.92
531.535	16826.2
531.901	16930.15
532.267	16905.74
532.632	17034.78
532.998	16990.94
533.364	17033.42
533.73	17029.13
534.095	17052.18
534.461	17037.26
534.826	17069.13
535.192	17060.99
535.557	17100.09
535.923	16978.96
536.288	16980.77
536.653	17069.81
537.019	16945.74
537.384	16962.24
537.749	16945.97
538.114	17047.66
538.479	16992.29
538.845	16963.82
539.21	16837.04
539.575	16799.98
539.94	16832.52
540.305	16925.4
540.67	16737.16
541.034	16832.52
541.399	17002.01
541.764	16731.74
542.129	16784.16
542.494	16792.75
542.858	16818.51
543.223	16745.29
543.587	16729.7
543.952	16701
544.316	16713.66
544.681	16579.65
545.045	16748.46
545.41	16741.9
545.774	16630.72
546.138	16598.41
546.503	16603.83
546.867	16514.34
547.231	16614
547.595	16504.4
547.959	16433.44
548.324	16403.16
548.688	16411.52
549.052	16423.27
549.416	16323.16
549.779	16369.03
550.143	16314.35
550.507	16300.33
550.871	16313.89
551.235	16198.19
551.599	16306.89
551.962	16263.72
552.326	16215.36
552.689	16254.23
553.053	16210.84
553.417	16204.74
553.78	16359.54
554.143	16194.57
554.507	16197.51
554.87	16192.54
555.234	16245.42
555.597	16129.04
555.96	16210.39
556.323	16173.11
556.686	16174.46
557.05	16226.89
557.413	16211.75
557.776	16211.75
558.139	16233.44
558.502	16181.69
558.865	16146.21
559.228	16218.53
559.59	16315.47
559.953	16165.2
560.316	16251.07
560.679	16197.51
561.041	16250.62
561.404	16375.13
561.767	16350.5
562.129	16215.36
562.492	16355.02
562.854	16306.89
563.217	16296.94
563.579	16336.27
563.941	16441.12
564.304	16402.03
564.666	16512.53
565.028	16428.47
565.39	16530.61
565.753	16605.18
566.115	16600.21
566.477	16560.44
566.839	16606.77
567.201	16753.66
567.563	16674.56
567.925	16735.12
568.287	16753.2
568.648	16728.35
569.01	16770.38
569.372	16845.18
569.734	16745.29
570.095	16847.21
570.457	16881.79
570.819	16828.91
571.18	16838.4
571.542	16930.15
571.903	16919.53
572.265	16870.04
572.626	17003.59
572.987	16957.04
573.349	16979.41
573.71	17032.52
574.071	17110.71
574.432	17023.93
574.794	17206.75
575.155	17156.13
575.516	17043.14
575.877	17119.3
576.238	17152.29
576.599	17145.96
576.96	17114.32
577.32	17112.29
577.681	17310.25
578.042	17276.58
578.403	17236.81
578.763	17170.82
579.124	17209.91
579.485	17268.9
579.845	17319.29
580.206	17186.19
580.566	17201.33
580.927	17252.17
581.287	17360.65
581.648	17268.9
582.008	17255.79
582.368	17230.71
582.728	17327.88
583.089	17288.1
583.449	17196.36
583.809	17232.06
584.169	17227.54
584.529	17162.46
584.889	17255.79
585.249	17182.34
585.609	17158.84
585.969	17188.45
586.329	17127.66
586.688	17235.22
587.048	17196.36
587.408	17119.75
587.768	17208.11
588.127	17030.94
588.487	17078.84
588.846	17240.2
589.206	17118.39
589.565	17064.83
589.925	17194.77
590.284	17060.31
590.643	17080.2
591.003	17067.09
591.362	17154.1
591.721	17126.53
592.08	17054.21
592.44	17040.2
592.799	17034.55
593.158	17105.28
593.517	17090.82
593.876	17059.18
594.235	17028
594.593	16991.39
594.952	17076.58
595.311	17009.24
595.67	16995.01
596.029	17084.04
596.387	17038.17
596.746	17062.35
597.104	16866.87
597.463	16914.56
597.822	17061.22
598.18	16972.18
598.538	16881.56
598.897	17030.94
599.255	16913.43
599.613	17066.19
599.972	17040.43
600.33	16990.94
600.688	16954.1
601.046	17015.34
601.404	17049.24
601.762	17017.38
602.12	17001.78
602.478	17046.98
602.836	17091.95
603.194	16952.29
603.552	17066.87
603.91	16951.84
604.268	17074.55
604.625	17043.37
604.983	17067.09
605.341	16881.79
605.698	17088.79
606.056	17192.06
606.413	17097.15
606.771	17145.51
607.128	17112.97
607.485	17059.86
607.843	17036.13
608.2	17176.47
608.557	17233.64
608.914	17012.41
609.272	17139.63
609.629	17223.25
609.986	17307.31
610.343	17124.27
610.7	17319.97
611.057	17195.9
611.414	17181.21
611.771	17365.62
612.127	17359.97
612.484	17346.18
612.841	17439.74
613.198	17314.32
613.554	17366.75
613.911	17425.95
614.267	17361.32
614.624	17347.76
614.98	17400.87
615.337	17530.36
615.693	17373.3
616.05	17409.68
616.406	17538.04
616.762	17467.08
617.118	17484.26
617.475	17459.63
617.831	17544.82
618.187	17456.01
618.543	17489.46
618.899	17660.98
619.255	17492.17
619.611	17580.3
619.967	17696.46
620.323	17595.67
620.678	17577.59
621.034	17548.66
621.39	17531.71
621.746	17638.38
622.101	17786.85
622.457	17564.48
622.812	17581.43
623.168	17611.94
623.523	17571.94
623.879	17646.97
624.234	17589.34
624.589	17641.99
624.945	17581.2
625.3	17588.66
625.655	17655.78
626.01	17600.41
626.365	17680.64
626.72	17586.63
627.075	17648.1
627.43	17605.61
627.785	17534.43
628.14	17648.1
628.495	17657.59
628.85	17669.79
629.205	17492.85
629.559	17665.95
629.914	17489.91
630.269	17570.58
630.623	17534.65
630.978	17443.81
631.332	17549.34
631.687	17473.18
632.041	17526.06
632.396	17448.78
632.75	17393.86
633.104	17432.73
633.459	17355.45
633.813	17269.57
634.167	17236.13
634.521	17327.2
634.875	17400.64
635.229	17248.56
635.583	17271.83
635.937	17213.76
636.291	17249.01
636.645	17189.12
636.999	17125.85
637.352	17226.19
637.706	17145.06
638.06	17212.4
638.413	17194.1
638.767	17142.8
639.121	17124.27
639.474	16952.52
639.828	17030.71
640.181	17031.39
640.534	17036.81
640.888	16983.93
641.241	16928.79
641.594	16989.58
641.947	16952.52
642.301	16929.7
642.654	16942.13
643.007	16892.63
643.36	16910.26
643.713	16824.84
644.066	16867.1
644.419	16808.34
644.771	16663.04
645.124	16597.95
645.477	16526.54
645.83	16481.35
646.182	16267.79
646.535	16398.41
646.888	16352.76
647.24	16234.57
647.593	16336.94
647.945	16250.39
648.298	16255.36
648.65	16238.64
649.002	16256.49
649.355	16386.43
649.707	16302.82
650.059	16318.41
650.411	16617.61
650.763	16565.41
651.115	16741
651.467	16617.84
651.819	16577.61
652.171	16649.03
652.523	16655.13
652.875	16666.2
653.227	16517.05
653.578	16697.16
653.93	16606.09
654.282	16546.88
654.633	16473.66
654.985	16536.49
655.337	16499.65
655.688	16587.11
656.039	16563.83
656.391	16483.61
656.742	16554.56
657.094	16486.54
657.445	16530.84
657.796	16587.33
658.147	16515.24
658.498	16523.15
658.849	16612.19
659.2	16578.52
659.551	16548.01
659.902	16611.96
660.253	16511.18
660.604	16612.19
660.955	16543.04
661.306	16594.56
661.656	16568.8
662.007	16631.62
662.358	16600.67
662.708	16705.3
663.059	16733.09
663.409	16488.35
663.76	16677.95
664.11	16577.16
664.461	16593.21
664.811	16638.86
665.161	16615.13
665.511	16497.17
665.862	16536.49
666.212	16645.18
666.562	16681.79
666.912	16641.57
667.262	16660.1
667.612	16606.54
667.962	16572.87
668.312	16622.13
668.662	16659.42
669.011	16602.47
669.361	16644.73
669.711	16630.27
670.06	16490.84
670.41	16544.85
670.76	16602.93
671.109	16606.09
671.459	16582.59
671.808	16511.85
672.157	16506.88
672.507	16488.13
672.856	16421.46
673.205	16467.79
673.554	16541.01
673.904	16433.89
674.253	16578.97
674.602	16479.09
674.951	16317.96
675.3	16154.12
675.649	16472.08
675.998	16387.11
676.346	16517.28
676.695	16477.73
677.044	16342.82
677.393	16346.21
677.741	16494.68
678.09	16300.79
678.438	16309.6
678.787	16236.61
679.135	16276.15
679.484	16146.44
679.832	16171.3
680.181	16215.82
680.529	16195.93
680.877	15994.13
681.225	16058.53
681.573	16147.34
681.922	16004.75
682.27	15936.05
682.618	15972.43
682.966	15962.72
683.314	15929.04
683.661	15932.89
684.009	15795.71
684.357	15789.84
684.705	15772.44
685.053	15702.16
685.4	15765.43
685.748	15521.6
686.095	15615.61
686.443	15560.92
686.79	15575.61
687.138	15566.79
687.485	15577.42
687.832	15484.76
688.18	15501.94
688.527	15458.77
688.874	15419
689.221	15367.25
689.568	15317.08
689.915	15287.48
690.262	15268.95
690.609	15200.7
690.956	15129.07
691.303	15118.22
691.65	15078.45
691.997	15065.11
692.344	14929.07
692.69	14965.23
693.037	14961.61
693.383	14765.46
693.73	14777.44
694.077	14696.99
694.423	14678
694.769	14680.04
695.116	14722.75
695.462	14590.1
695.808	14634.16
696.155	14569.98
696.501	14392.81
696.847	14404.79
697.193	14312.82
697.539	14303.55
697.885	14243.67
698.231	14194.4
698.577	14149.66
698.923	14105.82
699.269	14052.48
699.614	14037.57
699.96	13940.4
700.306	13955.76
700.651	13902.21
700.997	13797.35
701.342	13797.12
701.688	13748.31
702.033	13725.26
702.379	13640.29
702.724	13578.15
703.069	13641.19
703.415	13469.45
703.76	13461.54
704.105	13464.48
704.45	13397.13
704.795	13373.86
705.14	13255.67
705.485	13283.24
705.83	13253.63
706.175	13226.74
706.52	13102.23
706.865	13123.02
707.209	13105.84
707.554	13064.71
707.899	13112.62
708.243	12937.48
708.588	12863.36
708.932	12850.48
709.277	12831.27
709.621	12811.39
709.966	12736.59
710.31	12717.38
710.654	12633.99
710.998	12721.22
711.342	12678.73
711.687	12679.64
712.031	12539.08
712.375	12487.1
712.719	12477.61
713.063	12576.14
713.407	12605.52
713.75	12429.7
714.094	12431.74
714.438	12393.09
714.782	12382.47
715.125	12234.9
715.469	12370.95
715.812	12345.86
716.156	12222.02
716.499	12266.99
716.843	12243.94
717.186	12185.64
717.53	12235.36
717.873	12223.61
718.216	12107.22
718.559	12107
718.902	12001.92
719.246	12043.72
719.589	12011.18
719.932	11957.85
720.275	12007.11
720.617	11929.83
720.96	11997.62
721.303	12042.82
721.646	11947.23
721.989	11933.44
722.331	11952.2
722.674	11890.73
723.016	11931.64
723.359	11831.3
723.701	11904.74
724.044	11770.28
724.386	11742.49
724.729	11802.6
725.071	11852.54
725.413	11772.54
725.755	11792.66
726.097	11725.54
726.439	11645.77
726.782	11669.27
727.124	11777.06
727.465	11614.13
727.807	11669.5
728.149	11648.71
728.491	11632.89
728.833	11652.77
729.175	11628.14
729.516	11619.33
729.858	11607.35
730.199	11608.93
730.541	11603.51
730.882	11588.37
731.224	11642.83
731.565	11539.33
731.906	11598.76
732.248	11619.33
732.589	11536.17
732.93	11537.75
733.271	11516.73
733.612	11563.74
733.953	11597.41
734.294	11527.58
734.635	11509.05
734.976	11592.21
735.317	11511.99
735.658	11519.89
735.999	11551.76
736.339	11445.77
736.68	11603.73
737.021	11586.33
737.361	11471.76
737.702	11592.89
738.042	11509.05
738.383	11558.76
738.723	11574.58
739.063	11512.21
739.404	11566.45
739.744	11591.31
740.084	11518.54
740.424	11548.82
740.764	11572.32
741.104	11655.94
741.444	11620.23
741.784	11614.36
742.124	11603.51
742.464	11646.67
742.804	11702.71
743.143	11604.86
743.483	11657.97
743.823	11600.57
744.162	11660.23
744.502	11739.78
744.841	11801.24
745.181	11788.81
745.52	11744.52
745.86	11918.75
746.199	11828.36
746.538	11847.12
746.877	12079.43
747.216	11987.23
747.556	12052.31
747.895	12129.6
748.234	12191.06
748.573	12240.33
748.911	12328.46
749.25	12296.82
749.589	12345.18
749.928	12446.2
750.267	12548.79
750.605	12614.1
750.944	12696.81
751.283	12772.74
751.621	12871.95
751.96	12857.26
752.298	12951.27
752.636	13064.49
752.975	13115.56
753.313	13195.33
753.651	13386.29
753.989	13445.27
754.327	13501.09
754.666	13601.42
755.004	13762.1
755.342	13950.57
755.679	14100.62
