Data from hue_40_FLMS001491_67.txt Node
Date: Mon Feb 06 15:08:16 GMT 2017
User: dcchb
Spectrometer: FLMS00149
Trigger mode: 0
Integration Time (sec): 2.000000E-2
Scans to average: 10
Electric dark correction enabled: true
Nonlinearity correction enabled: false
Boxcar width: 0
XAxis mode: Wavelengths
Number of Pixels in Spectrum: 2048
>>>>>Begin Spectral Data<<<<<
341.393	-21.2
341.776	-21.2
342.16	-21.2
342.543	-47.64
342.927	-89.45
343.31	-62.78
343.693	-63.91
344.077	-77.47
344.46	-58.94
344.843	-67.07
345.226	-43.57
345.61	-24.59
345.993	-31.82
346.376	-17.13
346.759	9.31
347.142	28.74
347.525	59.25
347.908	61.74
348.291	88.85
348.674	104.45
349.057	94.96
349.44	99.7
349.823	142.64
350.206	168.85
350.588	193.71
350.971	210.66
351.354	228.51
351.737	238
352.119	263.76
352.502	292.92
352.884	278.91
353.267	286.81
353.65	298.11
354.032	296.31
354.414	298.11
354.797	311.45
355.179	314.84
355.562	336.08
355.944	340.15
356.326	336.08
356.709	351.45
357.091	361.84
357.473	354.38
357.855	345.57
358.238	339.47
358.62	310.54
359.002	346.02
359.384	356.64
359.766	321.16
360.148	347.38
360.53	335.4
360.912	344.89
361.294	329.07
361.676	347.38
362.057	348.06
362.439	338.11
362.821	328.4
363.203	337.66
363.584	327.94
363.966	322.52
364.348	312.8
364.729	332.91
365.111	328.4
365.493	331.56
365.874	313.25
366.256	319.81
366.637	325.91
367.019	345.12
367.4	313.03
367.781	324.78
368.163	334.5
368.544	309.41
368.925	309.86
369.306	318.23
369.688	301.5
370.069	328.62
370.45	320.26
370.831	318.9
371.212	328.85
371.593	315.29
371.974	327.72
372.355	315.29
372.736	333.37
373.117	330.2
373.498	301.28
373.879	323.2
374.26	306.47
374.641	302.63
375.021	315.97
375.402	316.87
375.783	326.59
376.163	342.18
376.544	335.4
376.925	345.57
377.305	350.54
377.686	315.29
378.066	339.47
378.447	348.51
378.827	325.46
379.208	338.11
379.588	344.44
379.968	338.79
380.349	329.07
380.729	330.2
381.109	345.57
381.489	348.51
381.87	334.72
382.25	340.82
382.63	355.29
383.01	342.86
383.39	362.29
383.77	359.13
384.15	365
384.53	357.77
384.91	370.88
385.29	362.74
385.67	369.3
386.049	365.68
386.429	342.63
386.809	354.84
387.189	365.68
387.568	351.9
387.948	365.46
388.328	337.66
388.707	387.6
389.087	357.55
389.466	365.91
389.846	375.4
390.225	375.85
390.605	380.6
390.984	370.43
391.363	382.63
391.743	405
392.122	386.47
392.501	363.65
392.881	381.73
393.26	380.37
393.639	385.34
394.018	382.41
394.397	359.81
394.776	382.86
395.155	383.54
395.534	393.03
395.913	379.69
396.292	375.63
396.671	393.93
397.05	399.81
397.429	399.58
397.808	370.2
398.186	413.36
398.565	403.65
398.944	429.41
399.323	416.53
399.701	407.49
400.08	407.49
400.458	393.7
400.837	430.99
401.215	404.1
401.594	424.44
401.972	430.99
402.351	430.31
402.729	416.3
403.107	425.34
403.486	446.13
403.864	437.54
404.242	424.66
404.62	432.57
404.999	443.65
405.377	471.44
405.755	443.65
406.133	453.36
406.511	456.75
406.889	445.45
407.267	445.91
407.645	456.75
408.023	436.64
408.401	466.02
408.779	457.88
409.156	431.9
409.534	480.03
409.912	463.98
410.29	474.83
410.667	465.79
411.045	461.27
411.422	480.03
411.8	478
412.178	480.71
412.555	486.36
412.933	490.65
413.31	511.22
413.687	531.1
414.065	506.24
414.442	488.62
414.819	527.94
415.197	512.8
415.574	535.17
415.951	533.14
416.328	539.24
416.705	535.62
417.082	520.71
417.46	516.19
417.837	522.74
418.214	529.75
418.591	533.59
418.967	509.41
419.344	530.88
419.721	564.1
420.098	560.71
420.475	567.49
420.852	561.61
421.228	571.1
421.605	565.45
421.982	602.29
422.358	580.37
422.735	574.26
423.111	575.62
423.488	600.25
423.864	579.69
424.241	600.7
424.617	594.83
424.994	605.9
425.37	621.95
425.746	605.45
426.123	599.35
426.499	616.75
426.875	614.26
427.251	649.52
427.627	619.24
428.003	624.66
428.379	622.4
428.756	634.38
429.132	655.84
429.507	666.01
429.883	662.17
430.259	639.8
430.635	683.87
431.011	667.14
431.387	694.49
431.763	687.71
432.138	686.8
432.514	693.36
432.89	696.75
433.265	711.21
433.641	731.1
434.016	720.93
434.392	732.23
434.767	731.77
435.143	729.51
435.518	748.27
435.894	745.79
436.269	759.12
436.644	773.58
437.02	750.31
437.395	789.4
437.77	789.17
438.145	796.41
438.52	779.68
438.895	811.77
439.271	785.78
439.646	804.32
440.021	826.24
440.395	837.53
440.77	809.06
441.145	833.24
441.52	856.74
441.895	862.39
442.27	851.09
442.645	855.61
443.019	865.1
443.394	851.77
443.769	877.76
444.143	856.29
444.518	856.07
444.892	860.81
445.267	887.48
445.641	905.1
446.016	896.29
446.39	906.46
446.764	874.6
447.139	923.63
447.513	914.37
447.887	905.78
448.262	920.47
448.636	941.49
449.01	943.75
449.384	935.16
449.758	955.95
450.132	958.89
450.506	955.5
450.88	974.93
451.254	967.47
451.628	984.42
452.002	1004.08
452.376	995.27
452.75	1010.19
453.123	1018.77
453.497	1028.94
453.871	1055.38
454.244	1048.15
454.618	1055.61
454.992	1032.78
455.365	1059
455.739	1095.15
456.112	1101.71
456.486	1111.65
456.859	1130.18
457.232	1130.18
457.606	1133.57
457.979	1110.3
458.352	1155.27
458.725	1175.38
459.099	1177.19
459.472	1196.17
459.845	1220.12
460.218	1222.61
460.591	1223.96
460.964	1288.82
461.337	1286.34
461.71	1304.87
462.083	1303.28
462.456	1321.36
462.829	1307.35
463.201	1355.26
463.574	1351.65
463.947	1361.81
464.32	1396.62
464.692	1420.57
465.065	1410.17
465.438	1484.98
465.81	1488.82
466.183	1509.38
466.555	1527.69
466.928	1518.65
467.3	1512.09
467.672	1552.09
468.045	1547.35
468.417	1591.86
468.789	1596.38
469.161	1619.21
469.534	1659.43
469.906	1692.88
470.278	1705.08
470.65	1744.63
471.022	1803.38
471.394	1800.45
471.766	1835.25
472.138	1891.97
472.51	1921.8
472.882	1964.28
473.253	1973.55
473.625	2009.03
473.997	2076.6
474.369	2073.66
474.74	2129.25
475.112	2148.01
475.484	2221.23
475.855	2257.38
476.227	2317.27
476.598	2386.42
476.97	2421.45
477.341	2456.7
477.713	2563.14
478.084	2554.1
478.455	2620.76
478.827	2690.14
479.198	2781.89
479.569	2775.79
479.94	2883.13
480.311	2969.68
480.682	3057.14
481.053	3164.7
481.424	3191.37
481.795	3257.58
482.166	3356.79
482.537	3434.53
482.908	3496.22
483.279	3583.45
483.65	3665.93
484.021	3773.05
484.391	3867.51
484.762	3940.73
485.133	4020.95
485.503	4102.53
485.874	4245.13
486.244	4275.64
486.615	4412.81
486.985	4519.47
487.356	4606.25
487.726	4697.09
488.097	4845.34
488.467	4957.2
488.837	5057.99
489.207	5201.49
489.578	5307.93
489.948	5332.33
490.318	5540.46
490.688	5609.61
491.058	5717.63
491.428	5801.02
491.798	5952.2
492.168	6135.47
492.538	6188.81
492.908	6358.52
493.278	6404.85
493.648	6511.74
494.017	6668.79
494.387	6754.22
494.757	6840.54
495.126	6962.8
495.496	7092.74
495.866	7160.76
496.235	7304.94
496.605	7376.12
496.974	7489.56
497.344	7602.78
497.713	7721.65
498.082	7844.13
498.452	8000.06
498.821	8057.23
499.19	8084.35
499.559	8258.81
499.928	8291.12
500.298	8425.58
500.667	8520.72
501.036	8544.68
501.405	8664.9
501.774	8753.71
502.143	8859.47
502.512	8891.79
502.88	9042.06
503.249	9150.08
503.618	9200.03
503.987	9289.74
504.356	9364.54
504.724	9435.5
505.093	9542.84
505.462	9620.35
505.83	9702.39
506.199	9809.05
506.567	9935.83
506.936	9946.45
507.304	10076.16
507.672	10129.49
508.041	10216.27
508.409	10316.38
508.777	10439.54
509.145	10540.56
509.514	10554.79
509.882	10668.24
510.25	10764.05
510.618	10821.23
510.986	10869.59
511.354	10969.47
511.722	11058.96
512.09	11256.02
512.458	11126.53
512.826	11281.33
513.193	11356.81
513.561	11428.22
513.929	11548.67
514.297	11610.36
514.664	11741.88
515.032	11779.85
515.4	11900.97
515.767	12001.99
516.135	12081.31
516.502	11993.4
516.869	12175.77
517.237	12229.78
517.604	12202.21
517.972	12394.07
518.339	12508.19
518.706	12466.61
519.073	12602.2
519.44	12678.13
519.808	12774.17
520.175	12871.79
520.542	13008.97
520.909	13087.83
521.276	13004.67
521.643	13216.42
522.009	13284.21
522.376	13329.18
522.743	13410.09
523.11	13556.75
523.477	13673.58
523.843	13763.3
524.21	13921.71
524.577	14065.21
524.943	14069.28
525.31	14095.94
525.676	14275.15
526.043	14330.74
526.409	14444.63
526.776	14502.94
527.142	14573.22
527.508	14697.74
527.874	14760.33
528.241	14818.18
528.607	14907.45
528.973	15054.79
529.339	15029.48
529.705	15296.14
530.071	15325.29
530.437	15388.34
530.803	15486.19
531.169	15552.85
531.535	15568.67
531.901	15647.09
532.267	15682.79
532.632	15854.09
532.998	15880.98
533.364	15979.74
533.73	16071.94
534.095	16114.87
534.461	16168.66
534.826	16203.68
535.192	16320.52
535.557	16511.02
535.923	16515.77
536.288	16548.53
536.653	16708.08
537.019	16710.11
537.384	16762.54
537.749	16833.72
538.114	16865.14
538.479	16848.64
538.845	17082.53
539.21	17116.88
539.575	17158.24
539.94	17219.25
540.305	17252.47
540.67	17263.32
541.034	17379.47
541.399	17518
541.764	17535.17
542.129	17602.74
542.494	17598
542.858	17671.44
543.223	17790.08
543.587	17878.89
543.952	17849.97
544.316	17892
544.681	17888.61
545.045	18088.38
545.41	18081.37
545.774	18265.55
546.138	18165.21
546.503	18398.2
546.867	18369.28
547.231	18495.6
547.595	18591.42
547.959	18602.94
548.324	18656.95
548.688	18702.83
549.052	18776.05
549.416	18790.51
549.779	18900.34
550.143	18915.03
550.507	19063.72
550.871	19173.32
551.235	19111.86
551.599	19162.93
551.962	19333.09
552.326	19397.95
552.689	19393.88
553.053	19407.89
553.417	19426.2
553.78	19762.46
554.143	19605.63
554.507	19697.83
554.87	19818.73
555.234	19999.74
555.597	19881.55
555.96	19989.35
556.323	20063.02
556.686	20152.73
557.05	20241.09
557.413	20385.04
557.776	20240.19
558.139	20517.02
558.502	20517.02
558.865	20529.9
559.228	20669.78
559.59	20706.39
559.953	20893.5
560.316	20912.71
560.679	21048.3
561.041	21119.49
561.404	21139.83
561.767	21306.15
562.129	21300.73
562.492	21573.94
562.854	21495.07
563.217	21593.37
563.579	21596.76
563.941	21784.33
564.304	21866.81
564.666	21929.18
565.028	21921.95
565.39	21972.35
565.753	22093.47
566.115	22215.5
566.477	22234.71
566.839	22320.59
567.201	22510.86
567.563	22475.16
567.925	22726.68
568.287	22713.57
568.648	22776.84
569.01	22944.75
569.372	23116.27
569.734	23001.47
570.095	23218.64
570.457	23264.97
570.819	23344.29
571.18	23340.45
571.542	23484.17
571.903	23628.57
572.265	23649.82
572.626	23808.23
572.987	23727.33
573.349	24012.97
573.71	24185.17
574.071	24118.28
574.432	24329.35
574.794	24647.98
575.155	24464.03
575.516	24398.72
575.877	24628.1
576.238	24714.42
576.599	24898.82
576.96	25012.27
577.32	25044.58
577.681	25163
578.042	25420.16
578.403	25604.57
578.763	25530.22
579.124	25734.96
579.485	25905.58
579.845	26067.83
580.206	26166.59
580.566	26292.46
580.927	26372.68
581.287	26623.07
581.648	26650.42
582.008	26890.86
582.368	26915.27
582.728	27119.1
583.089	27240.68
583.449	27402.71
583.809	27579.2
584.169	27776.26
584.529	27908.01
584.889	28203.82
585.249	28100.55
585.609	28195.46
585.969	28579.18
586.329	28684.71
586.688	28901.88
587.048	29093.06
587.408	29203.12
587.768	29384.58
588.127	29542.54
588.487	29698.02
588.846	30040.83
589.206	30003.55
589.565	30212.36
589.925	30573.7
590.284	30664.09
590.643	30747.03
591.003	31074.71
591.362	31302.72
591.721	31464.75
592.08	31479.67
592.44	31929.37
592.799	32013.44
593.158	32077.39
593.517	32240.78
593.876	32600.77
594.235	32583.59
594.593	32746.07
594.952	33039.85
595.311	33080.08
595.67	33232.84
596.029	33684.58
596.387	33806.84
596.746	33968.19
597.104	34005.25
597.463	34213.15
597.822	34459.93
598.18	34364.79
598.538	34632.58
598.897	35028.27
599.255	34721.16
599.613	35484.53
599.972	35347.14
600.33	35621.25
600.688	35592.55
601.046	36009.04
601.404	36180.56
601.762	36141.01
602.12	36473.89
602.478	36514.11
602.836	36671.17
603.194	36680.66
603.552	36844.95
603.91	36901.67
604.268	37213.75
604.625	37065.51
604.983	37374.88
605.341	37369.23
605.698	37516.12
606.056	37838.6
606.413	37757.92
606.771	37999.5
607.128	38196.55
607.485	37981.19
607.843	38241.3
608.2	38608.74
608.557	38806.48
608.914	38763.77
609.272	38966.25
609.629	39021.39
609.986	39356.75
610.343	39130.09
610.7	39666.57
611.057	39437.2
611.414	39525.56
611.771	39676.97
612.127	39941.59
612.484	39814.81
612.841	40188.59
613.198	40161.02
613.554	40115.82
613.911	40526.21
614.267	40328.7
614.624	40499.77
614.98	40688.46
615.337	40915.35
615.693	40906.76
616.05	40904.5
616.406	41215
616.762	40966.87
617.118	41135.01
617.475	41108.57
617.831	41400.31
618.187	41455.68
618.543	41480.53
618.899	41721.21
619.255	41791.26
619.611	41731.15
619.967	41978.83
620.323	41863.12
620.678	41860.41
621.034	42064.47
621.39	41985.61
621.746	42095.88
622.101	42425.82
622.457	42206.84
622.812	42342.21
623.168	42417.68
623.523	42515.08
623.879	42580.84
624.234	42384.24
624.589	42459.72
624.945	42541.97
625.3	42645.25
625.655	42613.84
626.01	42673.27
626.365	42735.42
626.72	42723.21
627.075	42751.46
627.43	42742.87
627.785	42687.51
628.14	42863.77
628.495	42921.63
628.85	42840.5
629.205	42739.94
629.559	43012.47
629.914	42849.54
630.269	42807.96
630.623	42738.58
630.978	42688.41
631.332	42931.57
631.687	42993.94
632.041	42780.16
632.396	42968.4
632.75	42697
633.104	42907.39
633.459	42719.6
633.813	42696.32
634.167	42716.21
634.521	42810.89
634.875	42878.24
635.229	42749.2
635.583	42758.01
635.937	42717.56
636.291	42624.91
636.645	42831.01
636.999	42667.17
637.352	42685.7
637.706	42545.14
638.06	42616.32
638.413	42619.26
638.767	42530.45
639.121	42525.48
639.474	42490.45
639.828	42353.05
640.181	42356.89
640.534	42449.32
640.888	42323.9
641.241	42286.84
641.594	42303.11
641.947	42407.74
642.301	42212.94
642.654	42277.8
643.007	42332.26
643.36	42421.75
643.713	42262.43
644.066	42476.44
644.419	41995.32
644.771	41814.08
645.124	41425.39
645.477	41534.32
645.83	41246.42
646.182	41191.95
646.535	40891.62
646.888	41039.64
647.24	40862.92
647.593	41113.54
647.945	40998.96
648.298	40746.77
648.65	40651.18
649.002	40658.18
649.355	40825.64
649.707	40750.61
650.059	40939.98
650.411	41256.58
650.763	41358.73
651.115	41857.25
651.467	41751.49
651.819	41614.54
652.171	41616.12
652.523	41663.35
652.875	41579.51
653.227	41312.63
653.578	41667.87
653.93	41565.05
654.282	41389.91
654.633	41414.55
654.985	41367.77
655.337	41264.72
655.688	41399.86
656.039	41446.41
656.391	41231.27
656.742	41284.61
657.094	41242.35
657.445	41364.6
657.796	41324.15
658.147	41228.34
658.498	41132.07
658.849	41194.89
659.2	41262.46
659.551	41110.6
659.902	41277.15
660.253	41136.36
660.604	41138.85
660.955	40965.74
661.306	41118.74
661.656	41041.9
662.007	41137.72
662.358	40926.88
662.708	41129.36
663.059	41109.24
663.409	40690.05
663.76	40961.9
664.11	40989.02
664.461	41236.25
664.811	40954.45
665.161	41097.04
665.511	40918.29
665.862	41018.4
666.212	41073.31
666.562	41047.32
666.912	41103.59
667.262	41015.91
667.612	40931.62
667.962	40922.13
668.312	40898.85
668.662	41018.4
669.011	40979.98
669.361	40836.93
669.711	40886.65
670.06	40721.23
670.41	40728.46
670.76	40750.38
671.109	40991.28
671.459	40761.91
671.808	40704.73
672.157	40798.97
672.507	40547.22
672.856	40519.43
673.205	40728.01
673.554	40763.26
673.904	40606.88
674.253	40803.04
674.602	40609.6
674.951	40115.82
675.3	39861.37
675.649	40519.2
675.998	40537.06
676.346	40500.45
676.695	40670.39
677.044	40231.07
677.393	40345.2
677.741	40431.07
678.09	40324.18
678.438	40225.43
678.787	40341.13
679.135	40330.06
679.484	40000.57
679.832	40261.58
680.181	40041.25
680.529	40034.02
680.877	39943.17
681.225	39812.1
681.573	40247.12
681.922	39916.51
682.27	39848.26
682.618	39814.59
682.966	39653.24
683.314	39827.02
683.661	39663.41
684.009	39519.23
684.357	39489.63
684.705	39446.91
685.053	39316.97
685.4	39372.11
685.748	39125.57
686.095	39173.48
686.443	39037.89
686.79	39061.39
687.138	39113.14
687.485	39079.47
687.832	38813.71
688.18	39014.38
688.527	38729.42
688.874	38760.83
689.221	38683.77
689.568	38590.89
689.915	38611.23
690.262	38449.88
690.609	38464.57
690.956	38222.09
691.303	38267.06
691.65	38093.5
691.997	37965.15
692.344	37843.79
692.69	37725.6
693.037	37794.08
693.383	37362.45
693.73	37754.08
694.077	37422.79
694.423	37403.58
694.769	37177.37
695.116	37221.89
695.462	37178.95
695.808	36977.6
696.155	37096.02
696.501	36831.39
696.847	36851.5
697.193	36545.52
697.539	36741.9
697.885	36390.5
698.231	36315.92
698.577	36422.36
698.923	36287.45
699.269	36131.75
699.614	35967.01
699.96	35983.73
700.306	36042.71
700.651	35794.81
700.997	35667.13
701.342	35607.47
701.688	35440.47
702.033	35439.79
702.379	35437.08
702.724	35236.18
703.069	35417.19
703.415	34943.08
703.76	35067.14
704.105	34936.75
704.45	34930.42
704.795	34656.98
705.14	34674.61
705.485	34588.74
705.83	34469.42
706.175	34639.81
706.52	34381.29
706.865	34251.8
707.209	34187.62
707.554	34073.95
707.899	34215.41
708.243	33979.94
708.588	34027.17
708.932	33730.91
709.277	33781.98
709.621	33711.47
709.966	33604.81
710.31	33655.43
710.654	33325.04
710.998	33482.78
711.342	33457.02
711.687	33276.68
712.031	33112.62
712.375	32963.24
712.719	33200.3
713.063	33122.11
713.407	33183.12
713.75	32961.66
714.094	32788.11
714.438	32798.73
714.782	32860.2
715.125	32600.99
715.469	32748.56
715.812	32516.7
716.156	32320.1
716.499	32273.77
716.843	32464.95
717.186	32264.05
717.53	32469.47
717.873	32367.78
718.216	32249.82
718.559	32047.79
718.902	31837.62
719.246	32090.72
719.589	31849.37
719.932	31776.38
720.275	31778.87
720.617	31650.51
720.96	31637.63
721.303	31639.21
721.646	31561.02
721.989	31388.6
722.331	31565.31
722.674	31361.25
723.016	31484.19
723.359	31357.18
723.701	31446.9
724.044	31230.41
724.386	31060.47
724.729	31160.58
725.071	31016.85
725.413	31063.41
725.755	30981.37
726.097	30848.27
726.439	30643.08
726.782	30610.99
727.124	30875.84
727.465	30600.82
727.807	30623.64
728.149	30619.12
728.491	30339.81
728.833	30563.53
729.175	30376.87
729.516	30338.45
729.858	30373.03
730.199	30360.6
730.541	30181.85
730.882	30242.41
731.224	30315.18
731.565	30098.23
731.906	30095.97
732.248	30104.56
732.589	29921.97
732.93	29905.24
733.271	29832.48
733.612	29913.15
733.953	29885.58
734.294	29795.87
734.635	29796.1
734.976	29757
735.317	29571.47
735.658	29619.83
735.999	29586.61
736.339	29514.97
736.68	29631.58
737.021	29399.27
737.361	29417.12
737.702	29518.14
738.042	29364.24
738.383	29364.02
738.723	29273.85
739.063	29270.91
739.404	29290.8
739.744	29278.14
740.084	28987.08
740.424	29117.69
740.764	29004.7
741.104	29083.12
741.444	28892.84
741.784	28868.21
742.124	28879.96
742.464	28853.52
742.804	28731.49
743.143	28759.29
743.483	28720.87
743.823	28577.6
744.162	28582.12
744.502	28510.93
744.841	28469.35
745.181	28460.99
745.52	28402.46
745.86	28511.84
746.199	28299.86
746.538	28263.71
746.877	28502.12
747.216	28296.25
747.556	28182.13
747.895	28105.74
748.234	28051.51
748.573	27994.33
748.911	27879.54
749.25	27847.67
749.589	27815.36
749.928	27877.5
750.267	27811.29
750.605	27760.44
750.944	27596.6
751.283	27574.91
751.621	27734.68
751.96	27573.1
752.298	27533.78
752.636	27474.8
752.975	27481.58
753.313	27182.83
753.651	27408.14
753.989	27271.42
754.327	27169.95
754.666	27019.22
755.004	27021.7
755.342	27055.83
755.679	26985.55
756.017	26813.8
756.355	26949.39
756.693	26837.08
757.031	26905.78
