Data from hue_130_FLMS001491_00059.txt Node
Date: Tue Feb 07 16:57:48 GMT 2017
User: dcchb
Spectrometer: FLMS00149
Trigger mode: 0
Integration Time (sec): 2.000000E-2
Scans to average: 10
Electric dark correction enabled: true
Nonlinearity correction enabled: false
Boxcar width: 0
XAxis mode: Wavelengths
Number of Pixels in Spectrum: 2048
>>>>>Begin Spectral Data<<<<<
341.393	-1.69
341.776	-1.69
342.16	-1.69
342.543	-41.69
342.927	-72.65
343.31	-64.07
343.693	-50.06
344.077	-52.54
344.46	-50.73
344.843	-52.54
345.226	-57.06
345.61	-36.5
345.993	-20.45
346.376	0.79
346.759	10.06
347.142	14.58
347.525	23.16
347.908	57.06
348.291	91.64
348.674	84.86
349.057	101.81
349.44	122.37
349.823	160.33
350.206	181.13
350.588	198.3
350.971	214.57
351.354	224.97
351.737	242.59
352.119	256.6
352.502	267.9
352.884	248.02
353.267	289.6
353.65	307
354.032	308.13
354.414	304.74
354.797	317.39
355.179	325.08
355.562	308.13
355.944	321.69
356.326	321.01
356.709	326.21
357.091	331.18
357.473	383.38
357.855	354
358.238	334.12
358.62	356.49
359.002	355.36
359.384	330.5
359.766	336.83
360.148	329.14
360.53	350.84
360.912	347.22
361.294	349.93
361.676	317.84
362.057	332.08
362.439	343.15
362.821	336.6
363.203	326.88
363.584	321.23
363.966	347.45
364.348	338.86
364.729	324.62
365.111	322.36
365.493	324.17
365.874	320.1
366.256	336.6
366.637	301.35
367.019	335.25
367.4	305.64
367.781	318.3
368.163	315.36
368.544	302.03
368.925	312.87
369.306	311.97
369.688	340.44
370.069	321.46
370.45	329.82
370.831	328.24
371.212	319.43
371.593	332.53
371.974	319.43
372.355	317.84
372.736	323.04
373.117	302.7
373.498	312.2
373.879	315.81
374.26	335.92
374.641	316.71
375.021	321.23
375.402	314
375.783	337.51
376.163	344.28
376.544	334.12
376.925	336.83
377.305	345.41
377.686	339.31
378.066	336.83
378.447	330.5
378.827	335.7
379.208	348.13
379.588	343.83
379.968	335.92
380.349	348.35
380.729	361.46
381.109	344.96
381.489	321.91
381.87	342.48
382.25	340.44
382.63	353.78
383.01	348.58
383.39	345.87
383.77	332.99
384.15	348.58
384.53	371.63
384.91	346.54
385.29	374.57
385.67	362.36
386.049	361.46
386.429	387.9
386.809	371.18
387.189	374.34
387.568	362.14
387.948	358.3
388.328	388.13
388.707	365.98
389.087	377.5
389.466	364.85
389.846	386.32
390.225	371.63
390.605	367.11
390.984	390.39
391.363	384.51
391.743	415.47
392.122	376.15
392.501	372.08
392.881	372.08
393.26	402.36
393.639	388.13
394.018	394.45
394.397	394.68
394.776	373.21
395.155	381.35
395.534	389.03
395.913	380.22
396.292	400.33
396.671	413.89
397.05	390.84
397.429	423.83
397.808	398.97
398.186	398.29
398.565	418.18
398.944	396.49
399.323	401.91
399.701	426.54
400.08	419.09
400.458	407.56
400.837	413.89
401.215	420.89
401.594	402.81
401.972	400.33
402.351	406.2
402.729	436.26
403.107	434.45
403.486	438.52
403.864	436.03
404.242	441.91
404.62	441.23
404.999	434
405.377	459.54
405.755	426.32
406.133	437.16
406.511	436.49
406.889	429.25
407.267	461.34
407.645	448.01
408.023	457.73
408.401	446.65
408.779	439.65
409.156	455.24
409.534	469.71
409.912	464.51
410.29	478.29
410.667	472.19
411.045	483.72
411.422	473.55
411.8	492.53
412.178	482.13
412.555	487.11
412.933	510.38
413.31	487.56
413.687	488.24
414.065	500.44
414.442	520.78
414.819	536.6
415.197	535.47
415.574	523.72
415.951	525.52
416.328	520.33
416.705	540.89
417.082	542.25
417.46	521.46
417.837	542.92
418.214	503.15
418.591	545.64
418.967	544.96
419.344	539.08
419.721	545.41
420.098	551.06
420.475	554
420.852	562.36
421.228	575.69
421.605	572.3
421.982	555.8
422.358	556.93
422.735	575.24
423.111	560.55
423.488	604.16
423.864	600.55
424.241	604.62
424.617	610.04
424.994	617.5
425.37	607.1
425.746	630.38
426.123	616.82
426.499	619.98
426.875	633.09
427.251	611.4
427.627	637.16
428.003	634.45
428.379	663.37
428.756	652.75
429.132	639.42
429.507	643.94
429.883	670.15
430.259	668.34
430.635	678.74
431.011	663.37
431.387	697.72
431.763	689.59
432.138	693.43
432.514	713.54
432.89	697.5
433.265	734.78
433.641	709.47
434.016	744.05
434.392	746.99
434.767	745.18
435.143	750.38
435.518	776.14
435.894	756.7
436.269	753.54
436.644	771.62
437.02	764.61
437.395	788.79
437.77	806.42
438.145	783.14
438.52	807.32
438.895	821.79
439.271	821.79
439.646	838.96
440.021	843.48
440.395	839.64
440.77	828.57
441.145	843.71
441.52	857.72
441.895	873.31
442.27	871.95
442.645	872.86
443.019	890.49
443.394	854.78
443.769	889.81
444.143	879.41
444.518	905.4
444.892	894.1
445.267	891.16
445.641	925.29
446.016	904.5
446.39	896.36
446.764	927.55
447.139	917.15
447.513	962.12
447.887	932.07
448.262	942.01
448.636	938.17
449.01	933.42
449.384	972.06
449.758	957.38
450.132	982.23
450.506	1000.09
450.88	1000.99
451.254	999.41
451.628	1022.91
452.002	1024.94
452.376	1006.41
452.75	1032.4
453.123	1045.28
453.497	1060.88
453.871	1061.33
454.244	1067.66
454.618	1091.84
454.992	1084.83
455.365	1109.69
455.739	1124.83
456.112	1141.33
456.486	1147.2
456.859	1161.21
457.232	1190.59
457.606	1160.99
457.979	1171.38
458.352	1187.43
458.725	1238.95
459.099	1230.14
459.472	1249.35
459.845	1267.2
460.218	1287.31
460.591	1309.68
460.964	1326.18
461.337	1328.44
461.71	1390.58
462.083	1372.28
462.456	1371.15
462.829	1379.29
463.201	1401.66
463.574	1412.96
463.947	1433.75
464.32	1476.68
464.692	1480.3
465.065	1502.67
465.438	1528.21
465.81	1538.38
466.183	1527.53
466.555	1586.96
466.928	1617.47
467.3	1617.25
467.672	1646.17
468.045	1685.72
468.417	1706.51
468.789	1721.42
469.161	1761.65
469.534	1797.13
469.906	1808.88
470.278	1836.9
470.65	1889.55
471.022	1906.96
471.394	1982.89
471.766	1969.55
472.138	2033.28
472.51	2066.95
472.882	2092.71
473.253	2125.93
473.625	2165.93
473.997	2223.56
474.369	2245.93
474.74	2273.05
475.112	2383.33
475.484	2379.94
475.855	2504
476.227	2505.36
476.598	2597.33
476.97	2628.07
477.341	2715.52
477.713	2797.1
478.084	2836.42
478.455	2916.42
478.827	2976.08
479.198	3093.82
479.569	3176.53
479.94	3263.76
480.311	3322.29
480.682	3456.75
481.053	3527.93
481.424	3593.69
481.795	3679.56
482.166	3804.53
482.537	3911.2
482.908	4002.27
483.279	4076.62
483.65	4219.44
484.021	4319.55
484.391	4428.92
484.762	4531.07
485.133	4597.28
485.503	4779.65
485.874	4879.98
486.244	4969.93
486.615	5130.15
486.985	5296.24
487.356	5433.42
487.726	5525.62
488.097	5708.66
488.467	5753.86
488.837	5952.5
489.207	6101.42
489.578	6248.76
489.948	6352.04
490.318	6478.59
490.688	6610.79
491.058	6809.88
491.428	6939.14
491.798	7064.79
492.168	7324.21
492.538	7356.53
492.908	7568.95
493.278	7737.08
493.648	7752.68
494.017	7911.32
494.387	8081.93
494.757	8261.82
495.126	8345.2
495.496	8454.35
495.866	8559.44
496.235	8749.94
496.605	8898.86
496.974	8993.1
497.344	9187.22
497.713	9284.84
498.082	9356.7
498.452	9537.72
498.821	9619.3
499.19	9703.36
499.559	9846.63
499.928	9985.16
500.298	10047.76
500.667	10198.04
501.036	10252.72
501.405	10394.64
501.774	10490.46
502.143	10644.58
502.512	10684.58
502.88	10817.68
503.249	10848.64
503.618	10965.25
503.987	11073.49
504.356	11200.04
504.724	11219.48
505.093	11359.59
505.462	11364.56
505.83	11484.56
506.199	11588.28
506.567	11773.59
506.936	11767.94
507.304	11958.22
507.672	11951.66
508.041	12125.22
508.409	12198.66
508.777	12319.56
509.145	12346.91
509.514	12375.15
509.882	12446.79
510.25	12524.98
510.618	12516.17
510.986	12563.4
511.354	12709.61
511.722	12862.15
512.09	12891.53
512.458	12837.52
512.826	13016.04
513.193	13085.42
513.561	13085.87
513.929	13169.26
514.297	13276.6
514.664	13318.18
515.032	13305.07
515.4	13532.19
515.767	13493.09
516.135	13455.35
516.502	13363.83
516.869	13663.93
517.237	13674.1
517.604	13651.05
517.972	13776.7
518.339	13775.12
518.706	13772.86
519.073	13889.01
519.44	13887.43
519.808	13946.19
520.175	13905.74
520.542	14039.97
520.909	14024.38
521.276	14026.41
521.643	14200.64
522.009	14209.46
522.376	14180.98
522.743	14261.43
523.11	14484.48
523.477	14476.34
523.843	14474.76
524.21	14595.21
524.577	14638.15
524.943	14678.15
525.31	14719.73
525.676	14737.58
526.043	14742.55
526.409	14785.94
526.776	14867.29
527.142	14851.93
527.508	14857.8
527.874	14869.1
528.241	14880.63
528.607	14933.73
528.973	15018.48
529.339	14993.62
529.705	15061.19
530.071	15085.14
530.437	15111.13
530.803	15131.24
531.169	15133.95
531.535	14995.65
531.901	15025.25
532.267	14983.22
532.632	15054.63
532.998	15019.38
533.364	15149.32
533.73	15141.86
534.095	15087.4
534.461	15079.26
534.826	15150.9
535.192	15120.17
535.557	15179.83
535.923	15102.99
536.288	15067.97
536.653	15065.03
537.019	14976.22
537.384	14968.31
537.749	14998.14
538.114	14945.48
538.479	14895.99
538.845	14910.91
539.21	14799.27
539.575	14855.09
539.94	14821.64
540.305	14868.2
540.67	14724.92
541.034	14816.45
541.399	14747.52
541.764	14643.34
542.129	14741.65
542.494	14700.74
542.858	14668.65
543.223	14708.2
543.587	14616
543.952	14524.93
544.316	14536.45
544.681	14472.5
545.045	14583.01
545.41	14537.81
545.774	14506.85
546.138	14488.32
546.503	14407.87
546.867	14372.62
547.231	14459.17
547.595	14313.18
547.959	14376.01
548.324	14279.29
548.688	14298.49
549.052	14231.38
549.416	14180.08
549.779	14140.53
550.143	14117.03
550.507	14103.92
550.871	14111.38
551.235	14001.1
551.599	14073.64
551.962	14053.08
552.326	13995.68
552.689	14051.49
553.053	13909.58
553.417	13883.59
553.78	14020.99
554.143	13913.65
554.507	13873.87
554.87	13931.5
555.234	13998.61
555.597	13824.61
555.96	13886.08
556.323	13775.57
556.686	13828.22
557.05	13884.95
557.413	13811.5
557.776	13777.15
558.139	13835.23
558.502	13792.97
558.865	13817.83
559.228	13810.6
559.59	13662.13
559.953	13771.5
560.316	13858.28
560.679	13869.13
561.041	13902.8
561.404	13877.71
561.767	13844.04
562.129	13825.29
562.492	13881.56
562.854	13811.28
563.217	13864.16
563.579	13970.37
563.941	13935.34
564.304	13984.6
564.666	13985.73
565.028	14017.15
565.39	14027.09
565.753	14003.81
566.115	14069.35
566.477	14043.13
566.839	14118.61
567.201	14175.79
567.563	14055.11
567.925	14199.74
568.287	14127.43
568.648	14144.37
569.01	14150.93
569.372	14304.37
569.734	14128.78
570.095	14156.8
570.457	14152.28
570.819	14230.02
571.18	14193.19
571.542	14275.67
571.903	14206.07
572.265	14387.31
572.626	14323.35
572.987	14216.69
573.349	14309.79
573.71	14355.89
574.071	14314.99
574.432	14403.58
574.794	14399.28
575.155	14458.72
575.516	14371.03
575.877	14469.11
576.238	14486.96
576.599	14467.76
576.96	14393.86
577.32	14403.12
577.681	14415.78
578.042	14505.04
578.403	14407.64
578.763	14532.16
579.124	14548.66
579.485	14550.24
579.845	14479.28
580.206	14460.52
580.566	14563.12
580.927	14504.82
581.287	14527.87
581.648	14524.93
582.008	14602.89
582.368	14526.06
582.728	14563.35
583.089	14513.18
583.449	14454.42
583.809	14478.6
584.169	14515.66
584.529	14426.85
584.889	14501.2
585.249	14429.34
585.609	14417.36
585.969	14551.59
586.329	14446.74
586.688	14480.86
587.048	14433.41
587.408	14407.64
587.768	14371.71
588.127	14413.29
588.487	14428.43
588.846	14439.73
589.206	14232.96
589.565	14414.42
589.925	14419.62
590.284	14393.86
590.643	14352.73
591.003	14428.89
591.362	14429.79
591.721	14305.5
592.08	14393.63
592.44	14410.13
592.799	14454.87
593.158	14308.44
593.517	14370.36
593.876	14333.07
594.235	14293.3
594.593	14308.66
594.952	14291.49
595.311	14138.72
595.67	14237.25
596.029	14305.05
596.387	14341.43
596.746	14334.88
597.104	14124.04
597.463	14232.96
597.822	14255.33
598.18	14165.16
598.538	14155
598.897	14258.04
599.255	14203.36
599.613	14279.29
599.972	14238.83
600.33	14267.99
600.688	14131.94
601.046	14249
601.404	14306.18
601.762	14249
602.12	14293.75
602.478	14244.03
602.836	14336.91
603.194	14208.1
603.552	14241.55
603.91	14212.17
604.268	14191.6
604.625	14255.56
604.983	14287.42
605.341	14187.31
605.698	14285.39
606.056	14324.71
606.413	14261.66
606.771	14293.52
607.128	14298.27
607.485	14266.86
607.843	14283.35
608.2	14308.89
608.557	14339.62
608.914	14291.94
609.272	14319.06
609.629	14359.96
609.986	14426.4
610.343	14334.43
610.7	14420.3
611.057	14399.06
611.414	14372.84
611.771	14435.89
612.127	14427.98
612.484	14450.35
612.841	14514.76
613.198	14490.35
613.554	14459.39
613.911	14492.61
614.267	14539.62
614.624	14493.74
614.98	14460.52
615.337	14587.07
615.693	14548.66
616.05	14508.43
616.406	14654.19
616.762	14591.82
617.118	14631.82
617.475	14597.24
617.831	14668.88
618.187	14696.68
618.543	14706.84
618.899	14748.88
619.255	14603.57
619.611	14632.72
619.967	14684.02
620.323	14771.02
620.678	14702.78
621.034	14698.03
621.39	14642.89
621.746	14627.07
622.101	14787.52
622.457	14751.82
622.812	14718.37
623.168	14730.57
623.523	14738.93
623.879	14781.65
624.234	14630.01
624.589	14625.94
624.945	14798.82
625.3	14822.77
625.655	14643.57
626.01	14670.69
626.365	14738.93
626.72	14702.55
627.075	14674.53
627.43	14723.34
627.785	14710.91
628.14	14644.47
628.495	14697.58
628.85	14572.84
629.205	14655.32
629.559	14678.37
629.914	14637.02
630.269	14618.94
630.623	14583.68
630.978	14523.57
631.332	14606.96
631.687	14635.21
632.041	14583.46
632.396	14631.14
632.75	14522.67
633.104	14583.01
633.459	14530.8
633.813	14490.35
634.167	14503.01
634.521	14555.89
634.875	14551.37
635.229	14490.35
635.583	14452.39
635.937	14418.94
636.291	14401.54
636.645	14437.93
636.999	14303.47
637.352	14349.79
637.706	14259.63
638.06	14342.56
638.413	14275.22
638.767	14263.69
639.121	14294.2
639.474	14133.98
639.828	14202
640.181	14292.39
640.534	14199.97
640.888	14210.36
641.241	14132.62
641.594	14200.64
641.947	14208.55
642.301	14134.2
642.654	14144.83
643.007	14166.07
643.36	14144.83
643.713	14091.04
644.066	14097.14
644.419	14099.18
644.771	13961.1
645.124	13839.07
645.477	13886.53
645.83	13740.09
646.182	13684.72
646.535	13613.31
646.888	13740.32
647.24	13557.95
647.593	13709.81
647.945	13653.54
648.298	13583.48
648.65	13517.27
649.002	13538.06
649.355	13575.58
649.707	13628.68
650.059	13625.29
650.411	13830.03
650.763	13778.28
651.115	13863.48
651.467	13834.78
651.819	13877.04
652.171	13858.73
652.523	13804.72
652.875	13875
653.227	13784.38
653.578	13945.51
653.93	13933.08
654.282	13832.74
654.633	13764.95
654.985	13867.54
655.337	13855.79
655.688	13813.99
656.039	13947.99
656.391	13831.16
656.742	13802.01
657.094	13808.34
657.445	13897.37
657.796	13879.07
658.147	13817.6
658.498	13888.11
658.849	13955
659.2	13857.15
659.551	13830.94
659.902	13918.17
660.253	13907.32
660.604	13909.13
660.955	13783.03
661.306	13907.32
661.656	13923.59
662.007	13945.96
662.358	14004.04
662.708	13875.45
663.059	13934.21
663.409	13847.21
663.76	13950.48
664.11	13919.52
664.461	14001.33
664.811	13933.31
665.161	13928.56
665.511	13902.35
665.862	13974.66
666.212	13941.67
666.562	13948.67
666.912	14027.09
667.262	13879.75
667.612	13913.19
667.962	13931.5
668.312	13988.9
668.662	14047.2
669.011	13913.87
669.361	14000.2
669.711	13949.35
670.06	13897.6
670.41	13893.31
670.76	13817.15
671.109	13906.64
671.459	13912.97
671.808	13883.82
672.157	13854.21
672.507	13837.94
672.856	13852.4
673.205	13844.27
673.554	13844.04
673.904	13826.19
674.253	13920.88
674.602	13799.07
674.951	13564.5
675.3	13525.41
675.649	13751.84
675.998	13745.51
676.346	13707.1
676.695	13787.32
677.044	13712.75
677.393	13618.06
677.741	13639.53
678.09	13659.64
678.438	13588.68
678.787	13646.76
679.135	13674.1
679.484	13641.56
679.832	13655.35
680.181	13525.63
680.529	13595.46
680.877	13462.81
681.225	13475.24
681.573	13513.88
681.922	13477.05
682.27	13403.38
682.618	13385.07
682.966	13362.93
683.314	13355.47
683.661	13369.48
684.009	13268.46
684.357	13221.69
684.705	13238.41
685.053	13241.8
685.4	13198.41
685.748	13135.81
686.095	13154.12
686.443	13079.54
686.79	13075.02
687.138	13095.81
687.485	13103.05
687.832	13028.7
688.18	13031.18
688.527	12890.17
688.874	12933.33
689.221	12848.36
689.568	12905.31
689.915	12782.15
690.262	12848.14
690.609	12790.06
690.956	12698.08
691.303	12630.97
691.65	12585.09
691.997	12593.23
692.344	12536.73
692.69	12493.34
693.037	12497.19
693.383	12377.19
693.73	12425.1
694.077	12406.57
694.423	12345.33
694.769	12218.1
695.116	12131.32
695.462	12256.29
695.808	12159.34
696.155	12181.49
696.501	12050.42
696.847	12111.21
697.193	11993.24
697.539	11911.89
697.885	11889.74
698.231	11853.81
698.577	11879.12
698.923	11889.74
699.269	11802.97
699.614	11743.08
699.96	11676.87
700.306	11686.13
700.651	11581.5
700.997	11540.15
701.342	11506.7
701.688	11496.99
702.033	11370.89
702.379	11428.06
702.724	11357.55
703.069	11372.92
703.415	11306.03
703.76	11265.35
704.105	11322.53
704.45	11225.81
704.795	11129.99
705.14	11162.08
705.485	11113.49
705.83	10980.39
706.175	11078.47
706.52	11043.44
706.865	11014.74
707.209	11037.56
707.554	10940.84
707.899	10857.91
708.243	10885.48
708.588	10851.58
708.932	10748.3
709.277	10722.09
709.621	10725.48
709.966	10702.66
710.31	10706.95
710.654	10650.45
710.998	10655.2
711.342	10641.64
711.687	10591.25
712.031	10561.42
712.375	10453.4
712.719	10568.87
713.063	10470.12
713.407	10528.65
713.75	10434.64
714.094	10411.59
714.438	10353.29
714.782	10376.56
715.125	10316.68
715.469	10343.34
715.812	10306.51
716.156	10245.04
716.499	10247.75
716.843	10258.6
717.186	10208.66
717.53	10264.25
717.873	10240.97
718.216	10223.12
718.559	10129.56
718.902	10161.88
719.246	10048.66
719.589	10086.85
719.932	10047.08
720.275	10062.45
720.617	10133.18
720.96	10013.64
721.303	10044.14
721.646	10017.7
721.989	10021.09
722.331	10034.43
722.674	9961.43
723.016	9999.85
723.359	9958.27
723.701	9987.42
724.044	9967.99
724.386	9876.01
724.729	9959.85
725.071	9926.41
725.413	9894.99
725.755	9934.32
726.097	9867.88
726.439	9782
726.782	9813.64
727.124	9901.55
727.465	9820.42
727.807	9831.04
728.149	9778.16
728.491	9802.79
728.833	9775.45
729.175	9787.65
729.516	9830.59
729.858	9731.16
730.199	9817.93
730.541	9776.58
730.882	9777.71
731.224	9793.08
731.565	9661.55
731.906	9732.74
732.248	9723.25
732.589	9714.21
732.93	9721.44
733.271	9672.85
733.612	9674.21
733.953	9731.38
734.294	9671.72
734.635	9682.8
734.976	9707.43
735.317	9652.51
735.658	9739.97
735.999	9668.11
736.339	9709.24
736.68	9753.98
737.021	9709.91
737.361	9745.85
737.702	9733.64
738.042	9751.04
738.383	9694.32
738.723	9688.45
739.063	9737.48
739.404	9804.83
739.744	9738.39
740.084	9774.09
740.424	9813.64
740.764	9851.83
741.104	9892.51
741.444	9833.07
741.784	9839.63
742.124	9875.56
742.464	9932.96
742.804	9882.57
743.143	9833.3
743.483	9931.15
743.823	9917.37
744.162	9926.63
744.502	9992.39
744.841	10015.67
745.181	10014.31
745.52	10022.45
745.86	10123.69
746.199	10172.95
746.538	10213.18
746.877	10224.25
747.216	10310.58
747.556	10299.5
747.895	10380.18
748.234	10344.7
748.573	10365.49
748.911	10451.36
749.25	10603.68
749.589	10564.13
749.928	10707.18
750.267	10698.59
750.605	10773.39
750.944	10849.55
751.283	10900.62
751.621	11022.87
751.96	11069.88
752.298	11143.55
752.636	11211.57
752.975	11405.69
753.313	11353.03
753.651	11607.49
753.989	11655.4
754.327	11791.67
754.666	11858.56
755.004	12028.72
755.342	12129.06
755.679	12248.15
756.017	12359.11
756.355	12533.34
756.693	12658.31
757.031	12833
757.368	12973.33
757.706	13007.68
