Data from hue_50_FLMS001491_62.txt Node
Date: Mon Feb 06 15:10:45 GMT 2017
User: dcchb
Spectrometer: FLMS00149
Trigger mode: 0
Integration Time (sec): 2.000000E-2
Scans to average: 10
Electric dark correction enabled: true
Nonlinearity correction enabled: false
Boxcar width: 0
XAxis mode: Wavelengths
Number of Pixels in Spectrum: 2048
>>>>>Begin Spectral Data<<<<<
341.393	-10.64
341.776	-10.64
342.16	-10.64
342.543	-42.5
342.927	-53.57
343.31	-70.29
343.693	-63.74
344.077	-83.18
344.46	-60.58
344.843	-58.32
345.226	-50.86
345.61	-33.46
345.993	-14.7
346.376	-8.6
346.759	8.12
347.142	27.33
347.525	37.5
347.908	62.36
348.291	86.99
348.674	85.18
349.057	136.25
349.44	144.16
349.823	156.82
350.206	167.44
350.588	206.76
350.971	203.37
351.354	220.09
351.737	248.57
352.119	253.31
352.502	253.54
352.884	283.37
353.267	277.72
353.65	298.28
354.032	297.61
354.414	299.19
354.797	297.83
355.179	314.78
355.562	326.53
355.944	342.35
356.326	353.2
356.709	331.5
357.091	331.73
357.473	354.78
357.855	349.81
358.238	342.58
358.62	331.5
359.002	340.77
359.384	355.46
359.766	336.7
360.148	351.16
360.53	351.62
360.912	357.72
361.294	334.21
361.676	336.02
362.057	352.74
362.439	320.43
362.821	327.66
363.203	347.77
363.584	323.82
363.966	321.79
364.348	308.23
364.729	327.89
365.111	331.95
365.493	296.48
365.874	308.23
366.256	332.18
366.637	317.04
367.019	304.16
367.4	327.89
367.781	315.01
368.163	327.66
368.544	340.99
368.925	310.49
369.306	327.66
369.688	302.8
370.069	319.07
370.45	322.01
370.831	318.17
371.212	312.29
371.593	322.92
371.974	339.41
372.355	312.97
372.736	308.23
373.117	323.82
373.498	328.56
373.879	317.94
374.26	329.92
374.641	331.73
375.021	336.7
375.402	339.19
375.783	337.6
376.163	351.16
376.544	346.42
376.925	323.82
377.305	317.49
377.686	330.6
378.066	309.13
378.447	350.03
378.827	352.97
379.208	310.26
379.588	327.43
379.968	343.25
380.349	336.93
380.729	342.12
381.109	344.84
381.489	338.96
381.87	346.64
382.25	337.15
382.63	319.98
383.01	343.25
383.39	336.25
383.77	331.28
384.15	334.21
384.53	340.09
384.91	333.31
385.29	361.11
385.67	348.45
386.049	350.49
386.429	364.72
386.809	364.95
387.189	360.65
387.568	341.67
387.948	352.74
388.328	354.33
388.707	354.55
389.087	359.75
389.466	367.89
389.846	352.52
390.225	368.56
390.605	380.77
390.984	366.3
391.363	374.67
391.743	369.47
392.122	350.94
392.501	369.92
392.881	378.28
393.26	354.33
393.639	366.98
394.018	348
394.397	373.08
394.776	371.28
395.155	381.9
395.534	388.68
395.913	371.73
396.292	368.56
396.671	373.08
397.05	364.27
397.429	376.47
397.808	399.75
398.186	375.57
398.565	378.28
398.944	371.05
399.323	385.51
399.701	368.34
400.08	372.18
400.458	400.65
400.837	391.39
401.215	388.22
401.594	406.3
401.972	382.8
402.351	386.64
402.729	398.17
403.107	394.55
403.486	393.42
403.864	390.94
404.242	403.82
404.62	401.33
404.999	416.25
405.377	390.94
405.755	403.59
406.133	391.61
406.511	404.72
406.889	437.71
407.267	414.44
407.645	414.66
408.023	422.8
408.401	408.56
408.779	419.41
409.156	434.55
409.534	469.13
409.912	457.83
410.29	429.58
410.667	429.81
411.045	443.14
411.422	436.36
411.8	423.25
412.178	453.08
412.555	434.32
412.933	442.46
413.31	481.56
413.687	460.54
414.065	448.56
414.442	456.92
414.819	455.57
415.197	481.33
415.574	465.06
415.951	462.57
416.328	451.73
416.705	480.2
417.082	489.46
417.46	471.61
417.837	473.87
418.214	464.38
418.591	480.2
418.967	476.58
419.344	498.96
419.721	503.7
420.098	484.49
420.475	490.59
420.852	489.92
421.228	507.54
421.605	510.48
421.982	501.44
422.358	503.48
422.735	517.94
423.111	527.2
423.488	492.18
423.864	513.64
424.241	531.05
424.617	531.95
424.994	511.16
425.37	534.21
425.746	536.24
426.123	507.32
426.499	556.81
426.875	538.95
427.251	553.87
427.627	555.45
428.003	571.5
428.379	553.19
428.756	581.67
429.132	564.94
429.507	580.08
429.883	570.14
430.259	611.04
430.635	594.09
431.011	590.25
431.387	584.6
431.763	596.35
432.138	582.57
432.514	603.36
432.89	605.39
433.265	606.07
433.641	609.91
434.016	595.22
434.392	606.52
434.767	632.96
435.143	613.53
435.518	621.21
435.894	628.44
436.269	637.03
436.644	642.23
437.02	649.69
437.395	654.43
437.77	663.47
438.145	673.87
438.52	676.35
438.895	666.41
439.271	678.39
439.646	687.88
440.021	687.65
440.395	671.38
440.77	677.03
441.145	692.17
441.52	695.33
441.895	687.43
442.27	704.15
442.645	726.97
443.019	720.19
443.394	729.01
443.769	707.31
444.143	706.63
444.518	719.29
444.892	730.81
445.267	735.56
445.641	748.89
446.016	754.99
446.39	732.17
446.764	765.16
447.139	756.58
447.513	760.42
447.887	762
448.262	776.24
448.636	741.66
449.01	774.43
449.384	759.06
449.758	764.94
450.132	815.56
450.506	796.8
450.88	790.25
451.254	796.35
451.628	811.94
452.002	805.39
452.376	812.39
452.75	813.52
453.123	822.79
453.497	814.65
453.871	838.83
454.244	829.34
454.618	867.76
454.992	854.88
455.365	848.78
455.739	865.05
456.112	892.84
456.486	907.08
456.859	881.77
457.232	902.11
457.606	923.13
457.979	931.49
458.352	926.29
458.725	931.03
459.099	943.46
459.472	983.91
459.845	976.23
460.218	973.07
460.591	994.31
460.964	989.34
461.337	1019.17
461.71	1040.18
462.083	1036.57
462.456	1059.85
462.829	1062.56
463.201	1061.65
463.574	1093.06
463.947	1071.82
464.32	1111.6
464.692	1111.14
465.065	1153.18
465.438	1162.44
465.81	1177.81
466.183	1167.19
466.555	1208.54
466.928	1200.41
467.3	1253.74
467.672	1226.62
468.045	1281.53
468.417	1266.39
468.789	1311.36
469.161	1315.43
469.534	1338.93
469.906	1332.38
470.278	1403.79
470.65	1420.74
471.022	1448.08
471.394	1493.28
471.766	1493.28
472.138	1524.92
472.51	1565.14
472.882	1595.65
473.253	1610.56
473.625	1640.62
473.997	1683.11
474.369	1726.72
474.74	1751.58
475.112	1799.94
475.484	1852.59
475.855	1877.22
476.227	1932.59
476.598	1969.88
476.97	1989.99
477.341	2110.89
477.713	2163.54
478.084	2196.54
478.455	2261.62
478.827	2345.91
479.198	2408.28
479.569	2448.96
479.94	2552.69
480.311	2569.64
480.682	2684.89
481.053	2775.51
481.424	2855.05
481.795	2956.07
482.166	2986.12
482.537	3092.56
482.908	3198.55
483.279	3229.28
483.65	3362.16
484.021	3499.78
484.391	3598.08
484.762	3678.99
485.133	3763.95
485.503	3899.54
485.874	4032.87
486.244	4135.7
486.615	4275.13
486.985	4369.59
487.356	4507.89
487.726	4612.29
488.097	4766.41
488.467	4861.1
488.837	5009.35
489.207	5139.96
489.578	5303.8
489.948	5418.37
490.318	5565.72
490.688	5657.24
491.058	5819.49
491.428	5941.75
491.798	6056.32
492.168	6236.21
492.538	6364.79
492.908	6577.21
493.278	6668.29
493.648	6800.03
494.017	6945.11
494.387	7097.2
494.757	7250.64
495.126	7417.42
495.496	7524.76
495.866	7695.83
496.235	7781.7
496.605	7938.31
496.974	8059.43
497.344	8214.46
497.713	8438.63
498.082	8491.29
498.452	8666.2
498.821	8763.37
499.19	8950.71
499.559	9118.16
499.928	9203.59
500.298	9298.5
500.667	9535.78
501.036	9520.19
501.405	9749.11
501.774	9797.47
502.143	9952.94
502.512	10109.78
502.88	10178.48
503.249	10295.08
503.618	10433.84
503.987	10644.45
504.356	10703.21
504.724	10819.81
505.093	10930.32
505.462	10974.16
505.83	11199.01
506.199	11331.67
506.567	11464.09
506.936	11466.35
507.304	11716.74
507.672	11827.7
508.041	11947.92
508.409	12064.3
508.777	12156.73
509.145	12277.63
509.514	12438.75
509.882	12501.13
510.25	12535.7
510.618	12755.58
510.986	12803.04
511.354	13019.08
511.722	13147.89
512.09	13209.36
512.458	13220.2
512.826	13417.71
513.193	13525.51
513.561	13676.01
513.929	13782
514.297	13879.62
514.664	14020.18
515.032	14101.76
515.4	14234.87
515.767	14338.59
516.135	14399.16
516.502	14393.96
516.869	14698.58
517.237	14639.6
517.604	14736.32
517.972	14986.48
518.339	15064.22
518.706	15055.64
519.073	15122.07
519.44	15333.82
519.808	15480.03
520.175	15516.19
520.542	15767.48
520.909	15823.98
521.276	15835.5
521.643	16072.78
522.009	16216.28
522.376	16230.97
522.743	16339.44
523.11	16531.98
523.477	16778.98
523.843	16781.92
524.21	16895.13
524.577	17010.84
524.943	17209.93
525.31	17330.38
525.676	17459.87
526.043	17510.71
526.409	17600.43
526.776	17721.55
527.142	17921.1
527.508	18012.62
527.874	18192.28
528.241	18293.06
528.607	18350.24
528.973	18630.68
529.339	18498.03
529.705	18714.52
530.071	18960.17
530.437	18943.44
530.803	19073.16
531.169	19117.68
531.535	19238.8
531.901	19233.15
532.267	19378.01
532.632	19599.7
532.998	19563.54
533.364	19716.3
533.73	19834.94
534.095	19914.49
534.461	19937.99
534.826	20137.99
535.192	20148.83
535.557	20242.39
535.923	20362.84
536.288	20334.59
536.653	20551.54
537.019	20396.06
537.384	20615.49
537.749	20673.11
538.114	20673.11
538.479	20784.98
538.845	20940
539.21	20855.93
539.575	21027.23
539.94	21047.79
540.305	21293.21
540.67	21222.93
541.034	21374.57
541.399	21322.36
541.764	21477.39
542.129	21603.94
542.494	21603.03
542.858	21800.99
543.223	21751.73
543.587	21959.18
543.952	21862.91
544.316	22099.07
544.681	22054.77
545.045	22223.13
545.41	22282.79
545.774	22315.56
546.138	22405.05
546.503	22449.34
546.867	22577.02
547.231	22648.43
547.595	22760.74
547.959	22835.09
548.324	22806.62
548.688	22852.94
549.052	22982.21
549.416	23008.19
549.779	23167.06
550.143	23212.03
550.507	23303.1
550.871	23459.48
551.235	23331.12
551.599	23513.72
551.962	23583.32
552.326	23729.53
552.689	23872.35
553.053	23761.39
553.417	23904.44
553.78	24197.54
554.143	24021.5
554.507	24139.01
554.87	24237.09
555.234	24482.05
555.597	24323.19
555.96	24568.15
556.323	24541.04
556.686	24660.81
557.05	24814.7
557.413	24851.08
557.776	24944.64
558.139	25028.48
558.502	25120.23
558.865	25202.26
559.228	25416.72
559.59	25445.87
559.953	25581.46
560.316	25737.61
560.679	25740.33
561.041	25820.1
561.404	25985.52
561.767	26179.18
562.129	26048.11
562.492	26286.07
562.854	26336.47
563.217	26434.77
563.579	26567.87
563.941	26690.36
564.304	26940.75
564.666	27011.48
565.028	27066.84
565.39	27160.18
565.753	27230.68
566.115	27305.71
566.477	27512.93
566.839	27567.4
567.201	27766.71
567.563	27795.87
567.925	27950.21
568.287	27814.17
568.648	28036.76
569.01	28108.4
569.372	28195.85
569.734	28280.15
570.095	28477.88
570.457	28592.45
570.819	28690.98
571.18	28673.58
571.542	28903.18
571.903	28944.54
572.265	29145.89
572.626	29050.52
572.987	29226.11
573.349	29310.85
573.71	29494.58
574.071	29550.85
574.432	29647.12
574.794	29977.28
575.155	29863.83
575.516	29869.71
575.877	29998.97
576.238	30233.09
576.599	30310.38
576.96	30534.1
577.32	30389.7
577.681	30573.65
578.042	30717.82
578.403	30842.56
578.763	30891.6
579.124	30947.19
579.485	31059.96
579.845	31278.03
580.206	31210.24
580.566	31453.4
580.927	31475.09
581.287	31656.33
581.648	31696.78
582.008	31847.28
582.368	31947.39
582.728	32077.11
583.089	32056.54
583.449	32288.85
583.809	32343.32
584.169	32576.08
584.529	32673.25
584.889	32997.76
585.249	32825.34
585.609	32774.72
585.969	33119.12
586.329	33054.26
586.688	33429.62
587.048	33466.22
587.408	33496.73
587.768	33608.37
588.127	33700.12
588.487	33634.36
588.846	34119.54
589.206	33967.68
589.565	34173.1
589.925	34361.12
590.284	34383.49
590.643	34523.37
591.003	34778.05
591.362	34995.68
591.721	34805.62
592.08	35100.08
592.44	35322.45
592.799	35398.15
593.158	35466.62
593.517	35421.88
593.876	35627.07
594.235	35643.79
594.593	35849.21
594.952	35963.56
595.311	35913.84
595.67	36192.03
596.029	36335.75
596.387	36461.85
596.746	36689.42
597.104	36511.34
597.463	36703.43
597.822	36947.71
598.18	36844.44
598.538	36857.55
598.897	37150.65
599.255	36974.83
599.613	37671.76
599.972	37433.13
600.33	37453.24
600.688	37537.76
601.046	37705.89
601.404	37924.64
601.762	37853.91
602.12	38146.55
602.478	38125.09
602.836	38229.49
603.194	38117.85
603.552	38279.66
603.91	38255.7
604.268	38585.64
604.625	38479.88
604.983	38737.5
605.341	38544.96
605.698	38876.7
606.056	38945.63
606.413	38904.05
606.771	39247.09
607.128	39113.08
607.485	39246.86
607.843	39199.18
608.2	39502.68
608.557	39617.48
608.914	39478.27
609.272	39719.85
609.629	39861.54
609.986	40142.89
610.343	39893.17
610.7	40268.08
611.057	40196.44
611.414	40324.12
611.771	40243.67
612.127	40475.53
612.484	40492.25
612.841	40633.27
613.198	40571.35
613.554	40775.18
613.911	40854.05
614.267	40976.54
614.624	40822.42
614.98	41144.67
615.337	41252.23
615.693	41275.51
616.05	41266.47
616.406	41447.71
616.762	41431.66
617.118	41457.43
617.475	41407.03
617.831	41574.49
618.187	41710.08
618.543	41749.85
618.899	41959.11
619.255	41947.36
619.611	41990.07
619.967	42064.42
620.323	42189.84
620.678	42036.62
621.034	42039.78
621.39	42111.65
621.746	41981.71
622.101	42611.75
622.457	42070.74
622.812	42414.46
623.168	42448.36
623.523	42536.27
623.879	42578.3
624.234	42411.07
624.589	42557.51
624.945	42564.29
625.3	42510.28
625.655	42569.49
626.01	42678.86
626.365	42745.53
626.72	42653.1
627.075	42661.69
627.43	42647
627.785	42538.75
628.14	42651.97
628.495	42782.36
628.85	42752.76
629.205	42718.64
629.559	42917.28
629.914	42772.65
630.269	42863.49
630.623	42797.5
630.978	42605.87
631.332	42786.88
631.687	42834.11
632.041	42714.34
632.396	42734.46
632.75	42724.06
633.104	42774.91
633.459	42575.59
633.813	42499.21
634.167	42504.18
634.521	42486.78
634.875	42570.84
635.229	42605.65
635.583	42365.65
635.937	42476.16
636.291	42470.73
636.645	42369.49
636.999	42307.57
637.352	42563.39
637.706	42214.24
638.06	42573.78
638.413	42390.96
638.767	42279.33
639.121	42267.35
639.474	42086.79
639.828	42067.81
640.181	42171.76
640.534	42176.5
640.888	41990.52
641.241	41928.37
641.594	41968.6
641.947	42052.44
642.301	41927.02
642.654	41870.98
643.007	42032.78
643.36	42009.95
643.713	41865.1
644.066	42111.42
644.419	41602.06
644.771	41628.95
645.124	41320.26
645.477	41068.28
645.83	40933.82
646.182	40626.26
646.535	40632.36
646.888	40727.73
647.24	40578.58
647.593	40698.8
647.945	40599.6
648.298	40489.32
648.65	40334.97
649.002	40334.74
649.355	40309.21
649.707	40367.51
650.059	40683.89
650.411	40921.62
650.763	41214.27
651.115	41363.87
651.467	41260.14
651.819	41361.84
652.171	41329.07
652.523	41157.32
652.875	41188.51
653.227	40876.43
653.578	41297.21
653.93	41139.24
654.282	40961.62
654.633	40881.4
654.985	40992.81
655.337	40848.86
655.688	40963.43
656.039	41132.92
656.391	40739.93
656.742	40912.58
657.094	40862.19
657.445	40982.19
657.796	40761.4
658.147	40822.19
658.498	40792.59
658.849	40914.16
659.2	40707.84
659.551	40657.45
659.902	40856.54
660.253	40735.64
660.604	40803.88
660.955	40600.95
661.306	40859.02
661.656	40479.15
662.007	40714.85
662.358	40671.23
662.708	40657.22
663.059	40503.78
663.409	40431.01
663.76	40714.17
664.11	40608.41
664.461	40695.86
664.811	40646.37
665.161	40593.49
665.511	40525.47
665.862	40543.1
666.212	40741.06
666.562	40734.51
666.912	40600.27
667.262	40468.75
667.612	40571.12
667.962	40567.96
668.312	40521.63
668.662	40673.27
669.011	40422.2
669.361	40372.26
669.711	40400.51
670.06	40427.4
670.41	40343.56
670.76	40264.01
671.109	40421.07
671.459	40386.04
671.808	40391.69
672.157	40376.1
672.507	40141.98
672.856	40125.71
673.205	40173.62
673.554	40417.91
673.904	40163
674.253	40410.22
674.602	40271.92
674.951	39639.62
675.3	39549.68
675.649	40224.92
675.998	39977.47
676.346	40042.1
676.695	40347.85
677.044	39827.19
677.393	40081.64
677.741	40160.74
678.09	40001.19
678.438	39956.68
678.787	39911.93
679.135	39845.94
679.484	39677.13
679.832	39774.31
680.181	39578.38
680.529	39767.53
680.877	39503.35
681.225	39527.99
681.573	39752.61
681.922	39562.34
682.27	39332.51
682.618	39456.8
682.966	39243.93
683.314	39486.63
683.661	39246.41
684.009	39059.75
684.357	39082.57
684.705	39062.01
685.053	38993.76
685.4	38951.05
685.748	38837.16
686.095	38766.88
686.443	38645.3
686.79	38572.08
687.138	38671.96
687.485	38656.14
687.832	38491.4
688.18	38680.78
688.527	38400.78
688.874	38374.12
689.221	38168.7
689.568	38143.16
689.915	38030.62
690.262	38152.66
690.609	37985.88
690.956	37795.83
691.303	37760.35
691.65	37627.47
691.997	37649.39
692.344	37507.93
692.69	37442.39
693.037	37452.79
693.383	37038.11
693.73	37274.26
694.077	36979.35
694.423	36848.73
694.769	36881.05
695.116	36733.26
695.462	36818
695.808	36452.36
696.155	36746.36
696.501	36332.59
696.847	36291.69
697.193	36222.08
697.539	36119.49
697.885	35963.79
698.231	35857.35
698.577	35979.6
698.923	35787.75
699.269	35718.14
699.614	35497.58
699.96	35452.61
700.306	35672.27
700.651	35328.1
700.997	35307.08
701.342	35219.17
701.688	35223.92
702.033	34978.73
702.379	35070.93
702.724	34903.47
703.069	34868
703.415	34571.28
703.76	34624.39
704.105	34591.39
704.45	34601.11
704.795	34443.6
705.14	34237.28
705.485	34352.98
705.83	34149.82
706.175	34123.83
706.52	34062.82
706.865	33873.67
707.209	33945.76
707.554	33736.95
707.899	33769.04
708.243	33590.29
708.588	33627.35
708.932	33337.87
709.277	33261.94
709.621	33393.01
709.966	33077.76
710.31	33276.17
710.654	33035.73
710.998	33024.65
711.342	33030.08
711.687	32892
712.031	32774.94
712.375	32742.85
712.719	32643.2
713.063	32689.97
713.407	32709.86
713.75	32360.04
714.094	32543.08
714.438	32400.26
714.782	32331.11
715.125	32245.24
715.469	32323.66
715.812	32144.23
716.156	31958.47
716.499	32037.34
716.843	32157.78
717.186	31759.6
717.53	32000.5
717.873	31902.88
718.216	31852.26
718.559	31760.05
718.902	31606.39
719.246	31678.93
719.589	31533.62
719.932	31337.02
720.275	31370.91
720.617	31350.8
720.96	31160.07
721.303	31292.72
721.646	31187.19
721.989	31160.52
722.331	31139.73
722.674	30962.11
723.016	30949.68
723.359	30953.3
723.701	30999.4
724.044	30792.4
724.386	30737.03
724.729	30863.58
725.071	30662.23
725.413	30627.2
725.755	30569.8
726.097	30351.05
726.439	30430.6
726.782	30414.55
727.124	30504.72
727.465	30299.08
727.807	30205.75
728.149	30197.16
728.491	30174.56
728.833	30140.89
729.175	29997.16
729.516	29920.33
729.858	29975.24
730.199	29932.98
730.541	29836.94
730.882	29848.24
731.224	29948.58
731.565	29594.91
731.906	29675.59
732.248	29695.48
732.589	29593.56
732.93	29467.01
733.271	29450.74
733.612	29456.84
733.953	29488.25
734.294	29288.71
734.635	29281.7
734.976	29277.18
735.317	29195.83
735.658	29163.06
735.999	29185.21
736.339	29097.98
736.68	29325.77
737.021	29067.7
737.361	28900.92
737.702	29106.79
738.042	29111.99
738.383	29003.74
738.723	28896.4
739.063	28766.69
739.404	28847.36
739.744	28718.55
740.084	28509.74
740.424	28684.43
740.764	28642.4
741.104	28641.04
741.444	28625.9
741.784	28459.8
742.124	28537.99
742.464	28469.07
742.804	28366.7
743.143	28216.19
743.483	28387.04
743.823	28182.75
744.162	28195.18
744.502	28328.96
744.841	28004.9
745.181	28236.98
745.52	28018.46
745.86	28039.47
746.199	27995.63
746.538	27891.91
746.877	28001.74
747.216	27938.23
747.556	27879.48
747.895	27834.73
748.234	27806.71
748.573	27614.18
748.911	27677.9
749.25	27682.2
749.589	27500.51
749.928	27559.71
750.267	27712.48
750.605	27430.9
750.944	27421.19
751.283	27313.39
751.621	27391.36
751.96	27292.83
752.298	27218.71
752.636	27151.36
752.975	27103.23
753.313	26941.2
753.651	27064.81
753.989	26949.56
754.327	26900.07
754.666	26710.02
755.004	26825.5
755.342	26799.73
755.679	26709.11
756.017	26556.35
756.355	26696.46
756.693	26433.19
