Data from hue_140_FLMS001491_00074.txt Node
Date: Tue Feb 07 16:56:23 GMT 2017
User: dcchb
Spectrometer: FLMS00149
Trigger mode: 0
Integration Time (sec): 2.000000E-2
Scans to average: 10
Electric dark correction enabled: true
Nonlinearity correction enabled: false
Boxcar width: 0
XAxis mode: Wavelengths
Number of Pixels in Spectrum: 2048
>>>>>Begin Spectral Data<<<<<
341.393	-6.33
341.776	-6.33
342.16	-6.33
342.543	-56.72
342.927	-81.81
343.31	-57.17
343.693	-62.6
344.077	-39.32
344.46	-55.37
344.843	-56.04
345.226	-33.9
345.61	-39.55
345.993	-33.22
346.376	-18.76
346.759	7.68
347.142	19.43
347.525	32.09
347.908	63.73
348.291	65.31
348.674	94.23
349.057	113.44
349.44	135.82
349.823	140.79
350.206	174.68
350.588	193.89
350.971	222.37
351.354	228.02
351.737	232.31
352.119	248.81
352.502	261.01
352.884	255.59
353.267	268.47
353.65	303.49
354.032	289.48
354.414	306.88
354.797	308.69
355.179	317.73
355.562	321.35
355.944	326.77
356.326	307.56
356.709	339.43
357.091	330.39
357.473	332.87
357.855	344.17
358.238	341.46
358.62	341.23
359.002	338.52
359.384	352.08
359.766	340.56
360.148	338.75
360.53	343.95
360.912	320.22
361.294	351.18
361.676	330.39
362.057	338.75
362.439	322.03
362.821	336.49
363.203	348.47
363.584	331.29
363.966	331.06
364.348	332.87
364.729	317.73
365.111	317.96
365.493	331.52
365.874	323.83
366.256	316.83
366.637	289.26
367.019	329.03
367.4	310.05
367.781	331.29
368.163	349.82
368.544	304.62
368.925	323.38
369.306	312.99
369.688	315.92
370.069	322.03
370.45	304.85
370.831	312.76
371.212	318.18
371.593	296.49
371.974	311.86
372.355	306.66
372.736	310.5
373.117	324.74
373.498	308.01
373.879	326.09
374.26	325.42
374.641	305.08
375.021	301.91
375.402	316.38
375.783	331.97
376.163	335.13
376.544	324.74
376.925	342.36
377.305	338.97
377.686	331.74
378.066	315.25
378.447	343.27
378.827	343.27
379.208	334.23
379.588	339.43
379.968	342.59
380.349	333.32
380.729	307.34
381.109	339.65
381.489	334.45
381.87	336.94
382.25	320.44
382.63	353.89
383.01	355.7
383.39	343.04
383.77	350.5
384.15	338.52
384.53	359.76
384.91	351.63
385.29	349.6
385.67	326.32
386.049	361.57
386.429	358.18
386.809	341.69
387.189	347.11
387.568	366.77
387.948	361.12
388.328	358.86
388.707	377.62
389.087	369.48
389.466	354.34
389.846	355.7
390.225	380.1
390.605	358.41
390.984	382.59
391.363	381.46
391.743	372.19
392.122	380.55
392.501	385.75
392.881	390.27
393.26	374.23
393.639	393.21
394.018	371.29
394.397	389.82
394.776	381.23
395.155	388.01
395.534	393.89
395.913	397.5
396.292	401.12
396.671	394.79
397.05	406.09
397.429	399.09
397.808	388.92
398.186	397.28
398.565	412.19
398.944	398.41
399.323	390.05
399.701	425.53
400.08	414.45
400.458	413.1
400.837	421.23
401.215	410.61
401.594	409.25
401.972	429.82
402.351	432.31
402.729	410.38
403.107	421.68
403.486	392.53
403.864	393.89
404.242	428.24
404.62	436.37
404.999	429.14
405.377	418.29
405.755	420.78
406.133	448.58
406.511	431.63
406.889	436.82
407.267	431.4
407.645	464.39
408.023	456.03
408.401	437.5
408.779	441.8
409.156	453.77
409.534	429.37
409.912	448.35
410.29	458.07
410.667	472.98
411.045	479.08
411.422	484.73
411.8	471.63
412.178	474.11
412.555	467.33
412.933	487.44
413.31	484.28
413.687	497.39
414.065	504.85
414.442	487.44
414.819	514.79
415.197	469.14
415.574	510.5
415.951	494.45
416.328	518.4
416.705	503.04
417.082	530.38
417.46	521.79
417.837	543.94
418.214	522.92
418.591	554.11
418.967	545.97
419.344	544.84
419.721	552.53
420.098	546.2
420.475	536.71
420.852	541.91
421.228	535.81
421.605	529.7
421.982	560.89
422.358	554.11
422.735	574.67
423.111	572.19
423.488	560.66
423.864	556.14
424.241	555.24
424.617	593.2
424.994	583.49
425.37	604.73
425.746	578.06
426.123	604.73
426.499	612.41
426.875	607.44
427.251	635.46
427.627	598.4
428.003	631.4
428.379	646.76
428.756	640.21
429.132	648.12
429.507	648.34
429.883	654.45
430.259	658.29
430.635	656.71
431.011	674.33
431.387	657.84
431.763	675.69
432.138	696.25
432.514	704.61
432.89	698.06
433.265	709.59
433.641	687.89
434.016	708.68
434.392	713.88
434.767	741
435.143	716.14
435.518	725.63
435.894	746.87
436.269	716.59
436.644	753.65
437.02	764.27
437.395	769.02
437.77	791.84
438.145	802.24
438.52	785.97
438.895	794.56
439.271	786.19
439.646	811.96
440.021	823.71
440.395	801.79
440.77	828
441.145	807.66
441.52	838.4
441.895	839.98
442.27	853.31
442.645	843.37
443.019	865.06
443.394	845.18
443.769	859.41
444.143	823.26
444.518	884.27
444.892	881.56
445.267	860.54
445.641	909.58
446.016	909.35
446.39	903.71
446.764	902.12
447.139	919.07
447.513	912.07
447.887	884.5
448.262	944.16
448.636	924.72
449.01	950.94
449.384	923.82
449.758	948.45
450.132	958.62
450.506	971.95
450.88	954.33
451.254	954.1
451.628	982.35
452.002	991.61
452.376	981.22
452.75	1033.65
453.123	1021.67
453.497	1037.71
453.871	1027.09
454.244	1050.37
454.618	1050.82
454.992	1080.65
455.365	1087.43
455.739	1105.51
456.112	1083.59
456.486	1136.24
456.859	1103.02
457.232	1114.32
457.606	1150.93
457.979	1161.55
458.352	1161.78
458.725	1210.36
459.099	1212.85
459.472	1225.05
459.845	1250.36
460.218	1232.51
460.591	1271.6
460.964	1246.07
461.337	1309.34
461.71	1314.54
462.083	1332.85
462.456	1326.52
462.829	1352.96
463.201	1358.16
463.574	1371.49
463.947	1387.31
464.32	1440.41
464.692	1467.31
465.065	1453.07
465.438	1485.84
465.81	1492.84
466.183	1522.22
466.555	1544.59
466.928	1573.74
467.3	1577.36
467.672	1609.22
468.045	1642.89
468.417	1643.35
468.789	1665.72
469.161	1664.14
469.534	1729.45
469.906	1782.33
470.278	1781.42
470.65	1803.57
471.022	1885.37
471.394	1919.72
471.766	1958.37
472.138	1959.5
472.51	2001.98
472.882	2028.2
473.253	2080.4
473.625	2125.59
473.997	2174.41
474.369	2189.09
474.74	2251.92
475.112	2345.93
475.484	2337.79
475.855	2432.7
476.227	2420.95
476.598	2509.09
476.97	2556.09
477.341	2661.4
477.713	2686.48
478.084	2745.46
478.455	2836.99
478.827	2886.48
479.198	2994.5
479.569	3010.32
479.94	3137.54
480.311	3228.16
480.682	3333.47
481.053	3361.72
481.424	3519.46
481.795	3582.28
482.166	3644.2
482.537	3756.74
482.908	3835.38
483.279	3965.55
483.65	4069.72
484.021	4191.75
484.391	4289.83
484.762	4375.25
485.133	4464.74
485.503	4597.17
485.874	4700.44
486.244	4825.86
486.615	4920.55
486.985	5066.99
487.356	5197.83
487.726	5353.53
488.097	5437.6
488.467	5580.64
488.837	5745.61
489.207	5838.26
489.578	6012.5
489.948	6132.72
490.318	6287.97
490.688	6360.28
491.058	6538.81
491.428	6648.19
491.798	6773.61
492.168	6974.73
492.538	7076.88
492.908	7218.57
493.278	7395.74
493.648	7473.93
494.017	7669.4
494.387	7795.28
494.757	7864.65
495.126	8055.61
495.496	8166.34
495.866	8296.05
496.235	8374.24
496.605	8478.2
496.974	8675.48
497.344	8751.41
497.713	8883.83
498.082	8993.21
498.452	9141.68
498.821	9235.01
499.19	9286.54
499.559	9384.39
499.928	9578.96
500.298	9638.62
500.667	9814.88
501.036	9798.16
501.405	10042.22
501.774	10030.02
502.143	10151.6
502.512	10260.3
502.88	10354.08
503.249	10358.15
503.618	10515.66
503.987	10601.76
504.356	10658.93
504.724	10744.35
505.093	10726.05
505.462	10857.12
505.83	10927.17
506.199	11068.86
506.567	11226.82
506.936	11150.22
507.304	11377.55
507.672	11450.77
508.041	11456.2
508.409	11567.83
508.777	11671.56
509.145	11778.45
509.514	11760.82
509.882	11858.9
510.25	11874.26
510.618	11924.66
510.986	11994.49
511.354	12056.86
511.722	12078.1
512.09	12281.94
512.458	12212.56
512.826	12330.3
513.193	12438.77
513.561	12423.63
513.929	12514.02
514.297	12578.2
514.664	12600.57
515.032	12661.81
515.4	12741.59
515.767	12740.46
516.135	12787.69
516.502	12755.6
516.869	12957.4
517.237	12949.04
517.604	12964.4
517.972	13058.64
518.339	13020
518.706	13047.34
519.073	13137.06
519.44	13170.5
519.808	13186.09
520.175	13140.22
520.542	13279.2
520.909	13255.02
521.276	13294.34
521.643	13392.42
522.009	13393.55
522.376	13406.2
522.743	13457.27
523.11	13600.32
523.477	13643.94
523.843	13681
524.21	13807.09
524.577	13843.48
524.943	13779.75
525.31	13839.41
525.676	13859.75
526.043	13890.93
526.409	13924.38
526.776	13997.37
527.142	13988.78
527.508	14026.07
527.874	14046.41
528.241	14112.85
528.607	14113.98
528.973	14077.82
529.339	14070.82
529.705	14121.66
530.071	14227.87
530.437	14176.35
530.803	14168.22
531.169	14274.43
531.535	14176.12
531.901	14144.03
532.267	14214.32
532.632	14203.47
532.998	14157.37
533.364	14302
533.73	14196.91
534.095	14226.74
534.461	14256.12
534.826	14187.2
535.192	14131.15
535.557	14236.69
535.923	14182.68
536.288	14135.22
536.653	14166.86
537.019	14007.32
537.384	14131.38
537.749	14078.95
538.114	14068.56
538.479	14038.95
538.845	14077.14
539.21	13903.59
539.575	13928.67
539.94	13873.99
540.305	13935.23
540.67	13856.36
541.034	13793.54
541.399	13872.4
541.764	13717.61
542.129	13837.38
542.494	13681.9
542.858	13690.04
543.223	13719.41
543.587	13734.1
543.952	13644.61
544.316	13583.15
544.681	13609.59
545.045	13567.78
545.41	13552.19
545.774	13515.58
546.138	13446.43
546.503	13467.22
546.867	13444.39
547.231	13525.29
547.595	13433.55
547.959	13421.57
548.324	13341.8
548.688	13329.14
549.052	13342.7
549.416	13234.23
549.779	13222.03
550.143	13306.99
550.507	13274.68
550.871	13132.54
551.235	13132.99
551.599	13204.62
551.962	13084.4
552.326	13072.2
552.689	13085.31
553.053	13020
553.417	13057.28
553.78	13175.92
554.143	12975.93
554.507	13038.98
554.87	13000.34
555.234	13027
555.597	12922.6
555.96	12961.92
556.323	12868.59
556.686	12871.75
557.05	12955.59
557.413	12878.08
557.776	12904.75
558.139	12876.27
558.502	12905.88
558.865	12887.12
559.228	12852.77
559.59	12947.23
559.953	12846.22
560.316	13022.48
560.679	12882.15
561.041	12965.53
561.404	12921.47
561.767	13064.06
562.129	12866.1
562.492	13038.3
562.854	13017.96
563.217	12925.99
563.579	13006.66
563.941	13069.26
564.304	13083.95
564.666	13090.28
565.028	13060.67
565.39	13052.09
565.753	13093.22
566.115	13076.72
566.477	13060.45
566.839	13137.96
567.201	13174.57
567.563	13055.02
567.925	13227.67
568.287	13154.91
568.648	13203.49
569.01	13227.45
569.372	13278.75
569.734	13221.8
570.095	13274.91
570.457	13229.03
570.819	13320.1
571.18	13290.05
571.542	13327.33
571.903	13323.94
572.265	13317.62
572.626	13368.46
572.987	13339.08
573.349	13378.18
573.71	13406.2
574.071	13396.26
574.432	13412.08
574.794	13542.47
575.155	13408.46
575.516	13400.55
575.877	13439.65
576.238	13426.54
576.599	13482.13
576.96	13460.44
577.32	13449.82
577.681	13580.66
578.042	13423.15
578.403	13574.11
578.763	13442.81
579.124	13546.76
579.485	13534.11
579.845	13597.38
580.206	13600.77
580.566	13495.92
580.927	13531.4
581.287	13625.18
581.648	13482.58
582.008	13606.87
582.368	13622.92
582.728	13560.77
583.089	13589.47
583.449	13466.76
583.809	13511.96
584.169	13522.13
584.529	13435.13
584.889	13609.36
585.249	13398.07
585.609	13425.86
585.969	13553.09
586.329	13475.58
586.688	13411.4
587.048	13488.01
587.408	13415.69
587.768	13477.84
588.127	13511.96
588.487	13297.73
588.846	13526.2
589.206	13316.49
589.565	13404.39
589.925	13386.99
590.284	13369.37
590.643	13450.72
591.003	13397.61
591.362	13431.51
591.721	13401.46
592.08	13326.43
592.44	13347.22
592.799	13360.55
593.158	13327.56
593.517	13318.97
593.876	13426.99
594.235	13247.11
594.593	13303.38
594.952	13295.24
595.311	13274.23
595.67	13302.02
596.029	13339.99
596.387	13399.65
596.746	13311.97
597.104	13401.23
597.463	13283.49
597.822	13340.44
598.18	13289.82
598.538	13278.29
598.897	13356.48
599.255	13210.5
599.613	13446.2
599.972	13297.28
600.33	13346.09
600.688	13244.4
601.046	13356.48
601.404	13398.52
601.762	13384.28
602.12	13461.57
602.478	13362.81
602.836	13403.49
603.194	13227.45
603.552	13308.8
603.91	13238.3
604.268	13304.06
604.625	13293.89
604.983	13305.41
605.341	13282.14
605.698	13263.61
606.056	13280.55
606.413	13316.26
606.771	13339.76
607.128	13285.07
607.485	13248.47
607.843	13270.84
608.2	13336.37
608.557	13371.85
608.914	13362.13
609.272	13423.6
609.629	13496.59
609.986	13402.13
610.343	13373.43
610.7	13450.49
611.057	13490.94
611.414	13422.02
611.771	13425.64
612.127	13409.36
612.484	13485.52
612.841	13606.42
613.198	13454.56
613.554	13540.66
613.911	13578.63
614.267	13610.94
614.624	13523.26
614.98	13513.09
615.337	13620.66
615.693	13628.57
616.05	13591.06
616.406	13632.86
616.762	13601.68
617.118	13542.92
617.475	13595.35
617.831	13737.94
618.187	13654.56
618.543	13610.72
618.899	13723.03
619.255	13681
619.611	13589.93
619.967	13745.18
620.323	13686.42
620.678	13721.9
621.034	13702.46
621.39	13642.81
621.746	13663.82
622.101	13806.87
622.457	13651.17
622.812	13682.58
623.168	13629.92
623.523	13723.25
623.879	13806.19
624.234	13727.77
624.589	13725.29
624.945	13755.57
625.3	13679.87
625.655	13727.1
626.01	13774.33
626.365	13663.6
626.72	13707.44
627.075	13659.3
627.43	13700.2
627.785	13597.16
628.14	13733.65
628.495	13738.62
628.85	13750.6
629.205	13599.19
629.559	13802.12
629.914	13692.52
630.269	13651.62
630.623	13665.18
630.978	13623.14
631.332	13597.83
631.687	13662.47
632.041	13597.83
632.396	13549.93
632.75	13570.94
633.104	13575.46
633.459	13443.49
633.813	13508.35
634.167	13512.64
634.521	13374.11
634.875	13516.48
635.229	13411.85
635.583	13377.95
635.937	13354.68
636.291	13363.49
636.645	13392.19
636.999	13319.42
637.352	13447.33
637.706	13247.11
638.06	13349.93
638.413	13227.9
638.767	13218.18
639.121	13276.71
639.474	13156.94
639.828	13284.4
640.181	13277.62
640.534	13207.79
640.888	13187.9
641.241	13159.88
641.594	13156.26
641.947	13238.75
642.301	13244.85
642.654	13208.92
643.007	13244.62
643.36	13155.36
643.713	13135.25
644.066	13152.87
644.419	13081.69
644.771	12964.86
645.124	12916.72
645.477	12833.33
645.83	12858.42
646.182	12752.66
646.535	12699.1
646.888	12750.17
647.24	12607.35
647.593	12706.11
647.945	12706.33
648.298	12687.58
648.65	12615.71
649.002	12560.57
649.355	12660.68
649.707	12731.87
650.059	12714.02
650.411	12876.5
650.763	12868.14
651.115	13008.7
651.467	12911.98
651.819	12954.46
652.171	12932.77
652.523	12902.03
652.875	12939.32
653.227	12908.59
653.578	12965.99
653.93	12913.33
654.282	12906.55
654.633	12885.54
654.985	12870.62
655.337	12953.33
655.688	12909.27
656.039	13004.86
656.391	12849.15
656.742	12880.57
657.094	12918.08
657.445	12964.4
657.796	12952.43
658.147	12843.5
658.498	12870.17
658.849	13003.73
659.2	12929.83
659.551	12876.72
659.902	12926.44
660.253	12911.52
660.604	13022.93
660.955	12919.89
661.306	12937.96
661.656	12902.71
662.007	12920.34
662.358	12958.98
662.708	12933.45
663.059	12989.04
663.409	12879.21
663.76	12956.27
664.11	13011.18
664.461	13002.14
664.811	12976.61
665.161	13001.01
665.511	13006.89
665.862	12939.55
666.212	13015.25
666.562	12956.95
666.912	13022.26
667.262	12949.72
667.612	12972.54
667.962	13000.34
668.312	12967.34
668.662	13001.24
669.011	12931.19
669.361	12973.9
669.711	12945.87
670.06	12880.11
670.41	12860
670.76	12873.11
671.109	12850.28
671.459	12989.04
671.808	12869.04
672.157	12898.42
672.507	12845.54
672.856	12798.76
673.205	12876.05
673.554	12890.28
673.904	12873.79
674.253	12945.65
674.602	12833.79
674.951	12624.98
675.3	12622.04
675.649	12739.1
675.998	12827.01
676.346	12819.55
676.695	12768.25
677.044	12688.48
677.393	12740.91
677.741	12723.96
678.09	12726.67
678.438	12611.87
678.787	12756.05
679.135	12696.16
679.484	12660.68
679.832	12649.16
680.181	12607.58
680.529	12543.4
680.877	12542.5
681.225	12556.73
681.573	12690.06
681.922	12563.51
682.27	12528.71
682.618	12462.95
682.966	12410.3
683.314	12485.55
683.661	12334.82
684.009	12306.8
684.357	12311.09
684.705	12311.09
685.053	12282.39
685.4	12260.24
685.748	12168.72
686.095	12265.89
686.443	12131.43
686.79	12156.52
687.138	12118.78
687.485	12172.34
687.832	12071.32
688.18	12128.04
688.527	12051.89
688.874	12080.59
689.221	11949.06
689.568	11984.32
689.915	11948.84
690.262	11874.94
690.609	11903.64
690.956	11799.01
691.303	11890.76
691.65	11772.57
691.997	11773.02
692.344	11764.66
692.69	11709.3
693.037	11583.88
693.383	11514.5
693.73	11641.28
694.077	11469.75
694.423	11469.3
694.769	11445.12
695.116	11359.7
695.462	11390.43
695.808	11301.4
696.155	11405.8
696.501	11236.31
696.847	11279.48
697.193	11131.46
697.539	11199.71
697.885	11078.8
698.231	11077.22
698.577	10993.61
698.923	11010.56
699.269	10933.72
699.614	10903.22
699.96	10877.68
700.306	10838.81
700.651	10812.82
700.997	10759.49
701.342	10671.36
701.688	10704.8
702.033	10706.84
702.379	10673.84
702.724	10553.85
703.069	10630.23
703.415	10531.47
703.76	10480.4
704.105	10494.41
704.45	10451.25
704.795	10402.66
705.14	10348.88
705.485	10371.93
705.83	10360.63
706.175	10306.4
706.52	10224.59
706.865	10191.82
707.209	10173.97
707.554	10179.85
707.899	10107.53
708.243	10103.46
708.588	10073.41
708.932	9975.33
709.277	10007.19
709.621	10023.24
709.966	9970.81
710.31	9946.18
710.654	9850.14
710.998	9880.64
711.342	9817.14
711.687	9903.47
712.031	9815.79
712.375	9742.34
712.719	9762.68
713.063	9750.7
713.407	9766.3
713.75	9712.06
714.094	9696.69
714.438	9650.37
714.782	9652.4
715.125	9598.62
715.469	9693.76
715.812	9634.32
716.156	9526.98
716.499	9523.37
716.843	9557.04
717.186	9448.57
717.53	9531.27
717.873	9508.68
718.216	9526.76
718.559	9464.16
718.902	9427.1
719.246	9416.02
719.589	9394.56
719.932	9367.44
720.275	9409.92
720.617	9421.9
720.96	9341
721.303	9404.27
721.646	9381
721.989	9286.08
722.331	9325.18
722.674	9336.93
723.016	9291.73
723.359	9314.78
723.701	9257.16
724.044	9249.25
724.386	9213.09
724.729	9244.05
725.071	9171.74
725.413	9231.17
725.755	9181
726.097	9179.87
726.439	9141
726.782	9210.38
727.124	9194.11
727.465	9182.81
727.807	9186.2
728.149	9139.19
728.491	9051.51
728.833	9183.49
729.175	9152.75
729.516	9116.14
729.858	9143.04
730.199	9028.01
730.541	9117.5
730.882	9027.79
731.224	9081.34
731.565	9060.33
731.906	9112.3
732.248	9105.07
732.589	8993.66
732.93	9019.2
733.271	9019.42
733.612	9025.07
733.953	9108.91
734.294	9077.5
734.635	9026.66
734.976	9028.46
735.317	9066.43
735.658	9046.09
735.999	9014
736.339	9110.95
736.68	9111.4
737.021	9062.13
737.361	8994.11
737.702	9043.15
738.042	9018.29
738.383	9023.72
738.723	9101.46
739.063	9037.05
739.404	9073.89
739.744	9104.85
740.084	9118.86
740.424	9145.3
740.764	9141.45
741.104	9208.8
741.444	9117.5
741.784	9093.09
742.124	9187.56
742.464	9149.36
742.804	9218.74
743.143	9181.91
743.483	9226.65
743.823	9248.12
744.162	9256.25
744.502	9270.26
744.841	9273.88
745.181	9374.44
745.52	9338.29
745.86	9410.83
746.199	9441.33
746.538	9493.08
746.877	9536.7
747.216	9600.65
747.556	9592.74
747.895	9664.15
748.234	9590.93
748.573	9699.86
748.911	9738.95
749.25	9793.41
749.589	9867.54
749.928	10013.3
750.267	10010.81
750.605	10108.66
750.944	10111.15
751.283	10206.06
751.621	10232.5
751.96	10307.53
752.298	10428.88
752.636	10539.38
752.975	10530.8
753.313	10691.92
753.651	10842.88
753.989	10864.35
754.327	11045.59
754.666	11006.72
755.004	11221.4
755.342	11358.57
755.679	11490.32
756.017	11604.89
756.355	11769.63
756.693	11791.1
757.031	12056.41
757.368	12052.79
757.706	12220.92
758.044	12325.55
758.381	12528.94
758.719	12605.09
759.056	12737.07
