Data from hue_150_FLMS001491_00022.txt Node
Date: Tue Feb 07 16:53:49 GMT 2017
User: dcchb
Spectrometer: FLMS00149
Trigger mode: 0
Integration Time (sec): 2.000000E-2
Scans to average: 10
Electric dark correction enabled: true
Nonlinearity correction enabled: false
Boxcar width: 0
XAxis mode: Wavelengths
Number of Pixels in Spectrum: 2048
>>>>>Begin Spectral Data<<<<<
341.393	-1.58
341.776	-1.58
342.16	-1.58
342.543	-50.62
342.927	-70.73
343.31	-83.16
343.693	-71.86
344.077	-52.2
344.46	-65.31
344.843	-32.54
345.226	-62.82
345.61	-28.25
345.993	-21.24
346.376	5.2
346.759	9.72
347.142	42.48
347.525	35.25
347.908	83.84
348.291	55.37
348.674	88.36
349.057	97.17
349.44	105.99
349.823	148.92
350.206	167.45
350.588	197.28
350.971	197.06
351.354	227.34
351.737	243.38
352.119	252.87
352.502	270.95
352.884	276.6
353.267	280.9
353.65	289.71
354.032	317.05
354.414	317.96
354.797	300.11
355.179	326.09
355.562	306.21
355.944	330.39
356.326	332.87
356.709	325.87
357.091	353.44
357.473	331.29
357.855	350.05
358.238	331.97
358.62	340.33
359.002	331.52
359.384	339.88
359.766	342.59
360.148	331.97
360.53	350.73
360.912	330.84
361.294	344.85
361.676	350.05
362.057	322.25
362.439	329.03
362.821	333.32
363.203	324.29
363.584	329.71
363.966	312.53
364.348	320.22
364.729	328.35
365.111	331.74
365.493	315.25
365.874	319.09
366.256	328.58
366.637	322.25
367.019	303.04
367.4	311.18
367.781	333.55
368.163	321.57
368.544	312.08
368.925	309.37
369.306	309.37
369.688	315.92
370.069	317.73
370.45	329.71
370.831	327.9
371.212	321.57
371.593	319.09
371.974	327.67
372.355	310.27
372.736	331.52
373.117	321.57
373.498	303.72
373.879	318.86
374.26	304.17
374.641	310.73
375.021	333.1
375.402	338.52
375.783	318.18
376.163	329.71
376.544	317.51
376.925	333.32
377.305	340.78
377.686	341.91
378.066	332.19
378.447	343.95
378.827	336.49
379.208	318.18
379.588	331.29
379.968	356.6
380.349	348.92
380.729	337.84
381.109	331.74
381.489	344.4
381.87	326.32
382.25	344.17
382.63	352.08
383.01	352.99
383.39	336.71
383.77	360.89
384.15	361.57
384.53	341.69
384.91	331.74
385.29	344.4
385.67	369.26
386.049	349.14
386.429	367
386.809	359.99
387.189	377.62
387.568	355.47
387.948	368.13
388.328	363.83
388.707	371.29
389.087	365.64
389.466	362.25
389.846	369.03
390.225	372.87
390.605	359.31
390.984	368.58
391.363	382.59
391.743	360.22
392.122	353.89
392.501	378.07
392.881	392.98
393.26	375.58
393.639	396.15
394.018	392.08
394.397	371.52
394.776	383.04
395.155	397.73
395.534	413.77
395.913	420.33
396.292	405.19
396.671	380.1
397.05	400.67
397.429	418.97
397.808	402.25
398.186	423.27
398.565	395.24
398.944	378.3
399.323	400.67
399.701	389.14
400.08	416.94
400.458	404.06
400.837	404.74
401.215	424.4
401.594	416.94
401.972	404.28
402.351	405.64
402.729	432.31
403.107	414.68
403.486	426.2
403.864	446.54
404.242	442.47
404.62	426.2
404.999	422.59
405.377	434.34
405.755	429.82
406.133	453.55
406.511	452.64
406.889	476.82
407.267	471.63
407.645	461.68
408.023	455.58
408.401	446.09
408.779	463.72
409.156	459.65
409.534	489.03
409.912	475.02
410.29	479.76
410.667	477.73
411.045	484.28
411.422	502.36
411.8	482.25
412.178	500.78
412.555	486.77
412.933	491.96
413.31	495.13
413.687	505.07
414.065	505.98
414.442	511.17
414.819	517.5
415.197	543.94
415.574	517.27
415.951	538.97
416.328	540.78
416.705	545.52
417.082	563.6
417.46	561.12
417.837	547.1
418.214	562.02
418.591	575.8
418.967	538.52
419.344	556.37
419.721	554.34
420.098	577.39
420.475	585.3
420.852	570.83
421.228	606.99
421.605	565.41
421.982	590.72
422.358	579.19
422.735	600.66
423.111	584.39
423.488	605.41
423.864	609.7
424.241	624.62
424.617	629.81
424.994	634.56
425.37	622.36
425.746	630.72
426.123	644.95
426.499	638.18
426.875	641.79
427.251	669.59
427.627	682.47
428.003	663.94
428.379	685.86
428.756	681.79
429.132	666.65
429.507	682.02
429.883	681.79
430.259	714.78
430.635	705.07
431.011	713.43
431.387	702.13
431.763	710.26
432.138	747.32
432.514	752.3
432.89	751.84
433.265	724.27
433.641	735.57
434.016	776.25
434.392	764.95
434.767	769.02
435.143	763.82
435.518	780.09
435.894	819.64
436.269	802.46
436.644	802.01
437.02	822.58
437.395	822.8
437.77	827.1
438.145	846.31
438.52	861.45
438.895	860.32
439.271	854.44
439.646	877.04
440.021	885.4
440.395	874.78
440.77	866.19
441.145	886.08
441.52	883.37
441.895	916.36
442.27	924.04
442.645	928.11
443.019	919.98
443.394	909.35
443.769	926.98
444.143	959.75
444.518	937.83
444.892	944.61
445.267	933.31
445.641	984.15
446.016	982.57
446.39	983.93
446.764	1002.01
447.139	990.71
447.513	1004.04
447.887	983.93
448.262	1009.24
448.636	1025.74
449.01	1024.38
449.384	1023.25
449.758	1028.9
450.132	1075.9
450.506	1049.24
450.88	1070.03
451.254	1073.19
451.628	1064.83
452.002	1083.81
452.376	1119.29
452.75	1102.57
453.123	1121.55
453.497	1127.2
453.871	1127.2
454.244	1190.7
454.618	1151.83
454.992	1187.31
455.365	1188.44
455.739	1212.62
456.112	1218.27
456.486	1254.88
456.859	1263.47
457.232	1270.48
457.606	1241.78
457.979	1272.96
458.352	1311.83
458.725	1323.36
459.099	1298.27
459.472	1368.33
459.845	1371.26
460.218	1373.98
460.591	1437.02
460.964	1424.14
461.337	1434.99
461.71	1431.83
462.083	1461.66
462.456	1491.71
462.829	1476.57
463.201	1521.09
463.574	1528.32
463.947	1555.21
464.32	1552.5
464.692	1615.1
465.065	1609
465.438	1632.95
465.81	1657.13
466.183	1678.37
466.555	1725.15
466.928	1726.06
467.3	1739.84
467.672	1780.97
468.045	1817.13
468.417	1834.08
468.789	1856.9
469.161	1892.61
469.534	1932.38
469.906	1972.83
470.278	2007.86
470.65	2040.17
471.022	2074.75
471.394	2094.41
471.766	2134.41
472.138	2154.75
472.51	2210.56
472.882	2276.32
473.253	2320.62
473.625	2379.37
473.997	2373.95
474.369	2430.67
474.74	2478.35
475.112	2560.84
475.484	2630.67
475.855	2694.17
476.227	2710.44
476.598	2828.85
476.97	2807.38
477.341	2914.5
477.713	3025.46
478.084	3010.54
478.455	3107.94
478.827	3163.76
479.198	3298.44
479.569	3323.75
479.94	3426.35
480.311	3554.48
480.682	3622.73
481.053	3760.58
481.424	3841.03
481.795	3908.6
482.166	4037.18
482.537	4130.51
482.908	4215.26
483.279	4278.76
483.65	4418.41
484.021	4493.89
484.391	4669.03
484.762	4733.43
485.133	4825.64
485.503	4978.4
485.874	5110.6
486.244	5198.51
486.615	5379.52
486.985	5440.53
487.356	5624.94
487.726	5696.12
488.097	5876.23
488.467	5979.05
488.837	6118.71
489.207	6262.89
489.578	6422.66
489.948	6566.16
490.318	6647.73
490.688	6771.35
491.058	6956.2
491.428	7110.77
491.798	7193.26
492.168	7428.05
492.538	7542.85
492.908	7625.79
493.278	7753.69
493.648	7890.41
494.017	8079.79
494.387	8128.37
494.757	8268.71
495.126	8404.98
495.496	8546.67
495.866	8649.72
496.235	8845.64
496.605	8877.05
496.974	9020.1
497.344	9159.99
497.713	9278.85
498.082	9370.38
498.452	9513.87
498.821	9635.9
499.19	9673.19
499.559	9810.82
499.928	9949.12
500.298	9994.54
500.667	10171.26
501.036	10193.4
501.405	10348.65
501.774	10375.55
502.143	10553.85
502.512	10547.29
502.88	10593.85
503.249	10707.52
503.618	10874.29
503.987	10843.33
504.356	10988.86
504.724	11053.04
505.093	11188.86
505.462	11173.94
505.83	11245.13
506.199	11392.02
506.567	11527.15
506.936	11475.18
507.304	11733.25
507.672	11704.33
508.041	11714.72
508.409	11834.04
508.777	11970.31
509.145	11968.95
509.514	11982.51
509.882	12094.82
510.25	12128.95
510.618	12230.19
510.986	12196.06
511.354	12387.24
511.722	12413.68
512.09	12513.34
512.458	12538.43
512.826	12576.84
513.193	12687.58
513.561	12697.52
513.929	12764.64
514.297	12810.06
514.664	12862.49
515.032	12894.35
515.4	12981.13
515.767	12985.2
516.135	13037.62
516.502	12962.15
516.869	13192.42
517.237	13234.91
517.604	13107.45
517.972	13349.71
518.339	13282.59
518.706	13256.83
519.073	13267.67
519.44	13447.78
519.808	13468.35
520.175	13383.83
520.542	13592.86
520.909	13626.08
521.276	13512.41
521.643	13663.14
522.009	13656.59
522.376	13742.24
522.743	13680.77
523.11	13833.53
523.477	13932.74
523.843	13987.88
524.21	14019.74
524.577	14037.37
524.943	14070.14
525.31	14161.89
525.676	14207.99
526.043	14202.34
526.409	14165.96
526.776	14317.82
527.142	14309.68
527.508	14185.84
527.874	14315.33
528.241	14381.32
528.607	14350.58
528.973	14380.86
529.339	14339.06
529.705	14570.46
530.071	14528.88
530.437	14366.63
530.803	14384.48
531.169	14576.79
531.535	14416.8
531.901	14434.87
532.267	14437.36
532.632	14493.63
532.998	14555.32
533.364	14513.97
533.73	14471.94
534.095	14587.64
534.461	14489.34
534.826	14565.27
535.192	14535.66
535.557	14514.19
535.923	14444.82
536.288	14397.36
536.653	14513.06
537.019	14400.75
537.384	14414.54
537.749	14341.32
538.114	14373.86
538.479	14365.95
538.845	14349.45
539.21	14277.82
539.575	14344.26
539.94	14250.02
540.305	14314.2
540.67	14198.72
541.034	14240.53
541.399	14224.71
541.764	14113.3
542.129	14076.01
542.494	14092.74
542.858	14123.02
543.223	14064.94
543.587	14031.04
543.952	13994.21
544.316	14027.43
544.681	13978.84
545.045	13927.32
545.41	13924.83
545.774	13897.26
546.138	13895.68
546.503	13826.98
546.867	13803.25
547.231	13911.05
547.595	13821.78
547.959	13817.26
548.324	13739.75
548.688	13721.9
549.052	13744.05
549.416	13627.44
549.779	13612.52
550.143	13579.98
550.507	13652.75
550.871	13551.28
551.235	13552.64
551.599	13581.56
551.962	13628.79
552.326	13449.82
552.689	13534.56
553.053	13500.89
553.417	13459.31
553.78	13586.99
554.143	13416.37
554.507	13415.69
554.87	13384.73
555.234	13501.34
555.597	13434.22
555.96	13448.01
556.323	13351.29
556.686	13405.52
557.05	13449.36
557.413	13328.01
557.776	13375.24
558.139	13340.44
558.502	13377.95
558.865	13442.36
559.228	13450.04
559.59	13448.23
559.953	13400.33
560.316	13468.57
560.679	13523.94
561.041	13487.33
561.404	13467.44
561.767	13482.36
562.129	13461.11
562.492	13530.49
562.854	13423.38
563.217	13490.94
563.579	13452.98
563.941	13521.23
564.304	13542.02
564.666	13644.84
565.028	13546.99
565.39	13577.5
565.753	13614.33
566.115	13702.92
566.477	13596.93
566.839	13612.3
567.201	13723.93
567.563	13739.3
567.925	13773.42
568.287	13719.64
568.648	13716.7
569.01	13813.42
569.372	13864.04
569.734	13813.65
570.095	13888.22
570.457	13840.09
570.819	13863.59
571.18	13894.1
571.542	13911.5
571.903	13944.94
572.265	13884.15
572.626	13948.56
572.987	14019.29
573.349	13983.36
573.71	14042.12
574.071	13975.9
574.432	14025.62
574.794	14119.85
575.155	14076.01
575.516	13984.49
575.877	14069.69
576.238	14043.92
576.599	14177.03
576.96	14107.65
577.32	14126.18
577.681	14129.8
578.042	14174.99
578.403	14128.22
578.763	14135.22
579.124	14159.85
579.485	14186.97
579.845	14247.08
580.206	14126.86
580.566	14172.51
580.927	14217.48
581.287	14241.89
581.648	14082.12
582.008	14212.28
582.368	14209.8
582.728	14186.07
583.089	14193.53
583.449	14136.8
583.809	14261.55
584.169	14230.36
584.529	14182
584.889	14249.79
585.249	14127.31
585.609	14066.07
585.969	14171.6
586.329	14119.4
586.688	14156.24
587.048	14107.2
587.408	14038.27
587.768	14002.8
588.127	14060.42
588.487	13967.32
588.846	14107.2
589.206	13992.4
589.565	13989.46
589.925	14109.01
590.284	14011.61
590.643	14008.45
591.003	14034.43
591.362	14079.18
591.721	14021.1
592.08	14007.32
592.44	14037.37
592.799	14012.06
593.158	14004.83
593.517	14047.09
593.876	13998.05
594.235	13975.68
594.593	13947.2
594.952	14048.44
595.311	13881.67
595.67	13942.23
596.029	14054.77
596.387	14027.43
596.746	14031.04
597.104	13896.58
597.463	13939.75
597.822	14013.42
598.18	13909.24
598.538	13933.42
598.897	13977.71
599.255	13842.35
599.613	14039.63
599.972	13956.47
600.33	14024.49
600.688	13910.82
601.046	13963.93
601.404	14076.92
601.762	14004.38
602.12	13960.76
602.478	13960.54
602.836	14036.69
603.194	14014.77
603.552	13975.45
603.91	13834.89
604.268	13963.47
604.625	13942.68
604.983	13926.64
605.341	14025.62
605.698	14008.45
606.056	14014.77
606.413	14003.47
606.771	13961.89
607.128	14026.07
607.485	13979.07
607.843	13961.44
608.2	14059.52
608.557	14168.89
608.914	14075.11
609.272	14119.63
609.629	14143.13
609.986	14191.04
610.343	14086.41
610.7	14105.39
611.057	14152.4
611.414	14141.32
611.771	14078.27
612.127	14186.29
612.484	14173.64
612.841	14284.14
613.198	14049.8
613.554	14182.23
613.911	14298.61
614.267	14213.19
614.624	14184.71
614.98	14200.98
615.337	14320.75
615.693	14262
616.05	14165.28
616.406	14291.83
616.762	14350.36
617.118	14351.04
617.475	14387.19
617.831	14328.66
618.187	14402.79
618.543	14437.13
618.899	14384.25
619.255	14400.53
619.611	14371.37
619.967	14442.33
620.323	14471.03
620.678	14360.3
621.034	14381.77
621.39	14392.16
621.746	14313.07
622.101	14534.31
622.457	14399.17
622.812	14396.23
623.168	14428.32
623.523	14503.35
623.879	14516.45
624.234	14340.19
624.589	14384.71
624.945	14453.18
625.3	14457.7
625.655	14398.94
626.01	14354.42
626.365	14401.88
626.72	14391.26
627.075	14402.11
627.43	14370.24
627.785	14328.21
628.14	14354.2
628.495	14400.98
628.85	14368.21
629.205	14356.23
629.559	14405.5
629.914	14316.91
630.269	14316.46
630.623	14276.01
630.978	14244.15
631.332	14292.51
631.687	14391.26
632.041	14236.69
632.396	14209.8
632.75	14222.22
633.104	14182.45
633.459	14077.82
633.813	14192.62
634.167	14185.84
634.521	14083.47
634.875	14085.51
635.229	14160.31
635.583	14137.03
635.937	14120.53
636.291	14088.44
636.645	14137.93
636.999	14052.06
637.352	14045.51
637.706	13911.5
638.06	14036.92
638.413	14005.96
638.767	13948.79
639.121	13987.2
639.474	13966.41
639.828	13929.58
640.181	13919.41
640.534	13896.36
640.888	13923.93
641.241	13833.99
641.594	13840.09
641.947	13974.77
642.301	13760.09
642.654	13881.44
643.007	13874.44
643.36	13801.67
643.713	13748.34
644.066	13735.91
644.419	13754.44
644.771	13681.9
645.124	13581.34
645.477	13450.72
645.83	13367.33
646.182	13328.01
646.535	13245.75
646.888	13347.22
647.24	13300.44
647.593	13299.99
647.945	13282.14
648.298	13313.77
648.65	13290.05
649.002	13220.67
649.355	13276.94
649.707	13263.38
650.059	13339.31
650.411	13493.43
650.763	13463.83
651.115	13657.72
651.467	13569.36
651.819	13655.69
652.171	13597.38
652.523	13542.02
652.875	13518.51
653.227	13520.32
653.578	13634.67
653.93	13606.87
654.282	13488.01
654.633	13473.09
654.985	13559.19
655.337	13562.81
655.688	13593.09
656.039	13568
656.391	13453.43
656.742	13543.37
657.094	13565.29
657.445	13529.81
657.796	13515.58
658.147	13447.56
658.498	13589.7
658.849	13585.18
659.2	13523.03
659.551	13560.77
659.902	13502.02
660.253	13502.92
660.604	13568.46
660.955	13554.45
661.306	13587.21
661.656	13622.69
662.007	13586.54
662.358	13551.73
662.708	13585.63
663.059	13628.12
663.409	13539.98
663.76	13585.63
664.11	13501.34
664.461	13668.57
664.811	13603.48
665.161	13580.89
665.511	13570.72
665.862	13596.03
666.212	13648.91
666.562	13677.15
666.912	13615.69
667.262	13566.87
667.612	13481.45
667.962	13522.36
668.312	13499.98
668.662	13608.46
669.011	13540.43
669.361	13570.04
669.711	13555.58
670.06	13514.67
670.41	13504.96
670.76	13481
671.109	13528.46
671.459	13505.41
671.808	13518.29
672.157	13462.7
672.507	13375.02
672.856	13459.76
673.205	13459.08
673.554	13499.31
673.904	13384.96
674.253	13475.35
674.602	13486.2
674.951	13234.91
675.3	13168.24
675.649	13348.35
675.998	13312.87
676.346	13398.29
676.695	13328.69
677.044	13252.31
677.393	13320.55
677.741	13306.09
678.09	13257.73
678.438	13286.66
678.787	13254.79
679.135	13281.68
679.484	13147.22
679.832	13233.55
680.181	13054.12
680.529	13185.64
680.877	13062.93
681.225	13074.68
681.573	13150.84
681.922	13061.58
682.27	13045.31
682.618	13053.89
682.966	13025.19
683.314	12998.3
683.661	12857.06
684.009	12900.68
684.357	12881.02
684.705	12851.41
685.053	12805.31
685.4	12861.81
685.748	12817.52
686.095	12759.66
686.443	12608.93
686.79	12744.3
687.138	12792.88
687.485	12704.52
687.832	12726.9
688.18	12579.78
688.527	12656.84
688.874	12635.15
689.221	12554.92
689.568	12568.03
689.915	12443.74
690.262	12507.24
690.609	12369.84
690.956	12361.93
691.303	12333.24
691.65	12296.63
691.997	12242.84
692.344	12246.91
692.69	12065.45
693.037	12175.05
693.383	12063.64
693.73	12064.99
694.077	11974.83
694.423	12027.48
694.769	11951.32
695.116	11879.91
695.462	11785.9
695.808	11801.27
696.155	11874.49
696.501	11820.48
696.847	11704.78
697.193	11665.23
697.539	11637.66
697.885	11535.97
698.231	11491.68
698.577	11531.22
698.923	11431.79
699.269	11473.82
699.614	11340.72
699.96	11348.63
700.306	11341.62
700.651	11266.37
700.997	11259.82
701.342	11248.29
701.688	11188.63
702.033	11138.01
702.379	11178.01
702.724	11073.38
703.069	11059.14
703.415	10968.53
703.76	11011.01
704.105	10964.68
704.45	10913.16
704.795	10883.1
705.14	10814.18
705.485	10889.21
705.83	10822.99
706.175	10787.96
706.52	10717.91
706.865	10734.63
707.209	10688.08
707.554	10584.35
707.899	10665.48
708.243	10606.73
708.588	10516.33
708.932	10480.18
709.277	10488.99
709.621	10506.39
709.966	10363.57
710.31	10441.99
710.654	10324.7
710.998	10348.65
711.342	10311.82
711.687	10294.64
712.031	10226.62
712.375	10192.95
712.719	10189.79
713.063	10133.74
713.407	10175.33
713.75	10099.4
714.094	10126.51
714.438	10149.79
714.782	10106.63
715.125	10036.8
715.469	10131.03
715.812	9982.34
716.156	9967.65
716.499	10040.19
716.843	9990.25
717.186	9887.88
717.53	9938.5
717.873	9999.06
718.216	9955.22
718.559	9941.66
718.902	9853.53
719.246	9931.04
719.589	9821.89
719.932	9860.31
720.275	9797.03
720.617	9797.71
720.96	9776.69
721.303	9717.94
721.646	9816.01
721.989	9744.38
722.331	9754.09
722.674	9728.56
723.016	9727.2
723.359	9683.59
723.701	9657.83
724.044	9643.81
724.386	9582.12
724.729	9655.34
725.071	9669.58
725.413	9561.78
725.755	9679.97
726.097	9570.14
726.439	9556.58
726.782	9596.58
727.124	9622.57
727.465	9538.51
727.807	9568.56
728.149	9559.97
728.491	9515.91
728.833	9529.01
729.175	9550.48
729.516	9540.09
729.858	9516.36
730.199	9445.63
730.541	9535.79
730.882	9491.5
731.224	9514.78
731.565	9458.73
731.906	9458.73
732.248	9475.46
732.589	9499.19
732.93	9448.57
733.271	9462.8
733.612	9501.45
733.953	9430.26
734.294	9412.18
734.635	9369.02
734.976	9430.03
735.317	9378.51
735.658	9387.32
735.999	9421.9
736.339	9376.02
736.68	9474.33
737.021	9422.13
737.361	9402.92
737.702	9472.07
738.042	9432.52
738.383	9484.72
738.723	9506.87
739.063	9391.39
739.404	9482.69
739.744	9496.93
740.084	9448.79
740.424	9426.64
740.764	9477.94
741.104	9510.48
741.444	9461.9
741.784	9500.99
742.124	9519.98
742.464	9516.13
742.804	9531.95
743.143	9506.19
743.483	9498.28
743.823	9537.38
744.162	9574.89
744.502	9602.46
744.841	9672.51
745.181	9632.97
745.52	9672.74
745.86	9776.24
746.199	9750.93
746.538	9769.46
746.877	9954.09
747.216	9914.09
747.556	9925.84
747.895	9954.77
748.234	9949.34
748.573	10039.96
748.911	10069.11
749.25	10137.81
749.589	10164.93
749.928	10276.11
750.267	10312.95
750.605	10316.56
750.944	10353.63
751.283	10520.18
751.621	10632.71
751.96	10641.08
752.298	10725.82
752.636	10817.34
752.975	10909.09
753.313	10945.25
753.651	11094.17
753.989	11081.97
754.327	11248.07
754.666	11331.91
755.004	11456.2
755.342	11573.48
755.679	11797.43
756.017	11706.81
756.355	11947.48
756.693	11987.26
757.031	12189.96
757.368	12304.08
