Data from hue_150_FLMS001491_00074.txt Node
Date: Tue Feb 07 16:54:30 GMT 2017
User: dcchb
Spectrometer: FLMS00149
Trigger mode: 0
Integration Time (sec): 2.000000E-2
Scans to average: 10
Electric dark correction enabled: true
Nonlinearity correction enabled: false
Boxcar width: 0
XAxis mode: Wavelengths
Number of Pixels in Spectrum: 2048
>>>>>Begin Spectral Data<<<<<
341.393	-5.21
341.776	-5.21
342.16	-5.21
342.543	-63.74
342.927	-66
343.31	-83.85
343.693	-70.07
344.077	-69.62
344.46	-39.56
344.843	-54.48
345.226	-32.1
345.61	-20.8
345.993	-19.67
346.376	-12.22
346.759	13.54
347.142	38.63
347.525	43.37
347.908	46.99
348.291	77.5
348.674	74.79
349.057	107.55
349.44	138.74
349.823	107.33
350.206	160.66
350.588	178.96
350.971	206.31
351.354	219.19
351.737	222.8
352.119	235.01
352.502	255.35
352.884	260.77
353.267	277.72
353.65	269.81
354.032	300.32
354.414	310.49
354.797	308.68
355.179	316.81
355.562	310.94
355.944	320.88
356.326	334.89
356.709	343.48
357.091	312.07
357.473	326.76
357.855	299.41
358.238	343.48
358.62	320.66
359.002	342.58
359.384	339.41
359.766	335.12
360.148	333.54
360.53	366.3
360.912	337.6
361.294	317.27
361.676	323.37
362.057	324.5
362.439	323.37
362.821	316.59
363.203	320.88
363.584	313.42
363.966	315.01
364.348	313.65
364.729	327.21
365.111	321.33
365.493	305.74
365.874	295.12
366.256	313.42
366.637	306.64
367.019	318.85
367.4	322.92
367.781	310.94
368.163	310.94
368.544	312.75
368.925	308
369.306	329.24
369.688	306.87
370.069	315.46
370.45	311.39
370.831	317.04
371.212	310.94
371.593	310.94
371.974	301.9
372.355	293.99
372.736	315.91
373.117	317.04
373.498	310.03
373.879	328.34
374.26	327.21
374.641	307.1
375.021	290.6
375.402	319.3
375.783	319.98
376.163	322.92
376.544	326.98
376.925	340.09
377.305	326.08
377.686	324.27
378.066	343.48
378.447	336.93
378.827	322.92
379.208	318.4
379.588	333.54
379.968	335.34
380.349	334.67
380.729	320.2
381.109	340.77
381.489	321.56
381.87	326.53
382.25	317.04
382.63	322.01
383.01	352.29
383.39	342.8
383.77	331.05
384.15	357.26
384.53	335.57
384.91	333.54
385.29	338.73
385.67	354.33
386.049	374.21
386.429	343.25
386.809	342.58
387.189	344.38
387.568	343.71
387.948	344.16
388.328	365.4
388.707	338.06
389.087	339.64
389.466	356.13
389.846	380.54
390.225	363.37
390.605	353.65
390.984	353.42
391.363	351.16
391.743	359.75
392.122	365.17
392.501	364.72
392.881	387.32
393.26	380.77
393.639	381.9
394.018	393.87
394.397	371.05
394.776	362.91
395.155	385.51
395.534	376.47
395.913	377.38
396.292	379.41
396.671	379.86
397.05	404.27
397.429	385.96
397.808	398.39
398.186	394.55
398.565	379.41
398.944	383.93
399.323	390.03
399.701	397.26
400.08	396.59
400.458	388.22
400.837	385.06
401.215	402.69
401.594	391.61
401.972	395
402.351	383.93
402.729	402.91
403.107	425.74
403.486	389.35
403.864	402.24
404.242	429.81
404.62	425.51
404.999	441.78
405.377	420.09
405.755	416.47
406.133	446.08
406.511	435.45
406.889	453.08
407.267	451.95
407.645	431.16
408.023	426.42
408.401	432.52
408.779	421.67
409.156	445.17
409.534	468
409.912	450.37
410.29	461.89
410.667	457.15
411.045	474.1
411.422	489.92
411.8	458.28
412.178	475.23
412.555	460.09
412.933	485.85
413.31	451.73
413.687	477.49
414.065	508.9
414.442	496.92
414.819	490.82
415.197	495.79
415.574	495.34
415.951	496.92
416.328	496.7
416.705	505.74
417.082	526.07
417.46	510.03
417.837	514.55
418.214	505.96
418.591	541.44
418.967	502.12
419.344	544.83
419.721	524.72
420.098	518.62
420.475	514.1
420.852	546.41
421.228	551.84
421.605	542.8
421.982	558.39
422.358	533.76
422.735	559.07
423.111	559.29
423.488	548.22
423.864	572.4
424.241	577.37
424.617	588.44
424.994	568.56
425.37	585.06
425.746	579.18
426.123	586.86
426.499	595.45
426.875	581.89
427.251	607.2
427.627	612.85
428.003	624.15
428.379	619.86
428.756	620.08
429.132	631.38
429.507	632.96
429.883	655.11
430.259	635.22
430.635	651.72
431.011	668.44
431.387	680.19
431.763	663.02
432.138	682.23
432.514	672.06
432.89	712.74
433.265	691.72
433.641	698.27
434.016	698.5
434.392	715.22
434.767	708.22
435.143	733.07
435.518	743.02
435.894	752.28
436.269	737.82
436.644	754.77
437.02	750.7
437.395	752.06
437.77	763.36
438.145	778.04
438.52	787.99
438.895	772.62
439.271	780.76
439.646	801.55
440.021	806.29
440.395	788.44
440.77	803.58
441.145	801.77
441.52	847.87
441.895	806.29
442.27	863.92
442.645	845.16
443.019	831.6
443.394	834.99
443.769	874.31
444.143	851.26
444.518	877.48
444.892	851.04
445.267	887.42
445.641	898.72
446.016	885.84
446.39	907.76
446.764	887.87
447.139	889.68
447.513	910.7
447.887	931.94
448.262	926.74
448.636	937.81
449.01	946.18
449.384	945.05
449.758	930.36
450.132	957.25
450.506	986.85
450.88	949.11
451.254	981.65
451.628	985.27
452.002	1009.9
452.376	1012.16
452.75	1030.47
453.123	1009
453.497	1037.25
453.871	1051.71
454.244	1066.62
454.618	1070.24
454.992	1056.68
455.365	1065.49
455.739	1091.26
456.112	1104.36
456.486	1120.41
456.859	1142.55
457.232	1128.77
457.606	1169.9
457.979	1170.8
458.352	1184.81
458.725	1193.85
459.099	1206.96
459.472	1218.03
459.845	1225.04
460.218	1272.95
460.591	1239.05
460.964	1292.16
461.337	1303.91
461.71	1304.13
462.083	1342.32
462.456	1328.09
462.829	1347.3
463.201	1392.94
463.574	1424.81
463.947	1404.02
464.32	1452.83
464.692	1445.15
465.065	1452.38
465.438	1483.79
465.81	1488.99
466.183	1525.6
466.555	1554.75
466.928	1580.96
467.3	1577.8
467.672	1611.02
468.045	1646.95
468.417	1663.67
468.789	1696.89
469.161	1727.62
469.534	1725.36
469.906	1791.58
470.278	1813.27
470.65	1830.22
471.022	1844.68
471.394	1917.68
471.766	1912.25
472.138	1966.26
472.51	2034.06
472.882	2087.16
473.253	2063.21
473.625	2124
473.997	2221.85
474.369	2213.26
474.74	2268.4
475.112	2323.31
475.484	2397.44
475.855	2450.32
476.227	2450.54
476.598	2573.03
476.97	2609.18
477.341	2693.93
477.713	2715.17
478.084	2795.17
478.455	2907.25
478.827	2921.94
479.198	3072.22
479.569	3102.73
479.94	3197.87
480.311	3264.98
480.682	3365.55
481.053	3462.49
481.424	3562.15
481.795	3663.17
482.166	3731.41
482.537	3792.88
482.908	3947.68
483.279	4003.72
483.65	4108.13
484.021	4247.78
484.391	4346.76
484.762	4400.1
485.133	4540.21
485.503	4664.04
485.874	4807.32
486.244	4888.22
486.615	5060.64
486.985	5167.08
487.356	5246.4
487.726	5369.56
488.097	5521.87
488.467	5618.6
488.837	5770
489.207	5928.19
489.578	6090.9
489.948	6208.86
490.318	6343.77
490.688	6385.58
491.058	6549.19
491.428	6691.11
491.798	6828.05
492.168	6989.18
492.538	7128.39
492.908	7244.54
493.278	7365.22
493.648	7454.25
494.017	7632.78
494.387	7762.49
494.757	7863.96
495.126	8058.08
495.496	8082.71
495.866	8240.9
496.235	8372.2
496.605	8542.36
496.974	8675.92
497.344	8739.19
497.713	8877.94
498.082	8966.98
498.452	9148.9
498.821	9159.97
499.19	9225.05
499.559	9374.43
499.928	9461.88
500.298	9618.04
500.667	9701.65
501.036	9739.62
501.405	9891.25
501.774	9935.09
502.143	10098.25
502.512	10110.91
502.88	10276.1
503.249	10284.91
503.618	10364.69
503.987	10456.66
504.356	10541.63
504.724	10681.74
505.093	10655.3
505.462	10755.41
505.83	10799.02
506.199	10983.2
506.567	11078.34
506.936	11015.29
507.304	11178.9
507.672	11217.32
508.041	11310.42
508.409	11375.73
508.777	11421.15
509.145	11552.9
509.514	11572.79
509.882	11636.97
510.25	11645.1
510.618	11754.25
510.986	11752.22
511.354	11934.59
511.722	11934.81
512.09	12069.95
512.458	12003.29
512.826	12090.74
513.193	12231.75
513.561	12241.02
513.929	12263.84
514.297	12342.49
514.664	12370.96
515.032	12390.39
515.4	12505.87
515.767	12462.26
516.135	12580.45
516.502	12405.31
516.869	12665.87
517.237	12655.7
517.604	12659.09
517.972	12816.6
518.339	12802.36
518.706	12798.97
519.073	12768.46
519.44	12889.82
519.808	12902.92
520.175	12949.25
520.542	13045.52
520.909	13101.11
521.276	12987.67
521.643	13106.53
522.009	13148.57
522.376	13218.17
522.743	13259.98
523.11	13355.11
523.477	13330.93
523.843	13403.93
524.21	13531.61
524.577	13487.77
524.943	13524.83
525.31	13523.92
525.676	13589.91
526.043	13702.45
526.409	13701.55
526.776	13670.36
527.142	13724.14
527.508	13692.51
527.874	13764.6
528.241	13806.18
528.607	13809.11
528.973	13860.64
529.339	13752.39
529.705	13811.6
530.071	13840.53
530.437	13896.57
530.803	13867.87
531.169	13918.72
531.535	13804.59
531.901	13824.93
532.267	13838.94
532.632	13863.12
532.998	13904.03
533.364	13902.45
533.73	13848.66
534.095	13944.03
534.461	13864.48
534.826	13920.07
535.192	13784.93
535.557	13976.57
535.923	13815.44
536.288	13778.83
536.653	13809.79
537.019	13727.76
537.384	13770.92
537.749	13710.13
538.114	13696.12
538.479	13685.05
538.845	13701.55
539.21	13593.3
539.575	13611.15
539.94	13563.02
540.305	13638.72
540.67	13513.08
541.034	13542.23
541.399	13510.37
541.764	13497.94
542.129	13432.18
542.494	13361.89
542.858	13370.03
543.223	13317.15
543.587	13365.51
543.952	13251.39
544.316	13302.91
544.681	13282.35
545.045	13215.91
545.41	13197.6
545.774	13257.26
546.138	13105.63
546.503	13041.9
546.867	13011.17
547.231	13135.69
547.595	13021.34
547.959	13024.95
548.324	13012.3
548.688	12906.31
549.052	12947.89
549.416	12873.32
549.779	12796.26
550.143	12772.76
550.507	12864.51
550.871	12862.92
551.235	12690.5
551.599	12777.5
551.962	12747
552.326	12704.96
552.689	12666.32
553.053	12591.97
553.417	12619.32
553.78	12719.88
554.143	12566.44
554.507	12555.81
554.87	12530.05
555.234	12688.69
555.597	12492.09
555.96	12469.04
556.323	12511.3
556.686	12444.18
557.05	12550.39
557.413	12504.74
557.776	12409.83
558.139	12492.99
558.502	12483.05
558.865	12520.11
559.228	12433.56
559.59	12482.14
559.953	12479.88
560.316	12543.84
560.679	12480.11
561.041	12525.31
561.404	12500.22
561.767	12487.57
562.129	12494.8
562.492	12630.84
562.854	12546.55
563.217	12483.05
563.579	12489.6
563.941	12454.8
564.304	12535.02
564.666	12544.74
565.028	12600.78
565.39	12583.84
565.753	12544.29
566.115	12572.76
566.477	12590.39
566.839	12657.73
567.201	12685.53
567.563	12675.81
567.925	12677.17
568.287	12711.97
568.648	12710.84
569.01	12756.03
569.372	12701.35
569.734	12677.39
570.095	12727.11
570.457	12761.23
570.819	12736.15
571.18	12720.56
571.542	12733.89
571.903	12733.21
572.265	12834.45
572.626	12819.99
572.987	12791.97
573.349	12772.53
573.71	12835.35
574.071	12929.36
574.432	12845.07
574.794	12988.57
575.155	12965.29
575.516	12816.82
575.877	12902.7
576.238	12916.48
576.599	13002.81
576.96	12897.95
577.32	12875.35
577.681	12932.53
578.042	12958.74
578.403	12901.57
578.763	12892.75
579.124	12931.4
579.485	12901.57
579.845	12982.47
580.206	12970.49
580.566	12946.31
580.927	12964.62
581.287	12899.08
581.648	12887.78
582.008	12955.58
582.368	12904.73
582.728	12986.76
583.089	12885.3
583.449	12895.69
583.809	12879.65
584.169	12887.78
584.529	12870.38
584.889	12970.72
585.249	12873.77
585.609	12823.83
585.969	12829.25
586.329	12923.49
586.688	12865.18
587.048	12790.84
587.408	12815.47
587.768	12866.31
588.127	12716.71
588.487	12725.08
588.846	12817.95
589.206	12782.47
589.565	12766.88
589.925	12815.02
590.284	12744.28
590.643	12858.4
591.003	12750.16
591.362	12798.75
591.721	12701.12
592.08	12820.21
592.44	12833.55
592.799	12774.11
593.158	12686.21
593.517	12738.63
593.876	12760.33
594.235	12753.55
594.593	12714.45
594.952	12776.15
595.311	12688.01
595.67	12722.14
596.029	12754
596.387	12762.59
596.746	12718.75
597.104	12716.26
597.463	12648.92
597.822	12778.18
598.18	12691.4
598.538	12636.26
598.897	12721.23
599.255	12545.87
599.613	12744.51
599.972	12656.83
600.33	12623.83
600.688	12649.82
601.046	12653.44
601.404	12636.04
601.762	12671.52
602.12	12656.38
602.478	12610.5
602.836	12751.74
603.194	12621.57
603.552	12650.95
603.91	12674
604.268	12646.43
604.625	12625.42
604.983	12694.12
605.341	12612.76
605.698	12683.72
606.056	12686.66
606.413	12720.56
606.771	12668.58
607.128	12661.8
607.485	12586.55
607.843	12639.43
608.2	12713.55
608.557	12646.21
608.914	12660.22
609.272	12786.09
609.629	12689.82
609.986	12788.12
610.343	12702.25
610.7	12916.03
611.057	12749.03
611.414	12805.75
611.771	12797.84
612.127	12752.64
612.484	12841
612.841	12854.11
613.198	12826.99
613.554	12879.65
613.911	12903.38
614.267	12874.45
614.624	12884.39
614.98	12921.23
615.337	12963.49
615.693	12925.52
616.05	12899.31
616.406	12970.49
616.762	12903.15
617.118	12991.51
617.475	12959.42
617.831	12928.01
618.187	13028.12
618.543	12988.8
618.899	13011.4
619.255	13029.25
619.611	13003.26
619.967	13072.64
620.323	13076.7
620.678	12987.89
621.034	13023.6
621.39	12974.33
621.746	13013.88
622.101	13121.9
622.457	13033.54
622.812	13074.22
623.168	13067.66
623.523	13032.41
623.879	13130.71
624.234	13035.8
624.589	13024.5
624.945	13127.32
625.3	13081.45
625.655	13000.32
626.01	13034.22
626.365	13089.81
626.72	13053.88
627.075	12993.77
627.43	13000.77
627.785	12977.05
628.14	13059.98
628.495	13058.63
628.85	12956.26
629.205	12976.59
629.559	13109.47
629.914	12929.59
630.269	12999.87
630.623	12899.76
630.978	12925.75
631.332	13030.38
631.687	12923.94
632.041	12885.75
632.396	12970.27
632.75	12931.85
633.104	12916.26
633.459	12859.99
633.813	12861.57
634.167	12854.56
634.521	12838.29
634.875	12879.42
635.229	12845.75
635.583	12711.06
635.937	12769.14
636.291	12748.58
636.645	12760.78
636.999	12651.18
637.352	12716.26
637.706	12651.4
638.06	12700.89
638.413	12635.13
638.767	12617.28
639.121	12664.29
639.474	12589.71
639.828	12589.26
640.181	12564.18
640.534	12570.28
640.888	12491.18
641.241	12491.41
641.594	12515.14
641.947	12521.92
642.301	12424.07
642.654	12563.5
643.007	12494.35
643.36	12441.47
643.713	12513.56
644.066	12507.68
644.419	12398.76
644.771	12410.96
645.124	12201.02
645.477	12208.03
645.83	12179.1
646.182	12162.6
646.535	12121.93
646.888	12034.47
647.24	11941.14
647.593	12063.85
647.945	12013
648.298	11966.22
648.65	11978.43
649.002	11978.88
649.355	12035.38
649.707	11982.95
650.059	12096.39
650.411	12279.44
650.763	12177.29
651.115	12389.04
651.467	12288.7
651.819	12301.81
652.171	12297.29
652.523	12286.22
652.875	12347.01
653.227	12249.61
653.578	12415.03
653.93	12370.73
654.282	12231.75
654.633	12185.43
654.985	12263.62
655.337	12197.86
655.688	12237.18
656.039	12371.41
656.391	12283.96
656.742	12245.77
657.094	12312.43
657.445	12340
657.796	12261.36
658.147	12216.61
658.498	12243.28
658.849	12262.49
659.2	12339.77
659.551	12223.62
659.902	12252.32
660.253	12329.83
660.604	12349.04
660.955	12236.73
661.306	12315.14
661.656	12333.45
662.007	12329.83
662.358	12358.08
662.708	12361.24
663.059	12374.8
663.409	12282.83
663.76	12352.88
664.11	12396.72
664.461	12363.95
664.811	12330.74
665.161	12383.84
665.511	12304.52
665.862	12376.61
666.212	12349.04
666.562	12375.93
666.912	12299.55
667.262	12310.85
667.612	12284.63
667.962	12384.74
668.312	12295.48
668.662	12405.76
669.011	12356.5
669.361	12285.99
669.711	12197.63
670.06	12324.63
670.41	12266.56
670.76	12318.08
671.109	12328.02
671.459	12265.65
671.808	12286.89
672.157	12237.18
672.507	12215.71
672.856	12211.42
673.205	12211.42
673.554	12314.46
673.904	12194.02
674.253	12160.57
674.602	12188.82
674.951	12083.51
675.3	11994.25
675.649	12173
675.998	12130.29
676.346	12177.74
676.695	12177.07
677.044	12006
677.393	12099.78
677.741	12130.97
678.09	12151.98
678.438	12125.09
678.787	12018.43
679.135	12121.7
679.484	12026.79
679.832	12087.35
680.181	11897.75
680.529	11953.12
680.877	11885.32
681.225	11876.06
681.573	12022.49
681.922	11783.4
682.27	11860.01
682.618	11815.95
682.966	11855.95
683.314	11789.51
683.661	11787.92
684.009	11657.98
684.357	11737.98
684.705	11650.3
685.053	11640.13
685.4	11602.84
685.748	11668.83
686.095	11587.93
686.443	11639.45
686.79	11563.98
687.138	11589.51
687.485	11622.05
687.832	11519.91
688.18	11530.98
688.527	11460.48
688.874	11388.61
689.221	11334.15
689.568	11362.17
689.915	11380.7
690.262	11301.84
690.609	11254.61
690.956	11194.72
691.303	11179.35
691.65	11162.18
691.997	11111.56
692.344	11069.75
692.69	10980.26
693.037	10945.23
693.383	10967.83
693.73	10996.08
694.077	10898.23
694.423	10910.43
694.769	10817.1
695.116	10839.7
695.462	10784.11
695.808	10778.69
696.155	10761.96
696.501	10738.91
696.847	10653.04
697.193	10555.41
697.539	10627.28
697.885	10592.48
698.231	10533.49
698.577	10456.89
698.923	10439.49
699.269	10374.18
699.614	10250.56
699.96	10296.44
700.306	10292.37
700.651	10224.35
700.997	10146.84
701.342	10092.38
701.688	10130.34
702.033	10073.85
702.379	10152.94
702.724	10058.25
703.069	10029.78
703.415	9938.26
703.76	9963.57
704.105	9929.22
704.45	9909.78
704.795	9818.94
705.14	9788.2
705.485	9818.94
705.83	9721.99
706.175	9682.9
706.52	9734.19
706.865	9740.52
707.209	9654.65
707.554	9582.78
707.899	9606.06
708.243	9561.32
708.588	9507.08
708.932	9475.67
709.277	9538.27
709.621	9557.47
709.966	9446.97
710.31	9449
710.654	9347.31
710.998	9252.17
711.342	9370.36
711.687	9328.33
712.031	9225.51
712.375	9231.83
712.719	9213.75
713.063	9221.89
713.407	9210.37
713.75	9098.96
714.094	9172.85
714.438	9101.67
714.782	9178.73
715.125	9107.09
715.469	9148.9
715.812	9101.44
716.156	8995.23
716.499	9039.52
716.843	9063.25
717.186	9035.91
717.53	9060.76
717.873	9030.48
718.216	8985.06
718.559	8904.16
718.902	8874.33
719.246	8952.97
719.589	8871.62
719.932	8868.68
720.275	8851.05
720.617	8858.06
720.96	8815.35
721.303	8859.87
721.646	8860.09
721.989	8834.33
722.331	8813.09
722.674	8836.59
723.016	8808.57
723.359	8860.77
723.701	8813.54
724.044	8721.56
724.386	8701.9
724.729	8769.47
725.071	8674.11
725.413	8744.39
725.755	8733.99
726.097	8741.68
726.439	8712.3
726.782	8628.46
727.124	8692.64
727.465	8654.45
727.807	8691.06
728.149	8642.02
728.491	8662.81
728.833	8644.96
729.175	8637.27
729.516	8660.55
729.858	8586.2
730.199	8589.14
730.541	8609.48
730.882	8583.94
731.224	8637.5
731.565	8589.82
731.906	8574
732.248	8608.8
732.589	8571.51
732.93	8529.93
733.271	8539.2
733.612	8548.69
733.953	8565.18
734.294	8542.36
734.635	8533.32
734.976	8548.91
735.317	8543.26
735.658	8566.54
735.999	8610.15
736.339	8622.58
736.68	8597.5
737.021	8547.11
737.361	8500.1
737.702	8581.68
738.042	8576.48
738.383	8557.5
738.723	8619.42
739.063	8601.57
739.404	8625.75
739.744	8589.36
740.084	8576.26
740.424	8639.98
740.764	8607.67
741.104	8673.43
741.444	8612.64
741.784	8618.97
742.124	8673.66
742.464	8690.38
742.804	8689.93
743.143	8748
743.483	8753.88
743.823	8745.29
744.162	8795.46
744.502	8810.38
744.841	8763.15
745.181	8877.49
745.52	8878.4
745.86	8924.05
746.199	8951.39
746.538	8957.26
746.877	9013.53
747.216	9030.93
747.556	9132.85
747.895	9137.15
748.234	9193.19
748.573	9216.01
748.911	9314.77
749.25	9350.7
749.589	9359.06
749.928	9435.22
750.267	9564.03
750.605	9584.14
750.944	9660.52
751.283	9668.66
751.621	9760.63
751.96	9834.3
752.298	9853.96
752.636	10087.63
752.975	10103.9
753.313	10135.76
753.651	10314.52
753.989	10374.63
754.327	10482.87
754.666	10511.8
755.004	10717.67
755.342	10832.47
755.679	10949.75
756.017	11022.07
756.355	11159.47
756.693	11296.64
757.031	11410.53
757.368	11516.29
757.706	11679.68
758.044	11780.47
758.381	11954.25
758.719	12037.86
759.056	12281.47
759.394	12332.54
