Data from hue_180_FLMS001491_00015.txt Node
Date: Tue Feb 07 16:46:37 GMT 2017
User: dcchb
Spectrometer: FLMS00149
Trigger mode: 0
Integration Time (sec): 2.000000E-2
Scans to average: 10
Electric dark correction enabled: true
Nonlinearity correction enabled: false
Boxcar width: 0
XAxis mode: Wavelengths
Number of Pixels in Spectrum: 2048
>>>>>Begin Spectral Data<<<<<
341.393	-18.76
341.776	-18.76
342.16	-18.76
342.543	-35.48
342.927	-68.92
343.31	-63.73
343.693	-78.19
344.077	-66.89
344.46	-56.72
344.843	-32.99
345.226	-51.3
345.61	-10.85
345.993	-1.81
346.376	-24.41
346.759	16.95
347.142	21.92
347.525	40.45
347.908	52.65
348.291	84.29
348.674	79.77
349.057	90.85
349.44	125.42
349.823	141.92
350.206	168.36
350.588	194.35
350.971	209.26
351.354	201.35
351.737	232.76
352.119	256.04
352.502	255.13
352.884	266.89
353.267	272.08
353.65	289.48
354.032	313.89
354.414	319.54
354.797	323.38
355.179	297.17
355.562	323.83
355.944	335.13
356.326	344.85
356.709	348.47
357.091	344.85
357.473	338.75
357.855	333.1
358.238	354.57
358.62	350.05
359.002	331.06
359.384	341.23
359.766	348.01
360.148	339.43
360.53	330.16
360.912	318.64
361.294	331.06
361.676	329.71
362.057	327.67
362.439	337.62
362.821	332.65
363.203	336.71
363.584	340.33
363.966	342.36
364.348	313.21
364.729	303.04
365.111	305.75
365.493	318.41
365.874	298.52
366.256	301.46
366.637	316.6
367.019	313.21
367.4	321.57
367.781	327.45
368.163	320.67
368.544	312.08
368.925	317.96
369.306	315.92
369.688	328.8
370.069	315.92
370.45	305.08
370.831	327.9
371.212	308.01
371.593	320.9
371.974	319.09
372.355	318.41
372.736	311.4
373.117	294.91
373.498	319.09
373.879	309.82
374.26	309.6
374.641	317.51
375.021	321.8
375.402	311.18
375.783	312.53
376.163	335.36
376.544	326.55
376.925	318.64
377.305	324.96
377.686	333.78
378.066	314.57
378.447	321.12
378.827	331.74
379.208	320.44
379.588	326.09
379.968	325.87
380.349	330.16
380.729	338.07
381.109	333.55
381.489	346.88
381.87	314.34
382.25	320.22
382.63	352.31
383.01	331.06
383.39	339.65
383.77	342.82
384.15	343.49
384.53	338.97
384.91	340.33
385.29	355.02
385.67	324.06
386.049	352.08
386.429	364.74
386.809	360.89
387.189	348.24
387.568	365.64
387.948	358.41
388.328	349.37
388.707	363.61
389.087	374
389.466	362.93
389.846	369.71
390.225	369.48
390.605	348.24
390.984	376.49
391.363	363.83
391.743	362.48
392.122	357.5
392.501	382.14
392.881	378.52
393.26	354.57
393.639	382.14
394.018	374.68
394.397	395.92
394.776	370.39
395.155	363.15
395.534	371.74
395.913	385.53
396.292	405.19
396.671	393.44
397.05	429.14
397.429	386.66
397.808	401.35
398.186	394.34
398.565	395.92
398.944	407.9
399.323	394.57
399.701	411.51
400.08	414.23
400.458	410.84
400.837	399.76
401.215	393.44
401.594	436.37
401.972	417.16
402.351	416.94
402.729	409.71
403.107	444.28
403.486	443.6
403.864	411.06
404.242	444.06
404.62	442.02
404.999	431.63
405.377	439.54
405.755	440.67
406.133	461.23
406.511	445.19
406.889	464.85
407.267	504.17
407.645	467.11
408.023	492.42
408.401	478.63
408.779	479.99
409.156	489.93
409.534	518.4
409.912	501
410.29	536.26
410.667	508.46
411.045	522.92
411.422	500.33
411.8	520.21
412.178	538.29
412.555	539.42
412.933	565.18
413.31	565.18
413.687	569.48
414.065	594.79
414.442	589.59
414.819	564.73
415.197	599.53
415.574	598.85
415.951	600.89
416.328	624.62
416.705	621.23
417.082	637.05
417.46	625.29
417.837	650.83
418.214	642.47
418.591	671.85
418.967	671.62
419.344	673.65
419.721	663.26
420.098	682.92
420.475	696.93
420.852	700.77
421.228	720.21
421.605	718.85
421.982	732.86
422.358	744.61
422.735	747.55
423.111	755.01
423.488	790.71
423.864	792.52
424.241	817.61
424.617	814.22
424.994	807.44
425.37	821.67
425.746	817.83
426.123	845.85
426.499	854.67
426.875	860.09
427.251	889.47
427.627	904.38
428.003	926.98
428.379	886.76
428.756	907.77
429.132	912.52
429.507	929.92
429.883	935.79
430.259	947.32
430.635	981.22
431.011	967.43
431.387	995.23
431.763	1009.24
432.138	1018.5
432.514	1052.85
432.89	1047.2
433.265	1087.43
433.641	1077.94
434.016	1122.23
434.392	1116.35
434.767	1124.49
435.143	1141.44
435.518	1169.91
435.894	1193.19
436.269	1190.48
436.644	1208.56
437.02	1223.24
437.395	1210.36
437.77	1262.57
438.145	1286.75
438.52	1283.58
438.895	1323.13
439.271	1331.04
439.646	1365.84
440.021	1347.31
440.395	1379.85
440.77	1388.21
441.145	1408.78
441.52	1425.73
441.895	1448.32
442.27	1453.52
442.645	1463.92
443.019	1473.86
443.394	1501.2
443.769	1506.63
444.143	1521.32
444.518	1544.59
444.892	1539.17
445.267	1567.64
445.641	1575.1
446.016	1568.09
446.39	1581.65
446.764	1635.21
447.139	1608.55
447.513	1611.71
447.887	1634.76
448.262	1671.14
448.636	1665.94
449.01	1720.86
449.384	1689
449.758	1697.36
450.132	1723.34
450.506	1748.65
450.88	1743.01
451.254	1720.41
451.628	1780.07
452.002	1808.99
452.376	1822.78
452.75	1858.93
453.123	1850.35
453.497	1860.06
453.871	1895.77
454.244	1952.04
454.618	1944.81
454.992	1989.55
455.365	1968.08
455.739	2026.84
456.112	2062.32
456.486	2047.18
456.859	2078.14
457.232	2105.93
457.606	2135.76
457.979	2139.83
458.352	2207.17
458.725	2233.16
459.099	2224.12
459.472	2278.58
459.845	2319.26
460.218	2336.21
460.591	2335.98
460.964	2365.81
461.337	2427.73
461.71	2481.52
462.083	2538.01
462.456	2521.06
462.829	2513.61
463.201	2533.04
463.574	2590.89
463.947	2666.82
464.32	2683.77
464.692	2684.68
465.065	2759.93
465.438	2711.57
465.81	2817.1
466.183	2848.96
466.555	2892.58
466.928	2978.68
467.3	2939.36
467.672	2982.52
468.045	3067.72
468.417	3082.86
468.789	3109.07
469.161	3174.61
469.534	3214.15
469.906	3301.61
470.278	3296.64
470.65	3375.05
471.022	3396.97
471.394	3470.19
471.766	3514.71
472.138	3564.65
472.51	3627.7
472.882	3767.81
473.253	3752.22
473.625	3835.61
473.997	3912.67
474.369	3963.29
474.74	4001.48
475.112	4085.99
475.484	4155.37
475.855	4239.89
476.227	4276.5
476.598	4402.37
476.97	4450.96
477.341	4526.66
477.713	4630.16
478.084	4691.85
478.455	4845.52
478.827	4852.75
479.198	5022.24
479.569	5051.62
479.94	5214.33
480.311	5217.04
480.682	5454.55
481.053	5516.24
481.424	5613.86
481.795	5677.59
482.166	5774.99
482.537	5870.13
482.908	5994.87
483.279	6048.88
483.65	6181.53
484.021	6289.33
484.391	6406.39
484.762	6541.52
485.133	6569.77
485.503	6673.04
485.874	6870.33
486.244	6893.83
486.615	7114.62
486.985	7191.45
487.356	7331.33
487.726	7356.19
488.097	7560.48
488.467	7574.94
488.837	7794.37
489.207	7869.17
489.578	7994.37
489.948	8030.75
490.318	8217.86
490.688	8258.31
491.058	8451.3
491.428	8459.44
491.798	8559.77
492.168	8784.18
492.538	8735.59
492.908	8902.59
493.278	9050.84
493.648	9043.38
494.017	9137.16
494.387	9222.81
494.757	9273.43
495.126	9452.63
495.496	9442.92
495.866	9532.18
496.235	9653.76
496.605	9697.82
496.974	9759.97
497.344	9865.05
497.713	9906.63
498.082	9981.21
498.452	10084.93
498.821	10124.48
499.19	10098.94
499.559	10226.85
499.928	10376.68
500.298	10353.85
500.667	10409.67
501.036	10415.77
501.405	10528.08
501.774	10541.64
502.143	10581.42
502.512	10597.01
502.88	10725.14
503.249	10734.18
503.618	10763.56
503.987	10781.41
504.356	10870.22
504.724	10856.21
505.093	10983.21
505.462	10951.8
505.83	11038.35
506.199	11118.58
506.567	11191.8
506.936	11122.42
507.304	11277.22
507.672	11237.22
508.041	11309.53
508.409	11368.74
508.777	11502.75
509.145	11413.26
509.514	11481.05
509.882	11561.73
510.25	11494.61
510.618	11516.31
510.986	11609.19
511.354	11696.87
511.722	11719.24
512.09	11760.82
512.458	11681.95
512.826	11777.77
513.193	11864.32
513.561	11834.04
513.929	11842.4
514.297	11935.28
514.664	11891.21
515.032	11966.69
515.4	12116.74
515.767	12008.95
516.135	12100.47
516.502	11975.5
516.869	12115.16
517.237	12029.74
517.604	12058.67
517.972	12115.61
518.339	12109.51
518.706	12149.74
519.073	12152
519.44	12199.68
519.808	12297.53
520.175	12157.19
520.542	12310.18
520.909	12303.18
521.276	12286.68
521.643	12276.51
522.009	12268.15
522.376	12363.97
522.743	12413.01
523.11	12489.16
523.477	12515.15
523.843	12596.5
524.21	12572.32
524.577	12609.61
524.943	12613
525.31	12591.99
525.676	12645.54
526.043	12655.94
526.409	12664.75
526.776	12738.87
527.142	12744.75
527.508	12728.93
527.874	12747.69
528.241	12745.65
528.607	12710.4
528.973	12756.5
529.339	12688.25
529.705	12688.71
530.071	12695.49
530.437	12741.81
530.803	12689.38
531.169	12715.6
531.535	12606
531.901	12514.02
532.267	12613.91
532.632	12631.98
532.998	12544.08
533.364	12636.73
533.73	12487.58
534.095	12520.8
534.461	12610.74
534.826	12547.24
535.192	12530.52
535.557	12562.38
535.923	12405.32
536.288	12411.88
536.653	12423.18
537.019	12291.88
537.384	12312.44
537.749	12291.2
538.114	12266.34
538.479	12096.18
538.845	12189.28
539.21	12161.26
539.575	12097.99
539.94	12048.5
540.305	12107.7
540.67	12002.62
541.034	12038.33
541.399	11992.68
541.764	12016.18
542.129	11904.09
542.494	11837.65
542.858	11785
543.223	11782.52
543.587	11789.07
543.952	11702.74
544.316	11636.53
544.681	11584.33
545.045	11521.96
545.41	11564.89
545.774	11592.46
546.138	11471.56
546.503	11447.61
546.867	11418.68
547.231	11308.86
547.595	11318.12
547.959	11245.13
548.324	11174.62
548.688	11197.9
549.052	11109.99
549.416	11100.05
549.779	11081.29
550.143	11054.17
550.507	10953.84
550.871	10972.14
551.235	10938.02
551.599	10953.61
551.962	10896.44
552.326	10876.1
552.689	10811.02
553.053	10691.7
553.417	10782.77
553.78	10848.08
554.143	10635.43
554.507	10615.99
554.87	10643.11
555.234	10695.76
555.597	10606.05
555.96	10620.29
556.323	10538.93
556.686	10512.72
557.05	10585.94
557.413	10483.79
557.776	10476.11
558.139	10464.58
558.502	10449.22
558.865	10396.34
559.228	10432.27
559.59	10508.88
559.953	10430.69
560.316	10504.58
560.679	10445.15
561.041	10400.63
561.404	10332.16
561.767	10486.05
562.129	10371.48
562.492	10491.48
562.854	10378.26
563.217	10305.04
563.579	10484.7
563.941	10372.83
564.304	10371.7
564.666	10389.56
565.028	10415.55
565.39	10356.34
565.753	10408.31
566.115	10416.22
566.477	10417.13
566.839	10357.92
567.201	10425.71
567.563	10360.86
567.925	10455.32
568.287	10403.79
568.648	10403.79
569.01	10442.89
569.372	10446.05
569.734	10427.52
570.095	10511.14
570.457	10369.22
570.819	10471.82
571.18	10449.44
571.542	10453.96
571.903	10458.03
572.265	10445.15
572.626	10501.64
572.987	10411.7
573.349	10484.24
573.71	10546.39
574.071	10552.26
574.432	10510.68
574.794	10584.81
575.155	10469.33
575.516	10496.67
575.877	10605.14
576.238	10503.9
576.599	10543.45
576.96	10493.06
577.32	10527.86
577.681	10535.09
578.042	10539.84
578.403	10512.72
578.763	10549.78
579.124	10485.37
579.485	10556.78
579.845	10618.25
580.206	10540.06
580.566	10534.19
580.927	10462.78
581.287	10546.84
581.648	10508.2
582.008	10513.17
582.368	10400.4
582.728	10502.77
583.089	10455.54
583.449	10454.87
583.809	10447.63
584.169	10493.51
584.529	10423.45
584.889	10464.36
585.249	10423.68
585.609	10399.05
585.969	10484.02
586.329	10296.9
586.688	10396.34
587.048	10375.09
587.408	10289.67
587.768	10360.63
588.127	10310.69
588.487	10323.8
588.846	10408.77
589.206	10319.73
589.565	10267.53
589.925	10370.12
590.284	10331.48
590.643	10267.3
591.003	10354.3
591.362	10318.6
591.721	10253.29
592.08	10307.07
592.44	10297.36
592.799	10266.85
593.158	10226.4
593.517	10248.32
593.876	10291.03
594.235	10147.76
594.593	10230.69
594.952	10175.1
595.311	10194.53
595.67	10180.07
596.029	10231.82
596.387	10252.16
596.746	10214.19
597.104	10201.77
597.463	10138.26
597.822	10178.94
598.18	10178.72
598.538	10157.7
598.897	10164.25
599.255	10120.19
599.613	10177.36
599.972	10194.76
600.33	10117.25
600.688	10104.59
601.046	10087.64
601.404	10152.73
601.762	10142.78
602.12	10261.88
602.478	10218.94
602.836	10133.74
603.194	10093.97
603.552	10219.39
603.91	10105.27
604.268	10204.25
604.625	10109.79
604.983	10165.38
605.341	10088.77
605.698	10140.75
606.056	10147.98
606.413	10089.68
606.771	10110.24
607.128	10155.44
607.485	10065.5
607.843	10146.85
608.2	10102.56
608.557	10217.13
608.914	10172.84
609.272	10216.91
609.629	10195.66
609.986	10209.68
610.343	10171.71
610.7	10254.65
611.057	10243.12
611.414	10268.2
611.771	10218.94
612.127	10208.55
612.484	10274.31
612.841	10243.8
613.198	10233.18
613.554	10229.11
613.911	10322.67
614.267	10328.77
614.624	10278.37
614.98	10237.7
615.337	10300.07
615.693	10242.44
616.05	10273.18
616.406	10284.7
616.762	10251.71
617.118	10265.94
617.475	10244.93
617.831	10357.02
618.187	10306.17
618.543	10344.36
618.899	10387.52
619.255	10315.43
619.611	10384.36
619.967	10387.75
620.323	10420.74
620.678	10383.91
621.034	10341.65
621.39	10359.05
621.746	10322.21
622.101	10465.94
622.457	10353.17
622.812	10397.47
623.168	10394.98
623.523	10386.39
623.879	10391.37
624.234	10315.21
624.589	10465.04
624.945	10354.53
625.3	10406.96
625.655	10361.31
626.01	10385.26
626.365	10355.89
626.72	10358.37
627.075	10379.61
627.43	10338.49
627.785	10271.14
628.14	10399.73
628.495	10260.97
628.85	10416.9
629.205	10285.61
629.559	10417.13
629.914	10300.29
630.269	10291.71
630.623	10259.84
630.978	10283.12
631.332	10287.87
631.687	10386.39
632.041	10187.08
632.396	10276.34
632.75	10312.72
633.104	10209.9
633.459	10165.38
633.813	10166.06
634.167	10203.57
634.521	10193.4
634.875	10179.39
635.229	10154.08
635.583	10053.52
635.937	10079.06
636.291	10098.49
636.645	10158.6
636.999	10098.49
637.352	10079.06
637.706	10018.27
638.06	10012.62
638.413	10068.44
638.767	9978.04
639.121	9974.65
639.474	9890.36
639.828	9967.87
640.181	9908.67
640.534	9962.68
640.888	9959.29
641.241	9868.44
641.594	9909.57
641.947	9937.37
642.301	9917.48
642.654	9923.13
643.007	9904.15
643.36	9893.3
643.713	9837.48
644.066	9904.82
644.419	9851.72
644.771	9776.01
645.124	9709.12
645.477	9668.67
645.83	9679.75
646.182	9594.55
646.535	9606.53
646.888	9552.74
647.24	9507.09
647.593	9502.35
647.945	9521.11
648.298	9438.85
648.65	9463.25
649.002	9471.84
649.355	9503.7
649.707	9468.45
650.059	9519.98
650.411	9662.57
650.763	9685.4
651.115	9752.29
651.467	9743.25
651.819	9761.33
652.171	9734.89
652.523	9700.08
652.875	9710.03
653.227	9669.8
653.578	9752.51
653.93	9749.57
654.282	9675.45
654.633	9705.06
654.985	9718.84
655.337	9773.98
655.688	9702.8
656.039	9756.13
656.391	9637.49
656.742	9689.24
657.094	9726.52
657.445	9784.38
657.796	9693.08
658.147	9704.38
658.498	9733.98
658.849	9753.42
659.2	9701.67
659.551	9667.99
659.902	9770.36
660.253	9750.03
660.604	9808.33
660.955	9704.6
661.306	9761.55
661.656	9771.27
662.007	9742.34
662.358	9735.79
662.708	9784.6
663.059	9740.31
663.409	9707.32
663.76	9764.04
664.11	9728.56
664.461	9730.82
664.811	9803.81
665.161	9813.53
665.511	9716.58
665.862	9809.46
666.212	9858.05
666.562	9825.5
666.912	9812.17
667.262	9815.79
667.612	9834.09
667.962	9744.83
668.312	9778.05
668.662	9894.66
669.011	9783.92
669.361	9765.17
669.711	9751.83
670.06	9799.52
670.41	9712.96
670.76	9760.87
671.109	9764.72
671.459	9731.04
671.808	9725.39
672.157	9788.67
672.507	9658.05
672.856	9635.45
673.205	9675.9
673.554	9752.74
673.904	9652.4
674.253	9758.39
674.602	9672.97
674.951	9548.9
675.3	9509.81
675.649	9642.68
675.998	9615.79
676.346	9589.35
676.695	9642.01
677.044	9589.58
677.393	9606.98
677.741	9639.75
678.09	9582.8
678.438	9569.92
678.787	9542.35
679.135	9540.99
679.484	9462.58
679.832	9514.78
680.181	9404.27
680.529	9422.58
680.877	9419.64
681.225	9468.45
681.573	9534.89
681.922	9404.72
682.27	9363.14
682.618	9425.29
682.966	9405.85
683.314	9395.91
683.661	9308.68
684.009	9247.67
684.357	9323.82
684.705	9240.89
685.053	9224.62
685.4	9227.78
685.748	9243.15
686.095	9186.65
686.443	9113.21
686.79	9139.87
687.138	9198.63
687.485	9139.19
687.832	9106.43
688.18	9114.56
688.527	9039.08
688.874	9054.23
689.221	8965.87
689.568	8957.96
689.915	8870.28
690.262	8953.66
690.609	8917.05
690.956	8810.39
691.303	8898.75
691.65	8817.4
691.997	8813.55
692.344	8724.74
692.69	8782.59
693.037	8703.73
693.383	8669.6
693.73	8647
694.077	8597.51
694.423	8560
694.769	8540.11
695.116	8541.92
695.462	8477.07
695.808	8465.31
696.155	8535.14
696.501	8420.8
696.847	8394.36
697.193	8308.26
697.539	8372.21
697.885	8287.24
698.231	8193
698.577	8276.17
698.923	8212.89
699.269	8152.78
699.614	8126.34
699.96	8167.92
700.306	8157.53
700.651	8068.94
700.997	8081.6
701.342	8031.43
701.688	8058.55
702.033	7958.43
702.379	7978.77
702.724	7903.07
703.069	7919.57
703.415	7871.66
703.76	7830.3
704.105	7804.77
704.45	7851.54
704.795	7785.11
705.14	7708.5
705.485	7644.54
705.83	7647.26
706.175	7686.35
706.52	7637.99
706.865	7536.52
707.209	7541.72
707.554	7511.89
707.899	7579.24
708.243	7465.11
708.588	7487.26
708.932	7402.74
709.277	7402.29
709.621	7453.14
709.966	7383.99
710.31	7395.51
710.654	7349.41
710.998	7358
711.342	7283.42
711.687	7340.37
712.031	7305.34
712.375	7204.33
712.719	7246.82
713.063	7237.32
713.407	7239.58
713.75	7198.91
714.094	7213.6
714.438	7179.02
714.782	7180.83
715.125	7124.33
715.469	7209.08
715.812	7092.02
716.156	7096.54
716.499	7123.2
716.843	7142.86
717.186	7066.25
717.53	7108.74
717.873	7073.71
718.216	7089.31
718.559	6985.35
718.902	7033.04
719.246	6964.34
719.589	6976.77
719.932	6965.24
720.275	7004.11
720.617	6966.37
720.96	6924.56
721.303	6958.46
721.646	6944.68
721.989	6833.27
722.331	6939.48
722.674	6853.83
723.016	6922.98
723.359	6899.48
723.701	6918.91
724.044	6836.43
724.386	6841.18
724.729	6864
725.071	6872.14
725.413	6854.96
725.755	6859.03
726.097	6828.75
726.439	6816.54
726.782	6775.19
727.124	6841.85
727.465	6797.11
727.807	6814.28
728.149	6760.5
728.491	6758.24
728.833	6808.86
729.175	6748.75
729.516	6795.75
729.858	6741.97
730.199	6753.27
730.541	6777.9
730.882	6712.82
731.224	6767.73
731.565	6777.45
731.906	6788.07
732.248	6745.36
732.589	6712.59
732.93	6726.38
733.271	6769.54
733.612	6733.38
733.953	6735.19
734.294	6744.91
734.635	6716.66
734.976	6727.05
735.317	6684.34
735.658	6771.35
735.999	6807.96
736.339	6719.37
736.68	6771.8
737.021	6782.19
737.361	6764.12
737.702	6823.32
738.042	6833.04
738.383	6768.86
738.723	6844.11
739.063	6790.33
739.404	6798.69
739.744	6837.11
740.084	6792.82
740.424	6802.76
740.764	6898.58
741.104	6887.05
741.444	6886.37
741.784	6925.24
742.124	6947.61
742.464	6922.76
742.804	6984.68
743.143	6941.74
743.483	6956.2
743.823	7000.27
744.162	6966.6
744.502	7103.54
744.841	7027.16
745.181	7111.23
745.52	7083.43
745.86	7137.21
746.199	7180.38
746.538	7194.16
746.877	7280.71
747.216	7354.61
747.556	7350.54
747.895	7424.44
748.234	7448.84
748.573	7460.82
748.911	7555.96
749.25	7617.43
749.589	7645
749.928	7712.11
750.267	7786.24
750.605	7867.82
750.944	7895.39
751.283	7961.6
751.621	8118.2
751.96	8145.77
752.298	8214.25
752.636	8309.84
752.975	8375.6
753.313	8469.16
753.651	8630.73
753.989	8701.24
754.327	8774.68
754.666	8881.35
755.004	8953.44
755.342	9076.82
755.679	9276.37
756.017	9269.36
756.355	9490.37
756.693	9591.61
757.031	9710.25
757.368	9803.36
757.706	9989.57
758.044	10114.08
758.381	10284.7
758.719	10367.64
759.056	10566.05
759.394	10722.88
759.731	10777.12
760.068	11061.86
760.405	11083.78
760.743	11244.45
761.08	11472.24
761.417	11556.53
