Data from hue_200_FLMS001491_00037.txt Node
Date: Tue Feb 07 16:43:12 GMT 2017
User: dcchb
Spectrometer: FLMS00149
Trigger mode: 0
Integration Time (sec): 2.000000E-2
Scans to average: 10
Electric dark correction enabled: true
Nonlinearity correction enabled: false
Boxcar width: 0
XAxis mode: Wavelengths
Number of Pixels in Spectrum: 2048
>>>>>Begin Spectral Data<<<<<
341.393	-1.57
341.776	-1.57
342.16	-1.57
342.543	-70.27
342.927	-57.61
343.31	-72.53
343.693	-62.13
344.077	-63.71
344.46	-60.78
344.843	-46.76
345.226	-45.63
345.61	-22.58
345.993	-17.61
346.376	-14
346.759	0.92
347.142	16.74
347.525	40.47
347.908	55.15
348.291	92.67
348.674	81.37
349.057	118.43
349.44	139.67
349.823	136.96
350.206	156.85
350.588	207.01
350.971	196.39
351.354	242.49
351.737	249.73
352.119	242.49
352.502	281.14
352.884	273.23
353.267	269.16
353.65	293.11
354.032	304.64
354.414	301.02
354.797	316.62
355.179	329.72
355.562	325.66
355.944	338.08
356.326	326.11
356.709	335.15
357.091	343.06
357.473	345.54
357.855	353.23
358.238	353.23
358.62	333.34
359.002	345.09
359.384	326.79
359.766	360.23
360.148	332.21
360.53	347.35
360.912	333.11
361.294	331.53
361.676	324.75
362.057	320.46
362.439	359.33
362.821	324.07
363.203	330.63
363.584	354.36
363.966	319.1
364.348	331.76
364.729	308.93
365.111	317.07
365.493	331.98
365.874	348.71
366.256	322.94
366.637	318.2
367.019	334.24
367.4	319.78
367.781	315.49
368.163	308.71
368.544	299.67
368.925	319.55
369.306	316.62
369.688	297.86
370.069	314.81
370.45	301.7
370.831	324.07
371.212	319.55
371.593	310.51
371.974	305.32
372.355	324.3
372.736	339.44
373.117	298.76
373.498	316.84
373.879	312.77
374.26	314.36
374.641	336.95
375.021	306.45
375.402	317.52
375.783	313.45
376.163	319.78
376.544	345.32
376.925	338.54
377.305	311.64
377.686	330.85
378.066	323.85
378.447	343.06
378.827	347.8
379.208	311.19
379.588	337.18
379.968	352.1
380.349	346.67
380.729	320.01
381.109	346.45
381.489	366.56
381.87	340.8
382.25	358.2
382.63	343.51
383.01	346.22
383.39	335.15
383.77	345.54
384.15	351.87
384.53	356.61
384.91	358.42
385.29	370.63
385.67	369.5
386.049	350.97
386.429	371.08
386.809	348.03
387.189	361.59
387.568	360.91
387.948	364.07
388.328	375.15
388.707	363.39
389.087	362.72
389.466	376.5
389.846	377.18
390.225	378.99
390.605	370.85
390.984	374.92
391.363	378.54
391.743	400.23
392.122	395.48
392.501	385.99
392.881	400.46
393.26	395.48
393.639	407.69
394.018	381.92
394.397	396.39
394.776	380.8
395.155	419.44
395.534	410.4
395.913	408.59
396.292	426.67
396.671	427.35
397.05	414.47
397.429	397.07
397.808	414.69
398.186	408.59
398.565	413.34
398.944	393.68
399.323	427.35
399.701	421.92
400.08	441.81
400.458	434.35
400.837	448.82
401.215	427.57
401.594	434.58
401.972	440.91
402.351	469.83
402.729	464.41
403.107	470.51
403.486	457.18
403.864	483.39
404.242	461.47
404.62	489.72
404.999	457.4
405.377	496.5
405.755	483.17
406.133	495.59
406.511	501.92
406.889	492.43
407.267	498.53
407.645	506.67
408.023	517.74
408.401	523.84
408.779	542.37
409.156	556.38
409.534	555.48
409.912	568.59
410.29	575.82
410.667	584.86
411.045	571.07
411.422	613.78
411.8	593.67
412.178	614.46
412.555	628.47
412.933	647.91
413.31	634.57
413.687	668.47
414.065	631.86
414.442	666.66
414.819	679.54
415.197	697.85
415.574	714.57
415.951	703.27
416.328	731.97
416.705	738.75
417.082	750.05
417.46	751.18
417.837	771.75
418.214	767.68
418.591	790.28
418.967	792.08
419.344	805.87
419.721	836.38
420.098	815.36
420.475	840.9
420.852	846.09
421.228	870.27
421.605	883.15
421.982	912.08
422.358	931.52
422.735	922.25
423.111	948.24
423.488	991.4
423.864	983.72
424.241	999.76
424.617	1006.99
424.994	996.6
425.37	1043.6
425.746	1050.38
426.123	1079.99
426.499	1079.53
426.875	1091.51
427.251	1125.18
427.627	1121.34
428.003	1162.7
428.379	1206.31
428.756	1185.52
429.132	1201.79
429.507	1227.55
429.883	1252.41
430.259	1278.4
430.635	1255.12
431.011	1314.78
431.387	1300.09
431.763	1336.48
432.138	1332.18
432.514	1361.11
432.89	1401.11
433.265	1436.81
433.641	1439.3
434.016	1446.98
434.392	1497.38
434.767	1531.73
435.143	1540.99
435.518	1567.66
435.894	1600.88
436.269	1629.35
436.644	1675.9
437.02	1661.21
437.395	1684.49
437.77	1715.9
438.145	1771.49
438.52	1830.93
438.895	1854.65
439.271	1827.08
439.646	1921.09
440.021	1917.48
440.395	1930.81
440.77	1946.4
441.145	1967.19
441.52	2022.11
441.895	2044.48
442.27	2054.65
442.645	2079.28
443.019	2100.3
443.394	2109.56
443.769	2132.84
444.143	2145.72
444.518	2210.13
444.892	2187.98
445.267	2213.74
445.641	2237.92
446.016	2293.74
446.39	2303
446.764	2292.61
447.139	2307.07
447.513	2354.98
447.887	2341.2
448.262	2345.94
448.636	2401.31
449.01	2440.85
449.384	2446.73
449.758	2456.67
450.132	2520.85
450.506	2503
450.88	2484.02
451.254	2542.32
451.628	2587.52
452.002	2608.31
452.376	2618.25
452.75	2637.68
453.123	2674.52
453.497	2709.55
453.871	2757.46
454.244	2771.24
454.618	2802.2
454.992	2843.1
455.365	2844.69
455.739	2874.29
456.112	2950.45
456.486	2963.33
456.859	3015.08
457.232	3015.98
457.606	3040.61
457.979	3120.84
458.352	3207.39
458.725	3186.82
459.099	3210.33
459.472	3264.56
459.845	3270.21
460.218	3358.8
460.591	3333.49
460.964	3387.27
461.337	3475.63
461.71	3501.17
462.083	3565.34
462.456	3598.34
462.829	3570.32
463.201	3638.34
463.574	3693.48
463.947	3720.59
464.32	3786.13
464.692	3848.05
465.065	3904.54
465.438	3919.69
465.81	3906.58
466.183	4004.2
466.555	4067.7
466.928	4082.17
467.3	4071.55
467.672	4176.63
468.045	4288.26
468.417	4314.02
468.789	4345.66
469.161	4388.83
469.534	4435.6
469.906	4534.36
470.278	4571.42
470.65	4628.59
471.022	4730.51
471.394	4793.11
471.766	4840.56
472.138	4824.75
472.51	4956.04
472.882	5010.73
473.253	5148.13
473.625	5175.92
473.997	5264.96
474.369	5250.5
474.74	5339.53
475.112	5449.36
475.484	5533.65
475.855	5612.75
476.227	5630.37
476.598	5796.02
476.97	5873.98
477.341	5971.38
477.713	6066.52
478.084	6098.38
478.455	6197.59
478.827	6270.36
479.198	6410.02
479.569	6478.49
479.94	6592.61
480.311	6627.18
480.682	6791.7
481.053	6939.04
481.424	7072.37
481.795	7094.97
482.166	7213.84
482.537	7260.39
482.908	7394.4
483.279	7502.42
483.65	7626.93
484.021	7688.85
484.391	7841.16
484.762	7919.81
485.133	7996.87
485.503	8054.04
485.874	8246.12
486.244	8296.29
486.615	8436.85
486.985	8526.12
487.356	8734.7
487.726	8730.18
488.097	8927.46
488.467	8937.63
488.837	9050.4
489.207	9194.35
489.578	9355.02
489.948	9450.39
490.318	9530.39
490.688	9507.79
491.058	9674.34
491.428	9766.99
491.798	9849.02
492.168	10072.97
492.538	10073.42
492.908	10103.93
493.278	10291.72
493.648	10242.23
494.017	10319.97
494.387	10428.21
494.757	10545.5
495.126	10566.06
495.496	10626.85
495.866	10726.29
496.235	10839.28
496.605	10929.67
496.974	10856.23
497.344	10985.04
497.713	11022.55
498.082	11149.33
498.452	11162.66
498.821	11200.4
499.19	11167.63
499.559	11294.18
499.928	11390.68
500.298	11397.91
500.667	11504.12
501.036	11437.68
501.405	11602.19
501.774	11572.59
502.143	11709.31
502.512	11669.54
502.88	11757.22
503.249	11687.39
503.618	11753.38
503.987	11842.19
504.356	11859.14
504.724	11954.73
505.093	11894.39
505.462	11956.76
505.83	12062.07
506.199	12033.6
506.567	12136.87
506.936	12213.93
507.304	12285.79
507.672	12248.05
508.041	12248.05
508.409	12356.3
508.777	12383.42
509.145	12467.71
509.514	12366.47
509.882	12430.87
510.25	12489.4
510.618	12479.46
510.986	12539.8
511.354	12611.66
511.722	12524.43
512.09	12742.96
512.458	12686.46
512.826	12751.32
513.193	12758.55
513.561	12771.43
513.929	12783.41
514.297	12907.47
514.664	12867.92
515.032	12860.01
515.4	12997.41
515.767	12878.55
516.135	12996.28
516.502	12800.81
516.869	12984.98
517.237	13042.61
517.604	12975.49
517.972	13013.68
518.339	13051.65
518.706	13088.71
519.073	13074.25
519.44	13084.87
519.808	13196.96
520.175	13062.72
520.542	13235.37
520.909	13283.96
521.276	13123.74
521.643	13274.47
522.009	13272.66
522.376	13307.23
522.743	13339.32
523.11	13388.59
523.477	13415.93
523.843	13357.85
524.21	13444.63
524.577	13549.71
524.943	13471.75
525.31	13528.7
525.676	13594.68
526.043	13587.91
526.409	13622.03
526.776	13593.33
527.142	13615.25
527.508	13571.63
527.874	13676.49
528.241	13648.92
528.607	13578.64
528.973	13687.79
529.339	13615.25
529.705	13685.08
530.071	13703.38
530.437	13622.03
530.803	13670.16
531.169	13630.84
531.535	13652.08
531.901	13595.81
532.267	13577.28
532.632	13516.72
532.998	13610.73
533.364	13488.7
533.73	13511.07
534.095	13618.87
534.461	13488.47
534.826	13494.12
535.192	13512.88
535.557	13498.42
535.923	13408.7
536.288	13292.32
536.653	13423.39
537.019	13260
537.384	13314.92
537.749	13323.96
538.114	13306.78
538.479	13186.33
538.845	13193.57
539.21	13142.27
539.575	13164.87
539.94	13011.2
540.305	13062.27
540.67	13013.46
541.034	12991.54
541.399	12946.79
541.764	12858.43
542.129	12859.56
542.494	12846.23
542.858	12744.54
543.223	12743.18
543.587	12724.43
543.952	12676.52
544.316	12643.98
544.681	12542.74
545.045	12494.37
545.41	12572.11
545.774	12522.4
546.138	12476.52
546.503	12462.96
546.867	12330.99
547.231	12398.56
547.595	12296.19
547.959	12300.71
548.324	12160.37
548.688	12141.39
549.052	12116.31
549.416	12007.83
549.779	12079.02
550.143	12005.35
550.507	12041.28
550.871	11904.56
551.235	11870.89
551.599	11872.7
551.962	11923.77
552.326	11842.41
552.689	11764.9
553.053	11699.82
553.417	11690.78
553.78	11859.36
554.143	11709.99
554.507	11664.34
554.87	11574.4
555.234	11785.01
555.597	11631.57
555.96	11596.32
556.323	11589.54
556.686	11544.12
557.05	11523.1
557.413	11548.19
557.776	11464.8
558.139	11611.91
558.502	11493.27
558.865	11388.42
559.228	11549.99
559.59	11396.55
559.953	11436.1
560.316	11578.24
560.679	11441.52
561.041	11425.7
561.404	11457.34
561.767	11491.46
562.129	11360.17
562.492	11408.08
562.854	11390.45
563.217	11372.6
563.579	11405.82
563.941	11402.2
564.304	11405.36
564.666	11500.73
565.028	11364.01
565.39	11361.98
565.753	11440.17
566.115	11432.03
566.477	11392.71
566.839	11468.87
567.201	11466.61
567.563	11471.58
567.925	11436.1
568.287	11438.36
568.648	11491.24
569.01	11449.88
569.372	11563.1
569.734	11488.98
570.095	11524.91
570.457	11513.16
570.819	11544.57
571.18	11564.46
571.542	11542.99
571.903	11577.34
572.265	11598.81
572.626	11517.23
572.987	11582.53
573.349	11646.04
573.71	11608.97
574.071	11597.45
574.432	11593.61
574.794	11726.26
575.155	11699.14
575.516	11627.73
575.877	11677.45
576.238	11654.85
576.599	11715.86
576.96	11696.88
577.32	11654.17
577.681	11674.96
578.042	11721.06
578.403	11694.62
578.763	11725.13
579.124	11736.2
579.485	11768.52
579.845	11809.42
580.206	11649.65
580.566	11723.77
580.927	11680.16
581.287	11736.2
581.648	11716.54
582.008	11752.25
582.368	11650.1
582.728	11766.94
583.089	11679.48
583.449	11670.67
583.809	11725.13
584.169	11712.02
584.529	11665.92
584.889	11797.9
585.249	11693.27
585.609	11619.6
585.969	11640.84
586.329	11659.37
586.688	11709.31
587.048	11668.86
587.408	11672.48
587.768	11632.25
588.127	11635.87
588.487	11615.75
588.846	11669.54
589.206	11596.09
589.565	11568.75
589.925	11633.61
590.284	11612.36
590.643	11583.89
591.003	11580.05
591.362	11652.14
591.721	11595.19
592.08	11573.72
592.44	11605.13
592.799	11571.46
593.158	11529.65
593.517	11532.82
593.876	11598.81
594.235	11511.8
594.593	11466.83
594.952	11587.28
595.311	11520.39
595.67	11507.51
596.029	11614.4
596.387	11600.61
596.746	11528.3
597.104	11443.56
597.463	11468.87
597.822	11508.86
598.18	11500.05
598.538	11454.63
598.897	11533.72
599.255	11430
599.613	11563.78
599.972	11457.11
600.33	11443.56
600.688	11539.15
601.046	11526.94
601.404	11531.69
601.762	11586.15
602.12	11545.93
602.478	11580.5
602.836	11591.57
603.194	11457.11
603.552	11538.47
603.91	11400.17
604.268	11519.71
604.625	11451.69
604.983	11505.02
605.341	11488.07
605.698	11479.26
606.056	11487.4
606.413	11456.44
606.771	11482.88
607.128	11511.35
607.485	11474.97
607.843	11420.73
608.2	11524
608.557	11535.98
608.914	11514.74
609.272	11504.12
609.629	11582.76
609.986	11600.39
610.343	11517.68
610.7	11618.01
611.057	11630.44
611.414	11592.7
611.771	11628.63
612.127	11593.38
612.484	11608.07
612.841	11633.83
613.198	11606.71
613.554	11603.55
613.911	11686.71
614.267	11694.85
614.624	11659.14
614.98	11604.91
615.337	11754.51
615.693	11718.58
616.05	11707.5
616.406	11721.51
616.762	11654.62
617.118	11743.66
617.475	11745.24
617.831	11742.98
618.187	11771.68
618.543	11819.59
618.899	11852.36
619.255	11733.72
619.611	11732.14
619.967	11811.91
620.323	11833.6
620.678	11775.07
621.034	11760.16
621.39	11745.02
621.746	11719.71
622.101	11849.42
622.457	11716.09
622.812	11816.43
623.168	11812.81
623.523	11784.11
623.879	11814.62
624.234	11726.03
624.589	11799.03
624.945	11775.3
625.3	11789.53
625.655	11765.13
626.01	11710.21
626.365	11804.9
626.72	11751.8
627.075	11748.18
627.43	11701.85
627.785	11670.22
628.14	11743.21
628.495	11687.62
628.85	11690.55
629.205	11682.19
629.559	11712.25
629.914	11684.68
630.269	11734.62
630.623	11615.3
630.978	11570.56
631.332	11672.48
631.687	11602.19
632.041	11581.86
632.396	11613.04
632.75	11506.83
633.104	11593.38
633.459	11538.47
633.813	11552.93
634.167	11419.15
634.521	11590.67
634.875	11537.56
635.229	11555.64
635.583	11428.87
635.937	11419.6
636.291	11421.63
636.645	11451.24
636.999	11402.88
637.352	11383.67
637.706	11355.42
638.06	11402.43
638.413	11343.9
638.767	11341.64
639.121	11403.1
639.474	11269.1
639.828	11263.67
640.181	11294.18
640.534	11312.03
640.888	11198.36
641.241	11254.18
641.594	11251.92
641.947	11278.81
642.301	11188.42
642.654	11266.84
643.007	11255.09
643.36	11215.31
643.713	11187.74
644.066	11225.93
644.419	11187.97
644.771	11164.69
645.124	11023.68
645.477	11019.61
645.83	10892.16
646.182	10855.55
646.535	10750.47
646.888	10790.69
647.24	10792.05
647.593	10796.57
647.945	10825.27
648.298	10803.57
648.65	10757.25
649.002	10785.72
649.355	10754.76
649.707	10799.5
650.059	10795.66
650.411	11036.33
650.763	10990.01
651.115	11165.37
651.467	10940.52
651.819	11063.23
652.171	11006.73
652.523	11022.78
652.875	11004.47
653.227	10930.35
653.578	11039.05
653.93	10948.65
654.282	10916.34
654.633	10903.23
654.985	11015.77
655.337	11006.05
655.688	10997.24
656.039	11056.9
656.391	10969.44
656.742	10929.9
657.094	11059.84
657.445	11039.27
657.796	11049.89
658.147	10972.16
658.498	10980.06
658.849	11046.73
659.2	11005.15
659.551	11014.64
659.902	10997.47
660.253	11023.68
660.604	11043.57
660.955	10997.01
661.306	11018.26
661.656	11027.07
662.007	11021.42
662.358	11069.1
662.708	11064.58
663.059	11072.27
663.409	10970.35
663.76	11034.98
664.11	11086.05
664.461	11071.14
664.811	11092.15
665.161	10975.09
665.511	11008.09
665.862	11083.79
666.212	11088.31
666.562	11105.03
666.912	11079.27
667.262	11032.04
667.612	11079.72
667.962	11095.09
668.312	11061.64
668.662	11128.99
669.011	11086.95
669.361	11023.91
669.711	11016
670.06	11072.27
670.41	11011.48
670.76	10957.47
671.109	10973.74
671.459	10961.08
671.808	10927.18
672.157	10978.03
672.507	10961.53
672.856	10991.36
673.205	10915.43
673.554	10985.49
673.904	10904.13
674.253	11000.4
674.602	10976.67
674.951	10825.04
675.3	10799.96
675.649	10830.69
675.998	10966.05
676.346	10939.61
676.695	10947.75
677.044	10779.84
677.393	10808.09
677.741	10792.5
678.09	10829.11
678.438	10807.41
678.787	10750.69
679.135	10839.5
679.484	10761.09
679.832	10839.5
680.181	10690.58
680.529	10768.32
680.877	10683.12
681.225	10747.53
681.573	10719.05
681.922	10602.45
682.27	10595.89
682.618	10583.46
682.966	10601.32
683.314	10630.92
683.661	10599.28
684.009	10413.53
684.357	10482.22
684.705	10437.93
685.053	10488.1
685.4	10397.03
685.748	10399.97
686.095	10344.15
686.443	10332.85
686.79	10264.38
687.138	10323.36
687.485	10378.5
687.832	10298.5
688.18	10275.22
688.527	10144.15
688.874	10209.69
689.221	10186.64
689.568	10115.45
689.915	10070.71
690.262	10018.06
690.609	10044.95
690.956	9987.55
691.303	10032.97
691.65	9891.73
691.997	9863.94
692.344	9938.51
692.69	9881.56
693.037	9845.18
693.383	9762.7
693.73	9809.47
694.077	9721.11
694.423	9710.27
694.769	9643.83
695.116	9573.77
695.462	9587.56
695.808	9602.93
696.155	9517.96
696.501	9495.81
696.847	9482.02
697.193	9483.61
697.539	9482.7
697.885	9349.6
698.231	9309.83
698.577	9270.96
698.923	9245.19
699.269	9240.22
699.614	9185.31
699.96	9181.02
700.306	9134.69
700.651	9103.5
700.997	9027.35
701.342	8983.28
701.688	8932.66
702.033	8974.47
702.379	8964.3
702.724	8974.92
703.069	8921.36
703.415	8887.46
703.76	8819.67
704.105	8786.45
704.45	8832.32
704.795	8749.84
705.14	8738.09
705.485	8684.76
705.83	8657.41
706.175	8657.87
706.52	8638.21
706.865	8614.25
707.209	8610.41
707.554	8562.73
707.899	8579.68
708.243	8478.66
708.588	8497.19
708.932	8372.45
709.277	8396.86
709.621	8366.12
709.966	8300.13
710.31	8385.78
710.654	8279.12
710.998	8305.56
711.342	8306.69
711.687	8287.25
712.031	8195.28
712.375	8255.62
712.719	8254.49
713.063	8163.42
713.407	8190.53
713.75	8158.9
714.094	8095.39
714.438	8072.12
714.782	8138.78
715.125	8080.48
715.469	8082.06
715.812	8083.42
716.156	8061.05
716.499	8029.18
716.843	7973.36
717.186	7945.79
717.53	7942.18
717.873	8002.97
718.216	7948.28
718.559	7926.81
718.902	7868.51
719.246	7928.17
719.589	7891.56
719.932	7878.45
720.275	7879.58
720.617	7814.95
720.96	7867.15
721.303	7740.38
721.646	7829.41
721.989	7790.32
722.331	7830.77
722.674	7798.91
723.016	7797.1
723.359	7765.23
723.701	7789.41
724.044	7723.43
724.386	7686.14
724.729	7733.37
725.071	7657.67
725.413	7709.64
725.755	7762.97
726.097	7677.33
726.439	7671.22
726.782	7673.48
727.124	7732.92
727.465	7693.6
727.807	7670.32
728.149	7610.21
728.491	7619.47
728.833	7637.1
729.175	7701.73
729.516	7632.58
729.858	7619.47
730.199	7624.22
730.541	7673.26
730.882	7645.69
731.224	7705.8
731.565	7652.92
731.906	7630.77
732.248	7646.14
732.589	7605.24
732.93	7579.7
733.271	7615.63
733.612	7631.9
733.953	7601.4
734.294	7557.56
734.635	7580.61
734.976	7595.29
735.317	7568.4
735.658	7604.79
735.999	7584.22
736.339	7557.33
736.68	7657.67
737.021	7699.47
737.361	7688.17
737.702	7734.95
738.042	7596.88
738.383	7633.03
738.723	7653.15
739.063	7626.25
739.404	7680.04
739.744	7653.37
740.084	7628.74
740.424	7683.2
740.764	7646.82
741.104	7689.98
741.444	7704.44
741.784	7730.43
742.124	7763.43
742.464	7748.51
742.804	7708.96
743.143	7807.72
743.483	7847.49
743.823	7800.94
744.162	7844.1
744.502	7902.86
744.841	7955.06
745.181	7949.86
745.52	7986.02
745.86	8019.01
746.199	8032.12
746.538	7994.15
746.877	8139.24
747.216	8152.57
747.556	8178.78
747.895	8205.67
748.234	8286.8
748.573	8390.3
748.911	8408.15
749.25	8511.2
749.589	8417.42
749.928	8593.23
750.267	8628.04
750.605	8699.67
750.944	8813.12
751.283	8796.17
751.621	8980.57
751.96	8991.42
752.298	9126.33
752.636	9253.33
752.975	9301.69
753.313	9420.78
753.651	9566.09
753.989	9617.61
754.327	9714.33
754.666	9812.19
755.004	9960.43
755.342	10111.61
755.679	10166.75
756.017	10310.03
756.355	10518.83
756.693	10546.63
757.031	10820.75
757.368	10916.34
757.706	11100.29
758.044	11166.73
