Data from hue_350_FLMS001491_73.txt Node
Date: Mon Feb 06 15:38:29 GMT 2017
User: dcchb
Spectrometer: FLMS00149
Trigger mode: 0
Integration Time (sec): 2.000000E-2
Scans to average: 10
Electric dark correction enabled: true
Nonlinearity correction enabled: false
Boxcar width: 0
XAxis mode: Wavelengths
Number of Pixels in Spectrum: 2048
>>>>>Begin Spectral Data<<<<<
341.393	4.21
341.776	4.21
342.16	4.21
342.543	-71.04
342.927	-62
343.31	-76.01
343.693	-57.03
344.077	-66.07
344.46	-78.5
344.843	-41.89
345.226	-42.34
345.61	-45.51
345.993	-15.9
346.376	-24.72
346.759	11.44
347.142	22.29
347.525	51.44
347.908	83.53
348.291	68.39
348.674	116.75
349.057	94.15
349.44	124.21
349.823	135.73
350.206	173.92
350.588	192.9
350.971	199.91
351.354	188.38
351.737	224.09
352.119	235.84
352.502	253.47
352.884	280.81
353.267	282.62
353.65	260.02
354.032	295.5
354.414	316.97
354.797	305.9
355.179	314.94
355.562	313.35
355.944	309.29
356.326	324.65
356.709	322.62
357.091	331.43
357.473	328.72
357.855	334.6
358.238	319
358.62	313.35
359.002	343.86
359.384	328.49
359.766	324.88
360.148	347.93
360.53	332.79
360.912	346.12
361.294	332.79
361.676	334.14
362.057	331.88
362.439	325.56
362.821	302.28
363.203	320.13
363.584	326.69
363.966	332.11
364.348	325.56
364.729	319.23
365.111	324.65
365.493	344.76
365.874	315.39
366.256	291.21
366.637	330.08
367.019	299.57
367.4	305.67
367.781	312.22
368.163	299.79
368.544	312.22
368.925	295.73
369.306	312.22
369.688	307.48
370.069	296.86
370.45	307.93
370.831	317.2
371.212	302.05
371.593	327.59
371.974	299.79
372.355	310.42
372.736	309.51
373.117	324.2
373.498	321.04
373.879	325.56
374.26	320.13
374.641	322.17
375.021	295.73
375.402	317.2
375.783	301.83
376.163	324.65
376.544	329.17
376.925	306.12
377.305	323.75
377.686	311.55
378.066	319.68
378.447	321.04
378.827	328.27
379.208	320.13
379.588	339.57
379.968	335.95
380.349	316.52
380.729	321.04
381.109	337.53
381.489	306.8
381.87	325.1
382.25	347.25
382.63	323.07
383.01	328.72
383.39	321.71
383.77	360.36
384.15	328.95
384.53	346.12
384.91	340.02
385.29	338.21
385.67	340.25
386.049	331.66
386.429	335.73
386.809	332.11
387.189	334.37
387.568	341.15
387.948	331.21
388.328	366.46
388.707	347.93
389.087	325.78
389.466	363.52
389.846	353.58
390.225	350.64
390.605	361.71
390.984	344.31
391.363	330.3
391.743	361.71
392.122	341.38
392.501	359.91
392.881	342.51
393.26	354.71
393.639	363.97
394.018	359.68
394.397	360.81
394.776	368.49
395.155	363.3
395.534	367.82
395.913	365.56
396.292	366.01
396.671	368.27
397.05	354.26
397.429	382.73
397.808	366.23
398.186	382.05
398.565	375.95
398.944	376.4
399.323	379.79
399.701	388.15
400.08	374.14
400.458	376.63
400.837	382.5
401.215	398.77
401.594	355.84
401.972	401.26
402.351	381.37
402.729	390.19
403.107	404.88
403.486	374.14
403.864	400.13
404.242	391.09
404.62	406.23
404.999	389.06
405.377	370.53
405.755	423.86
406.133	410.07
406.511	414.14
406.889	419.34
407.267	401.49
407.645	423.86
408.023	408.94
408.401	427.47
408.779	413.46
409.156	441.71
409.534	428.6
409.912	441.49
410.29	406.46
410.667	459.79
411.045	435.16
411.422	443.29
411.8	458.66
412.178	440.13
412.555	447.59
412.933	448.72
413.31	453.01
413.687	429.51
414.065	459.11
414.442	457.98
414.819	453.01
415.197	459.56
415.574	495.72
415.951	464.76
416.328	483.97
416.705	456.63
417.082	484.42
417.46	449.39
417.837	475.16
418.214	479.45
418.591	486.23
418.967	483.07
419.344	513.8
419.721	492.33
420.098	502.73
420.475	523.74
420.852	497.76
421.228	527.36
421.605	518.55
421.982	516.96
422.358	518.32
422.735	520.13
423.111	555.83
423.488	543.18
423.864	536.17
424.241	539.11
424.617	550.86
424.994	544.31
425.37	531.65
425.746	540.24
426.123	566.23
426.499	532.33
426.875	565.55
427.251	587.24
427.627	603.74
428.003	592.22
428.379	568.71
428.756	576.17
429.132	559.45
429.507	563.29
429.883	593.12
430.259	611.65
430.635	629.5
431.011	619.79
431.387	622.27
431.763	610.97
432.138	629.28
432.514	637.64
432.89	629.05
433.265	623.63
433.641	647.36
434.016	640.58
434.392	649.16
434.767	664.08
435.143	680.12
435.518	686.68
435.894	688.26
436.269	680.58
436.644	687.35
437.02	669.28
437.395	710.18
437.77	710.41
438.145	723.29
438.52	710.63
438.895	705.21
439.271	700.91
439.646	743.62
440.021	709.5
440.395	722.61
440.77	727.58
441.145	751.08
441.52	754.02
441.895	754.02
442.27	749.5
442.645	763.06
443.019	740.69
443.394	754.92
443.769	779.1
444.143	771.19
444.518	765.54
444.892	773.91
445.267	791.31
445.641	763.06
446.016	782.72
446.39	780.69
446.764	799.89
447.139	782.04
447.513	797.86
447.887	813.91
448.262	814.13
448.636	823.4
449.01	801.48
449.384	812.55
449.758	813.23
450.132	813.68
450.506	833.57
450.88	802.61
451.254	830.4
451.628	848.71
452.002	840.8
452.376	871.08
452.75	859.78
453.123	853
453.497	877.86
453.871	864.3
454.244	895.48
454.618	899.55
454.992	919.44
455.365	904.07
455.739	898.87
456.112	905.2
456.486	927.35
456.859	937.07
457.232	944.3
457.606	937.07
457.979	945.65
458.352	975.71
458.725	971.87
459.099	961.92
459.472	974.35
459.845	985.43
460.218	1005.31
460.591	1027.23
460.964	1035.59
461.337	1034.92
461.71	1069.72
462.083	1053.9
462.456	1077.4
462.829	1073.79
463.201	1078.3
463.574	1081.92
463.947	1082.15
464.32	1100.68
464.692	1144.07
465.065	1134.57
465.438	1128.7
465.81	1160.79
466.183	1180.45
466.555	1179.32
466.928	1198.08
467.3	1194.01
467.672	1194.01
468.045	1228.81
468.417	1230.17
468.789	1224.29
469.161	1250.5
469.534	1294.12
469.906	1290.73
470.278	1304.51
470.65	1322.82
471.022	1338.64
471.394	1348.58
471.766	1390.16
472.138	1375.92
472.51	1437.84
472.882	1447.33
473.253	1443.49
473.625	1484.62
473.997	1524.85
474.369	1520.55
474.74	1514
475.112	1555.35
475.484	1578.63
475.855	1610.49
476.227	1661.79
476.598	1650.95
476.97	1651.85
477.341	1712.86
477.713	1691.85
478.084	1739.08
478.455	1764.61
478.827	1801.68
479.198	1833.99
479.569	1840.54
479.94	1873.76
480.311	1900.2
480.682	1945.4
481.053	1998.28
481.424	2022.23
481.795	2020.88
482.166	2070.6
482.537	2097.26
482.908	2138.62
483.279	2138.84
483.65	2206.18
484.021	2218.39
484.391	2296.58
484.762	2276.47
485.133	2334.09
485.503	2349.68
485.874	2397.82
486.244	2450.47
486.615	2462.45
486.985	2501.54
487.356	2531.83
487.726	2555.33
488.097	2637.36
488.467	2639.17
488.837	2684.59
489.207	2714.19
489.578	2746.06
489.948	2779.05
490.318	2807.53
490.688	2841.42
491.058	2876.45
491.428	2866.28
491.798	2955.77
492.168	2968.65
492.538	3021.76
492.908	3025.6
493.278	3110.79
493.648	3068.99
494.017	3159.38
494.387	3154.41
494.757	3186.5
495.126	3224.46
495.496	3251.81
495.866	3276.44
496.235	3257.91
496.605	3298.59
496.974	3331.35
497.344	3354.86
497.713	3387.62
498.082	3373.39
498.452	3459.49
498.821	3402.76
499.19	3478.02
499.559	3479.15
499.928	3538.35
500.298	3551.46
500.667	3578.13
501.036	3580.16
501.405	3643.44
501.774	3637.56
502.143	3649.99
502.512	3700.38
502.88	3688.41
503.249	3700.16
503.618	3741.96
503.987	3752.58
504.356	3748.52
504.724	3764.11
505.093	3765.01
505.462	3807.95
505.83	3828.06
506.199	3849.31
506.567	3893.37
506.936	3898.8
507.304	3881.62
507.672	3935.4
508.041	3948.29
508.409	3962.52
508.777	3976.76
509.145	4033.03
509.514	3996.87
509.882	3993.71
510.25	4035.74
510.618	4067.6
510.986	4088.62
511.354	4097.43
511.722	4139.47
512.09	4170.2
512.458	4168.85
512.826	4174.72
513.193	4180.82
513.561	4176.3
513.929	4196.64
514.297	4220.14
514.664	4244.78
515.032	4277.09
515.4	4296.53
515.767	4358.22
516.135	4296.53
516.502	4300.82
516.869	4323.19
517.237	4386.47
517.604	4356.41
517.972	4435.73
518.339	4377.2
518.706	4397.31
519.073	4404.77
519.44	4408.61
519.808	4501.04
520.175	4479.12
520.542	4490.64
520.909	4467.14
521.276	4559.12
521.643	4523.86
522.009	4556.86
522.376	4602.28
522.743	4571.32
523.11	4657.42
523.477	4662.84
523.843	4654.26
524.21	4732.9
524.577	4760.24
524.943	4705.1
525.31	4805.66
525.676	4811.54
526.043	4798.89
526.409	4861.93
526.776	4918.43
527.142	4884.08
527.508	4891.31
527.874	4926.11
528.241	4952.78
528.607	4998.88
528.973	5012.66
529.339	5031.2
529.705	5054.47
530.071	5097.41
530.437	5109.16
530.803	5144.64
531.169	5136.73
531.535	5189.38
531.901	5119.1
532.267	5192.55
532.632	5189.61
532.998	5238.42
533.364	5301.47
533.73	5277.29
534.095	5306.67
534.461	5348.25
534.826	5398.42
535.192	5381.24
535.557	5386.44
535.923	5448.36
536.288	5446.1
536.653	5458.3
537.019	5458.53
537.384	5546.66
537.749	5529.26
538.114	5520.9
538.479	5561.58
538.845	5560.22
539.21	5635.47
539.575	5553.89
539.94	5619.43
540.305	5679.09
540.67	5700.33
541.034	5671.63
541.399	5726.32
541.764	5752.53
542.129	5771.06
542.494	5813.32
542.858	5798.18
543.223	5825.3
543.587	5824.17
543.952	5861.23
544.316	5913.21
544.681	5931.06
545.045	5924.96
545.41	5966.54
545.774	5982.13
546.138	6025.07
546.503	6039.08
546.867	6017.61
547.231	6127.89
547.595	6102.35
547.959	6123.6
548.324	6108.91
548.688	6221.22
549.052	6204.27
549.416	6273.87
549.779	6190.26
550.143	6238.85
550.507	6278.39
550.871	6315.23
551.235	6300.31
551.599	6346.42
551.962	6355.23
552.326	6386.87
552.689	6439.29
553.053	6392.97
553.417	6420.54
553.78	6519.52
554.143	6495.34
554.507	6520.65
554.87	6511.16
555.234	6653.07
555.597	6537.6
555.96	6585.28
556.323	6630.25
556.686	6597.71
557.05	6713.64
557.413	6682.68
557.776	6653.07
558.139	6735.33
558.502	6719.29
558.865	6752.96
559.228	6817.36
559.59	6793.63
559.953	6757.93
560.316	6902.56
560.679	6881.32
561.041	6911.15
561.404	6906.17
561.767	6896.68
562.129	6975.78
562.492	6993.4
562.854	7004.25
563.217	6971.03
563.579	7032.72
563.941	7067.3
564.304	7084.25
564.666	7083.12
565.028	7161.31
565.39	7174.87
565.753	7164.7
566.115	7207.86
566.477	7217.8
566.839	7221.87
567.201	7317.01
567.563	7350.46
567.925	7370.57
568.287	7370.34
568.648	7406.73
569.01	7422.09
569.372	7517.46
569.734	7469.55
570.095	7489.89
570.457	7581.18
570.819	7518.81
571.18	7613.5
571.542	7649.88
571.903	7712.48
572.265	7756.77
572.626	7743.67
572.987	7750.67
573.349	7801.07
573.71	7931.23
574.071	7868.63
574.432	7954.96
574.794	8084.45
575.155	8067.27
575.516	8080.38
575.877	8240.6
576.238	8251.45
576.599	8297.32
576.96	8340.03
577.32	8385.01
577.681	8428.17
578.042	8585.9
578.403	8636.52
578.763	8723.75
579.124	8799.91
579.485	8893.69
579.845	9051.2
580.206	9113.35
580.566	9144.76
580.927	9250.52
581.287	9394.47
581.648	9452.32
582.008	9599.21
582.368	9698.87
582.728	9878.53
583.089	9965.53
583.449	10123.26
583.809	10260.21
584.169	10440.54
584.529	10519.41
584.889	10765.28
585.249	10935.45
585.609	11001.43
585.969	11295.89
586.329	11429.9
586.688	11641.19
587.048	11827.63
587.408	11997.79
587.768	12199.59
588.127	12346.48
588.487	12660.6
588.846	13001.61
589.206	12976.3
589.565	13275.27
589.925	13623.74
590.284	13747.58
590.643	14034.8
591.003	14288.58
591.362	14596.59
591.721	14828.68
592.08	15047.2
592.44	15362
592.799	15619.62
593.158	15763.12
593.517	16064.8
593.876	16391.35
594.235	16670.66
594.593	17036.98
594.952	17335.73
595.311	17461.83
595.67	17685.1
596.029	18174.35
596.387	18500.9
596.746	18761.23
597.104	19050.49
597.463	19230.14
597.822	19581.1
598.18	19748.32
598.538	20063.34
598.897	20493.84
599.255	20601.63
599.613	21109.19
599.972	21229.41
600.33	21643.87
600.688	21718.21
601.046	22183.74
601.404	22421.92
601.762	22550.96
602.12	23009.03
602.478	23325.4
602.836	23495.57
603.194	23649.69
603.552	24031.37
603.91	24216
604.268	24635.2
604.625	24694.86
604.983	25109.99
605.341	25275.41
605.698	25546.36
606.056	25878.1
606.413	26112
606.771	26281.48
607.128	26688.93
607.485	26806.89
607.843	26975.25
608.2	27209.6
608.557	27607.55
608.914	27744.5
609.272	28119.63
609.629	28344.71
609.986	28627.86
610.343	28746.73
610.7	29057.23
611.057	29287.05
611.414	29475.75
611.771	29523.66
612.127	29922.97
612.484	30051.1
612.841	30248.16
613.198	30294.94
613.554	30583.07
613.911	30797.52
614.267	30966.78
614.624	31212.43
614.98	31310.73
615.337	31733.54
615.693	31735.13
616.05	31940.77
616.406	32148.9
616.762	32262.12
617.118	32286.75
617.475	32442.9
617.831	32656.46
618.187	32921.76
618.543	33097.12
618.899	33223.67
619.255	33363.56
619.611	33367.63
619.967	33632.48
620.323	33877.44
620.678	33903.2
621.034	33789.31
621.39	34087.61
621.746	34001.06
622.101	34551.55
622.457	34353.59
622.812	34584.54
623.168	34650.08
623.523	34688.04
623.879	34881.26
624.234	34813.46
624.589	35045.32
624.945	35165.32
625.3	35165.77
625.655	35352.88
626.01	35424.07
626.365	35507.91
626.72	35520.79
627.075	35558.53
627.43	35579.77
627.785	35648.02
628.14	35691.18
628.495	35923.04
628.85	35976.37
629.205	35823.15
629.559	36176.82
629.914	35967.11
630.269	36014.11
630.623	36094.79
630.978	35939.76
631.332	36255.23
631.687	36345.85
632.041	36246.87
632.396	36241.45
632.75	36186.76
633.104	36406.42
633.459	36257.27
633.813	36338.62
634.167	36281.45
634.521	36330.03
634.875	36434.89
635.229	36398.96
635.583	36255.01
635.937	36346.76
636.291	36226.08
636.645	36446.64
636.999	36270.15
637.352	36434.44
637.706	36206.65
638.06	36341.78
638.413	36328.68
638.767	36291.62
639.121	36462.91
639.474	36212.52
639.828	36110.38
640.181	36432.63
640.534	36402.12
640.888	36296.81
641.241	36187.44
641.594	36310.82
641.947	36419.52
642.301	36361.45
642.654	36304.05
643.007	36305.4
643.36	36333.42
643.713	36256.59
644.066	36382.91
644.419	36168.46
644.771	35929.59
645.124	35623.39
645.477	35589.94
645.83	35417.97
646.182	35237.41
646.535	35231.98
646.888	35330.06
647.24	35098.2
647.593	35295.71
647.945	35269.5
648.298	35072.21
648.65	35094.81
649.002	34965.55
649.355	35227.92
649.707	35150.4
650.059	35303.39
650.411	35668.13
650.763	35596.49
651.115	36049.59
651.467	36105.18
651.819	35951.74
652.171	35900.44
652.523	35757.39
652.875	35922.81
653.227	35775.25
653.578	35971.4
653.93	35913.1
654.282	35615.25
654.633	35717.62
654.985	35656.38
655.337	35906.32
655.688	35756.72
656.039	35969.82
656.391	35664.29
656.742	35723.04
657.094	35687.79
657.445	35834
657.796	35805.3
658.147	35645.53
658.498	35669.03
658.849	35732.31
659.2	35626.55
659.551	35467.91
659.902	35601.69
660.253	35695.93
660.604	35702.03
660.955	35430.85
661.306	35591.97
661.656	35478.08
662.007	35617.96
662.358	35496.61
662.708	35566.44
663.059	35532.09
663.409	35418.87
663.76	35624.52
664.11	35659.32
664.461	35517.4
664.811	35567.79
665.161	35559.88
665.511	35424.97
665.862	35460.9
666.212	35658.64
666.562	35608.7
666.912	35475.59
667.262	35628.36
667.612	35514.91
667.962	35511.52
668.312	35488.7
668.662	35571.86
669.011	35491.86
669.361	35447.34
669.711	35350.85
670.06	35411.41
670.41	35361.47
670.76	35357.18
671.109	35545.65
671.459	35436.05
671.808	35338.42
672.157	35335.03
672.507	35177.52
672.856	35218.42
673.205	35300.46
673.554	35291.87
673.904	35209.61
674.253	35426.55
674.602	35249.84
674.951	34819.79
675.3	34657.76
675.649	35218.65
675.998	35119.9
676.346	35234.7
676.695	35384.07
677.044	34838.1
677.393	35129.39
677.741	35040.35
678.09	35006
678.438	34936.4
678.787	35064.76
679.135	34968.04
679.484	34818.66
679.832	34998.77
680.181	34731.66
680.529	34970.97
680.877	34756.74
681.225	34804.88
681.573	34915.38
681.922	34686.46
682.27	34657.54
682.618	34570.53
682.966	34553.13
683.314	34545
683.661	34390.88
684.009	34372.12
684.357	34345.68
684.705	34267.26
685.053	34256.19
685.4	34247.83
685.748	34036.31
686.095	34065.01
686.443	33987.27
686.79	33844.9
687.138	33977.1
687.485	34024.78
687.832	33798.35
688.18	33813.26
688.527	33702.76
688.874	33606.26
689.221	33404.69
689.568	33443.33
689.915	33424.57
690.262	33494.18
690.609	33325.59
690.956	33173.73
691.303	33195.65
691.65	33103.45
691.997	33066.62
692.344	32896
692.69	32844.48
693.037	32892.38
693.383	32692.84
693.73	32738.49
694.077	32538.49
694.423	32495.11
694.769	32416.92
695.116	32326.3
695.462	32373.75
695.808	32206.3
696.155	32185.96
696.501	32060.09
696.847	32016.25
697.193	31876.59
697.539	32069.13
697.885	31718.86
698.231	31611.06
698.577	31655.58
698.923	31517.05
699.269	31505.3
699.614	31313.89
699.96	31297.17
700.306	31279.09
700.651	31097.18
700.997	31158.64
701.342	31098.98
701.688	30888.14
702.033	30750.97
702.379	30776.73
702.724	30757.3
703.069	30828.71
703.415	30410.42
703.76	30554.37
704.105	30398.21
704.45	30392.56
704.795	30201.83
705.14	30023.53
705.485	30122.06
705.83	29901.28
706.175	29955.29
706.52	29915.74
706.865	29718.91
707.209	29678.68
707.554	29659.93
707.899	29632.36
708.243	29551
708.588	29438.46
708.932	29291.12
709.277	29298.35
709.621	29390.78
709.966	29084.35
710.31	29233.27
710.654	28979.94
710.998	29064.69
711.342	29124.12
711.687	28984.69
712.031	28942.21
712.375	28661.31
712.719	28678.94
713.063	28672.83
713.407	28800.97
713.75	28513.06
714.094	28655.21
714.438	28530.46
714.782	28530.24
715.125	28356.23
715.469	28460.86
715.812	28267.42
716.156	28113.53
716.499	28165.5
716.843	28115.33
717.186	27980.42
717.53	28152.17
717.873	28102.68
718.216	27926.41
718.559	27855.68
718.902	27705.63
719.246	27782.46
719.589	27596.93
719.932	27539.98
720.275	27626.08
720.617	27552.64
720.96	27426.99
721.303	27484.84
721.646	27470.83
721.989	27276.26
722.331	27349.7
722.674	27207.11
723.016	27296.82
723.359	27310.61
723.701	27303.6
724.044	26994.69
724.386	26959.88
724.729	27105.87
725.071	26889.83
725.413	27016.61
725.755	26980.67
726.097	26852.54
726.439	26725.31
726.782	26614.13
727.124	26780.91
727.465	26644.86
727.807	26676.73
728.149	26521.25
728.491	26493.23
728.833	26626.33
729.175	26534.36
729.516	26463.63
729.858	26397.41
730.199	26374.14
730.541	26257.08
730.882	26197.87
731.224	26339.79
731.565	26142.28
731.906	26215.27
732.248	26144.99
732.589	26041.72
732.93	25994.03
733.271	25980.7
733.612	26003.98
733.953	25949.74
734.294	25946.35
734.635	25878.78
734.976	25930.08
735.317	25759.01
735.658	25791.55
735.999	25804.21
736.339	25699.8
736.68	25732.57
737.021	25694.38
737.361	25535.29
737.702	25734.61
738.042	25661.16
738.383	25560.15
738.723	25536.87
739.063	25442.41
739.404	25394.73
739.744	25418.91
740.084	25330.1
740.424	25345.01
740.764	25202.19
741.104	25332.81
741.444	25158.58
741.784	25080.39
742.124	25244.45
742.464	25117.22
742.804	25048.52
743.143	24978.24
743.483	24956.32
743.823	24869.77
744.162	24867.28
744.502	24838.13
744.841	24789.77
745.181	24898.47
745.52	24787.29
745.86	24688.53
746.199	24742.54
746.538	24645.14
746.877	24685.37
747.216	24634.75
747.556	24569.89
747.895	24532.15
748.234	24476.33
748.573	24438.14
748.911	24451.02
749.25	24347.07
749.589	24259.84
749.928	24385.49
750.267	24322.21
750.605	24236.11
750.944	24139.39
751.283	24072.73
751.621	24157.25
751.96	24064.59
752.298	24168.32
752.636	24032.28
752.975	23805.62
753.313	23834.32
753.651	24019.62
753.989	23827.31
754.327	23796.8
754.666	23682.23
755.004	23695.79
755.342	23750.25
755.679	23695.34
756.017	23428.68
756.355	23541.22
756.693	23463.25
757.031	23502.8
757.368	23371.05
757.706	23268.46
758.044	23225.75
758.381	23341.45
758.719	23193.43
759.056	23097.39
759.394	23043.15
759.731	22957.28
760.068	22878.64
760.405	22764.97
760.743	22755.93
761.08	22709.37
