Data from hue_26_FLMS001491_00083.txt Node
Date: Tue Feb 07 17:14:41 GMT 2017
User: dcchb
Spectrometer: FLMS00149
Trigger mode: 0
Integration Time (sec): 2.000000E-2
Scans to average: 10
Electric dark correction enabled: true
Nonlinearity correction enabled: false
Boxcar width: 0
XAxis mode: Wavelengths
Number of Pixels in Spectrum: 2048
>>>>>Begin Spectral Data<<<<<
341.393	-8.64
341.776	-8.64
342.16	-8.64
342.543	-68.76
342.927	-70.56
343.31	-68.3
343.693	-70.11
344.077	-52.94
344.46	-55.2
344.843	-51.13
345.226	-17.01
345.61	-32.6
345.993	-20.85
346.376	-7.29
346.759	0.62
347.142	25.93
347.525	22.09
347.908	67.51
348.291	65.48
348.674	90.11
349.057	103.67
349.44	118.13
349.823	141.86
350.206	153.61
350.588	203.78
350.971	229.09
351.354	241.52
351.737	220.95
352.119	267.06
352.502	290.11
352.884	278.81
353.267	284.23
353.65	304.79
354.032	312.7
354.414	336.66
354.797	314.74
355.179	336.88
355.562	325.13
355.944	325.81
356.326	326.26
356.709	340.95
357.091	353.61
357.473	341.63
357.855	331.91
358.238	340.05
358.62	358.13
359.002	335.53
359.384	357.9
359.766	338.24
360.148	343.89
360.53	347.05
360.912	344.12
361.294	335.3
361.676	330.78
362.057	346.83
362.439	322.65
362.821	318.13
363.203	324
363.584	328.75
363.966	335.98
364.348	315.64
364.729	350.44
365.111	330.78
365.493	326.49
365.874	333.49
366.256	343.44
366.637	326.71
367.019	322.87
367.4	332.14
367.781	333.27
368.163	296.88
368.544	300.73
368.925	328.52
369.306	321.29
369.688	328.07
370.069	319.94
370.45	314.06
370.831	315.42
371.212	326.26
371.593	325.58
371.974	296.21
372.355	311.57
372.736	317
373.117	312.25
373.498	332.82
373.879	325.81
374.26	312.93
374.641	309.54
375.021	320.16
375.402	318.35
375.783	333.49
376.163	335.08
376.544	335.98
376.925	340.95
377.305	331.91
377.686	341.63
378.066	333.27
378.447	330.78
378.827	314.51
379.208	320.84
379.588	318.13
379.968	340.5
380.349	349.54
380.729	322.87
381.109	343.89
381.489	342.76
381.87	340.73
382.25	335.08
382.63	349.99
383.01	354.51
383.39	335.08
383.77	348.41
384.15	338.92
384.53	366.04
384.91	353.83
385.29	340.5
385.67	335.3
386.049	349.54
386.429	356.09
386.809	351.8
387.189	355.64
387.568	336.43
387.948	361.52
388.328	355.41
388.707	368.07
389.087	348.18
389.466	370.78
389.846	370.56
390.225	351.35
390.605	383.89
390.984	371.46
391.363	377.56
391.743	384.11
392.122	379.37
392.501	374.4
392.881	367.62
393.26	370.56
393.639	377.11
394.018	363.32
394.397	387.96
394.776	379.37
395.155	400.61
395.534	375.3
395.913	373.04
396.292	378.46
396.671	392.02
397.05	395.87
397.429	386.15
397.808	389.09
398.186	374.4
398.565	390.89
398.944	399.93
399.323	400.84
399.701	404
400.08	397.9
400.458	408.75
400.837	392.7
401.215	399.71
401.594	396.09
401.972	386.83
402.351	384.34
402.729	389.31
403.107	398.58
403.486	397.45
403.864	403.55
404.242	418.01
404.62	409.88
404.999	389.99
405.377	406.03
405.755	415.75
406.133	437.67
406.511	423.21
406.889	411.01
407.267	425.7
407.645	415.07
408.023	413.49
408.401	457.11
408.779	439.03
409.156	434.28
409.534	444.23
409.912	440.16
410.29	447.84
410.667	432.02
411.045	437.45
411.422	449.2
411.8	469.99
412.178	449.42
412.555	458.69
412.933	453.94
413.31	459.59
413.687	469.76
414.065	461.4
414.442	487.39
414.819	467.28
415.197	477.45
415.574	490.55
415.951	490.78
416.328	488.29
416.705	486.03
417.082	470.89
417.46	496.2
417.837	502.76
418.214	486.48
418.591	515.64
418.967	505.24
419.344	519.7
419.721	519.7
420.098	525.58
420.475	522.19
420.852	516.99
421.228	515.41
421.605	512.25
421.982	524.9
422.358	514.96
422.735	528.97
423.111	523.55
423.488	535.3
423.864	530.1
424.241	538.23
424.617	550.89
424.994	540.49
425.37	551.34
425.746	535.3
426.123	564
426.499	543.43
426.875	569.87
427.251	586.37
427.627	593.15
428.003	584.79
428.379	577.56
428.756	575.97
429.132	586.14
429.507	597.67
429.883	587.5
430.259	608.52
430.635	615.07
431.011	598.35
431.387	606.48
431.763	613.71
432.138	625.69
432.514	632.02
432.89	625.24
433.265	632.24
433.641	642.19
434.016	625.69
434.392	653.03
434.767	658.68
435.143	670.43
435.518	653.71
435.894	666.14
436.269	643.54
436.644	681.28
437.02	691.45
437.395	661.62
437.77	695.74
438.145	693.94
438.52	692.13
438.895	719.7
439.271	683.32
439.646	694.39
440.021	723.54
440.395	735.52
440.77	723.31
441.145	713.82
441.52	771.67
441.895	721.05
442.27	732.58
442.645	735.29
443.019	768.51
443.394	748.4
443.769	742.75
444.143	747.27
444.518	761.28
444.892	751.56
445.267	797.66
445.641	772.8
446.016	769.64
446.39	794.72
446.764	774.84
447.139	771.9
447.513	774.39
447.887	789.98
448.262	791.11
448.636	795.18
449.01	805.8
449.384	820.49
449.758	818.45
450.132	839.24
450.506	819.13
450.88	836.76
451.254	841.96
451.628	839.24
452.002	834.05
452.376	864.55
452.75	859.81
453.123	882.41
453.497	855.74
453.871	872.46
454.244	882.63
454.618	872.91
454.992	906.36
455.365	917.89
455.739	915.17
456.112	922.63
456.486	921.73
456.859	963.53
457.232	975.29
457.606	980.26
457.979	983.65
458.352	964.89
458.725	978.45
459.099	943.87
459.472	1026.36
459.845	1021.16
460.218	1032.68
460.591	1024.55
460.964	1052.35
461.337	1064.32
461.71	1089.41
462.083	1084.66
462.456	1083.98
462.829	1088.28
463.201	1089.18
463.574	1103.19
463.947	1133.7
464.32	1123.98
464.692	1144.55
465.065	1150.2
465.438	1193.81
465.81	1164.43
466.183	1197.43
466.555	1229.29
466.928	1232
467.3	1233.36
467.672	1257.31
468.045	1277.88
468.417	1301.38
468.789	1324.2
469.161	1302.96
469.534	1353.58
469.906	1367.82
470.278	1354.71
470.65	1366.46
471.022	1395.84
471.394	1405.1
471.766	1406.23
472.138	1453.69
472.51	1481.49
472.882	1514.25
473.253	1535.04
473.625	1540.02
473.997	1587.25
474.369	1572.11
474.74	1640.8
475.112	1634.48
475.484	1660.69
475.855	1663.63
476.227	1706.34
476.598	1764.64
476.97	1794.25
477.341	1790.4
477.713	1866.79
478.084	1871.31
478.455	1944.98
478.827	1927.8
479.198	1994.47
479.569	1989.72
479.94	2067.23
480.311	2068.14
480.682	2174.35
481.053	2199.21
481.424	2248.92
481.795	2262.71
482.166	2283.95
482.537	2361.01
482.908	2376.38
483.279	2412.31
483.65	2478.52
484.021	2533.89
484.391	2554
484.762	2575.24
485.133	2619.99
485.503	2676.94
485.874	2715.35
486.244	2808.23
486.615	2822.47
486.985	2891.62
487.356	2945.18
487.726	2936.36
488.097	3048.22
488.467	3061.11
488.837	3122.35
489.207	3189.01
489.578	3241.44
489.948	3257.94
490.318	3359.63
490.688	3341.32
491.058	3422.45
491.428	3491.38
491.798	3488.67
492.168	3605.95
492.538	3654.76
492.908	3659.06
493.278	3730.24
493.648	3734.53
494.017	3790.58
494.387	3818.37
494.757	3856.57
495.126	3882.33
495.496	3922.1
495.866	3979.95
496.235	4040.74
496.605	4049.33
496.974	4092.27
497.344	4164.58
497.713	4193.73
498.082	4211.36
498.452	4239.15
498.821	4242.54
499.19	4312.6
499.559	4387.4
499.928	4420.62
500.298	4425.59
500.667	4481.41
501.036	4445.93
501.405	4548.52
501.774	4537.45
502.143	4566.15
502.512	4628.52
502.88	4695.41
503.249	4670.1
503.618	4701.06
503.987	4746.49
504.356	4786.94
504.724	4772.47
505.093	4827.16
505.462	4813.83
505.83	4878.23
506.199	4902.64
506.567	4965.69
506.936	4946.71
507.304	5016.31
507.672	5026.7
508.041	5056.53
508.409	5062.41
508.777	5129.3
509.145	5153.71
509.514	5170.43
509.882	5196.19
510.25	5198.9
510.618	5199.35
510.986	5236.64
511.354	5246.36
511.722	5327.04
512.09	5323.65
512.458	5349.63
512.826	5387.82
513.193	5412.91
513.561	5474.38
513.929	5464.66
514.297	5467.82
514.664	5554.6
515.032	5551.66
515.4	5631.66
515.767	5564.09
516.135	5607.03
516.502	5593.92
516.869	5664.43
517.237	5791.43
517.604	5698.78
517.972	5748.94
518.339	5823.07
518.706	5732.22
519.073	5762.73
519.44	5817.64
519.808	5848.15
520.175	5866.68
520.542	5920.92
520.909	5990.97
521.276	5971.54
521.643	6013.34
522.009	6054.47
522.376	6118.88
522.743	6127.01
523.11	6160.46
523.477	6227.35
523.843	6214.92
524.21	6226.9
524.577	6257.63
524.943	6256.5
525.31	6374.47
525.676	6402.94
526.043	6442.71
526.409	6400.68
526.776	6496.95
527.142	6447.01
527.508	6504.63
527.874	6580.34
528.241	6591.41
528.607	6632.31
528.973	6655.14
529.339	6687.23
529.705	6698.75
530.071	6810.84
530.437	6820.56
530.803	6838.41
531.169	6807.22
531.535	6946.65
531.901	6940.55
532.267	6887.45
532.632	6966.09
532.998	7001.79
533.364	7006.99
533.73	7110.49
534.095	7153.2
534.461	7132.41
534.826	7161.34
535.192	7198.17
535.557	7263.03
535.923	7215.8
536.288	7236.59
536.653	7303.03
537.019	7284.5
537.384	7312.29
537.749	7413.08
538.114	7378.96
538.479	7469.13
538.845	7441.56
539.21	7452.4
539.575	7527.88
539.94	7509.35
540.305	7598.16
540.67	7631.83
541.034	7590.48
541.399	7683.13
541.764	7767.2
542.129	7768.78
542.494	7765.84
542.858	7766.29
543.223	7775.78
543.587	7881.77
543.952	7847.65
544.316	7857.82
544.681	7936.68
545.045	7969
545.41	8061.88
545.774	8050.58
546.138	8110.01
546.503	8086.06
546.867	8070.24
547.231	8182.1
547.595	8280.4
547.959	8180.07
548.324	8288.77
548.688	8314.3
549.052	8276.11
549.416	8309.78
549.779	8285.15
550.143	8332.15
550.507	8425.94
550.871	8496.9
551.235	8407.18
551.599	8501.19
551.962	8526.72
552.326	8533.73
552.689	8580.28
553.053	8560.85
553.417	8578.93
553.78	8696.21
554.143	8677.23
554.507	8682.43
554.87	8743.89
555.234	8828.41
555.597	8794.29
555.96	8807.85
556.323	8851.69
556.686	8786.15
557.05	8940.95
557.413	8966.71
557.776	8974.85
558.139	9002.64
558.502	9037.9
558.865	9115.86
559.228	9164.45
559.59	9125.81
559.953	9177.56
560.316	9225.92
560.679	9206.03
561.041	9307.95
561.404	9315.86
561.767	9337.78
562.129	9320.6
562.492	9411.67
562.854	9404.67
563.217	9359.92
563.579	9424.1
563.941	9545.68
564.304	9533.93
564.666	9607.83
565.028	9636.07
565.39	9641.5
565.753	9622.52
566.115	9709.29
566.477	9759.46
566.839	9821.15
567.201	9887.59
567.563	9887.82
567.925	9965.11
568.287	9934.6
568.648	9939.34
569.01	10051.88
569.372	10088.27
569.734	10030.64
570.095	10109.96
570.457	10185.44
570.819	10212.1
571.18	10217.53
571.542	10315.38
571.903	10377.98
572.265	10438.99
572.626	10462.72
572.987	10474.24
573.349	10570.06
573.71	10576.61
574.071	10679.44
574.432	10672.21
574.794	10818.87
575.155	10892.09
575.516	10895.48
575.877	10989.26
576.238	11049.14
576.599	11107.9
576.96	11225.86
577.32	11301.34
577.681	11300.89
578.042	11454.33
578.403	11480.32
578.763	11570.49
579.124	11643.48
579.485	11945.62
579.845	11906.52
580.206	12059.74
580.566	12124.37
580.927	12355.32
581.287	12425.38
581.648	12556
582.008	12701.53
582.368	12820.4
582.728	13012.93
583.089	13097.68
583.449	13315.3
583.809	13480.27
584.169	13606.59
584.529	13737.89
584.889	14024.66
585.249	14207.48
585.609	14273.92
585.969	14580.58
586.329	14784.19
586.688	15080
587.048	15258.98
587.408	15435.24
587.768	15661.23
588.127	15876.14
588.487	16072.52
588.846	16487.65
589.206	16600.18
589.565	16846.96
589.925	17051.7
590.284	17377.11
590.643	17715.18
591.003	17999.24
591.362	18290.08
591.721	18500.25
592.08	18775.95
592.44	19121.25
592.799	19365.54
593.158	19635.81
593.517	19869.25
593.876	20124.16
594.235	20468.56
594.593	20852.95
594.952	21083.68
595.311	21285.03
595.67	21687.96
596.029	22151.45
596.387	22408.85
596.746	22618.78
597.104	22935.84
597.463	23224.42
597.822	23687.46
598.18	23868.24
598.538	24127.67
598.897	24525.17
599.255	24633.42
599.613	25229.11
599.972	25378.03
600.33	25728.53
600.688	25922.2
601.046	26284.22
601.404	26620.71
601.762	26793.14
602.12	27226.57
602.478	27583.63
602.836	27856.84
603.194	27919.44
603.552	28287.34
603.91	28408.01
604.268	29024.49
604.625	29007.77
604.983	29428.1
605.341	29458.38
605.698	29815.43
606.056	30203.9
606.413	30270.11
606.771	30741.51
607.128	31199.12
607.485	31065.34
607.843	31429.17
608.2	31838.65
608.557	32061.7
608.914	32019.89
609.272	32535.13
609.629	32660.33
609.986	32985.74
610.343	32996.36
610.7	33405.39
611.057	33563.81
611.414	33760.41
611.771	33848.77
612.127	34201.08
612.484	34474.52
612.841	34645.36
613.198	34686.49
613.554	34888.97
613.911	35211.9
614.267	35380.26
614.624	35473.36
614.98	35728.72
615.337	35998.77
615.693	36081.48
616.05	36189.73
616.406	36613.44
616.762	36611.41
617.118	36572.09
617.475	36777.06
617.831	37088.69
618.187	37322.13
618.543	37385.85
618.899	37602.57
619.255	37654.32
619.611	37720.53
619.967	37986.29
620.323	38203.23
620.678	38088.66
621.034	38168.88
621.39	38399.39
621.746	38326.85
622.101	38893.38
622.457	38742.88
622.812	38898.58
623.168	39019.71
623.523	39063.1
623.879	39414.5
624.234	39131.57
624.589	39455.4
624.945	39367.5
625.3	39558.23
625.655	39609.3
626.01	39652.46
626.365	39837.09
626.72	39988.04
627.075	39968.61
627.43	39871.21
627.785	39936.07
628.14	40103.07
628.495	40007.71
628.85	40276.4
629.205	40135.84
629.559	40360.92
629.914	40099.23
630.269	40321.14
630.623	40332.89
630.978	40300.13
631.332	40480.46
631.687	40581.25
632.041	40469.61
632.396	40692.21
632.75	40356.4
633.104	40687.24
633.459	40547.8
633.813	40658.08
634.167	40584.64
634.521	40510.97
634.875	40693.79
635.229	40604.3
635.583	40406.56
635.937	40641.81
636.291	40510.97
636.645	40557.52
636.999	40498.54
637.352	40664.86
637.706	40548.48
638.06	40693.56
638.413	40476.62
638.767	40475.49
639.121	40521.59
639.474	40379.67
639.828	40447.24
640.181	40601.59
640.534	40412.67
640.888	40311.43
641.241	40348.94
641.594	40407.69
641.947	40471.65
642.301	40322.27
642.654	40593.23
643.007	40539.22
643.36	40412.89
643.713	40472.55
644.066	40588.03
644.419	40305.32
644.771	40061.26
645.124	39713.02
645.477	39586.25
645.83	39318.91
646.182	39335.63
646.535	39185.58
646.888	39279.59
647.24	39176.54
647.593	39330.66
647.945	39399.13
648.298	39097.22
648.65	39164.79
649.002	38958.02
649.355	39246.37
649.707	39035.53
650.059	39431.68
650.411	39736.53
650.763	39886.13
651.115	40281.6
651.467	40120.02
651.819	40105.1
652.171	40079.34
652.523	40002.96
652.875	40084.77
653.227	39822.63
653.578	39984.65
653.93	40024.2
654.282	39874.83
654.633	39776.07
654.985	39933.36
655.337	39967.25
655.688	39757.77
656.039	40048.38
656.391	39605.23
656.742	39769.29
657.094	39728.62
657.445	39924.32
657.796	39791.89
658.147	39807.94
658.498	39756.64
658.849	39768.16
659.2	39783.98
659.551	39736.98
659.902	39860.82
660.253	39630.09
660.604	39775.17
660.955	39611.56
661.306	39901.04
661.656	39662.18
662.007	39731.1
662.358	39672.35
662.708	39641.39
663.059	39665.57
663.409	39562.52
663.76	39788.05
664.11	39753.93
664.461	39706.7
664.811	39801.16
665.161	39635.51
665.511	39530.66
665.862	39611.78
666.212	39847.48
666.562	39746.92
666.912	39740.37
667.262	39589.19
667.612	39558.68
667.962	39766.81
668.312	39615.85
668.662	39627.15
669.011	39695.4
669.361	39485.01
669.711	39531.33
670.06	39573.14
670.41	39455.63
670.76	39466.48
671.109	39588.06
671.459	39490.2
671.808	39402.98
672.157	39528.85
672.507	39311.9
672.856	39347.61
673.205	39400.26
673.554	39476.87
673.904	39361.17
674.253	39550.77
674.602	39428.74
674.951	38963.21
675.3	38661.3
675.649	39270.1
675.998	39257.67
676.346	39198.23
676.695	39323.2
677.044	39070.33
677.393	39063.78
677.741	39259.25
678.09	39093.6
678.438	39104.68
678.787	38998.24
679.135	39087.96
679.484	38781.52
679.832	39000.5
680.181	38742.65
680.529	38842.09
680.877	38737.23
681.225	38640.74
681.573	38921.86
681.922	38673.73
682.27	38619.72
682.618	38526.61
682.966	38638.93
683.314	38564.35
683.661	38475.99
684.009	38263.8
684.357	38344.92
684.705	38258.6
685.053	38176.34
685.4	38153.29
685.748	38179.05
686.095	38039.4
686.443	37929.57
686.79	37759.18
687.138	37965.5
687.485	37987.65
687.832	37697.94
688.18	37737.26
688.527	37566.19
688.874	37601.44
689.221	37458.62
689.568	37445.06
689.915	37245.29
690.262	37279.19
690.609	37151.96
690.956	37232.64
691.303	37138.4
691.65	36747.45
691.997	36953.77
692.344	36654.35
692.69	36656.38
693.037	36684.18
693.383	36465.88
693.73	36531.41
694.077	36363.73
694.423	36343.85
694.769	36255.04
695.116	36190.86
695.462	36152.44
695.808	36005.32
696.155	35983.4
696.501	35889.85
696.847	35765.56
697.193	35580.93
697.539	35650.98
697.885	35432.68
698.231	35304.55
698.577	35333.25
698.923	35338
699.269	35102.75
699.614	34935.07
699.96	34867.73
700.306	34818.69
700.651	34651.46
700.997	34696.43
701.342	34581.41
701.688	34569.88
702.033	34507.51
702.379	34406.95
702.724	34205.37
703.069	34408.3
703.415	34071.59
703.76	34056.45
704.105	34030.24
704.45	33939.62
704.795	33750.24
705.14	33566.29
705.485	33644.48
705.83	33592.05
706.175	33547.54
706.52	33499.4
706.865	33241.78
707.209	33256.02
707.554	33179.86
707.899	33203.82
708.243	32985.06
708.588	33083.37
708.932	32774.22
709.277	32728.35
709.621	32778.29
709.966	32639.09
710.31	32694.45
710.654	32384.4
710.998	32415.81
711.342	32546.21
711.687	32382.59
712.031	32357.51
712.375	32034.58
712.719	32141.25
713.063	31975.6
713.407	32219.21
713.75	31893.57
714.094	32009.95
714.438	31826.45
714.782	31806.11
715.125	31768.15
715.469	31834.13
715.812	31621.03
716.156	31421.26
716.499	31410.42
716.843	31540.36
717.186	31383.53
717.53	31489.74
717.873	31412
718.216	31361.15
718.559	31132.23
718.902	31113.7
719.246	31138.56
719.589	31028.73
719.932	30895.4
720.275	30871
720.617	30841.62
720.96	30677.78
721.303	30693.37
721.646	30692.47
721.989	30581.29
722.331	30565.24
722.674	30462.42
723.016	30620.16
723.359	30365.92
723.701	30537.22
724.044	30282.76
724.386	30150.79
724.729	30304.91
725.071	30121.41
725.413	30175.42
725.755	30106.5
726.097	30044.8
726.439	29901.08
726.782	29882.32
727.124	29913.73
727.465	29864.92
727.807	29862.21
728.149	29823.79
728.491	29667.19
728.833	29786.73
729.175	29715.77
729.516	29626.51
729.858	29612.05
730.199	29596
730.541	29495.21
730.882	29581.09
731.224	29622.44
731.565	29465.16
731.906	29437.81
732.248	29469
732.589	29257.48
732.93	29151.95
733.271	29201.89
733.612	29098.61
733.953	29211.83
734.294	29104.26
734.635	28960.99
734.976	29056.35
735.317	28973.87
735.658	28874.66
735.999	28847.77
736.339	28907.66
736.68	28941.1
737.021	28734.1
737.361	28644.39
737.702	28761.67
738.042	28726.19
738.383	28544.05
738.723	28575.24
739.063	28541.79
739.404	28454.34
739.744	28387.22
740.084	28364.62
740.424	28386.32
740.764	28356.71
741.104	28422.02
741.444	28189.26
741.784	28147.9
742.124	28175.25
742.464	28140.67
742.804	28105.65
743.143	27995.59
743.483	28083.05
743.823	27864.75
744.162	27918.76
744.502	27873.79
744.841	27852.54
745.181	27936.84
745.52	27810.06
745.86	27760.57
746.199	27687.58
746.538	27673.34
746.877	27904.07
747.216	27785.43
747.556	27667.46
747.895	27649.61
748.234	27569.16
748.573	27424.31
748.911	27411.2
749.25	27561.25
749.589	27378.66
749.928	27381.6
750.267	27302.05
750.605	27295.27
750.944	27174.6
751.283	27118.78
751.621	27204.65
751.96	27050.08
752.298	27005.34
752.636	27027.93
752.975	26872.91
753.313	26676.08
753.651	26878.56
753.989	26762.86
754.327	26756.98
754.666	26603.31
755.004	26635.18
755.342	26658.68
755.679	26600.6
756.017	26311.57
756.355	26502.52
756.693	26388.63
757.031	26368.06
757.368	26159.03
757.706	26221.85
758.044	26143.66
758.381	26154.28
758.719	25940.73
759.056	26075.87
759.394	25897.79
759.731	25720.4
760.068	25721.3
760.405	25725.37
760.743	25686.27
