Data from hue_220_FLMS001491_00037.txt Node
Date: Tue Feb 07 16:39:23 GMT 2017
User: dcchb
Spectrometer: FLMS00149
Trigger mode: 0
Integration Time (sec): 2.000000E-2
Scans to average: 10
Electric dark correction enabled: true
Nonlinearity correction enabled: false
Boxcar width: 0
XAxis mode: Wavelengths
Number of Pixels in Spectrum: 2048
>>>>>Begin Spectral Data<<<<<
341.393	-22.91
341.776	-22.91
342.16	-22.91
342.543	-81.21
342.927	-67.88
343.31	-45.73
343.693	-86.86
344.077	-56.58
344.46	-74.66
344.843	-57.26
345.226	-41.89
345.61	-43.47
345.993	-26.3
346.376	-1.21
346.759	5.79
347.142	42.17
347.525	36.3
347.908	68.84
348.291	70.2
348.674	91.44
349.057	119.23
349.44	141.61
349.823	135.73
350.206	139.57
350.588	182.06
350.971	208.95
351.354	233.36
351.737	231.1
352.119	230.87
352.502	249.63
352.884	248.72
353.267	268.83
353.65	292.34
354.032	299.79
354.414	282.39
354.797	308.38
355.179	331.43
355.562	315.84
355.944	306.12
356.326	320.36
356.709	324.2
357.091	347.25
357.473	329.85
357.855	312.45
358.238	339.57
358.62	328.72
359.002	315.39
359.384	349.06
359.766	336.18
360.148	333.92
360.53	333.47
360.912	322.84
361.294	323.75
361.676	320.58
362.057	319.45
362.439	338.66
362.821	318.78
363.203	334.37
363.584	329.17
363.966	315.16
364.348	314.71
364.729	319.45
365.111	314.03
365.493	321.49
365.874	304.31
366.256	306.12
366.637	294.82
367.019	300.47
367.4	312.68
367.781	294.82
368.163	295.5
368.544	282.17
368.925	307.7
369.306	307.25
369.688	286.01
370.069	311.32
370.45	310.42
370.831	314.71
371.212	314.26
371.593	295.73
371.974	295.73
372.355	297.99
372.736	293.69
373.117	302.28
373.498	304.09
373.879	296.18
374.26	287.37
374.641	302.28
375.021	307.93
375.402	320.36
375.783	319
376.163	301.6
376.544	312
376.925	319.91
377.305	299.57
377.686	337.31
378.066	311.77
378.447	315.16
378.827	332.34
379.208	313.13
379.588	325.78
379.968	326.69
380.349	308.83
380.729	340.92
381.109	322.62
381.489	347.02
381.87	322.62
382.25	327.14
382.63	326.46
383.01	333.69
383.39	342.28
383.77	342.73
384.15	326.01
384.53	317.87
384.91	319.45
385.29	333.69
385.67	336.18
386.049	354.93
386.429	367.14
386.809	356.06
387.189	358.1
387.568	350.41
387.948	336.63
388.328	340.7
388.707	329.4
389.087	334.37
389.466	351.77
389.846	342.51
390.225	347.93
390.605	350.41
390.984	352.45
391.363	370.53
391.743	347.48
392.122	363.52
392.501	347.7
392.881	343.18
393.26	362.39
393.639	371.2
394.018	367.36
394.397	361.94
394.776	368.95
395.155	372.56
395.534	368.95
395.913	366.69
396.292	360.36
396.671	379.57
397.05	394.03
397.429	372.56
397.808	379.57
398.186	377.08
398.565	385.67
398.944	381.6
399.323	388.38
399.701	370.3
400.08	391.77
400.458	387.25
400.837	398.1
401.215	394.03
401.594	386.8
401.972	421.83
402.351	424.76
402.729	423.63
403.107	407.36
403.486	412.56
403.864	413.01
404.242	417.76
404.62	408.27
404.999	422.05
405.377	431.54
405.755	414.14
406.133	415.95
406.511	450.07
406.889	443.52
407.267	452.78
407.645	451.65
408.023	460.69
408.401	456.4
408.779	465.89
409.156	473.58
409.534	435.84
409.912	479.22
410.29	492.11
410.667	500.47
411.045	507.02
411.422	506.79
411.8	509.05
412.178	506.57
412.555	560.13
412.933	533.69
413.31	578.66
413.687	577.08
414.065	555.15
414.442	572.56
414.819	584.53
415.197	591.31
415.574	572.1
415.951	598.77
416.328	617.07
416.705	605.78
417.082	621.37
417.46	606.45
417.837	653.01
418.214	644.87
418.591	685.77
418.967	652.33
419.344	652.1
419.721	695.94
420.098	682.16
420.475	711.99
420.852	669.05
421.228	714.92
421.605	702.27
421.982	753.34
422.358	751.53
422.735	770.97
423.111	755.15
423.488	782.95
423.864	789.72
424.241	807.58
424.617	828.14
424.994	840.57
425.37	835.83
425.746	844.19
426.123	865.43
426.499	860.23
426.875	884.86
427.251	908.37
427.627	911.3
428.003	913.34
428.379	944.3
428.756	927.8
429.132	957.63
429.507	961.25
429.883	974.8
430.259	981.13
430.635	972.77
431.011	1046.89
431.387	1014.8
431.763	1033.11
432.138	1057.51
432.514	1055.48
432.89	1082.6
433.265	1078.3
433.641	1142.03
434.016	1130.28
434.392	1170.28
434.767	1201.01
435.143	1217.74
435.518	1188.81
435.894	1240.79
436.269	1245.76
436.644	1300.22
437.02	1278.53
437.395	1290.95
437.77	1330.5
438.145	1351.52
438.52	1371.86
438.895	1372.99
439.271	1396.04
439.646	1464.74
440.021	1462.02
440.395	1460.22
440.77	1432.87
441.145	1457.96
441.52	1521.91
441.895	1519.88
442.27	1535.24
442.645	1571.4
443.019	1575.47
443.394	1588.57
443.769	1603.26
444.143	1605.07
444.518	1659.76
444.892	1651.4
445.267	1657.72
445.641	1685.97
446.016	1681.45
446.39	1694.79
446.764	1711.28
447.139	1716.25
447.513	1710.6
447.887	1782.02
448.262	1732.53
448.636	1778.17
449.01	1770.26
449.384	1816.59
449.758	1788.79
450.132	1835.8
450.506	1834.22
450.88	1852.52
451.254	1856.36
451.628	1875.35
452.002	1915.8
452.376	1905.4
452.75	1923.03
453.123	1946.08
453.497	1960.99
453.871	1969.35
454.244	2022.01
454.618	2023.14
454.992	2025.85
455.365	2055.23
455.739	2099.52
456.112	2130.03
456.486	2130.71
456.859	2167.99
457.232	2218.84
457.606	2223.36
457.979	2215.45
458.352	2262.23
458.725	2293.87
459.099	2286.18
459.472	2311.27
459.845	2342.23
460.218	2384.26
460.591	2371.83
460.964	2386.75
461.337	2458.38
461.71	2452.96
462.083	2491.6
462.456	2550.13
462.829	2531.83
463.201	2579.06
463.574	2559.85
463.947	2576.34
464.32	2648.43
464.692	2660.41
465.065	2651.14
465.438	2738.37
465.81	2772.95
466.183	2791.03
466.555	2826.73
466.928	2843
467.3	2830.12
467.672	2913.28
468.045	2962.78
468.417	2954.19
468.789	2985.83
469.161	2997.8
469.534	3053.62
469.906	3127.06
470.278	3125.03
470.65	3146.27
471.022	3217.46
471.394	3268.53
471.766	3282.54
472.138	3303.33
472.51	3374.29
472.882	3396.44
473.253	3490.44
473.625	3513.27
473.997	3566.15
474.369	3573.15
474.74	3621.06
475.112	3679.59
475.484	3729.53
475.855	3783.32
476.227	3802.53
476.598	3882.75
476.97	3872.81
477.341	3984.44
477.713	4002.75
478.084	4044.55
478.455	4173.82
478.827	4161.39
479.198	4242.74
479.569	4276.41
479.94	4363.19
480.311	4397.31
480.682	4549.17
481.053	4546.91
481.424	4652.67
481.795	4647.48
482.166	4704.88
482.537	4756.63
482.908	4893.35
483.279	4914.36
483.65	4992.1
484.021	5065.77
484.391	5087.92
484.762	5099.67
485.133	5129.95
485.503	5227.35
485.874	5326.33
486.244	5353.22
486.615	5444.52
486.985	5493.33
487.356	5604.29
487.726	5589.6
488.097	5729.93
488.467	5730.61
488.837	5828.46
489.207	5875.92
489.578	6009.02
489.948	5945.52
490.318	6086.53
490.688	6046.99
491.058	6134.22
491.428	6229.81
491.798	6232.75
492.168	6338.73
492.538	6404.49
492.908	6466.41
493.278	6484.94
493.648	6465.28
494.017	6631.61
494.387	6615.11
494.757	6660.53
495.126	6707.54
495.496	6725.61
495.866	6727.2
496.235	6772.62
496.605	6838.61
496.974	6901.88
497.344	6893.07
497.713	6964.48
498.082	6968.09
498.452	7019.62
498.821	7029.56
499.19	7042.89
499.559	7168.31
499.928	7148.88
500.298	7180.74
500.667	7199.27
501.036	7198.14
501.405	7257.13
501.774	7246.28
502.143	7321.76
502.512	7299.38
502.88	7407.86
503.249	7400.17
503.618	7365.15
503.987	7394.07
504.356	7445.37
504.724	7452.15
505.093	7481.3
505.462	7515.2
505.83	7517.01
506.199	7487.63
506.567	7632.48
506.936	7610.34
507.304	7719.03
507.672	7637.91
508.041	7743.21
508.409	7685.36
508.777	7771.91
509.145	7730.56
509.514	7795.64
509.882	7839.94
510.25	7803.55
510.618	7771.91
510.986	7845.58
511.354	7882.65
511.722	7929.65
512.09	7940.95
512.458	7905.02
512.826	7956.77
513.193	7965.58
513.561	7987.5
513.929	7977.11
514.297	8010.78
514.664	7987.05
515.032	8029.53
515.4	8069.08
515.767	8074.51
516.135	8068.63
516.502	8048.07
516.869	8143.88
517.237	8075.41
517.604	8041.51
517.972	8159.7
518.339	8122.19
518.706	8110.44
519.073	8089.19
519.44	8109.76
519.808	8151.34
520.175	8157.67
520.542	8218.46
520.909	8198.34
521.276	8158.8
521.643	8251.45
522.009	8219.13
522.376	8252.58
522.743	8235.86
523.11	8214.61
523.477	8281.51
523.843	8282.64
524.21	8310.66
524.577	8351.79
524.943	8353.59
525.31	8311.34
525.676	8325.57
526.043	8377.77
526.409	8382.52
526.776	8411.45
527.142	8427.04
527.508	8466.13
527.874	8407.83
528.241	8413.25
528.607	8361.28
528.973	8459.13
529.339	8358.11
529.705	8416.19
530.071	8444.66
530.437	8446.7
530.803	8403.31
531.169	8429.75
531.535	8427.94
531.901	8433.14
532.267	8343.2
532.632	8445.34
532.998	8422.97
533.364	8424.1
533.73	8352.92
534.095	8460.71
534.461	8475.17
534.826	8335.29
535.192	8362.41
535.557	8453.7
535.923	8317.66
536.288	8344.55
536.653	8331.67
537.019	8275.86
537.384	8264.33
537.749	8270.88
538.114	8226.82
538.479	8241.28
538.845	8229.76
539.21	8195.18
539.575	8145.24
539.94	8128.74
540.305	8170.1
540.67	8143.88
541.034	8131.68
541.399	8107.95
541.764	8119.93
542.129	8066.14
542.494	8083.09
542.858	8056.43
543.223	8034.51
543.587	8007.39
543.952	7938.46
544.316	7985.24
544.681	7909.54
545.045	7928.29
545.41	7975.75
545.774	7929.2
546.138	7877.67
546.503	7802.42
546.867	7795.64
547.231	7821.86
547.595	7780.95
547.959	7793.61
548.324	7694.18
548.688	7664.57
549.052	7710
549.416	7623.22
549.779	7675.87
550.143	7635.65
550.507	7698.47
550.871	7633.61
551.235	7567.85
551.599	7668.87
551.962	7542.54
552.326	7529.89
552.689	7568.98
553.053	7505.25
553.417	7493.28
553.78	7596.55
554.143	7445.82
554.507	7493.5
554.87	7457.8
555.234	7487.18
555.597	7407.63
555.96	7468.19
556.323	7416.67
556.686	7427.97
557.05	7431.81
557.413	7444.01
557.776	7372.6
558.139	7385.94
558.502	7364.24
558.865	7317.69
559.228	7365.82
559.59	7370.57
559.953	7375.09
560.316	7353.17
560.679	7356.33
561.041	7384.13
561.404	7375.77
561.767	7350
562.129	7369.21
562.492	7370.12
562.854	7405.14
563.217	7375.09
563.579	7370.34
563.941	7412.38
564.304	7417.8
564.666	7426.39
565.028	7470.45
565.39	7379.61
565.753	7408.99
566.115	7491.24
566.477	7433.39
566.839	7462.77
567.201	7494.86
567.563	7461.64
567.925	7520.85
568.287	7451.7
568.648	7436.56
569.01	7486.05
569.372	7532.15
569.734	7494.63
570.095	7546.16
570.457	7550
570.819	7553.84
571.18	7512.71
571.542	7608.3
571.903	7565.59
572.265	7643.1
572.626	7587.29
572.987	7648.08
573.349	7613.73
573.71	7648.98
574.071	7649.66
574.432	7656.44
574.794	7694.85
575.155	7680.84
575.516	7651.69
575.877	7715.42
576.238	7726.27
576.599	7795.42
576.96	7773.95
577.32	7740.95
577.681	7821.63
578.042	7765.36
578.403	7757
578.763	7825.92
579.124	7799.71
579.485	7876.54
579.845	7872.48
580.206	7833.83
580.566	7887.17
580.927	7878.13
581.287	7968.29
581.648	7961.74
582.008	7998.35
582.368	7955.41
582.728	8029.08
583.089	7998.12
583.449	8020.04
583.809	8021.4
584.169	8065.69
584.529	8027.95
584.889	8102.3
585.249	8065.24
585.609	8073.6
585.969	8121.06
586.329	8095.07
586.688	8118.57
587.048	8094.39
587.408	8081.51
587.768	8096.2
588.127	8195.41
588.487	8114.96
588.846	8220.26
589.206	8153.37
589.565	8176.2
589.925	8248.96
590.284	8236.08
590.643	8291
591.003	8273.14
591.362	8340.71
591.721	8264.78
592.08	8323.31
592.44	8255.52
592.799	8328.51
593.158	8337.1
593.517	8307.27
593.876	8368.51
594.235	8368.28
594.593	8342.75
594.952	8345.68
595.311	8300.04
595.67	8375.29
596.029	8427.72
596.387	8484.89
596.746	8502.74
597.104	8444.66
597.463	8392.01
597.822	8447.6
598.18	8527.37
598.538	8470.43
598.897	8440.82
599.255	8448.51
599.613	8524.66
599.972	8457.32
600.33	8569.18
600.688	8466.36
601.046	8508.62
601.404	8550.65
601.762	8575.51
602.12	8602.4
602.478	8623.87
602.836	8588.16
603.194	8592.01
603.552	8609.63
603.91	8509.97
604.268	8605.56
604.625	8568.5
604.983	8571.44
605.341	8509.97
605.698	8577.54
606.056	8662.06
606.413	8606.69
606.771	8658.9
607.128	8697.99
607.485	8615.51
607.843	8609.41
608.2	8629.52
608.557	8656.18
608.914	8614.38
609.272	8746.58
609.629	8709.29
609.986	8698.44
610.343	8679.24
610.7	8729.86
611.057	8733.92
611.414	8667.26
611.771	8748.39
612.127	8828.84
612.484	8705.45
612.841	8797.2
613.198	8765.79
613.554	8769.18
613.911	8815.5
614.267	8754.26
614.624	8798.55
614.98	8844.43
615.337	8809.18
615.693	8766.69
616.05	8851.66
616.406	8892.11
616.762	8808.5
617.118	8901.15
617.475	8829.97
617.831	8883.52
618.187	8909.74
618.543	8889.63
618.899	8931.66
619.255	8938.44
619.611	8878.55
619.967	8944.54
620.323	8894.14
620.678	8910.64
621.034	8892.79
621.39	8879.91
621.746	8835.84
622.101	9029.28
622.457	8904.77
622.812	8931.43
623.168	8986.35
623.523	8930.75
623.879	9001.03
624.234	8910.42
624.589	8966.01
624.945	8960.13
625.3	8959.23
625.655	8966.69
626.01	8982.05
626.365	8975.72
626.72	8962.84
627.075	8862.51
627.43	8946.57
627.785	8985.89
628.14	8907.48
628.495	9006.46
628.85	8919
629.205	8852.11
629.559	8874.26
629.914	8908.38
630.269	8883.98
630.623	8866.12
630.978	8893.47
631.332	8873.35
631.687	8813.92
632.041	8808.5
632.396	8907.03
632.75	8831.32
633.104	8844.65
633.459	8722.85
633.813	8832.23
634.167	8790.19
634.521	8723.75
634.875	8837.2
635.229	8766.69
635.583	8610.99
635.937	8717.88
636.291	8724.21
636.645	8685.56
636.999	8731.89
637.352	8778.89
637.706	8636.52
638.06	8660.93
638.413	8644.89
638.767	8638.56
639.121	8672.23
639.474	8628.84
639.828	8626.36
640.181	8597.66
640.534	8655.51
640.888	8602.85
641.241	8595.85
641.594	8612.34
641.947	8575.51
642.301	8548.17
642.654	8601.5
643.007	8610.99
643.36	8569.63
643.713	8544.1
644.066	8595.17
644.419	8451.9
644.771	8479.01
645.124	8441.95
645.477	8364.89
645.83	8415.74
646.182	8384.78
646.535	8286.7
646.888	8349.75
647.24	8266.36
647.593	8368.73
647.945	8270.66
648.298	8274.27
648.65	8228.63
649.002	8248.51
649.355	8310.66
649.707	8251
650.059	8305.23
650.411	8386.36
650.763	8434.5
651.115	8492.35
651.467	8404.89
651.819	8504.78
652.171	8462.97
652.523	8477.66
652.875	8459.13
653.227	8413.71
653.578	8498.45
653.93	8446.7
654.282	8395.85
654.633	8380.49
654.985	8442.41
655.337	8437.21
655.688	8395.4
656.039	8549.29
656.391	8407.6
656.742	8404.44
657.094	8509.52
657.445	8515.4
657.796	8481.05
658.147	8489.64
658.498	8431.11
658.849	8502.06
659.2	8470.88
659.551	8436.76
659.902	8540.48
660.253	8522.85
660.604	8494.38
660.955	8461.84
661.306	8517.88
661.656	8466.59
662.007	8491.9
662.358	8580.71
662.708	8610.76
663.059	8533.48
663.409	8497.09
663.76	8533.48
664.11	8536.64
664.461	8469.98
664.811	8550.42
665.161	8599.01
665.511	8508.62
665.862	8549.07
666.212	8611.67
666.562	8505.45
666.912	8555.62
667.262	8607.15
667.612	8524.21
667.962	8553.14
668.312	8558.79
668.662	8535.51
669.011	8512.01
669.361	8435.4
669.711	8541.16
670.06	8474.04
670.41	8519.69
670.76	8473.14
671.109	8477.21
671.459	8454.61
671.808	8529.18
672.157	8519.24
672.507	8473.82
672.856	8441.95
673.205	8448.05
673.554	8490.77
673.904	8496.19
674.253	8545.45
674.602	8455.74
674.951	8308.17
675.3	8335.06
675.649	8430.43
675.998	8415.74
676.346	8381.39
676.695	8454.16
677.044	8393.59
677.393	8395.17
677.741	8376.87
678.09	8374.84
678.438	8363.54
678.787	8335.29
679.135	8380.03
679.484	8263.88
679.832	8296.42
680.181	8236.99
680.529	8318.11
680.877	8261.84
681.225	8258.68
681.573	8286.48
681.922	8239.25
682.27	8242.41
682.618	8212.35
682.966	8116.76
683.314	8139.59
683.661	8154.5
684.009	8091.45
684.357	8078.35
684.705	8104.79
685.053	8099.59
685.4	8057.78
685.748	8043.55
686.095	8053.71
686.443	7976.43
686.79	8003.32
687.138	8005.58
687.485	7933.04
687.832	7956.77
688.18	7969.65
688.527	7927.39
688.874	7906.37
689.221	7881.97
689.568	7802.87
689.915	7803.78
690.262	7910.44
690.609	7761.29
690.956	7756.1
691.303	7770.78
691.65	7692.59
691.997	7658.02
692.344	7637.45
692.69	7593.61
693.037	7593.39
693.383	7579.83
693.73	7559.04
694.077	7490.57
694.423	7524.46
694.769	7501.19
695.116	7451.24
695.462	7478.36
695.808	7436.1
696.155	7437.46
696.501	7315.88
696.847	7406.95
697.193	7311.36
697.539	7265.03
697.885	7247.41
698.231	7187.75
698.577	7189.33
698.923	7151.59
699.269	7119.95
699.614	7166.51
699.96	7089.22
700.306	7088.77
700.651	7090.58
700.997	6982.78
701.342	7005.83
701.688	6990.92
702.033	6952.5
702.379	6951.82
702.724	6925.61
703.069	6933.74
703.415	6866.4
703.76	6818.27
704.105	6832.73
704.45	6810.58
704.795	6786.86
705.14	6702.11
705.485	6715.9
705.83	6729.68
706.175	6676.35
706.52	6687.87
706.865	6625.96
707.209	6586.86
707.554	6623.24
707.899	6586.18
708.243	6521.1
708.588	6569.23
708.932	6470.71
709.277	6446.75
709.621	6484.04
709.966	6430.93
710.31	6466.64
710.654	6428.22
710.998	6402.23
711.342	6427.32
711.687	6350.03
712.031	6376.7
712.375	6289.47
712.719	6348
713.063	6403.36
713.407	6335.12
713.75	6340.31
714.094	6287.89
714.438	6257.38
714.782	6315
715.125	6256.25
715.469	6226.42
715.812	6181.9
716.156	6192.29
716.499	6173.76
716.843	6172.86
717.186	6137.61
717.53	6245.85
717.873	6164.95
718.216	6166.53
718.559	6125.86
718.902	6133.77
719.246	6120.66
719.589	6127.21
719.932	6080.43
720.275	6082.47
720.617	6113.43
720.96	6111.62
721.303	6101.22
721.646	6049.47
721.989	6081.79
722.331	6067.78
722.674	6015.8
723.016	6026.42
723.359	6042.69
723.701	6068.46
724.044	6035.91
724.386	6000.44
724.729	6056.48
725.071	5956.82
725.413	6016.93
725.755	5999.08
726.097	5954.56
726.439	6012.19
726.782	5958.18
727.124	5989.14
727.465	5976.93
727.807	5997.05
728.149	5934.22
728.491	5957.5
728.833	5995.24
729.175	5939.19
729.516	5932.19
729.858	5950.27
730.199	5966.76
730.541	5978.06
730.882	6002.02
731.224	5952.75
731.565	5968.35
731.906	5948.23
732.248	5964.5
732.589	5924.05
732.93	5955.92
733.271	5939.87
733.612	5936.71
733.953	5950.49
734.294	5946.43
734.635	5921.12
734.976	5904.17
735.317	5959.76
735.658	5964.5
735.999	5918.63
736.339	5944.39
736.68	6024.84
737.021	5948.91
737.361	5972.19
737.702	6005.86
738.042	5988.46
738.383	6006.54
738.723	6032.52
739.063	6003.37
739.404	6030.27
739.744	6042.02
740.084	6000.44
740.424	6088.57
740.764	6015.58
741.104	6102.58
741.444	6051.06
741.784	6085.63
742.124	6096.03
742.464	6118.62
742.804	6163.82
743.143	6183.03
743.483	6170.37
743.823	6202.01
744.162	6200.88
744.502	6238.62
744.841	6283.59
745.181	6249.47
745.52	6285.4
745.86	6369.69
746.199	6360.65
746.538	6371.95
746.877	6457.6
747.216	6468.67
747.556	6546.18
747.895	6568.56
748.234	6585.5
748.573	6669.34
748.911	6714.99
749.25	6775.56
749.589	6796.12
749.928	6839.96
750.267	7004.25
750.605	6997.25
750.944	7018.94
751.283	7125.6
751.621	7259.84
751.96	7314.3
752.298	7361.98
752.636	7498.48
752.975	7512.49
753.313	7606.95
753.651	7754.97
753.989	7833.38
754.327	7945.02
754.666	7970.1
755.004	8210.77
755.342	8276.76
755.679	8427.26
756.017	8526.24
756.355	8688.73
756.693	8771.21
757.031	8910.87
757.368	9030.64
757.706	9147.92
758.044	9350.4
758.381	9485.99
758.719	9616.84
759.056	9722.37
759.394	9867.68
759.731	10027.9
760.068	10155.35
760.405	10288.91
760.743	10462.69
761.08	10606.64
761.417	10779.97
761.754	10971.6
762.091	11119.4
762.428	11208.43
762.765	11432.16
763.102	11562.55
763.438	11791.47
763.775	11889.77
764.112	12044.57
764.449	12277.78
764.785	12440.72
765.122	12530.66
765.458	12635.06
765.795	12845.23
766.131	13087.48
766.467	13212.45
766.804	13301.71
767.14	13442.27
767.476	13625.09
767.812	13724.07
768.148	13831.19
768.485	13995.48
768.821	14088.13
769.157	14211.74
