Data from hue_330_FLMS001491_24.txt Node
Date: Mon Feb 06 15:45:10 GMT 2017
User: dcchb
Spectrometer: FLMS00149
Trigger mode: 0
Integration Time (sec): 2.000000E-2
Scans to average: 10
Electric dark correction enabled: true
Nonlinearity correction enabled: false
Boxcar width: 0
XAxis mode: Wavelengths
Number of Pixels in Spectrum: 2048
>>>>>Begin Spectral Data<<<<<
341.393	-15.27
341.776	-15.27
342.16	-15.27
342.543	-75.15
342.927	-76.51
343.31	-62.05
343.693	-59.33
344.077	-79
344.46	-64.98
344.843	-49.39
345.226	-38.77
345.61	-26.57
345.993	-26.12
346.376	3.26
346.759	13.21
347.142	10.49
347.525	44.17
347.908	57.5
348.291	70.38
348.674	101.57
349.057	105.63
349.44	120.32
349.823	158.29
350.206	160.32
350.588	184.73
350.971	202.35
351.354	223.6
351.737	226.08
352.119	257.27
352.502	263.82
352.884	275.12
353.267	285.74
353.65	279.87
354.032	288.9
354.414	331.16
354.797	310.15
355.179	311.5
355.562	320.54
355.944	314.89
356.326	341.78
356.709	312.63
357.091	324.61
357.473	347.89
357.855	336.59
358.238	329.81
358.62	330.94
359.002	340.2
359.384	315.8
359.766	327.32
360.148	323.48
360.53	333.88
360.912	346.3
361.294	336.59
361.676	337.72
362.057	347.43
362.439	319.86
362.821	329.81
363.203	333.2
363.584	318.28
363.966	326.19
364.348	304.95
364.729	332.75
365.111	309.92
365.493	316.25
365.874	311.28
366.256	332.75
366.637	313.54
367.019	307.66
367.4	301.11
367.781	303.37
368.163	309.24
368.544	307.44
368.925	316.47
369.306	335.91
369.688	298.4
370.069	332.97
370.45	302.24
370.831	310.15
371.212	312.18
371.593	318.06
371.974	298.62
372.355	313.31
372.736	301.79
373.117	309.24
373.498	317.38
373.879	308.34
374.26	313.08
374.641	310.37
375.021	315.57
375.402	294.78
375.783	318.73
376.163	320.77
376.544	311.73
376.925	313.76
377.305	310.15
377.686	318.73
378.066	324.61
378.447	336.59
378.827	328.9
379.208	320.09
379.588	329.58
379.968	323.71
380.349	313.99
380.729	341.56
381.109	349.02
381.489	349.69
381.87	329.58
382.25	340.65
382.63	322.12
383.01	332.97
383.39	330.03
383.77	355.57
384.15	337.94
384.53	361.9
384.91	347.89
385.29	340.88
385.67	358.28
386.049	342.91
386.429	335.91
386.809	343.82
387.189	361.9
387.568	341.78
387.948	341.56
388.328	334.78
388.707	327.1
389.087	334.78
389.466	359.41
389.846	360.32
390.225	356.02
390.605	367.32
390.984	358.51
391.363	367.32
391.743	348.79
392.122	370.26
392.501	367.55
392.881	359.19
393.26	372.97
393.639	385.4
394.018	382.91
394.397	372.52
394.776	360.77
395.155	375.68
395.534	369.81
395.913	386.53
396.292	363.93
396.671	379.75
397.05	379.52
397.429	365.74
397.808	361.9
398.186	376.36
398.565	385.63
398.944	389.02
399.323	376.13
399.701	392.86
400.08	400.09
400.458	403.7
400.837	384.5
401.215	405.51
401.594	399.18
401.972	389.92
402.351	408.9
402.729	405.51
403.107	403.93
403.486	415.91
403.864	404.61
404.242	441.67
404.62	405.96
404.999	412.29
405.377	408
405.755	410.03
406.133	416.59
406.511	442.57
406.889	437.6
407.267	446.19
407.645	433.76
408.023	436.25
408.401	459.52
408.779	440.77
409.156	453.19
409.534	435.34
409.912	450.71
410.29	482.8
410.667	468.11
411.045	469.24
411.422	475.57
411.8	483.48
412.178	485.51
412.555	502.01
412.933	481.89
413.31	495.45
413.687	497.94
414.065	509.01
414.442	520.99
414.819	528.22
415.197	542.91
415.574	551.72
415.951	544.94
416.328	568.22
416.705	545.85
417.082	539.52
417.46	560.76
417.837	555.34
418.214	580.42
418.591	567.54
418.967	576.58
419.344	586.75
419.721	584.04
420.098	593.98
420.475	603.47
420.852	613.64
421.228	625.39
421.605	612.96
421.982	636.92
422.358	647.77
422.735	631.72
423.111	658.16
423.488	637.82
423.864	667.65
424.241	650.48
424.617	688.44
424.994	673.53
425.37	689.35
425.746	690.48
426.123	690.25
426.499	704.94
426.875	711.04
427.251	706.97
427.627	717.82
428.003	731.61
428.379	729.8
428.756	719.18
429.132	736.12
429.507	732.96
429.883	758.05
430.259	743.81
430.635	768.67
431.011	790.36
431.387	786.07
431.763	809.57
432.138	784.49
432.514	827.2
432.89	826.74
433.265	831.72
433.641	854.77
434.016	865.39
434.392	838.49
434.767	877.59
435.143	870.36
435.518	881.88
435.894	899.28
436.269	896.57
436.644	911.49
437.02	927.53
437.395	920.3
437.77	928.89
438.145	946.51
438.52	948.32
438.895	966.85
439.271	970.24
439.646	995.1
440.021	984.25
440.395	976.8
440.77	992.62
441.145	1001.2
441.52	1028.09
441.895	1002.11
442.27	990.58
442.645	990.36
443.019	1000.07
443.394	999.85
443.769	1035.55
444.143	1038.26
444.518	1042.78
444.892	1035.33
445.267	1056.12
445.641	1049.79
446.016	1051.14
446.39	1081.2
446.764	1067.19
447.139	1051.82
447.513	1073.29
447.887	1065.61
448.262	1077.81
448.636	1096.34
449.01	1097.25
449.384	1122.56
449.758	1109.9
450.132	1144.48
450.506	1128.43
450.88	1144.7
451.254	1104.48
451.628	1150.13
452.002	1115.55
452.376	1138.83
452.75	1108.32
453.123	1176.79
453.497	1183.12
453.871	1179.95
454.244	1191.48
454.618	1210.24
454.992	1207.52
455.365	1211.59
455.739	1229.67
456.112	1233.74
456.486	1205.72
456.859	1220.86
457.232	1274.64
457.606	1246.17
457.979	1268.77
458.352	1294.75
458.725	1322.55
459.099	1323.45
459.472	1333.17
459.845	1331.14
460.218	1311.02
460.591	1353.74
460.964	1359.39
461.337	1377.92
461.71	1385.83
462.083	1412.27
462.456	1404.13
462.829	1414.3
463.201	1427.41
463.574	1409.1
463.947	1445.48
464.32	1492.49
464.692	1478.93
465.065	1492.71
465.438	1501.3
465.81	1504.92
466.183	1523.22
466.555	1546.05
466.928	1543.56
467.3	1565.26
467.672	1564.8
468.045	1567.97
468.417	1618.36
468.789	1592.15
469.161	1609.32
469.534	1634.86
469.906	1672.82
470.278	1677.34
470.65	1693.16
471.022	1718.02
471.394	1720.05
471.766	1732.93
472.138	1781.29
472.51	1823.33
472.882	1812.71
473.253	1799.15
473.625	1877.34
473.997	1862.87
474.369	1877.79
474.74	1908.75
475.112	1948.75
475.484	1982.42
475.855	1991.23
476.227	2034.85
476.598	2044.56
476.97	2068.97
477.341	2079.37
477.713	2100.16
478.084	2118.24
478.455	2153.94
478.827	2195.75
479.198	2232.36
479.569	2229.87
479.94	2270.77
480.311	2306.48
480.682	2335.63
481.053	2372.69
481.424	2445.91
481.795	2456.76
482.166	2500.37
482.537	2484.55
482.908	2524.55
483.279	2568.62
483.65	2600.48
484.021	2585.57
484.391	2664.21
484.762	2658.79
485.133	2703.3
485.503	2713.93
485.874	2790.99
486.244	2762.51
486.615	2823.53
486.985	2839.12
487.356	2879.8
487.726	2894.03
488.097	2995.27
488.467	3005.22
488.837	2985.33
489.207	3056.52
489.578	3083.63
489.948	3090.64
490.318	3153.69
490.688	3157.3
491.058	3182.39
491.428	3208.6
491.798	3276.17
492.168	3335.6
492.538	3372.44
492.908	3363.17
493.278	3415.83
493.648	3403.85
494.017	3430.29
494.387	3452.66
494.757	3473.68
495.126	3549.16
495.496	3540.57
495.866	3543.51
496.235	3588.93
496.605	3574.47
496.974	3630.29
497.344	3679.78
497.713	3672.54
498.082	3670.96
498.452	3716.16
498.821	3713
499.19	3734.69
499.559	3741.24
499.928	3807
500.298	3816.5
500.667	3802.71
501.036	3842.03
501.405	3838.42
501.774	3869.6
502.143	3916.61
502.512	3907.57
502.88	3965.42
503.249	3967.45
503.618	3937.4
503.987	3963.61
504.356	3960.67
504.724	3995.47
505.093	4037.96
505.462	3997.28
505.83	4062.36
506.199	4092.65
506.567	4115.47
506.936	4072.53
507.304	4117.05
507.672	4157.5
508.041	4162.7
508.409	4175.36
508.777	4188.01
509.145	4176.03
509.514	4228.01
509.882	4225.98
510.25	4240.44
510.618	4263.49
510.986	4249.93
511.354	4289.93
511.722	4324.96
512.09	4364.28
512.458	4319.53
512.826	4401.11
513.193	4333.32
513.561	4381.45
513.929	4412.64
514.297	4464.16
514.664	4421.9
515.032	4431.39
515.4	4486.76
515.767	4488.12
516.135	4483.37
516.502	4487.21
516.869	4491.96
517.237	4537.15
517.604	4501
517.972	4562.24
518.339	4544.39
518.706	4557.49
519.073	4580.32
519.44	4578.74
519.808	4666.19
520.175	4642.69
520.542	4649.69
520.909	4656.93
521.276	4671.84
521.643	4730.37
522.009	4693.08
522.376	4744.61
522.743	4801.55
523.11	4765.4
523.477	4825.28
523.843	4864.83
524.21	4863.7
524.577	4910.25
524.943	4896.47
525.31	4967.65
525.676	4922.23
526.043	4971.04
526.409	5010.59
526.776	5020.53
527.142	5058.04
527.508	5076.58
527.874	5103.47
528.241	5105.95
528.607	5132.17
528.973	5159.51
529.339	5162.22
529.705	5192.96
530.071	5266.85
530.437	5278.6
530.803	5299.62
531.169	5324.7
531.535	5316.34
531.901	5320.64
532.267	5372.84
532.632	5408.32
532.998	5416.45
533.364	5430.46
533.73	5503.01
534.095	5499.62
534.461	5486.51
534.826	5559.95
535.192	5505.26
535.557	5570.12
535.923	5574.87
536.288	5635.2
536.653	5623.45
537.019	5643.34
537.384	5675.66
537.749	5653.96
538.114	5695.54
538.479	5729.44
538.845	5740.06
539.21	5721.98
539.575	5758.37
539.94	5819.38
540.305	5856.89
540.67	5839.72
541.034	5852.15
541.399	5832.94
541.764	5887.18
542.129	5951.58
542.494	5953.39
542.858	5952.03
543.223	6078.81
543.587	6011.24
543.952	6081.29
544.316	6075.19
544.681	6101.63
545.045	6142.08
545.41	6175.98
545.774	6196.77
546.138	6204.46
546.503	6235.42
546.867	6186.38
547.231	6276.77
547.595	6308.18
547.959	6280.84
548.324	6328.29
548.688	6374.17
549.052	6418.69
549.416	6399.03
549.779	6446.94
550.143	6450.55
550.507	6433.6
550.871	6470.21
551.235	6482.87
551.599	6565.8
551.962	6580.26
552.326	6546.37
552.689	6582.07
553.053	6611.68
553.417	6556.76
553.78	6725.57
554.143	6648.06
554.507	6687.15
554.87	6682.41
555.234	6756.08
555.597	6782.75
555.96	6763.76
556.323	6753.37
556.686	6809.86
557.05	6849.18
557.413	6814.61
557.776	6856.42
558.139	6891.9
558.502	6909.52
558.865	6940.26
559.228	7020.25
559.59	6936.19
559.953	6975.96
560.316	7040.59
560.679	7049.41
561.041	7105.67
561.404	7074.72
561.767	7106.13
562.129	7165.33
562.492	7171.21
562.854	7201.94
563.217	7160.59
563.579	7182.96
563.941	7260.92
564.304	7310.19
564.666	7333.24
565.028	7347.25
565.39	7338.89
565.753	7390.64
566.115	7380.92
566.477	7373.92
566.839	7415.72
567.201	7439.9
567.563	7468.83
567.925	7481.03
568.287	7560.13
568.648	7533.23
569.01	7613.91
569.372	7622.27
569.734	7608.26
570.095	7713.34
570.457	7744.75
570.819	7778.43
571.18	7756.05
571.542	7836.28
571.903	7911.08
572.265	7917.63
572.626	7951.75
572.987	8013.9
573.349	8073.33
573.71	8079.89
574.071	8125.31
574.432	8140.22
574.794	8234.68
575.155	8238.3
575.516	8351.07
575.877	8437.17
576.238	8454.11
576.599	8544.28
576.96	8578.86
577.32	8669.48
577.681	8730.72
578.042	8762.35
578.403	8901.11
578.763	8965.51
579.124	9046.87
579.485	9153.08
579.845	9313.07
580.206	9445.05
580.566	9445.95
580.927	9617.7
581.287	9752.38
581.648	9816.56
582.008	10025.82
582.368	10153.5
582.728	10255.87
583.089	10405.7
583.449	10541.52
583.809	10653.38
584.169	10876.88
584.529	11110.54
584.889	11254.72
585.249	11360.03
585.609	11518.67
585.969	11821.71
586.329	12048.82
586.688	12231.87
587.048	12355.71
587.408	12597.06
587.768	12813.32
588.127	13060.09
588.487	13260.77
588.846	13666.18
589.206	13756.12
589.565	13992.5
589.925	14293.96
590.284	14465.48
590.643	14798.81
591.003	15109.98
591.362	15418.22
591.721	15622.96
592.08	15859.79
592.44	16193.57
592.799	16423.4
593.158	16702.03
593.517	16869.71
593.876	17264.96
594.235	17548.11
594.593	17773.64
594.952	18092.05
595.311	18307.87
595.67	18645.26
596.029	19104.91
596.387	19363.43
596.746	19651.11
597.104	19803.87
597.463	20250.87
597.822	20444.76
598.18	20619.44
598.538	20912.54
598.897	21232.31
599.255	21548.01
599.613	22026.41
599.972	22084.49
600.33	22351.83
600.688	22672.05
601.046	22987.29
601.404	23437.22
601.762	23585.02
602.12	23854.39
602.478	24196.07
602.836	24468.16
603.194	24514.26
603.552	24876.96
603.91	25090.96
604.268	25417.06
604.625	25515.59
604.983	26008.23
605.341	25976.59
605.698	26394.89
606.056	26636.91
606.413	26843.23
606.771	27254.3
607.128	27317.57
607.485	27498.36
607.843	27714.85
608.2	28118.91
608.557	28324.1
608.914	28363.42
609.272	28827.14
609.629	29090.86
609.986	29283.17
610.343	29360.23
610.7	29829.82
611.057	30000.21
611.414	30061.46
611.771	30232.52
612.127	30583.48
612.484	30724.71
612.841	30919.29
613.198	30907.76
613.554	31128.55
613.911	31368.31
614.267	31570.12
614.624	31775.76
614.98	31883.1
615.337	32160.84
615.693	32346.82
616.05	32345.46
616.406	32792.01
616.762	32864.32
617.118	32819.12
617.475	32910.19
617.831	33212.33
618.187	33254.59
618.543	33479.44
618.899	33683.51
619.255	33827.23
619.611	33899.32
619.967	33998.07
620.323	34279.65
620.678	34145.42
621.034	34163.95
621.39	34343.83
621.746	34420.66
622.101	34962.57
622.457	34649.13
622.812	34845.28
623.168	34858.84
623.523	35178.16
623.879	35366.4
624.234	35076.46
624.589	35224.03
624.945	35503.35
625.3	35523.01
625.655	35534.08
626.01	35716
626.365	35853.85
626.72	35761.64
627.075	35859.04
627.43	35964.35
627.785	35848.2
628.14	36083.22
628.495	36271.91
628.85	36204.8
629.205	36134.29
629.559	36494.96
629.914	36249.54
630.269	36374.96
630.623	36261.97
630.978	36151.69
631.332	36535.41
631.687	36496.31
632.041	36454.96
632.396	36567.05
632.75	36465.58
633.104	36586.71
633.459	36490.44
633.813	36522.3
634.167	36537.9
634.521	36615.86
634.875	36637.55
635.229	36645.24
635.583	36602.75
635.937	36606.14
636.291	36599.59
636.645	36675.29
636.999	36635.97
637.352	36694.95
637.706	36482.76
638.06	36659.25
638.413	36638.01
638.767	36435.07
639.121	36652.69
639.474	36481.17
639.828	36539.7
640.181	36617.44
640.534	36619.25
640.888	36530.44
641.241	36251.58
641.594	36473.94
641.947	36579.02
642.301	36365.47
642.654	36464.68
643.007	36546.26
643.36	36403.21
643.713	36513.26
644.066	36593.94
644.419	36269.65
644.771	36240.5
645.124	35911.02
645.477	35769.1
645.83	35637.35
646.182	35544.93
646.535	35369.34
646.888	35416.34
647.24	35329.34
647.593	35413.18
647.945	35483.46
648.298	35330.92
648.65	35273.07
649.002	35227.42
649.355	35370.24
649.707	35176.35
650.059	35438.72
650.411	35948.76
650.763	35915.76
651.115	36319.37
651.467	36148.98
651.819	36209.54
652.171	36045.48
652.523	36145.36
652.875	36046.61
653.227	35993.5
653.578	36216.32
653.93	35991.47
654.282	36090.22
654.633	35826.95
654.985	36093.16
655.337	36075.99
655.688	35997.57
656.039	36051.81
656.391	35765.03
656.742	35858.37
657.094	35895.65
657.445	35936.33
657.796	36012.03
658.147	35845.48
658.498	35760.51
658.849	35905.37
659.2	35779.95
659.551	35691.36
659.902	35774.98
660.253	35752.38
660.604	35688.43
660.955	35524.14
661.306	35784.02
661.656	35673.29
662.007	35795.32
662.358	35654.08
662.708	35715.77
663.059	35738.59
663.409	35503.12
663.76	35794.64
664.11	35774.53
664.461	35722.1
664.811	35791.93
665.161	35821.98
665.511	35573.85
665.862	35754.19
666.212	35865.37
666.562	35838.25
666.912	35740.63
667.262	35533.63
667.612	35665.38
667.962	35779.95
668.312	35714.19
668.662	35748.31
669.011	35716.67
669.361	35576.34
669.711	35546.28
670.06	35613.4
670.41	35414.31
670.76	35544.7
671.109	35582.44
671.459	35579.95
671.808	35512.61
672.157	35546.51
672.507	35357.36
672.856	35310.36
673.205	35530.46
673.554	35561.42
673.904	35428.32
674.253	35763.23
674.602	35416.57
674.951	34923.47
675.3	34676.48
675.649	35297.7
675.998	35393.29
676.346	35287.98
676.695	35391.26
677.044	35059.06
677.393	35247.53
677.741	35357.59
678.09	35254.99
678.438	35292.5
678.787	35162.79
679.135	35185.84
679.484	34887.77
679.832	35183.13
680.181	34958.05
680.529	35043.47
680.877	35098.61
681.225	34825.62
681.573	35028.78
681.922	34884.61
682.27	34791.27
682.618	34728.68
682.966	34716.7
683.314	34788.79
683.661	34586.53
684.009	34499.53
684.357	34441.23
684.705	34362.81
685.053	34391.74
685.4	34379.99
685.748	34281.91
686.095	34278.75
686.443	34201.69
686.79	34000.11
687.138	34108.35
687.485	34140.22
687.832	33853.67
688.18	34063.16
688.527	33775.03
688.874	33761.02
689.221	33761.25
689.568	33641.02
689.915	33625.43
690.262	33529.61
690.609	33348.6
690.956	33360.8
691.303	33292.56
691.65	33192.67
691.997	33241.71
692.344	33009.4
692.69	33089.62
693.037	32959.46
693.383	32823.64
693.73	32879.69
694.077	32608.28
694.423	32786.36
694.769	32589.07
695.116	32632.91
695.462	32613.48
695.808	32429.98
696.155	32431.79
696.501	32187.73
696.847	32329.19
697.193	32099.37
697.539	32130.33
697.885	31774.86
698.231	31769.21
698.577	31752.26
698.923	31699.83
699.269	31605.6
699.614	31545.71
699.96	31386.62
700.306	31400.86
700.651	31253.74
700.997	31038.83
701.342	31121.31
701.688	31159.96
702.033	30998.38
702.379	30998.15
702.724	30810.36
703.069	30949.57
703.415	30571.5
703.76	30626.19
704.105	30609.01
704.45	30642.91
704.795	30287.89
705.14	30301.22
705.485	30355.68
705.83	30103.04
706.175	30218.29
706.52	30168.8
706.865	30071.62
707.209	29919.31
707.554	29751.63
707.899	29935.58
708.243	29696.49
708.588	29722.93
708.932	29512.32
709.277	29506.44
709.621	29632.99
709.966	29216.73
710.31	29449.49
710.654	29196.17
710.998	29226
711.342	29176.96
711.687	28993.01
712.031	28994.14
712.375	28828.95
712.719	28857.65
713.063	28878.66
713.407	28974.25
713.75	28818.55
714.094	28670.31
714.438	28601.61
714.782	28576.75
715.125	28510.54
715.469	28567.94
715.812	28303.99
716.156	28178.57
716.499	28240.49
716.843	28346.7
717.186	28134.95
717.53	28267.83
717.873	28289.07
718.216	28132.01
718.559	28004.56
718.902	27756.66
719.246	28018.57
719.589	27786.49
719.932	27667.62
720.275	27754.17
720.617	27756.43
720.96	27599.6
721.303	27636.66
721.646	27621.97
721.989	27458.59
722.331	27489.09
722.674	27482.09
723.016	27487.06
723.359	27331.13
723.701	27464.46
724.044	27216.33
724.386	27141.76
724.729	27282.77
725.071	27112.38
725.413	27142.21
725.755	27136.33
726.097	26989.9
726.439	26946.28
726.782	26930.92
727.124	27138.59
727.465	26926.4
727.807	26925.49
728.149	26755.33
728.491	26746.29
728.833	26704.48
729.175	26550.14
729.516	26625.84
729.858	26525.73
730.199	26560.98
730.541	26486.18
730.882	26349.46
731.224	26503.36
731.565	26345.17
731.906	26327.99
732.248	26366.41
732.589	26201.9
732.93	26107.44
733.271	26169.81
733.612	26226.3
733.953	26117.6
734.294	26052.97
734.635	25899.53
734.976	26060.43
735.317	25860.66
735.658	25894.11
735.999	25855.01
736.339	25827.22
736.68	25814.56
737.021	25709.03
737.361	25678.75
737.702	25806.43
738.042	25654.11
738.383	25599.88
738.723	25821.11
739.063	25579.09
739.404	25619.09
739.744	25490.05
740.084	25325.53
740.424	25412.31
740.764	25462.48
741.104	25511.74
741.444	25428.36
741.784	25215.03
742.124	25287.57
742.464	25168.48
742.804	25078.54
743.143	25085.09
743.483	25154.92
743.823	25010.06
744.162	25092.77
744.502	25128.03
744.841	24880.57
745.181	25051.19
745.52	24905.43
745.86	24854.81
746.199	24758.54
746.538	24758.77
746.877	24909.05
747.216	24745.89
747.556	24630.41
747.895	24720.13
748.234	24536.4
748.573	24566.23
748.911	24503.64
749.25	24453.02
749.589	24369.18
749.928	24417.99
750.267	24436.97
750.605	24286.92
750.944	24262.96
751.283	24138.45
751.621	24193.81
751.96	24145.68
752.298	24114.95
752.636	24121.05
752.975	24010.09
753.313	23861.17
753.651	23971.67
753.989	23808.96
754.327	23792.47
754.666	23792.02
755.004	23689.87
755.342	23699.81
755.679	23624.11
756.017	23531.68
756.355	23670.89
756.693	23501.63
757.031	23441.74
757.368	23305.47
757.706	23402.65
758.044	23288.53
758.381	23386.6
758.719	23091.24
759.056	23064.35
759.394	23018.93
759.731	22962.21
