Data from hue_22_FLMS001491_00092.txt Node
Date: Tue Feb 07 17:10:57 GMT 2017
User: dcchb
Spectrometer: FLMS00149
Trigger mode: 0
Integration Time (sec): 2.000000E-2
Scans to average: 10
Electric dark correction enabled: true
Nonlinearity correction enabled: false
Boxcar width: 0
XAxis mode: Wavelengths
Number of Pixels in Spectrum: 2048
>>>>>Begin Spectral Data<<<<<
341.393	-11.06
341.776	-11.06
342.16	-11.06
342.543	-60.1
342.927	-69.36
343.31	-69.59
343.693	-72.53
344.077	-66.88
344.46	-61
344.843	-56.48
345.226	-59.42
345.61	-18.29
345.993	-16.26
346.376	-3.83
346.759	9.05
347.142	13.35
347.525	42.95
347.908	65.1
348.291	81.82
348.674	85.44
349.057	126.56
349.44	132.67
349.823	151.65
350.206	166.34
350.588	199.56
350.971	211.53
351.354	222.16
351.737	231.65
352.119	263.51
352.502	258.99
352.884	269.16
353.267	272.55
353.65	305.09
354.032	294.7
354.414	306.22
354.797	304.41
355.179	328.14
355.562	307.8
355.944	324.07
356.326	341.93
356.709	315.49
357.091	334.69
357.473	325.66
357.855	355.26
358.238	355.71
358.62	345.99
359.002	348.25
359.384	337.63
359.766	343.51
360.148	328.82
360.53	342.83
360.912	336.28
361.294	332.43
361.676	319.33
362.057	350.06
362.439	328.14
362.821	347.58
363.203	320.91
363.584	317.97
363.966	338.99
364.348	335.82
364.729	321.81
365.111	333.79
365.493	325.88
365.874	321.14
366.256	315.71
366.637	323.62
367.019	324.75
367.4	321.36
367.781	310.74
368.163	312.32
368.544	307.12
368.925	330.85
369.306	303.96
369.688	319.33
370.069	318.42
370.45	305.54
370.831	297.41
371.212	338.99
371.593	292.89
371.974	324.53
372.355	309.38
372.736	324.75
373.117	320.46
373.498	303.28
373.879	321.14
374.26	293.34
374.641	316.62
375.021	307.58
375.402	319.33
375.783	342.15
376.163	329.5
376.544	326.33
376.925	315.49
377.305	350.74
377.686	341.7
378.066	328.82
378.447	331.76
378.827	342.15
379.208	323.62
379.588	349.84
379.968	340.57
380.349	341.47
380.729	338.08
381.109	335.37
381.489	324.75
381.87	347.12
382.25	355.03
382.63	329.72
383.01	351.19
383.39	351.87
383.77	350.29
384.15	331.76
384.53	332.21
384.91	342.6
385.29	350.51
385.67	337.86
386.049	356.39
386.429	358.87
386.809	348.25
387.189	340.57
387.568	339.44
387.948	376.73
388.328	377.86
388.707	371.98
389.087	342.38
389.466	363.39
389.846	362.72
390.225	352.77
390.605	359.78
390.984	357.29
391.363	360
391.743	354.58
392.122	366.56
392.501	383.05
392.881	366.11
393.26	377.18
393.639	359.33
394.018	369.27
394.397	377.86
394.776	372.89
395.155	381.25
395.534	348.71
395.913	377.63
396.292	360
396.671	358.42
397.05	388.48
397.429	392.55
397.808	372.21
398.186	371.53
398.565	387.12
398.944	365.88
399.323	399.78
399.701	395.26
400.08	397.29
400.458	418.53
400.837	381.7
401.215	402.72
401.594	397.29
401.972	401.81
402.351	377.63
402.729	387.8
403.107	385.31
403.486	403.62
403.864	393.68
404.242	414.92
404.62	390.74
404.999	410.4
405.377	412.88
405.755	395.71
406.133	418.99
406.511	431.19
406.889	420.57
407.267	425.99
407.645	417.63
408.023	424.18
408.401	443.39
408.779	431.64
409.156	426.9
409.534	411.08
409.912	455.37
410.29	466.89
410.667	457.86
411.045	437.29
411.422	441.13
411.8	434.35
412.178	436.84
412.555	433.9
412.933	474.58
413.31	464.41
413.687	439.78
414.065	484.75
414.442	483.39
414.819	461.47
415.197	479.32
415.574	479.55
415.951	471.19
416.328	483.84
416.705	487.68
417.082	491.07
417.46	479.78
417.837	482.71
418.214	476.39
418.591	496.27
418.967	479.55
419.344	521.36
419.721	487.46
420.098	516.38
420.475	508.25
420.852	508.25
421.228	515.03
421.605	515.48
421.982	504.63
422.358	506.22
422.735	530.4
423.111	505.09
423.488	522.26
423.864	537.85
424.241	532.88
424.617	532.2
424.994	555.25
425.37	527.23
425.746	529.49
426.123	544.41
426.499	547.8
426.875	548.25
427.251	580.56
427.627	550.96
428.003	560.9
428.379	557.29
428.756	553.45
429.132	580.11
429.507	559.77
429.883	590.51
430.259	600.45
430.635	575.37
431.011	581.47
431.387	603.61
431.763	628.7
432.138	612.88
432.514	588.47
432.89	609.49
433.265	621.47
433.641	615.14
434.016	640.68
434.392	621.69
434.767	651.3
435.143	629.15
435.518	693.1
435.894	622.6
436.269	637.06
436.644	666.66
437.02	668.47
437.395	667.57
437.77	700.56
438.145	680
438.52	658.3
438.895	697.85
439.271	707.11
439.646	705.76
440.021	721.13
440.395	696.94
440.77	701.46
441.145	716.83
441.52	717.96
441.895	736.49
442.27	698.53
442.645	739.43
443.019	729.26
443.394	740.79
443.769	745.08
444.143	741.69
444.518	736.72
444.892	730.84
445.267	749.37
445.641	750.28
446.016	743.27
446.39	766.1
446.764	780.56
447.139	766.77
447.513	786.66
447.887	787.11
448.262	778.75
448.636	771.97
449.01	781.91
449.384	799.09
449.758	804.06
450.132	797.28
450.506	812.2
450.88	825.3
451.254	834.57
451.628	829.82
452.002	843.83
452.376	880.89
452.75	842.7
453.123	841.12
453.497	863.04
453.871	862.14
454.244	853.78
454.618	879.31
454.992	906.88
455.365	912.76
455.739	902.59
456.112	903.49
456.486	895.36
456.859	912.98
457.232	937.39
457.606	923.61
457.979	948.46
458.352	971.97
458.725	999.54
459.099	969.71
459.472	983.94
459.845	1001.34
460.218	995.47
460.591	1035.92
460.964	1021.46
461.337	1048.35
461.71	1049.03
462.083	1075.01
462.456	1070.04
462.829	1072.3
463.201	1061
463.574	1102.81
463.947	1099.19
464.32	1132.19
464.692	1136.71
465.065	1130.15
465.438	1145.52
465.81	1197.27
466.183	1167.44
466.555	1189.14
466.928	1191.62
467.3	1229.13
467.672	1213.99
468.045	1257.61
468.417	1280.66
468.789	1267.1
469.161	1266.42
469.534	1305.52
469.906	1320.88
470.278	1349.13
470.65	1332.63
471.022	1372.63
471.394	1409.92
471.766	1414.21
472.138	1435.91
472.51	1436.81
472.882	1500.31
473.253	1511.39
473.625	1546.64
473.997	1546.41
474.369	1550.71
474.74	1582.35
475.112	1621.67
475.484	1618.5
475.855	1643.59
476.227	1676.13
476.598	1709.12
476.97	1728.78
477.341	1788.44
477.713	1808.55
478.084	1818.95
478.455	1889.46
478.827	1929.68
479.198	1956.12
479.569	1945.73
479.94	2018.49
480.311	2047.19
480.682	2085.38
481.053	2158.6
481.424	2202.67
481.795	2204.93
482.166	2251.93
482.537	2279.05
482.908	2335.55
483.279	2349.33
483.65	2400.18
484.021	2428.42
484.391	2510.68
484.762	2507.07
485.133	2545.94
485.503	2613.73
485.874	2661.41
486.244	2690.56
486.615	2757
486.985	2787.96
487.356	2871.8
487.726	2933.27
488.097	2974.85
488.467	3007.39
488.837	3040.61
489.207	3087.62
489.578	3170.78
489.948	3147.95
490.318	3223.43
490.688	3253.94
491.058	3310.44
491.428	3348.63
491.798	3394.5
492.168	3420.94
492.538	3502.97
492.908	3516.31
493.278	3598.34
493.648	3641.73
494.017	3650.99
494.387	3700.48
494.757	3750.2
495.126	3798.11
495.496	3809.86
495.866	3849.18
496.235	3879.23
496.605	3926.46
496.974	3958.33
497.344	4022.96
497.713	4006.69
498.082	4053.69
498.452	4065.44
498.821	4136.18
499.19	4120.13
499.559	4148.38
499.928	4224.76
500.298	4286
500.667	4266.12
501.036	4318.09
501.405	4345.66
501.774	4380.69
502.143	4400.12
502.512	4387.47
502.88	4501.36
503.249	4452.78
503.618	4476.05
503.987	4518.54
504.356	4583.4
504.724	4540.69
505.093	4618.65
505.462	4631.53
505.83	4633.11
506.199	4669.5
506.567	4728.25
506.936	4737.97
507.304	4758.99
507.672	4772.77
508.041	4796.05
508.409	4837.63
508.777	4880.79
509.145	4898.87
509.514	4915.37
509.882	4907
510.25	4929.6
510.618	4976.15
510.986	4962.37
511.354	5033.55
511.722	5097.96
512.09	5100.67
512.458	5073.55
512.826	5130.5
513.193	5150.61
513.561	5164.17
513.929	5183.15
514.297	5228.8
514.664	5262.47
515.032	5288.24
515.4	5295.02
515.767	5307.9
516.135	5330.95
516.502	5246.66
516.869	5337.95
517.237	5377.05
517.604	5330.72
517.972	5409.82
518.339	5469.47
518.706	5428.12
519.073	5485.07
519.44	5483.49
519.808	5543.82
520.175	5539.53
520.542	5630.6
520.909	5557.61
521.276	5617.95
521.643	5662.24
522.009	5660.43
522.376	5647.1
522.743	5708.34
523.11	5805.96
523.477	5812.29
523.843	5778.39
524.21	5829.47
524.577	5862.23
524.943	5903.14
525.31	5975.22
525.676	5953.98
526.043	6030.36
526.409	6005.73
526.776	6081.21
527.142	6100.64
527.508	6100.87
527.874	6196.69
528.241	6196.01
528.607	6174.32
528.973	6234.43
529.339	6219.96
529.705	6331.37
530.071	6360.52
530.437	6408.89
530.803	6372.05
531.169	6456.12
531.535	6419.73
531.901	6471.93
532.267	6509.9
532.632	6522.78
532.998	6473.74
533.364	6640.74
533.73	6645.49
534.095	6629.9
534.461	6712.15
534.826	6754.64
535.192	6741.98
535.557	6782.66
535.923	6764.58
536.288	6805.94
536.653	6866.27
537.019	6848.2
537.384	6902.66
537.749	6927.74
538.114	6900.85
538.479	6965.03
538.845	7008.87
539.21	7004.12
539.575	7057.68
539.94	7088.42
540.305	7113.73
540.67	7091.58
541.034	7136.32
541.399	7176.32
541.764	7221.52
542.129	7202.99
542.494	7248.41
542.858	7254.96
543.223	7294.06
543.587	7339.71
543.952	7322.53
544.316	7367.5
544.681	7487.05
545.045	7457.22
545.41	7497.9
545.774	7481.17
546.138	7523.88
546.503	7598.68
546.867	7628.29
547.231	7635.97
547.595	7695.41
547.959	7740.6
548.324	7635.97
548.688	7757.32
549.052	7718.46
549.416	7779.7
549.779	7780.6
550.143	7829.41
550.507	7949.18
550.871	7945.34
551.235	7880.03
551.599	7967.94
551.962	7929.3
552.326	8008.39
552.689	8034.38
553.053	8048.39
553.417	8045.45
553.78	8178.56
554.143	8069.86
554.507	8150.08
554.87	8183.3
555.234	8288.84
555.597	8212
555.96	8237.54
556.323	8307.82
556.686	8335.39
557.05	8342.62
557.413	8382.39
557.776	8437.76
558.139	8489.28
558.502	8504.88
558.865	8494.25
559.228	8514.82
559.59	8485.21
559.953	8539
560.316	8635.95
560.679	8597.08
561.041	8608.6
561.404	8648.15
561.767	8713.68
562.129	8689.5
562.492	8817.41
562.854	8776.28
563.217	8825.54
563.579	8861.93
563.941	8854.7
564.304	8933.34
564.666	8895.37
565.028	8897.41
565.39	8978.08
565.753	9024.86
566.115	9079.1
566.477	9166.1
566.839	9131.75
567.201	9170.39
567.563	9172.2
567.925	9312.54
568.287	9299.43
568.648	9241.81
569.01	9377.62
569.372	9411.97
569.734	9387.11
570.095	9463.95
570.457	9503.04
570.819	9550.05
571.18	9604.96
571.542	9668.91
571.903	9656.26
572.265	9692.87
572.626	9757.27
572.987	9844.28
573.349	9800.66
573.71	9878.17
574.071	9948.91
574.432	10010.82
574.794	10094.21
575.155	10080.88
575.516	10133.98
575.877	10286.52
576.238	10294.88
576.599	10389.57
576.96	10406.75
577.32	10591.15
577.681	10610.81
578.042	10725.83
578.403	10779.39
578.763	10947.07
579.124	11001.53
579.485	11135.77
579.845	11219.83
580.206	11374.63
580.566	11407.17
580.927	11532.14
581.287	11742.08
581.648	11817.56
582.008	12025.91
582.368	12231.33
582.728	12328.5
583.089	12462.29
583.449	12593.13
583.809	12834.03
584.169	13025.66
584.529	13183.85
584.889	13398.31
585.249	13575.25
585.609	13699.99
585.969	14095.24
586.329	14214.78
586.688	14463.59
587.048	14693.19
587.408	14928.44
587.768	15130.01
588.127	15391.7
588.487	15686.83
588.846	15940.61
589.206	16247.5
589.565	16493.37
589.925	16870.08
590.284	17112.78
590.643	17422.83
591.003	17835.03
591.362	18084.96
591.721	18372.86
592.08	18700.99
592.44	19002.23
592.799	19253.29
593.158	19631.36
593.517	19945.48
593.876	20289.88
594.235	20561.06
594.593	20854.16
594.952	21322.17
595.311	21576.62
595.67	22090.28
596.029	22568.01
596.387	22686.65
596.746	23153.76
597.104	23322.34
597.463	23699.28
597.822	24188.3
598.18	24413.38
598.538	24773.6
598.897	25202.74
599.255	25375.84
599.613	26062.83
599.972	26258.08
600.33	26582.82
600.688	26840.66
601.046	27296.47
601.404	27660.98
601.762	28055.77
602.12	28362.88
602.478	28723.33
602.836	29065.69
603.194	29180.49
603.552	29448.05
603.91	29841.04
604.268	30239.9
604.625	30441.47
604.983	30891.63
605.341	30954.23
605.698	31428.57
606.056	31829.01
606.413	32056.35
606.771	32448.43
607.128	32640.51
607.485	32842.09
607.843	33184.9
608.2	33601.84
608.557	33867.82
608.914	33984.21
609.272	34440.24
609.629	34797.29
609.986	35115.47
610.343	35136.72
610.7	35600.43
611.057	35745.29
611.414	36169.46
611.771	36285.16
612.127	36511.82
612.484	36717.92
612.841	36952.26
613.198	37124.91
613.554	37372.36
613.911	37814.39
614.267	37918.11
614.624	37991.33
614.98	38218.67
615.337	38718.09
615.693	38665.21
616.05	38795.15
616.406	39253.22
616.762	39181.36
617.118	39307.68
617.475	39512.2
617.831	39855.92
618.187	40012.3
618.543	40239.63
618.899	40593.75
619.255	40506.29
619.611	40796.91
619.967	41072.15
620.323	41071.02
620.678	41145.37
621.034	41314.18
621.39	41143.11
621.746	41386.04
622.101	41978.35
622.457	41715.08
622.812	41827.16
623.168	42022.64
623.523	42165.91
623.879	42334.72
624.234	42192.58
624.589	42496.75
624.945	42674.82
625.3	42695.16
625.655	42785.78
626.01	42842.05
626.365	43004.99
626.72	43089.5
627.075	43063.51
627.43	43140.8
627.785	43029.84
628.14	43202.49
628.495	43416.5
628.85	43337.63
629.205	43255.37
629.559	43548.7
629.914	43337.18
630.269	43490.4
630.623	43267.35
630.978	43493.79
631.332	43696.94
631.687	43823.72
632.041	43614.91
632.396	43800.67
632.75	43622.82
633.104	43735.59
633.459	43602.48
633.813	43670.05
634.167	43825.3
634.521	43860.33
634.875	43874.79
635.229	43811.29
635.583	43712.99
635.937	43735.81
636.291	43852.19
636.645	43927.22
636.999	43858.52
637.352	43871.85
637.706	43681.35
638.06	43981.46
638.413	43781.46
638.767	43666.66
639.121	43833.21
639.474	43703.95
639.828	43639.77
640.181	43714.57
640.534	43852.87
640.888	43567.91
641.241	43456.95
641.594	43499.44
641.947	43658.98
642.301	43621.01
642.654	43759.54
643.007	43751.86
643.36	43573.33
643.713	43647.68
644.066	43775.13
644.419	43530.85
644.771	43258.99
645.124	42953.91
645.477	42826.68
645.83	42645.45
646.182	42595.73
646.535	42433.25
646.888	42646.35
647.24	42224.44
647.593	42557.99
647.945	42510.99
648.298	42400.71
648.65	42326.81
649.002	42152.8
649.355	42347.6
649.707	42303.53
650.059	42583.98
650.411	42986.45
650.763	43047.92
651.115	43294.69
651.467	43374.69
651.819	43290.18
652.171	43271.42
652.523	43164.3
652.875	43018.32
653.227	42875.04
653.578	43250.4
653.93	43076.4
654.282	42943.52
654.633	42900.36
654.985	43075.04
655.337	43146.22
655.688	42964.31
656.039	43117.3
656.391	42853.58
656.742	42931.77
657.094	42844.99
657.445	43003.63
657.796	42942.84
658.147	42962.05
658.498	42853.8
658.849	42868.94
659.2	42755.73
659.551	42871.43
659.902	42992.33
660.253	42904.65
660.604	42927.25
660.955	42680.7
661.306	42915.04
661.656	42781.71
662.007	42755.5
662.358	42840.02
662.708	42795.95
663.059	42888.38
663.409	42553.47
663.76	42798.44
664.11	42863.52
664.461	42834.82
664.811	42847.7
665.161	42757.53
665.511	42626.24
665.862	42826.23
666.212	42883.41
666.562	42711.21
666.912	42851.77
667.262	42575.84
667.612	42650.42
667.962	42752.34
668.312	42649.74
668.662	42790.3
669.011	42732.68
669.361	42681.15
669.711	42558.44
670.06	42475.96
670.41	42632.57
670.76	42513.02
671.109	42652.23
671.459	42417.43
671.808	42519.8
672.157	42526.35
672.507	42353.93
672.856	42432.8
673.205	42458.11
673.554	42421.5
673.904	42247.04
674.253	42603.87
674.602	42407.94
674.951	41941.06
675.3	41784.68
675.649	42398.22
675.998	42308.05
676.346	42296.3
676.695	42324.32
677.044	42165.69
677.393	42183.99
677.741	42336.3
678.09	42166.59
678.438	42066.25
678.787	42155.52
679.135	41986.03
679.484	41883.88
679.832	41998.46
680.181	41753.49
680.529	41870.55
680.877	41721.63
681.225	41565.02
681.573	41937.22
681.922	41652.7
682.27	41487.06
682.618	41576.1
682.966	41481.86
683.314	41479.15
683.661	41407.96
684.009	41159.38
684.357	41129.33
684.705	41076.22
685.053	41051.59
685.4	41155.99
685.748	40882.33
686.095	40996.45
686.443	40835.78
686.79	40959.84
687.138	40868.54
687.485	40752.84
687.832	40667.87
688.18	40751.48
688.527	40492.96
688.874	40605.27
689.221	40429.23
689.568	40395.34
689.915	40310.82
690.262	40261.78
690.609	40135.23
690.956	39978.17
691.303	39937.27
691.65	39728.24
691.997	39761
692.344	39410.73
692.69	39510.84
693.037	39566.21
693.383	39282.82
693.73	39356.49
694.077	39078.31
694.423	39088.25
694.769	38846.68
695.116	38921.48
695.462	38875.6
695.808	38793.8
696.155	38706.57
696.501	38552.22
696.847	38549.73
697.193	38330.53
697.539	38396.29
697.885	38273.36
698.231	37949.3
698.577	37972.58
698.923	38100.03
699.269	37891
699.614	37674.05
699.96	37641.28
700.306	37513.38
700.651	37502.98
700.997	37301.41
701.342	37262.31
701.688	37368.07
702.033	37190
702.379	37187.06
702.724	36900.06
703.069	36916.11
703.415	36682.67
703.76	36627.3
704.105	36597.92
704.45	36629.79
704.795	36254.2
705.14	36239.74
705.485	36282.9
705.83	36113.87
706.175	36164.03
706.52	35990.48
706.865	35961.33
707.209	35938.05
707.554	35758.85
707.899	35764.5
708.243	35579.19
708.588	35600.66
708.932	35287.22
709.277	35350.5
709.621	35256.94
709.966	35155.7
710.31	35198.64
710.654	34959.77
710.998	35072.76
711.342	34949.6
711.687	34907.34
712.031	34726.11
712.375	34666.67
712.719	34652.66
713.063	34647.24
713.407	34760.68
713.75	34456.96
714.094	34437.3
714.438	34320.47
714.782	34430.97
715.125	34268.04
715.469	34320.92
715.812	34144.43
716.156	33867.37
716.499	33862.4
716.843	33892.68
717.186	33654.27
717.53	33870.54
717.873	33765.68
718.216	33636.19
718.559	33530.88
718.902	33370.66
719.246	33368.4
719.589	33375.18
719.932	33184
720.275	33193.27
720.617	33183.32
720.96	33124.79
721.303	33133.83
721.646	33143.55
721.989	32826.04
722.331	33080.27
722.674	32962.76
723.016	32883.44
723.359	32690
723.701	32922.99
724.044	32577.24
724.386	32541.76
724.729	32620.63
725.071	32669.66
725.413	32486.17
725.755	32422.44
726.097	32250.92
726.439	32178.38
726.782	32206.62
727.124	32381.54
727.465	32158.49
727.807	32076.46
728.149	31972.05
728.491	31957.37
728.833	32025.39
729.175	31842.11
729.516	31810.48
729.858	31773.19
730.199	31853.41
730.541	31843.47
730.882	31692.29
731.224	31774.32
731.565	31510.6
731.906	31719.18
732.248	31606.19
732.589	31418.4
732.93	31241.9
733.271	31419.75
733.612	31244.39
733.953	31368.91
734.294	31166.2
734.635	31137.5
734.976	31169.59
735.317	31066.09
735.658	30960.78
735.999	31080.1
736.339	31004.17
736.68	30891.41
737.021	30938.18
737.361	30765.98
737.702	30941.35
738.042	30845.08
738.383	30706.78
738.723	30716.72
739.063	30627.46
739.404	30685.76
739.744	30594.69
740.084	30618.19
740.424	30535.48
740.764	30459.78
741.104	30568.48
741.444	30384.98
741.784	30318.54
742.124	30448.03
742.464	30346.56
742.804	30279.44
743.143	30161.25
743.483	30102.05
743.823	30017.53
744.162	29967.59
744.502	30125.55
744.841	30023.41
745.181	30098.66
745.52	29884.65
745.86	29946.57
746.199	29866.57
746.538	29821.6
746.877	29888.95
747.216	29839.91
747.556	29738.89
747.895	29771.89
748.234	29439.24
748.573	29581.38
748.911	29520.37
749.25	29498.9
749.589	29354.27
749.928	29487.37
750.267	29375.51
750.605	29229.98
750.944	29191.34
751.283	29156.76
751.621	29218.23
751.96	29001.51
752.298	29035.41
752.636	29042.19
752.975	28903.43
753.313	28832.02
753.651	28880.16
753.989	28701.18
754.327	28754.51
754.666	28522.43
755.004	28663.89
755.342	28526.95
755.679	28550.68
756.017	28478.36
756.355	28476.55
756.693	28282.89
757.031	28346.39
757.368	28070.91
757.706	28184.36
758.044	28017.13
758.381	28118.82
758.719	27927.64
759.056	27961.99
759.394	27883.35
759.731	27642.68
760.068	27715.9
760.405	27579.18
760.743	27420.99
