Data from hue_34_FLMS001491_00015.txt Node
Date: Tue Feb 07 17:25:15 GMT 2017
User: dcchb
Spectrometer: FLMS00149
Trigger mode: 0
Integration Time (sec): 2.000000E-2
Scans to average: 10
Electric dark correction enabled: true
Nonlinearity correction enabled: false
Boxcar width: 0
XAxis mode: Wavelengths
Number of Pixels in Spectrum: 2048
>>>>>Begin Spectral Data<<<<<
341.393	-12.58
341.776	-12.58
342.16	-12.58
342.543	-54.84
342.927	-77.89
343.31	-55.75
343.693	-59.36
344.077	-62.3
344.46	-41.28
344.843	-64.79
345.226	-49.19
345.61	-46.71
345.993	-36.76
346.376	-8.74
346.759	5.49
347.142	35.32
347.525	55.66
347.908	49.79
348.291	66.74
348.674	99.73
349.057	112.16
349.44	141.08
349.823	151.03
350.206	171.82
350.588	198.94
350.971	215.21
351.354	229.44
351.737	253.85
352.119	240.29
352.502	282.1
352.884	281.87
353.267	294.98
353.65	297.69
354.032	321.64
354.414	331.59
354.797	319.61
355.179	320.51
355.562	351.25
355.944	317.35
356.326	317.12
356.709	325.49
357.091	335.88
357.473	343.79
357.855	344.92
358.238	315.54
358.62	333.85
359.002	350.57
359.384	330.23
359.766	369.78
360.148	334.07
360.53	333.62
360.912	342.21
361.294	341.53
361.676	344.24
362.057	330.01
362.439	318.48
362.821	332.49
363.203	326.39
363.584	330.91
363.966	325.94
364.348	300.4
364.729	323.68
365.111	302.66
365.493	331.14
365.874	335.66
366.256	324.36
366.637	322.1
367.019	328.42
367.4	315.54
367.781	306.96
368.163	309.22
368.544	319.61
368.925	336.33
369.306	337.46
369.688	307.41
370.069	316.9
370.45	321.64
370.831	329.78
371.212	319.84
371.593	331.14
371.974	322.77
372.355	328.2
372.736	322.32
373.117	327.07
373.498	319.16
373.879	332.94
374.26	323.68
374.641	312.6
375.021	328.42
375.402	310.34
375.783	338.14
376.163	321.42
376.544	333.17
376.925	347.86
377.305	306.73
377.686	328.2
378.066	346.95
378.447	331.59
378.827	322.55
379.208	317.8
379.588	339.5
379.968	340.63
380.349	349.44
380.729	336.78
381.109	339.04
381.489	363.45
381.87	357.35
382.25	352.6
382.63	344.02
383.01	358.48
383.39	346.5
383.77	346.28
384.15	339.95
384.53	355.32
384.91	347.18
385.29	345.37
385.67	336.33
386.049	338.37
386.429	350.57
386.809	345.6
387.189	363
387.568	360.74
387.948	355.77
388.328	354.19
388.707	365.03
389.087	369.1
389.466	361.19
389.846	355.54
390.225	372.94
390.605	368.2
390.984	369.55
391.363	378.82
391.743	363
392.122	393.96
392.501	359.61
392.881	373.39
393.26	373.17
393.639	379.5
394.018	368.65
394.397	390.57
394.776	374.75
395.155	378.37
395.534	373.85
395.913	389.66
396.292	391.92
396.671	391.02
397.05	392.83
397.429	384.69
397.808	379.72
398.186	407.52
398.565	399.61
398.944	404.58
399.323	411.59
399.701	379.95
400.08	425.82
400.458	408.42
400.837	386.05
401.215	402.55
401.594	405.71
401.972	389.89
402.351	419.04
402.729	404.13
403.107	426.73
403.486	410.46
403.864	416.56
404.242	435.54
404.62	411.59
404.999	410.68
405.377	429.21
405.755	418.82
406.133	432.38
406.511	447.06
406.889	413.39
407.267	417.91
407.645	452.26
408.023	424.47
408.401	435.54
408.779	450.91
409.156	447.97
409.534	437.12
409.912	439.61
410.29	447.06
410.667	457.01
411.045	461.53
411.422	462.43
411.8	459.49
412.178	457.91
412.555	466.5
412.933	461.53
413.31	484.35
413.687	477.57
414.065	468.08
414.442	482.09
414.819	461.53
415.197	484.8
415.574	494.29
415.951	503.56
416.328	494.97
416.705	487.97
417.082	506.95
417.46	498.81
417.837	505.82
418.214	480.74
418.591	499.72
418.967	519.15
419.344	509.44
419.721	515.54
420.098	542.88
420.475	544.92
420.852	536.78
421.228	527.06
421.605	525.25
421.982	540.17
422.358	541.53
422.735	533.16
423.111	540.62
423.488	558.02
423.864	548.98
424.241	551.69
424.617	569.55
424.994	549.43
425.37	570.45
425.746	577.23
426.123	582.2
426.499	580.62
426.875	585.59
427.251	558.7
427.627	588.53
428.003	584.69
428.379	607.96
428.756	599.83
429.132	598.7
429.507	611.81
429.883	598.02
430.259	616.1
430.635	636.66
431.011	612.94
431.387	654.74
431.763	650
432.138	638.02
432.514	639.6
432.89	626.04
433.265	658.81
433.641	655.42
434.016	677.34
434.392	666.72
434.767	687.06
435.143	695.65
435.518	708.07
435.894	708.75
436.269	711.24
436.644	674.18
437.02	716.21
437.395	733.38
437.77	715.53
438.145	730.22
438.52	699.71
438.895	718.92
439.271	761.41
439.646	751.24
440.021	769.77
440.395	744.01
440.77	779.26
441.145	739.71
441.52	762.76
441.895	761.41
442.27	756.21
442.645	776.55
443.019	783.55
443.394	802.31
443.769	795.53
444.143	803.44
444.518	809.99
444.892	785.36
445.267	796.43
445.641	806.15
446.016	814.06
446.39	784
446.764	826.26
447.139	820.39
447.513	842.31
447.887	819.71
448.262	845.7
448.636	835.3
449.01	845.02
449.384	850.22
449.758	863.78
450.132	872.36
450.506	875.98
450.88	863.78
451.254	903.78
451.628	916.43
452.002	890.22
452.376	923.66
452.75	905.13
453.123	925.24
453.497	941.97
453.871	922.98
454.244	933.83
454.618	950.55
454.992	954.17
455.365	958.01
455.739	970.21
456.112	1021.51
456.486	991.46
456.859	992.59
457.232	1018.57
457.606	1042.98
457.979	1043.43
458.352	1037.78
458.725	1069.2
459.099	1048.86
459.472	1077.56
459.845	1073.49
460.218	1114.17
460.591	1118.46
460.964	1126.59
461.337	1114.62
461.71	1130.44
462.083	1181.06
462.456	1187.61
462.829	1159.59
463.201	1200.72
463.574	1213.15
463.947	1219.93
464.32	1249.08
464.692	1267.16
465.065	1263.77
465.438	1252.02
465.81	1322.75
466.183	1292.69
466.555	1335.63
466.928	1333.59
467.3	1326.82
467.672	1364.78
468.045	1409.3
468.417	1421.5
468.789	1433.25
469.161	1442.74
469.534	1451.11
469.906	1502.4
470.278	1522.29
470.65	1527.71
471.022	1592.35
471.394	1604.1
471.766	1614.94
472.138	1614.04
472.51	1654.94
472.882	1680.93
473.253	1724.55
473.625	1743.75
473.997	1751.21
474.369	1795.96
474.74	1823.07
475.112	1892.22
475.484	1877.54
475.855	1950.75
476.227	1966.57
476.598	2047.47
476.97	2057.87
477.341	2127.7
477.713	2165.44
478.084	2149.39
478.455	2284.98
478.827	2313.68
479.198	2347.81
479.569	2401.14
479.94	2449.95
480.311	2502.38
480.682	2585.31
481.053	2675.93
481.424	2743.95
481.795	2806.78
482.166	2827.57
482.537	2869.37
482.908	2974
483.279	3047.45
483.65	3129.48
484.021	3183.26
484.391	3241.12
484.762	3327.67
485.133	3358.85
485.503	3475.69
485.874	3523.82
486.244	3641.1
486.615	3706.41
486.985	3793.64
487.356	3897.6
487.726	3979.85
488.097	4105.27
488.467	4119.51
488.837	4236.34
489.207	4245.61
489.578	4452.83
489.948	4448.54
490.318	4539.16
490.688	4653.96
491.058	4758.59
491.428	4811.7
491.798	4914.29
492.168	5023.44
492.538	5088.75
492.908	5207.62
493.278	5308.86
493.648	5328.07
494.017	5447.84
494.387	5504.11
494.757	5558.79
495.126	5743.87
495.496	5766.25
495.866	5847.37
496.235	5942.06
496.605	6014.6
496.974	6088.05
497.344	6159
497.713	6226.35
498.082	6277.87
498.452	6413.01
498.821	6456.17
499.19	6509.05
499.559	6615.72
499.928	6609.84
500.298	6741.81
500.667	6798.76
501.036	6862.04
501.405	6998.76
501.774	6976.16
502.143	7067
502.512	7115.59
502.88	7181.35
503.249	7273.33
503.618	7279.65
503.987	7378.86
504.356	7413.21
504.724	7491.85
505.093	7442.59
505.462	7576.59
505.83	7659.98
506.199	7734.33
506.567	7858.17
506.936	7847.55
507.304	7989.47
507.672	8002.57
508.041	8008.22
508.409	8059.75
508.777	8143.36
509.145	8240.53
509.514	8224.94
509.882	8306.29
510.25	8323.92
510.618	8437.81
510.986	8491.37
511.354	8563.46
511.722	8629.22
512.09	8653.18
512.458	8699.05
512.826	8740.63
513.193	8834.41
513.561	8873.51
513.929	8908.99
514.297	8988.76
514.664	8998.93
515.032	9054.07
515.4	9101.75
515.767	9149.21
516.135	9273.05
516.502	9150.11
516.869	9398.24
517.237	9365.02
517.604	9359.82
517.972	9428.52
518.339	9499.03
518.706	9520.5
519.073	9557.79
519.44	9617.22
519.808	9769.76
520.175	9683.21
520.542	9838.68
520.909	9885.46
521.276	9906.02
521.643	10008.17
522.009	10076.64
522.376	10128.62
522.743	10193.25
523.11	10227.37
523.477	10280.7
523.843	10339.23
524.21	10524.99
524.577	10499.46
524.943	10536.52
525.31	10589.17
525.676	10707.36
526.043	10675.27
526.409	10741.03
526.776	10931.31
527.142	10878.2
527.508	10987.35
527.874	11102.15
528.241	11133.79
528.607	11144.41
528.973	11262.37
529.339	11266.89
529.705	11372.65
530.071	11497.4
530.437	11469.6
530.803	11576.26
531.169	11621.46
531.535	11681.12
531.901	11566.55
532.267	11771.06
532.632	11830.95
532.998	11903.49
533.364	11930.38
533.73	11934.45
534.095	12020.32
534.461	12070.94
534.826	12129.92
535.192	12147.32
535.557	12230.94
535.923	12230.48
536.288	12355
536.653	12378.5
537.019	12460.31
537.384	12414.66
537.749	12515.22
538.114	12539.63
538.479	12516.35
538.845	12640.19
539.21	12652.39
539.575	12675.22
539.94	12750.47
540.305	12903.01
540.67	12845.83
541.034	12918.15
541.399	12985.04
541.764	12972.61
542.129	12992.72
542.494	13109.1
542.858	13170.35
543.223	13220.74
543.587	13234.75
543.952	13274.75
544.316	13400.85
544.681	13344.8
545.045	13452.37
545.41	13500.51
545.774	13550
546.138	13586.15
546.503	13712.03
546.867	13681.97
547.231	13821.63
547.595	13827.5
547.959	13921.29
548.324	13910.21
548.688	13817.11
549.052	13927.16
549.416	13959.03
549.779	13988.4
550.143	14101.62
550.507	14156.53
550.871	14313.82
551.235	14262.75
551.599	14314.5
551.962	14377.32
552.326	14404.21
552.689	14514.94
553.053	14433.36
553.417	14508.16
553.78	14663.87
554.143	14655.73
554.507	14735.73
554.87	14716.29
555.234	14877.19
555.597	14796.97
555.96	14802.39
556.323	14882.62
556.686	14883.52
557.05	15087.81
557.413	15043.52
557.776	15078.32
558.139	15156.96
558.502	15257.75
558.865	15247.35
559.228	15355.15
559.59	15416.61
559.953	15413.45
560.316	15523.96
560.679	15526.89
561.041	15614.35
561.404	15721.01
561.767	15776.83
562.129	15746.78
562.492	15906.55
562.854	15921.69
563.217	15958.75
563.579	15998.75
563.941	16026.77
564.304	16051.85
564.666	16227.44
565.028	16208.01
565.39	16329.81
565.753	16398.96
566.115	16433.31
566.477	16549.01
566.839	16592.4
567.201	16573.65
567.563	16653.64
567.925	16797.37
568.287	16772.51
568.648	16771.83
569.01	16950.13
569.372	17094.99
569.734	17099.06
570.095	17200.75
570.457	17223.57
570.819	17242.1
571.18	17334.08
571.542	17352.16
571.903	17497.01
572.265	17664.46
572.626	17663.56
572.987	17731.36
573.349	17832.14
573.71	17948.98
574.071	17939.94
574.432	18092.02
574.794	18140.38
575.155	18303.32
575.516	18328.18
575.877	18299.25
576.238	18547.15
576.599	18656.76
576.96	18712.12
577.32	18798.22
577.681	18920.48
578.042	19059
578.403	19094.71
578.763	19169.28
579.124	19381.03
579.485	19642.49
579.845	19863.73
580.206	19883.62
580.566	19985.31
580.927	20081.35
581.287	20377.61
581.648	20399.08
582.008	20668
582.368	20698.96
582.728	20949.12
583.089	21088.56
583.449	21336.91
583.809	21452.61
584.169	21820.51
584.529	21836.56
584.889	22180.28
585.249	22252.14
585.609	22452.36
585.969	22783.2
586.329	22763.99
586.688	23084.21
587.048	23287.14
587.408	23551.77
587.768	23753.57
588.127	23993.34
588.487	24137.29
588.846	24547.67
589.206	24579.09
589.565	24893.43
589.925	25248.9
590.284	25457.25
590.643	25661.99
591.003	25923.46
591.362	26209.1
591.721	26532.03
592.08	26652.48
592.44	27060.6
592.799	27259.69
593.158	27310.76
593.517	27634.6
593.876	28009.5
594.235	28073.46
594.593	28316.84
594.952	28668.47
595.311	28827.11
595.67	29157.04
596.029	29459.18
596.387	29674.32
596.746	30045.61
597.104	30168.09
597.463	30273.4
597.822	30660.51
598.18	30723.1
598.538	30962.87
598.897	31418
599.255	31358.34
599.613	31975.95
599.972	32046.46
600.33	32312.22
600.688	32338.88
601.046	32731.41
601.404	33079.65
601.762	33210.27
602.12	33529.13
602.478	33642.12
602.836	33878.73
603.194	33859.97
603.552	34131.38
603.91	34294.76
604.268	34557.35
604.625	34604.58
604.983	34965.48
605.341	35050
605.698	35339.25
606.056	35485.47
606.413	35516.88
606.771	35796.42
607.128	36056.52
607.485	36095.39
607.843	36152.34
608.2	36539.67
608.557	36705.32
608.914	36656.73
609.272	37035.71
609.629	37256.72
609.986	37481.34
610.343	37407.9
610.7	37792.75
611.057	37957.72
611.414	37952.07
611.771	37972.86
612.127	38266.86
612.484	38538.94
612.841	38661.88
613.198	38566.06
613.554	38814.87
613.911	39032.72
614.267	39179.38
614.624	39093.28
614.98	39392.93
615.337	39552.7
615.693	39533.49
616.05	39569.43
616.406	39944.33
616.762	40016.42
617.118	39947.49
617.475	40208.05
617.831	40284.21
618.187	40510.19
618.543	40606.69
618.899	40836.29
619.255	40643.75
619.611	40781.37
619.967	41067.24
620.323	41084.19
620.678	41089.16
621.034	41092.55
621.39	41073.34
621.746	41196.73
622.101	41706.77
622.457	41275.6
622.812	41574.34
623.168	41627.22
623.523	41629.94
623.879	41790.16
624.234	41610.28
624.589	41909.48
624.945	41868.35
625.3	41997.61
625.655	42097.49
626.01	42052.52
626.365	42194.89
626.72	42116.93
627.075	42165.74
627.43	42191.5
627.785	42145.18
628.14	42234.44
628.495	42306.98
628.85	42373.87
629.205	42200.32
629.559	42417.26
629.914	42314.66
630.269	42291.39
630.623	42171.62
630.978	42267.21
631.332	42415
631.687	42640.76
632.041	42396.7
632.396	42520.99
632.75	42286.19
633.104	42525.28
633.459	42259.52
633.813	42328
634.167	42338.39
634.521	42502.23
634.875	42436.02
635.229	42562.12
635.583	42171.62
635.937	42318.73
636.291	42296.36
636.645	42334.1
636.999	42203.71
637.352	42359.86
637.706	42170.49
638.06	42426.07
638.413	42219.98
638.767	42163.26
639.121	42206.42
639.474	42004.62
639.828	42153.54
640.181	42108.34
640.534	42195.12
640.888	42066.31
641.241	42011.62
641.594	41986.31
641.947	42095.23
642.301	42103.14
642.654	42047.55
643.007	41958.52
643.36	42092.07
643.713	41993.09
644.066	42158.28
644.419	41798.29
644.771	41611.18
645.124	41206.67
645.477	41182.94
645.83	41074.92
646.182	40804.87
646.535	40820.01
646.888	40822.27
647.24	40568.5
647.593	40936.85
647.945	40760.35
648.298	40738.43
648.65	40460.7
649.002	40560.59
649.355	40634.71
649.707	40729.17
650.059	40806.23
650.411	41331.41
650.763	41289.38
651.115	41637.39
651.467	41613.44
651.819	41560.79
652.171	41318.08
652.523	41375.03
652.875	41396.95
653.227	41307.46
653.578	41410.96
653.93	41304.97
654.282	41287.35
654.633	41104.3
654.985	41296.39
655.337	41226.11
655.688	41300.45
656.039	41418.87
656.391	41027.24
656.742	41246.67
657.094	41225.65
657.445	41247.12
657.796	41255.48
658.147	41140.68
658.498	41082.83
658.849	41143.17
659.2	41189.72
659.551	40981.59
659.902	41176.84
660.253	41047.13
660.604	41142.94
660.955	40904.76
661.306	41075.15
661.656	41021.82
662.007	41043.96
662.358	40940.92
662.708	41073.11
663.059	41039.9
663.409	40793.8
663.76	41002.16
664.11	41041.48
664.461	41049.16
664.811	41121.7
665.161	40966.23
665.511	40944.98
665.862	40890.07
666.212	41114.47
666.562	41055.71
666.912	40847.36
667.262	40857.08
667.612	41029.5
667.962	40899.33
668.312	40929.39
668.662	40984.98
669.011	40940.69
669.361	40920.8
669.711	40790.64
670.06	40717.87
670.41	40755.61
670.76	40768.94
671.109	41003.29
671.459	40890.52
671.808	40690.07
672.157	40916.28
672.507	40546.35
672.856	40688.72
673.205	40680.13
673.554	40750.64
673.904	40598.55
674.253	40833.12
674.602	40707.7
674.951	40154.95
675.3	39887.16
675.649	40585.9
675.998	40608.95
676.346	40553.58
676.695	40638.1
677.044	40388.84
677.393	40628.83
677.741	40493.7
678.09	40401.72
678.438	40267.71
678.787	40355.62
679.135	40442.4
679.484	40075.85
679.832	40231.33
680.181	39964.67
680.529	40120.82
680.877	40118.34
681.225	40032.69
681.573	40270.2
681.922	39951.11
682.27	39839.25
682.618	39919.47
682.966	39775.52
683.314	39743.66
683.661	39678.58
684.009	39592.25
684.357	39437.23
684.705	39423.89
685.053	39480.61
685.4	39480.16
685.748	39199.94
686.095	39294.63
686.443	39072.04
686.79	39188.87
687.138	39144.8
687.485	39134.18
687.832	39027.07
688.18	39045.37
688.527	38729.22
688.874	38867.3
689.221	38825.26
689.568	38661.43
689.915	38485.61
690.262	38579.62
690.609	38459.62
690.956	38277.93
691.303	38294.43
691.65	38075.91
691.997	38209.01
692.344	38002.69
692.69	37769.7
693.037	37779.64
693.383	37660.55
693.73	37691.73
694.077	37572.64
694.423	37541.68
694.769	37355.92
695.116	37309.37
695.462	37277.51
695.808	37214.69
696.155	37306.89
696.501	36980.79
696.847	36918.2
697.193	36581.93
697.539	36851.98
697.885	36551.88
698.231	36496.74
698.577	36511.65
698.923	36266.46
699.269	36200.02
699.614	35944.89
699.96	36041.61
700.306	36095.84
700.651	35815.4
700.997	35716.87
701.342	35727.04
701.688	35673.93
702.033	35555.97
702.379	35521.17
702.724	35448.63
703.069	35507.39
703.415	34970.9
703.76	35197.79
704.105	35079.83
704.45	35017.68
704.795	34910.11
705.14	34792.6
705.485	34700.18
705.83	34678.03
706.175	34592.38
706.52	34405.04
706.865	34327.3
707.209	34389.45
707.554	34302.45
707.899	34262.22
708.243	34172.73
708.588	33968.89
708.932	33777.49
709.277	33755.79
709.621	33834.44
709.966	33632.63
710.31	33682.35
710.654	33515.57
710.998	33614.55
711.342	33540.21
711.687	33404.16
712.031	33351.06
712.375	33234.9
712.719	33101.57
713.063	33169.37
713.407	33269.7
713.75	32899.32
714.094	33005.53
714.438	32785.88
714.782	32841.02
715.125	32745.2
715.469	32758.31
715.812	32668.59
716.156	32474.02
716.499	32446.68
716.843	32512.66
717.186	32341.82
717.53	32428.14
717.873	32384.3
718.216	32166.91
718.559	32052.34
718.902	31973.47
719.246	32076.06
719.589	31904.99
719.932	31879.91
720.275	31906.12
720.617	31776.64
720.96	31812.79
721.303	31722.63
721.646	31710.42
721.989	31559.47
722.331	31548.85
722.674	31578.68
723.016	31534.83
723.359	31496.64
723.701	31393.82
724.044	31299.59
724.386	31141.62
724.729	31363.31
725.071	31196.31
725.413	31170.1
725.755	31060.72
726.097	31026.6
726.439	30809.88
726.782	30952.25
727.124	31100.95
727.465	30742.99
727.807	30904.79
728.149	30825.7
728.491	30723.78
728.833	30732.14
729.175	30638.36
729.516	30542.09
729.858	30574.63
730.199	30604.46
730.541	30320.63
730.882	30397.46
731.224	30520.62
731.565	30156.11
731.906	30354.98
732.248	30227.52
732.589	30086.96
732.93	29950.7
733.271	29936.01
733.612	29901.66
733.953	30112.95
734.294	29825.5
734.635	29945.5
734.976	29854.43
735.317	29756.8
735.658	29718.84
735.999	29617.82
736.339	29619.4
736.68	29773.75
737.021	29712.51
737.361	29414.44
737.702	29693.08
738.042	29595.45
738.383	29480.2
738.723	29549.12
739.063	29353.65
739.404	29477.49
739.744	29385.51
740.084	29295.8
740.424	29277.04
740.764	29179.64
741.104	29267.78
741.444	29007.9
741.784	29142.36
742.124	29011.96
742.464	29059.87
742.804	28955.47
743.143	28861.68
743.483	28887.45
743.823	28839.76
744.162	28808.35
744.502	28687.23
744.841	28661.01
745.181	28696.27
745.52	28779.2
745.86	28643.84
746.199	28624.4
746.538	28404.97
746.877	28569.94
747.216	28438.42
747.556	28383.28
747.895	28450.4
748.234	28280.46
748.573	28262.15
748.911	28125.43
749.25	28198.65
749.589	28171.31
749.928	28202.04
750.267	28181.02
750.605	28026
750.944	28145.77
751.283	27800.7
751.621	28008.6
751.96	27691.32
752.298	27736.29
752.636	27642.51
752.975	27630.98
753.313	27444.09
753.651	27566.13
753.989	27421.04
754.327	27408.16
754.666	27352.12
755.004	27392.57
755.342	27366.13
755.679	27319.58
756.017	27104.22
756.355	27267.38
756.693	27042.75
757.031	27212.69
757.368	26883.88
757.706	26922.53
758.044	26830.55
