Data from hue_230_FLMS001491_00076.txt Node
Date: Tue Feb 07 16:37:43 GMT 2017
User: dcchb
Spectrometer: FLMS00149
Trigger mode: 0
Integration Time (sec): 2.000000E-2
Scans to average: 10
Electric dark correction enabled: true
Nonlinearity correction enabled: false
Boxcar width: 0
XAxis mode: Wavelengths
Number of Pixels in Spectrum: 2048
>>>>>Begin Spectral Data<<<<<
341.393	-9.05
341.776	-9.05
342.16	-9.05
342.543	-56.28
342.927	-62.61
343.31	-68.71
343.693	-71.42
344.077	-62.84
344.46	-45.66
344.843	-44.53
345.226	-62.61
345.61	-23.06
345.993	-15.38
346.376	-9.51
346.759	8.35
347.142	31.17
347.525	29.14
347.908	51.96
348.291	63.94
348.674	99.87
349.057	119.3
349.44	123.15
349.823	166.54
350.206	159.3
350.588	194.33
350.971	192.98
351.354	208.34
351.737	237.27
352.119	244.5
352.502	245.86
352.884	265.97
353.267	299.64
353.65	288.79
354.032	302.58
354.414	308.23
354.797	305.97
355.179	295.57
355.562	304.38
355.944	318.17
356.326	320.88
356.709	318.62
357.091	323.14
357.473	340.09
357.855	325.18
358.238	325.4
358.62	334.89
359.002	330.37
359.384	326.76
359.766	332.63
360.148	325.63
360.53	340.09
360.912	318.85
361.294	338.96
361.676	332.86
362.057	324.27
362.439	345.51
362.821	337.83
363.203	334.21
363.584	307.77
363.966	339.41
364.348	333.31
364.729	336.47
365.111	314.1
365.493	321.56
365.874	315.91
366.256	324.95
366.637	312.97
367.019	318.17
367.4	318.62
367.781	288.11
368.163	319.75
368.544	284.72
368.925	315.46
369.306	313.2
369.688	310.94
370.069	306.64
370.45	303.93
370.831	309.58
371.212	322.92
371.593	331.05
371.974	305.51
372.355	324.05
372.736	301.22
373.117	312.75
373.498	313.88
373.879	294.89
374.26	296.93
374.641	328.79
375.021	321.11
375.402	321.56
375.783	303.03
376.163	337.83
376.544	302.35
376.925	304.38
377.305	313.2
377.686	305.51
378.066	317.49
378.447	310.94
378.827	321.79
379.208	311.62
379.588	319.3
379.968	326.08
380.349	333.76
380.729	311.84
381.109	318.85
381.489	343.25
381.87	328.11
382.25	317.04
382.63	359.07
383.01	331.95
383.39	326.98
383.77	325.4
384.15	322.92
384.53	334.67
384.91	347.1
385.29	363.14
385.67	342.12
386.049	363.14
386.429	338.73
386.809	346.87
387.189	351.84
387.568	343.71
387.948	362.46
388.328	346.19
388.707	362.69
389.087	348.9
389.466	357.72
389.846	346.87
390.225	350.03
390.605	367.66
390.984	359.98
391.363	349.36
391.743	376.7
392.122	371.95
392.501	390.71
392.881	377.6
393.26	371.73
393.639	359.52
394.018	354.33
394.397	370.15
394.776	372.18
395.155	383.25
395.534	383.03
395.913	389.81
396.292	389.58
396.671	387.32
397.05	386.64
397.429	397.94
397.808	376.47
398.186	392.52
398.565	403.14
398.944	404.72
399.323	399.3
399.701	399.52
400.08	405.17
400.458	405.4
400.837	394.1
401.215	403.37
401.594	406.3
401.972	410.14
402.351	407.66
402.729	404.95
403.107	422.35
403.486	423.7
403.864	425.29
404.242	425.96
404.62	430.93
404.999	458.28
405.377	444.04
405.755	456.47
406.133	455.79
406.511	453.08
406.889	451.5
407.267	471.84
407.645	462.12
408.023	454.89
408.401	482.46
408.779	471.84
409.156	470.71
409.534	474.78
409.912	482.91
410.29	471.39
410.667	490.82
411.045	490.59
411.422	503.25
411.8	510.71
412.178	502.35
412.555	546.19
412.933	553.87
413.31	552.51
413.687	543.02
414.065	581.67
414.442	549.58
414.819	572.4
415.197	595.9
415.574	553.19
415.951	594.55
416.328	603.81
416.705	592.06
417.082	591.61
417.46	614.88
417.837	605.39
418.214	628.67
418.591	638.16
418.967	633.19
419.344	646.97
419.721	653.08
420.098	679.52
420.475	659.18
420.852	678.16
421.228	673.41
421.605	676.35
421.982	697.59
422.358	720.42
422.735	686.07
423.111	731.04
423.488	736.69
423.864	750.47
424.241	753.64
424.617	744.37
424.994	777.14
425.37	777.37
425.746	787.76
426.123	826.18
426.499	830.47
426.875	804.94
427.251	825.27
427.627	835.67
428.003	880.19
428.379	834.77
428.756	878.83
429.132	908.89
429.507	880.87
429.883	899.17
430.259	897.82
430.635	895.56
431.011	916.57
431.387	934.42
431.763	984.14
432.138	955.44
432.514	976.01
432.89	975.1
433.265	990.02
433.641	1014.65
434.016	1042.9
434.392	1027.3
434.767	1060.3
435.143	1086.74
435.518	1086.28
435.894	1108.21
436.269	1121.31
436.644	1165.38
437.02	1168.77
437.395	1194.53
437.77	1174.42
438.145	1225.04
438.52	1233.85
438.895	1241.54
439.271	1226.17
439.646	1283.34
440.021	1305.49
440.395	1298.26
440.77	1318.14
441.145	1322.21
441.52	1339.16
441.895	1356.79
442.27	1377.35
442.645	1375.77
443.019	1375.99
443.394	1392.72
443.769	1416.45
444.143	1409.89
444.518	1438.14
444.892	1412.15
445.267	1428.87
445.641	1449.21
446.016	1467.74
446.39	1471.13
446.764	1478.59
447.139	1498.7
447.513	1501.42
447.887	1503.68
448.262	1533.05
448.636	1540.28
449.01	1565.37
449.384	1592.03
449.758	1582.77
450.132	1596.33
450.506	1615.54
450.88	1640.39
451.254	1619.38
451.628	1612.82
452.002	1669.77
452.376	1689.66
452.75	1688.53
453.123	1702.09
453.497	1712.26
453.871	1743.22
454.244	1760.17
454.618	1804.23
454.992	1796.77
455.365	1788.87
455.739	1849.65
456.112	1853.95
456.486	1859.15
456.859	1876.77
457.232	1893.72
457.606	1891.01
457.979	1913.83
458.352	1938.47
458.725	1984.34
459.099	1970.1
459.472	2018.24
459.845	2041.29
460.218	2050.78
460.591	2075.41
460.964	2086.26
461.337	2135.52
461.71	2164.67
462.083	2201.74
462.456	2184.34
462.829	2187.05
463.201	2210.55
463.574	2220.04
463.947	2289.19
464.32	2319.02
464.692	2352.47
465.065	2337.33
465.438	2403.31
465.81	2403.09
466.183	2397.89
466.555	2488.73
466.928	2467.72
467.3	2473.59
467.672	2530.54
468.045	2564.21
468.417	2591.1
468.789	2593.36
469.161	2638.11
469.534	2666.13
469.906	2696.41
470.278	2756.98
470.65	2778.9
471.022	2784.09
471.394	2877.2
471.766	2857.99
472.138	2876.97
472.51	2954.71
472.882	2994.94
473.253	3008.27
473.625	3049.4
473.997	3063.63
474.369	3123.29
474.74	3163.97
475.112	3196.96
475.484	3210.75
475.855	3292.55
476.227	3318.32
476.598	3408.48
476.97	3433.34
477.341	3512.21
477.713	3514.24
478.084	3546.33
478.455	3673.34
478.827	3680.34
479.198	3787.68
479.569	3753.79
479.94	3831.52
480.311	3897.28
480.682	3992.2
481.053	4020.9
481.424	4092.08
481.795	4088.01
482.166	4145.64
482.537	4177.96
482.908	4309.48
483.279	4334.11
483.65	4357.39
484.021	4452.3
484.391	4498.4
484.762	4548.57
485.133	4565.29
485.503	4636.47
485.874	4712.86
486.244	4800.54
486.615	4784.94
486.985	4864.49
487.356	4959.63
487.726	4907.2
488.097	5069.68
488.467	5101.32
488.837	5174.99
489.207	5214.09
489.578	5309.45
489.948	5346.96
490.318	5427.87
490.688	5416.11
491.058	5455.89
491.428	5526.39
491.798	5592.38
492.168	5679.61
492.538	5697.46
492.908	5702.21
493.278	5801.64
493.648	5779.72
494.017	5878.25
494.387	5908.98
494.757	5967.74
495.126	5971.35
495.496	5980.62
495.866	6031.47
496.235	6077.34
496.605	6110.56
496.974	6207.73
497.344	6223.1
497.713	6257.45
498.082	6287.73
498.452	6394.62
498.821	6348.07
499.19	6343.55
499.559	6363.43
499.928	6396.43
500.298	6384.68
500.667	6486.59
501.036	6484.56
501.405	6515.29
501.774	6498.12
502.143	6623.54
502.512	6633.48
502.88	6643.2
503.249	6621.96
503.618	6755.06
503.987	6750.32
504.356	6752.35
504.724	6801.61
505.093	6850.2
505.462	6759.58
505.83	6801.84
506.199	6860.14
506.567	6924.1
506.936	6879.35
507.304	7008.16
507.672	6980.82
508.041	7021.5
508.409	7019.24
508.777	7067.82
509.145	7083.42
509.514	7071.21
509.882	7121.15
510.25	7141.94
510.618	7163.19
510.986	7195.05
511.354	7242.73
511.722	7230.76
512.09	7289.06
512.458	7283.41
512.826	7348.27
513.193	7302.62
513.561	7318.44
513.929	7301.49
514.297	7359.57
514.664	7437.76
515.032	7403.63
515.4	7479.11
515.767	7478.21
516.135	7525.66
516.502	7434.37
516.869	7529.28
517.237	7507.81
517.604	7502.39
517.972	7552.56
518.339	7567.7
518.706	7553.23
519.073	7597.98
519.44	7546.23
519.808	7687.92
520.175	7576.06
520.542	7675.49
520.909	7714.36
521.276	7684.98
521.643	7691.99
522.009	7780.57
522.376	7727.47
522.743	7741.48
523.11	7795.26
523.477	7871.42
523.843	7914.35
524.21	7903.73
524.577	7966.56
524.943	7929.95
525.31	7928.36
525.676	7964.97
526.043	7991.19
526.409	7983.96
526.776	8092.88
527.142	8011.98
527.508	8024.18
527.874	8064.63
528.241	8136.72
528.607	8090.85
528.973	8157.51
529.339	8095.82
529.705	8155.25
530.071	8137.17
530.437	8211.52
530.803	8181.01
531.169	8200.45
531.535	8114.12
531.901	8151.64
532.267	8193.89
532.632	8202.26
532.998	8156.16
533.364	8205.87
533.73	8195.93
534.095	8224.4
534.461	8198.41
534.826	8176.72
535.192	8228.7
535.557	8259.88
535.923	8200
536.288	8209.26
536.653	8163.39
537.019	8119.09
537.384	8163.84
537.749	8171.97
538.114	8152.31
538.479	8156.38
538.845	8136.04
539.21	8136.04
539.575	8107.8
539.94	8070.06
540.305	8140.79
540.67	8068.25
541.034	8149.15
541.399	8139.43
541.764	8037.97
542.129	8063.28
542.494	8106.89
542.858	8113.67
543.223	8030.51
543.587	8083.16
543.952	8035.03
544.316	8037.51
544.681	8024.18
545.045	7982.37
545.41	8079.32
545.774	7992.32
546.138	8014.69
546.503	8049.04
546.867	7907.12
547.231	7990.51
547.595	7920.68
547.959	7976.95
548.324	7911.19
548.688	7903.96
549.052	7993.67
549.416	7803.4
549.779	7877.52
550.143	7869.38
550.507	7871.19
550.871	7892.21
551.235	7842.04
551.599	7906.22
551.962	7934.92
552.326	7825.32
552.689	7884.52
553.053	7785.54
553.417	7842.94
553.78	7889.5
554.143	7871.87
554.507	7773.11
554.87	7836.16
555.234	7912.55
555.597	7829.61
555.96	7833.9
556.323	7825.77
556.686	7828.71
557.05	7864.86
557.413	7825.77
557.776	7815.83
558.139	7865.32
558.502	7852.21
558.865	7804.98
559.228	7947.35
559.59	7873.23
559.953	7802.72
560.316	7932.66
560.679	7947.12
561.041	7935.14
561.404	7894.69
561.767	7972.43
562.129	7920.91
562.492	8002.04
562.854	7937.63
563.217	7951.19
563.579	7915.94
563.941	8062.37
564.304	8016.27
564.666	8037.97
565.028	8067.57
565.39	8054.69
565.753	8087.46
566.115	8079.55
566.477	8083.39
566.839	8070.06
567.201	8119.09
567.563	8114.12
567.925	8141.47
568.287	8216.27
568.648	8171.52
569.01	8206.1
569.372	8276.15
569.734	8217.85
570.095	8272.31
570.457	8307.11
570.819	8293.78
571.18	8309.15
571.542	8330.61
571.903	8336.26
572.265	8342.59
572.626	8363.38
572.987	8378.07
573.349	8477.28
573.71	8427.79
574.071	8505.52
574.432	8501.01
574.794	8510.5
575.155	8494.23
575.516	8477.28
575.877	8567.22
576.238	8550.95
576.599	8599.31
576.96	8625.52
577.32	8572.87
577.681	8600.44
578.042	8590.04
578.403	8587.78
578.763	8644.05
579.124	8654.67
579.485	8664.39
579.845	8698.74
580.206	8725.86
580.566	8768.57
580.927	8747.78
581.287	8804.95
581.648	8742.81
582.008	8844.73
582.368	8805.18
582.728	8801.79
583.089	8834.33
583.449	8804.73
583.809	8835.46
584.169	8801.11
584.529	8849.7
584.889	8923.37
585.249	8884.72
585.609	8898.73
585.969	8951.16
586.329	8900.77
586.688	8939.41
587.048	8945.97
587.408	8940.32
587.768	8931.95
588.127	8922.69
588.487	8932.18
588.846	9025.74
589.206	9018.73
589.565	8980.31
589.925	9016.7
590.284	9010.82
590.643	9047.43
591.003	9085.62
591.362	9074.32
591.721	9094.44
592.08	9106.19
592.44	9124.27
592.799	9105.28
593.158	9044.04
593.517	9084.94
593.876	9158.62
594.235	9062.35
594.593	9098.28
594.952	9178.05
595.311	9109.8
595.67	9127.88
596.029	9197.94
596.387	9121.33
596.746	9276.13
597.104	9120.2
597.463	9197.03
597.822	9156.13
598.18	9169.46
598.538	9188.44
598.897	9263.02
599.255	9145.96
599.613	9276.8
599.972	9213.75
600.33	9230.93
600.688	9237.48
601.046	9268.89
601.404	9308.44
601.762	9239.29
602.12	9314.09
602.478	9332.17
602.836	9276.8
603.194	9258.73
603.552	9290.14
603.91	9288.56
604.268	9338.05
604.625	9280.42
604.983	9286.75
605.341	9255.79
605.698	9333.53
606.056	9380.76
606.413	9340.98
606.771	9378.27
607.128	9365.39
607.485	9296.46
607.843	9357.25
608.2	9406.97
608.557	9401.09
608.914	9321.55
609.272	9467.31
609.629	9408.78
609.986	9463.92
610.343	9427.08
610.7	9445.39
611.057	9476.35
611.414	9496.01
611.771	9490.58
612.127	9545.95
612.484	9479.96
612.841	9505.95
613.198	9468.89
613.554	9565.38
613.911	9520.87
614.267	9544.59
614.624	9420.08
614.98	9517.7
615.337	9585.27
615.693	9531.94
616.05	9603.12
616.406	9601.09
616.762	9543.46
617.118	9593.86
617.475	9584.14
617.831	9610.35
618.187	9594.99
618.543	9650.13
618.899	9636.34
619.255	9635.89
619.611	9646.51
619.967	9713.4
620.323	9677.92
620.678	9657.81
621.034	9627.76
621.39	9585.95
621.746	9647.87
622.101	9672.95
622.457	9575.78
622.812	9733.29
623.168	9633.4
623.523	9680.64
623.879	9700.3
624.234	9666.85
624.589	9726.74
624.945	9660.75
625.3	9656.23
625.655	9686.28
626.01	9696.45
626.365	9654.65
626.72	9633.18
627.075	9678.83
627.43	9695.78
627.785	9671.6
628.14	9595.89
628.495	9703.01
628.85	9690.58
629.205	9595.67
629.559	9652.39
629.914	9627.98
630.269	9596.57
630.623	9608.55
630.978	9540.53
631.332	9590.92
631.687	9593.63
632.041	9571.03
632.396	9566.51
632.75	9519.28
633.104	9550.02
633.459	9511.6
633.813	9487.42
634.167	9528.77
634.521	9488.1
634.875	9488.78
635.229	9458.95
635.583	9432.28
635.937	9397.7
636.291	9467.53
636.645	9431.83
636.999	9387.76
637.352	9363.13
637.706	9351.6
638.06	9397.93
638.413	9368.1
638.767	9357.48
639.121	9323.13
639.474	9319.74
639.828	9376.01
640.181	9339.18
640.534	9311.38
640.888	9253.08
641.241	9263.47
641.594	9242.68
641.947	9253.3
642.301	9232.51
642.654	9297.14
643.007	9235
643.36	9218.73
643.713	9216.01
644.066	9268.22
644.419	9172.85
644.771	9177.37
645.124	9047.66
645.477	9063.7
645.83	8957.04
646.182	8908.9
646.535	8968.11
646.888	9045.17
647.24	8899.86
647.593	8921.11
647.945	8881.11
648.298	8834.1
648.65	8831.62
649.002	8823.71
649.355	8908.45
649.707	8891.96
650.059	8932.18
650.411	9033.42
650.763	9065.96
651.115	9090.82
651.467	9096.24
651.819	9110.25
652.171	9165.85
652.523	9118.39
652.875	9045.4
653.227	9046.53
653.578	9116.13
653.93	9023.7
654.282	9064.15
654.633	9033.19
654.985	9027.77
655.337	9091.5
655.688	9089.24
656.039	9085.85
656.391	8966.76
656.742	8999.75
657.094	9055.57
657.445	9060.54
657.796	9038.62
658.147	9075.45
658.498	9023.7
658.849	9047.21
659.2	9117.26
659.551	9060.76
659.902	9054.44
660.253	9042.69
660.604	9082.68
660.955	9000.2
661.306	9043.14
661.656	9012.86
662.007	9071.16
662.358	9025.74
662.708	9049.47
663.059	9073.19
663.409	9051.27
663.76	9093.53
664.11	9092.4
664.461	9034.1
664.811	9071.61
665.161	9055.57
665.511	9043.14
665.862	9133.53
666.212	9131.5
666.562	9132.63
666.912	9042.01
667.262	9084.72
667.612	9010.6
667.962	9067.54
668.312	9086.3
668.662	9105.96
669.011	9059.41
669.361	9054.21
669.711	9075.23
670.06	9046.08
670.41	9046.75
670.76	9060.99
671.109	9062.8
671.459	9081.33
671.808	9024.83
672.157	9056.7
672.507	8956.13
672.856	8983.7
673.205	8982.57
673.554	8982.12
673.904	8969.47
674.253	9037.71
674.602	8985.96
674.951	8863.93
675.3	8818.06
675.649	8918.62
675.998	9005.4
676.346	8911.62
676.695	8950.94
677.044	8887.66
677.393	8926.98
677.741	8952.97
678.09	8891.05
678.438	8949.81
678.787	8834.78
679.135	8865.74
679.484	8791.39
679.832	8882.92
680.181	8801.34
680.529	8774.67
680.877	8744.84
681.225	8763.15
681.573	8844.05
681.922	8758.4
682.27	8759.53
682.618	8754.56
682.966	8775.57
683.314	8785.97
683.661	8609.7
684.009	8620.55
684.357	8639.76
684.705	8603.6
685.053	8628.23
685.4	8689.47
685.748	8551.17
686.095	8627.56
686.443	8514.56
686.79	8499.42
687.138	8534
687.485	8521.34
687.832	8447.22
688.18	8467.33
688.527	8419.65
688.874	8439.09
689.221	8416.94
689.568	8308.69
689.915	8364.29
690.262	8363.83
690.609	8313.67
690.956	8277.28
691.303	8241.13
691.65	8214.23
691.997	8258.75
692.344	8102.82
692.69	8098.08
693.037	8100.79
693.383	8110.28
693.73	8105.08
694.077	8003.62
694.423	8041.36
694.769	7985.99
695.116	7971.53
695.462	7915.71
695.808	7937.86
696.155	7971.98
696.501	7880.68
696.847	7874.58
697.193	7823.96
697.539	7838.42
697.885	7776.05
698.231	7761.82
698.577	7752.55
698.923	7739.44
699.269	7728.82
699.614	7670.07
699.96	7624.42
700.306	7598.66
700.651	7550.97
700.997	7493.12
701.342	7506.23
701.688	7525.44
702.033	7451.09
702.379	7383.29
702.724	7430.52
703.069	7391.66
703.415	7370.64
703.76	7341.04
704.105	7327.7
704.45	7310.75
704.795	7303.3
705.14	7298.78
705.485	7202.73
705.83	7246.8
706.175	7159.8
706.52	7146.24
706.865	7140.36
707.209	7120.7
707.554	7165
707.899	7126.35
708.243	7074.6
708.588	7067.37
708.932	6994.6
709.277	6997.32
709.621	7014.72
709.966	7019.24
710.31	6950.09
710.654	6919.58
710.998	6905.34
711.342	6956.87
711.687	6933.59
712.031	6861.27
712.375	6783.99
712.719	6846.59
713.063	6834.83
713.407	6839.35
713.75	6834.16
714.094	6795.51
714.438	6758.68
714.782	6830.54
715.125	6752.8
715.469	6807.72
715.812	6717.78
716.156	6743.99
716.499	6698.57
716.843	6742.18
717.186	6680.04
717.53	6699.47
717.873	6706.7
718.216	6662.86
718.559	6724.1
718.902	6619.25
719.246	6641.39
719.589	6604.11
719.932	6591.9
720.275	6602.75
720.617	6590.1
720.96	6561.17
721.303	6588.74
721.646	6594.84
721.989	6495.63
722.331	6611.11
722.674	6555.29
723.016	6537.67
723.359	6518.68
723.701	6539.93
724.044	6504.67
724.386	6452.02
724.729	6513.26
725.071	6480.49
725.413	6517.78
725.755	6519.36
726.097	6501.51
726.439	6397.11
726.782	6448.18
727.124	6456.31
727.465	6391.68
727.807	6452.25
728.149	6404.11
728.491	6364.79
728.833	6447.95
729.175	6334.73
729.516	6378.35
729.858	6406.15
730.199	6423.32
730.541	6386.94
730.882	6421.06
731.224	6422.64
731.565	6347.62
731.906	6359.14
732.248	6369.76
732.589	6329.31
732.93	6347.84
733.271	6396.65
733.612	6350.55
733.953	6379.71
734.294	6384.9
734.635	6357.56
734.976	6419.03
735.317	6324.11
735.658	6408.86
735.999	6377.22
736.339	6313.04
736.68	6406.15
737.021	6369.31
737.361	6410.21
737.702	6383.77
738.042	6375.19
738.383	6418.12
738.723	6368.18
739.063	6368.86
739.404	6419.03
739.744	6480.95
740.084	6435.97
740.424	6401.4
740.764	6417.9
741.104	6483.66
741.444	6467.61
741.784	6419.93
742.124	6471.68
742.464	6458.8
742.804	6462.64
743.143	6493.83
743.483	6498.35
743.823	6540.38
744.162	6531.11
744.502	6512.36
744.841	6525.69
745.181	6564.79
745.52	6620.15
745.86	6576.08
746.199	6628.06
746.538	6662.64
746.877	6731.79
747.216	6702.18
747.556	6760.94
747.895	6828.96
748.234	6827.38
748.573	6871.22
748.911	6859.92
749.25	6917.77
749.589	6972.91
749.928	7022.17
750.267	7034.38
750.605	7082.06
750.944	7072.34
751.283	7147.59
751.621	7212.9
751.96	7264.2
752.298	7317.76
752.636	7480.02
752.975	7438.89
753.313	7454.25
753.651	7604.08
753.989	7659.22
754.327	7679.78
754.666	7774.02
755.004	7926.56
755.342	7960.23
755.679	8088.59
756.017	8154.12
756.355	8232.99
756.693	8248.58
757.031	8449.71
757.368	8499.88
757.706	8636.37
758.044	8647.44
758.381	8794.56
758.719	8936.7
759.056	9091.27
759.394	9181.67
759.731	9221.44
760.068	9315.22
760.405	9457.82
760.743	9526.29
761.08	9634.99
761.417	9751.14
761.754	9876.11
762.091	9996.79
762.428	10110.45
762.765	10215.76
763.102	10340.28
763.438	10429.09
763.775	10525.36
764.112	10544.12
764.449	10783.21
764.785	10832.7
765.122	10956.31
765.458	11055.51
765.795	11124.89
766.131	11225
766.467	11323.76
766.804	11381.83
767.14	11508.61
767.476	11568.95
767.812	11629.74
768.148	11714.03
768.485	11807.59
768.821	11878.32
769.157	11968.71
