Data from hue_20_FLMS001491_91.txt Node
Date: Mon Feb 06 15:34:59 GMT 2017
User: dcchb
Spectrometer: FLMS00149
Trigger mode: 0
Integration Time (sec): 2.000000E-2
Scans to average: 10
Electric dark correction enabled: true
Nonlinearity correction enabled: false
Boxcar width: 0
XAxis mode: Wavelengths
Number of Pixels in Spectrum: 2048
>>>>>Begin Spectral Data<<<<<
341.393	2.6
341.776	2.6
342.16	2.6
342.543	-76.27
342.927	-52.32
343.31	-72.65
343.693	-64.74
344.077	-77.17
344.46	-47.12
344.843	-60.22
345.226	-36.95
345.61	-37.4
345.993	-10.51
346.376	-7.57
346.759	8.47
347.142	34.46
347.525	43.5
347.908	77.4
348.291	70.62
348.674	77.85
349.057	102.03
349.44	115.36
349.823	144.97
350.206	166.89
350.588	191.97
350.971	217.51
351.354	238.75
351.737	244.4
352.119	259.54
352.502	262.03
352.884	297.05
353.267	257.96
353.65	308.13
354.032	280.33
354.414	318.52
354.797	297.73
355.179	332.31
355.562	312.87
355.944	331.63
356.326	332.76
356.709	349.26
357.091	351.06
357.473	345.41
357.855	356.04
358.238	354.45
358.62	327.34
359.002	344.06
359.384	342.25
359.766	353.78
360.148	337.05
360.53	334.34
360.912	336.38
361.294	348.58
361.676	354
362.057	340.22
362.439	323.04
362.821	335.25
363.203	332.53
363.584	350.61
363.966	349.03
364.348	308.13
364.729	319.43
365.111	318.75
365.493	323.95
365.874	344.28
366.256	323.95
366.637	330.95
367.019	314.91
367.4	332.76
367.781	338.41
368.163	325.08
368.544	317.84
368.925	333.66
369.306	321.91
369.688	332.31
370.069	325.98
370.45	324.17
370.831	320.56
371.212	307.9
371.593	327.56
371.974	329.37
372.355	336.83
372.736	331.63
373.117	316.71
373.498	325.75
373.879	338.41
374.26	317.62
374.641	321.46
375.021	317.39
375.402	325.3
375.783	315.58
376.163	342.7
376.544	335.02
376.925	331.18
377.305	344.06
377.686	323.49
378.066	349.71
378.447	339.77
378.827	365.08
379.208	348.35
379.588	341.57
379.968	343.15
380.349	336.83
380.729	343.38
381.109	338.41
381.489	362.36
381.87	371.18
382.25	343.38
382.63	365.08
383.01	356.71
383.39	354
383.77	347.9
384.15	357.84
384.53	342.02
384.91	357.62
385.29	350.39
385.67	366.88
386.049	364.4
386.429	350.16
386.809	361.23
387.189	361.01
387.568	365.98
387.948	384.96
388.328	380.67
388.707	372.08
389.087	389.48
389.466	377.05
389.846	377.05
390.225	375.7
390.605	410.27
390.984	394.9
391.363	403.94
391.743	398.29
392.122	384.51
392.501	395.13
392.881	392.87
393.26	410.5
393.639	382.48
394.018	395.36
394.397	386.32
394.776	393.77
395.155	412.76
395.534	405.53
395.913	404.85
396.292	418.63
396.671	424.51
397.05	417.28
397.429	421.57
397.808	410.72
398.186	414.34
398.565	422.25
398.944	411.85
399.323	433.1
399.701	435.36
400.08	433.1
400.458	433.32
400.837	412.76
401.215	431.97
401.594	434
401.972	440.1
402.351	435.81
402.729	431.74
403.107	416.15
403.486	438.52
403.864	442.14
404.242	434.45
404.62	437.39
404.999	466.77
405.377	461.12
405.755	458.86
406.133	484.17
406.511	448.46
406.889	459.31
407.267	486.88
407.645	451.17
408.023	487.56
408.401	467.67
408.779	463.83
409.156	478.97
409.534	452.08
409.912	479.2
410.29	475.58
410.667	484.62
411.045	498.86
411.422	489.37
411.8	466.77
412.178	500.21
412.555	521.68
412.933	535.24
413.31	517.16
413.687	515.13
414.065	512.64
414.442	511.74
414.819	518.74
415.197	519.65
415.574	531.85
415.951	526.88
416.328	547.44
416.705	555.58
417.082	544.51
417.46	555.8
417.837	565.52
418.214	549.93
418.591	575.01
418.967	566.2
419.344	568.23
419.721	580.44
420.098	588.12
420.475	577.95
420.852	590.38
421.228	600.32
421.605	593.09
421.982	598.06
422.358	584.28
422.735	584.28
423.111	615.92
423.488	619.31
423.864	617.5
424.241	633.54
424.617	636.93
424.994	627.44
425.37	638.51
425.746	607.55
426.123	634.45
426.499	657.95
426.875	659.53
427.251	663.15
427.627	665.86
428.003	654.33
428.379	668.12
428.756	681.23
429.132	696.82
429.507	680.55
429.883	684.84
430.259	723.03
430.635	696.14
431.011	684.84
431.387	726.87
431.763	715.57
432.138	735.91
432.514	732.52
432.89	735.23
433.265	748.34
433.641	754.67
434.016	751.96
434.392	782.47
434.767	779.53
435.143	778.62
435.518	812.75
435.894	805.97
436.269	788.34
436.644	784.05
437.02	800.32
437.395	814.78
437.77	823.59
438.145	828.34
438.52	839.19
438.895	861.56
439.271	868.56
439.646	853.88
440.021	871.28
440.395	858.62
440.77	849.81
441.145	864.27
441.52	895.46
441.895	896.59
442.27	878.06
442.645	890.49
443.019	904.27
443.394	898.39
443.769	934.1
444.143	923.48
444.518	925.29
444.892	927.55
445.267	948.34
445.641	929.35
446.016	962.35
446.39	962.12
446.764	974.78
447.139	958.51
447.513	972.97
447.887	1003.48
448.262	965.96
448.636	987.43
449.01	998.28
449.384	1012.97
449.758	1021.1
450.132	1034.66
450.506	1026.98
450.88	1032.63
451.254	1036.24
451.628	1038.5
452.002	1052.29
452.376	1084.83
452.75	1059.07
453.123	1073.53
453.497	1106.3
453.871	1096.81
454.244	1082.34
454.618	1113.76
454.992	1108.78
455.365	1124.6
455.739	1164.6
456.112	1163.92
456.486	1182
456.859	1175.45
457.232	1208.22
457.606	1205.73
457.979	1229.46
458.352	1254.77
458.725	1257.71
459.099	1259.74
459.472	1275.56
459.845	1265.62
460.218	1311.72
460.591	1309.91
460.964	1308.1
461.337	1349.91
461.71	1332.51
462.083	1371.38
462.456	1366.86
462.829	1398.04
463.201	1411.15
463.574	1410.7
463.947	1466.74
464.32	1445.72
464.692	1466.52
465.065	1503.58
465.438	1516.23
465.81	1548.55
466.183	1528.21
466.555	1562.78
466.928	1588.09
467.3	1589.45
467.672	1589.9
468.045	1647.08
468.417	1622.44
468.789	1661.76
469.161	1689.33
469.534	1727.98
469.906	1716.9
470.278	1770.24
470.65	1739.73
471.022	1786.05
471.394	1824.47
471.766	1890.46
472.138	1896.79
472.51	1933.62
472.882	1954.41
473.253	1952.6
473.625	1969.55
473.997	2033.05
474.369	2013.62
474.74	2080.74
475.112	2090
475.484	2148.31
475.855	2144.01
476.227	2203.44
476.598	2256.55
476.97	2299.94
477.341	2320.05
477.713	2369.32
478.084	2410.67
478.455	2457.22
478.827	2455.87
479.198	2512.82
479.569	2518.24
479.94	2645.92
480.311	2633.04
480.682	2714.62
481.053	2790.1
481.424	2828.51
481.795	2845.24
482.166	2910.54
482.537	2938.57
482.908	3051.56
483.279	3020.37
483.65	3110.77
484.021	3119.35
484.391	3200.25
484.762	3207.71
485.133	3249.07
485.503	3325.9
485.874	3372.68
486.244	3446.58
486.615	3473.92
486.985	3557.08
487.356	3620.58
487.726	3636.85
488.097	3756.85
488.467	3738.55
488.837	3809.73
489.207	3873.68
489.578	3950.74
489.948	3972.66
490.318	4038.42
490.688	4054.24
491.058	4069.61
491.428	4178.31
491.798	4233.9
492.168	4328.36
492.538	4383.5
492.908	4346.67
493.278	4408.36
493.648	4449.49
494.017	4496.94
494.387	4574.23
494.757	4593.44
495.126	4660.56
495.496	4679.54
495.866	4705.98
496.235	4780.33
496.605	4821.91
496.974	4856.93
497.344	4907.55
497.713	4970.38
498.082	5017.38
498.452	5034.56
498.821	5039.75
499.19	5067.55
499.559	5134.89
499.928	5166.53
500.298	5201.33
500.667	5247.66
501.036	5232.07
501.405	5316.81
501.774	5303.25
502.143	5392.06
502.512	5395.45
502.88	5427.31
503.249	5449.24
503.618	5481.78
503.987	5534.66
504.356	5573.53
504.724	5578.95
505.093	5603.81
505.462	5636.12
505.83	5678.16
506.199	5726.29
506.567	5796.34
506.936	5812.84
507.304	5839.28
507.672	5869.56
508.041	5916.34
508.409	5908.43
508.777	6014.87
509.145	6023.68
509.514	5970.13
509.882	6090.57
510.25	6060.74
510.618	6149.78
510.986	6133.29
511.354	6190.23
511.722	6202.21
512.09	6250.34
512.458	6307.97
512.826	6317.91
513.193	6367.63
513.561	6369.21
513.929	6416.22
514.297	6474.29
514.664	6454.63
515.032	6555.19
515.4	6545.25
515.767	6575.99
516.135	6624.35
516.502	6626.61
516.869	6683.33
517.237	6739.82
517.604	6702.31
517.972	6729.43
518.339	6844.9
518.706	6827.5
519.073	6900.27
519.44	6875.41
519.808	6979.59
520.175	7033.83
520.542	7048.97
520.909	7098.91
521.276	7094.62
521.643	7139.36
522.009	7182.75
522.376	7229.98
522.743	7216.42
523.11	7311.56
523.477	7433.36
523.843	7391.56
524.21	7464.55
524.577	7560.82
524.943	7541.16
525.31	7604.88
525.676	7673.13
526.043	7673.81
526.409	7726.01
526.776	7774.6
527.142	7779.57
527.508	7885.56
527.874	7970.98
528.241	8031.99
528.607	8029.05
528.973	8081.03
529.339	8082.16
529.705	8207.13
530.071	8227.69
530.437	8251.65
530.803	8318.09
531.169	8311.08
531.535	8368.48
531.901	8364.64
532.267	8427.01
532.632	8480.12
532.998	8501.36
533.364	8498.42
533.73	8619.55
534.095	8644.86
534.461	8666.78
534.826	8798.07
535.192	8740.9
535.557	8861.57
535.923	8839.2
536.288	8859.09
536.653	8943.15
537.019	8879.88
537.384	8936.15
537.749	8992.64
538.114	9013.66
538.479	9058.63
538.845	9144.73
539.21	9099.53
539.575	9206.2
539.94	9162.58
540.305	9273.09
540.67	9248.91
541.034	9254.11
541.399	9317.61
541.764	9323.26
542.129	9408.23
542.494	9446.19
542.858	9522.8
543.223	9494.1
543.587	9539.52
543.952	9612.29
544.316	9538.85
544.681	9540.65
545.045	9713.08
545.41	9736.81
545.774	9790.59
546.138	9797.14
546.503	9779.97
546.867	9904.49
547.231	9915.11
547.595	9911.72
547.959	9978.16
548.324	9951.72
548.688	10021.54
549.052	10072.62
549.416	10108.32
549.779	10163.91
550.143	10144.71
550.507	10266.06
550.871	10194.65
551.235	10249.56
551.599	10310.35
551.962	10391.93
552.326	10423.12
552.689	10440.97
553.053	10416.79
553.417	10482.32
553.78	10584.92
554.143	10547.86
554.507	10591.92
554.87	10641.87
555.234	10808.19
555.597	10680.96
555.96	10740.85
556.323	10793.73
556.686	10802.77
557.05	10844.8
557.413	10865.82
557.776	10872.82
558.139	10996.89
558.502	10996.21
558.865	11074.4
559.228	11129.99
559.59	11189.2
559.953	11191.23
560.316	11332.92
560.679	11317.1
561.041	11363.2
561.404	11418.34
561.767	11485.91
562.129	11393.03
562.492	11565.01
562.854	11443.65
563.217	11553.93
563.579	11610.88
563.941	11678.68
564.304	11709.41
564.666	11800.03
565.028	11795.28
565.39	11898.11
565.753	11917.31
566.115	12007.48
566.477	12036.86
566.839	12063.3
567.201	12145.78
567.563	12141.94
567.925	12179.23
568.287	12172.22
568.648	12207.02
569.01	12411.09
569.372	12350.75
569.734	12403.85
570.095	12504.87
570.457	12536.28
570.819	12536.28
571.18	12494.02
571.542	12611.76
571.903	12678.88
572.265	12782.38
572.626	12766.33
572.987	12883.16
573.349	12918.19
573.71	12971.52
574.071	13117.51
574.432	13143.5
574.794	13298.52
575.155	13219.88
575.516	13244.51
575.877	13362.93
576.238	13432.08
576.599	13464.84
576.96	13494.22
577.32	13566.54
577.681	13698.28
578.042	13874.55
578.403	13808.56
578.763	13930.82
579.124	14033.87
579.485	14093.53
579.845	14185.95
580.206	14293.3
580.566	14376.01
580.927	14450.58
581.287	14680.4
581.648	14704.13
582.008	14905.94
582.368	14974.18
582.728	15118.81
583.089	15243.1
583.449	15342.53
583.809	15605.13
584.169	15551.34
584.529	15740.26
584.889	16113.59
585.249	16128.95
585.609	16225.22
585.969	16519.45
586.329	16707.47
586.688	16853.46
587.048	17088.03
587.408	17145.88
587.768	17344.74
588.127	17594.45
588.487	17885.97
588.846	18143.82
589.206	18309.24
589.565	18442.79
589.925	18760.75
590.284	18895.21
590.643	19221.75
591.003	19541.97
591.362	19774.73
591.721	19906.26
592.08	20319.8
592.44	20546.69
592.799	20795.72
593.158	21083.63
593.517	21303.73
593.876	21664.4
594.235	21844.74
594.593	22105.97
594.952	22497.83
595.311	22758.61
595.67	23025.27
596.029	23324.7
596.387	23674.07
596.746	24046.26
597.104	24223.66
597.463	24362.64
597.822	24874.26
598.18	25104.99
598.538	25215.72
598.897	25769.83
599.255	25809.38
599.613	26420.66
599.972	26692.52
600.33	26838.05
600.688	27105.16
601.046	27459.5
601.404	27788.08
601.762	28025.36
602.12	28495.86
602.478	28805.91
602.836	28888.17
603.194	29039.12
603.552	29463.52
603.91	29588.04
604.268	30014.24
604.625	30216.95
604.983	30603.83
605.341	30645.18
605.698	31123.14
606.056	31324.71
606.413	31631.82
606.771	31853.74
607.128	32149.78
607.485	32307.29
607.843	32567.39
608.2	32979.36
608.557	33273.36
608.914	33384.77
609.272	33679
609.629	34022.95
609.986	34323.5
610.343	34431.98
610.7	34849.14
611.057	34897.5
611.414	35071.06
611.771	35390.82
612.127	35620.87
612.484	35687.54
612.841	36067.87
613.198	35972.73
613.554	36194.19
613.911	36576.1
614.267	36791.69
614.624	36736.77
614.98	37278.68
615.337	37499.69
615.693	37539.24
616.05	37568.39
616.406	37949.85
616.762	37876.18
617.118	38066.68
617.475	38228.26
617.831	38548.48
618.187	38704.86
618.543	38881.58
618.899	39183.04
619.255	39204.73
619.611	39317.95
619.967	39537.15
620.323	39743.02
620.678	39737.6
621.034	39647.88
621.39	39970.36
621.746	39887.88
622.101	40524.47
622.457	40154.09
622.812	40367.87
623.168	40453.29
623.523	40688.31
623.879	40891.02
624.234	40624.81
624.589	40881.3
624.945	40980.73
625.3	41172.14
625.655	41086.94
626.01	41371
626.365	41368.52
626.72	41319.93
627.075	41460.49
627.43	41590.43
627.785	41410.55
628.14	41618.23
628.495	41751.78
628.85	41756.08
629.205	41681.95
629.559	41910.88
629.914	41915.4
630.269	41935.73
630.623	41919.24
630.978	41984.55
631.332	42046.69
631.687	42117.88
632.041	41932.57
632.396	42135.73
632.75	42001.27
633.104	42158.78
633.459	42016.41
633.813	41986.81
634.167	42139.57
634.521	42099.35
634.875	42152.45
635.229	42168.72
635.583	41843.08
635.937	42116.29
636.291	41862.74
636.645	42059.12
636.999	42168.72
637.352	42194.48
637.706	41855.28
638.06	42143.64
638.413	42112
638.767	41952.68
639.121	42128.27
639.474	41976.86
639.828	41940.48
640.181	42015.05
640.534	42160.13
640.888	41958.33
641.241	41844.21
641.594	42019.57
641.947	42006.69
642.301	41963.76
642.654	41956.52
643.007	41962.4
643.36	41920.14
643.713	41802.63
644.066	42157.87
644.419	41753.82
644.771	41546.82
645.124	41224.57
645.477	41190.22
645.83	40958.58
646.182	40929.66
646.535	40739.38
646.888	40719.27
647.24	40575.09
647.593	40724.69
647.945	40728.99
648.298	40525.6
648.65	40557.69
649.002	40428.65
649.355	40587.75
649.707	40451.25
650.059	40724.01
650.411	41215.75
650.763	41319.93
651.115	41678.57
651.467	41666.36
651.819	41537.55
652.171	41497.55
652.523	41456.42
652.875	41325.35
653.227	41148.18
653.578	41469.76
653.93	41450.77
654.282	41124.91
654.633	41191.8
654.985	41320.16
655.337	41272.25
655.688	41223.89
656.039	41429.53
656.391	41122.65
656.742	41200.39
657.094	41182.76
657.445	41291.68
657.796	41199.48
658.147	41091.46
658.498	41035.64
658.849	41303.21
659.2	41188.41
659.551	41114.51
659.902	41115.87
660.253	41028.19
660.604	41078.35
660.955	40977.34
661.306	41140.73
661.656	40997.91
662.007	41013.27
662.358	40940.28
662.708	40942.99
663.059	41093.04
663.409	40783
663.76	41107.05
664.11	41076.77
664.461	41101.18
664.811	41026.6
665.161	40967.85
665.511	40931.24
665.862	40933.05
666.212	41067.96
666.562	41195.41
666.912	40963.1
667.262	40955.87
667.612	40947.74
667.962	40937.79
668.312	40912.26
668.662	41071.58
669.011	41009.43
669.361	40887.4
669.711	40909.77
670.06	40862.32
670.41	40834.75
670.76	40781.41
671.109	40973.72
671.459	40780.74
671.808	40707.97
672.157	40861.19
672.507	40570.57
672.856	40638.82
673.205	40703.9
673.554	40814.63
673.904	40729.44
674.253	40866.38
674.602	40835.2
674.951	40278.6
675.3	39909.8
675.649	40619.38
675.998	40608.31
676.346	40653.73
676.695	40717.69
677.044	40303.01
677.393	40407.41
677.741	40615.09
678.09	40456
678.438	40389.79
678.787	40407.64
679.135	40395.89
679.484	40073.64
679.832	40320.18
680.181	40158.83
680.529	40223.91
680.877	39955.9
681.225	40114.99
681.573	40191.15
681.922	40012.62
682.27	39843.13
682.618	39871.16
682.966	39734.21
683.314	39778.05
683.661	39736.92
684.009	39671.16
684.357	39565.63
684.705	39463.03
685.053	39492.63
685.4	39415.35
685.748	39220.32
686.095	39436.59
686.443	39178.52
686.79	39088.58
687.138	39260.55
687.485	39124.96
687.832	39076.15
688.18	39013.32
688.527	38766.78
688.874	38778.53
689.221	38632.77
689.568	38691.98
689.915	38508.03
690.262	38502.38
690.609	38355.49
690.956	38385.77
691.303	38219.45
691.65	38086.34
691.997	38068.04
692.344	37964.99
692.69	38002.05
693.037	37902.85
693.383	37509.41
693.73	37720.93
694.077	37575.4
694.423	37448.62
694.769	37390.32
695.116	37257.44
695.462	37275.07
695.808	37115.75
696.155	37274.61
696.501	36994.85
696.847	36910.1
697.193	36718.7
697.539	36772.93
697.885	36574.52
698.231	36412.26
698.577	36556.89
698.923	36310.34
699.269	36227.41
699.614	36043.69
699.96	35936.12
700.306	36036.23
700.651	35791.71
700.997	35781.55
701.342	35671.72
701.688	35572.96
702.033	35490.25
702.379	35487.54
702.724	35356.47
703.069	35384.72
703.415	35017.95
703.76	35025.41
704.105	35051.17
704.45	34909.7
704.795	34645.76
705.14	34757.84
705.485	34641.01
705.83	34609.15
706.175	34530.05
706.52	34461.13
706.865	34420.22
707.209	34328.7
707.554	34139.55
707.899	34321.7
708.243	34021.82
708.588	34033.79
708.932	33899.33
709.277	33764.42
709.621	33899.33
709.966	33675.16
710.31	33690.75
710.654	33463.64
710.998	33485.56
711.342	33434.71
711.687	33302.97
712.031	33225.91
712.375	33094.61
712.719	33197.21
713.063	33052.35
713.407	33253.25
713.75	32868.63
714.094	32898.01
714.438	32765.58
714.782	32848.51
715.125	32676.77
715.469	32651.68
715.812	32568.07
716.156	32534.17
716.499	32314.74
716.843	32493.72
717.186	32234.75
717.53	32389.09
717.873	32351.58
718.216	32323.56
718.559	32125.82
718.902	31894.87
719.246	32087.86
719.589	31856
719.932	31785.49
720.275	31896.45
720.617	31794.31
720.96	31608.55
721.303	31688.09
721.646	31657.59
721.989	31391.15
722.331	31431.6
722.674	31506.18
723.016	31509.12
723.359	31294.21
723.701	31358.38
724.044	31272.96
724.386	31052.4
724.729	31225.51
725.071	31075.45
725.413	31064.61
725.755	30908.23
726.097	30911.84
726.439	30736.48
726.782	30782.13
727.124	30968.56
727.465	30696.48
727.807	30741.45
728.149	30672.3
728.491	30561.12
728.833	30646.31
729.175	30350.5
729.516	30519.76
729.858	30421.46
730.199	30479.99
730.541	30345.3
730.882	30255.81
731.224	30449.26
731.565	30233.44
731.906	30185.76
732.248	30199.32
732.589	30017.18
732.93	29934.92
733.271	29903.28
733.612	30004.07
733.953	30130.62
734.294	29946.67
734.635	29808.59
734.976	29787.8
735.317	29758.2
735.658	29696.51
735.999	29715.49
736.339	29532.44
736.68	29697.64
737.021	29597.07
737.361	29417.19
737.702	29629.16
738.042	29531.31
738.383	29412.67
738.723	29551.65
739.063	29345.78
739.404	29352.34
739.744	29273.24
740.084	29215.62
740.424	29200.02
740.764	29168.39
741.104	29225.79
741.444	29053.13
741.784	28974.49
742.124	29074.15
742.464	29016.3
742.804	28923.87
743.143	28966.36
743.483	28945.11
743.823	28823.76
744.162	28731.56
744.502	28661.28
744.841	28566.37
745.181	28673.26
745.52	28626.7
745.86	28654.5
746.199	28600.04
746.538	28624.45
746.877	28492.47
747.216	28443.88
747.556	28440.27
747.895	28376.99
748.234	28411.34
748.573	28308.52
748.911	28235.98
749.25	28201.63
749.589	28219.94
749.928	28135.87
750.267	28168.64
750.605	28125.93
750.944	28045.03
751.283	27985.37
751.621	28071.24
751.96	27954.41
752.298	27767.97
752.636	27770.91
752.975	27772.04
753.313	27596.45
753.651	27788.99
753.989	27713.51
754.327	27656.33
754.666	27516.68
755.004	27510.35
755.342	27431.26
755.679	27360.07
756.017	27237.81
756.355	27307.64
756.693	27275.1
757.031	27206.4
757.368	27128.89
757.706	26964.15
758.044	26878.28
758.381	26946.98
758.719	26922.34
