Data from hue_120_FLMS001491_00049.txt Node
Date: Tue Feb 07 16:59:27 GMT 2017
User: dcchb
Spectrometer: FLMS00149
Trigger mode: 0
Integration Time (sec): 2.000000E-2
Scans to average: 10
Electric dark correction enabled: true
Nonlinearity correction enabled: false
Boxcar width: 0
XAxis mode: Wavelengths
Number of Pixels in Spectrum: 2048
>>>>>Begin Spectral Data<<<<<
341.393	-15.3
341.776	-15.3
342.16	-15.3
342.543	-51.68
342.927	-46.93
343.31	-66.82
343.693	-68.85
344.077	-69.53
344.46	-74.73
344.843	-57.33
345.226	-36.99
345.61	-35.18
345.993	-15.75
346.376	2.33
346.759	-7.39
347.142	20.64
347.525	39.39
347.908	65.38
348.291	87.07
348.674	101.08
349.057	116.68
349.44	121.88
349.823	132.72
350.206	150.58
350.588	203.46
350.971	212.95
351.354	242.32
351.737	246.62
352.119	253.4
352.502	263.79
352.884	266.28
353.267	301.98
353.65	313.96
354.032	297.92
354.414	318.03
354.797	338.82
355.179	331.81
355.562	315.99
355.944	343.79
356.326	329.78
356.709	341.08
357.091	361.19
357.473	355.77
357.855	340.17
358.238	358.25
358.62	358.25
359.002	354.41
359.384	356.67
359.766	360.51
360.148	345.37
360.53	344.47
360.912	342.66
361.294	337.69
361.676	341.3
362.057	330.68
362.439	348.31
362.821	340.85
363.203	327.52
363.584	325.71
363.966	326.84
364.348	288.65
364.729	324.13
365.111	311.02
365.493	337.24
365.874	324.58
366.256	326.16
366.637	323.68
367.019	343.11
367.4	347.63
367.781	307.41
368.163	331.59
368.544	310.8
368.925	310.34
369.306	331.36
369.688	308.54
370.069	327.07
370.45	333.62
370.831	328.65
371.212	330.23
371.593	323
371.974	323.45
372.355	319.84
372.736	320.74
373.117	311.93
373.498	315.77
373.879	311.02
374.26	333.85
374.641	306.96
375.021	327.52
375.402	324.81
375.783	325.49
376.163	305.37
376.544	333.17
376.925	339.5
377.305	327.29
377.686	333.17
378.066	315.77
378.447	337.46
378.827	332.94
379.208	336.33
379.588	335.66
379.968	352.6
380.349	359.84
380.729	336.56
381.109	346.95
381.489	363
381.87	358.71
382.25	351.7
382.63	368.42
383.01	343.56
383.39	369.33
383.77	353.73
384.15	368.2
384.53	362.77
384.91	346.73
385.29	363.68
385.67	381.08
386.049	355.54
386.429	359.84
386.809	366.16
387.189	393.28
387.568	370.23
387.948	369.55
388.328	352.6
388.707	368.65
389.087	390.34
389.466	384.69
389.846	388.53
390.225	379.04
390.605	406.39
390.984	392.6
391.363	379.27
391.743	406.61
392.122	402.77
392.501	386.05
392.881	408.65
393.26	410.46
393.639	410.23
394.018	395.54
394.397	408.65
394.776	402.32
395.155	399.83
395.534	380.63
395.913	417.91
396.292	397.8
396.671	425.6
397.05	411.36
397.429	422.88
397.808	427.4
398.186	422.88
398.565	424.24
398.944	421.08
399.323	417.01
399.701	418.14
400.08	412.26
400.458	442.09
400.837	430.57
401.215	442.54
401.594	426.95
401.972	445.71
402.351	436.9
402.729	456.33
403.107	443.9
403.486	440.29
403.864	434.64
404.242	461.53
404.62	467.4
404.999	466.5
405.377	438.48
405.755	447.06
406.133	490.68
406.511	475.99
406.889	487.97
407.267	466.27
407.645	488.42
408.023	467.85
408.401	482.32
408.779	513.05
409.156	494.07
409.534	471.24
409.912	485.93
410.29	510.79
410.667	514.86
411.045	513.73
411.422	517.35
411.8	513.96
412.178	511.47
412.555	502.88
412.933	515.09
413.31	525.71
413.687	550.34
414.065	545.82
414.442	541.53
414.819	553.05
415.197	540.17
415.574	546.72
415.951	553.73
416.328	556.44
416.705	584.46
417.082	567.29
417.46	567.51
417.837	583.56
418.214	580.17
418.591	596.89
418.967	578.59
419.344	590.79
419.721	592.6
420.098	573.84
420.475	619.94
420.852	590.56
421.228	596.21
421.605	628.75
421.982	600.05
422.358	624.01
422.735	608.19
423.111	652.48
423.488	622.88
423.864	640.96
424.241	651.8
424.617	662.88
424.994	671.69
425.37	661.07
425.746	658.13
426.123	662.43
426.499	658.13
426.875	691.8
427.251	688.64
427.627	682.54
428.003	710.11
428.379	702.88
428.756	720.5
429.132	688.41
429.507	739.49
429.883	740.84
430.259	737.45
430.635	733.16
431.011	751.69
431.387	776.77
431.763	771.12
432.138	746.27
432.514	782.42
432.89	768.86
433.265	771.8
433.641	778.81
434.016	796.43
434.392	821.29
434.767	843.89
435.143	840.27
435.518	837.79
435.894	852.25
436.269	855.19
436.644	862.87
437.02	843.66
437.395	856.32
437.77	895.64
438.145	879.82
438.52	893.61
438.895	914.62
439.271	899.26
439.646	898.8
440.021	923.21
440.395	937.67
440.77	915.3
441.145	930.89
441.52	937.9
441.895	944
442.27	944.45
442.645	993.49
443.019	980.16
443.394	980.61
443.769	979.93
444.143	1019.7
444.518	992.81
444.892	1005.69
445.267	991.46
445.641	1008.41
446.016	1052.25
446.39	1042.98
446.764	1053.15
447.139	1053.38
447.513	1041.63
447.887	1058.57
448.262	1071.91
448.636	1051.12
449.01	1051.79
449.384	1100.38
449.758	1081.62
450.132	1139.02
450.506	1106.71
450.88	1112.58
451.254	1139.7
451.628	1126.14
452.002	1141.96
452.376	1144
452.75	1161.85
453.123	1172.7
453.497	1206.82
453.871	1209.53
454.244	1222.86
454.618	1233.26
454.992	1257.21
455.365	1237.55
455.739	1275.29
456.112	1308.28
456.486	1300.6
456.859	1313.26
457.232	1320.04
457.606	1343.09
457.979	1347.38
458.352	1380.6
458.725	1380.6
459.099	1426.93
459.472	1438.68
459.845	1458.79
460.218	1475.96
460.591	1494.27
460.964	1473.7
461.337	1511.67
461.71	1561.39
462.083	1580.14
462.456	1586.24
462.829	1605.45
463.201	1642.51
463.574	1617.66
463.947	1629.18
464.32	1675.28
464.692	1721.16
465.065	1732.23
465.438	1714.15
465.81	1766.13
466.183	1752.79
466.555	1807.25
466.928	1829.4
467.3	1887.7
467.672	1873.92
468.045	1941.04
468.417	1945.33
468.789	1991.2
469.161	2040.92
469.534	2068.49
469.906	2097.19
470.278	2122.95
470.65	2173.35
471.022	2196.62
471.394	2289.5
471.766	2260.8
472.138	2357.07
472.51	2378.31
472.882	2446.33
473.253	2474.36
473.625	2497.86
473.997	2607.46
474.369	2621.02
474.74	2694.01
475.112	2740.56
475.484	2800.9
475.855	2879.99
476.227	2872.09
476.598	3000.22
476.97	3049.03
477.341	3151.4
477.713	3214.45
478.084	3259.19
478.455	3326.54
478.827	3457.83
479.198	3575.8
479.569	3596.81
479.94	3736.47
480.311	3787.32
480.682	3910.48
481.053	4061.88
481.424	4160.87
481.795	4222.33
482.166	4305.49
482.537	4442.89
482.908	4521.76
483.279	4630.91
483.65	4787.52
484.021	4927.85
484.391	5049.66
484.762	5118.81
485.133	5232.25
485.503	5363.32
485.874	5502.07
486.244	5601.96
486.615	5757.21
486.985	5921.72
487.356	6080.81
487.726	6144.77
488.097	6391.77
488.467	6454.82
488.837	6657.75
489.207	6810.51
489.578	7025.42
489.948	7103.39
490.318	7247.11
490.688	7380.89
491.058	7539.76
491.428	7669.7
491.798	7919.86
492.168	8073.53
492.538	8294.54
492.908	8366.63
493.278	8447.76
493.648	8598.04
494.017	8851.59
494.387	8921.19
494.757	9127.06
495.126	9231.47
495.496	9395.08
495.866	9494.06
496.235	9576.09
496.605	9805.01
496.974	9931.33
497.344	10078
497.713	10143.08
498.082	10251.78
498.452	10435.73
498.821	10543.52
499.19	10677.3
499.559	10811.31
499.928	10955.26
500.298	11014.7
500.667	11183.51
501.036	11222.83
501.405	11314.8
501.774	11478.19
502.143	11585.08
502.512	11682.93
502.88	11743.49
503.249	11878.63
503.618	11965.41
503.987	12032.52
504.356	12163.82
504.724	12277.49
505.093	12361.78
505.462	12407.43
505.83	12507.54
506.199	12577.59
506.567	12785.27
506.936	12798.15
507.304	13048.32
507.672	13001.54
508.041	13079.27
508.409	13184.36
508.777	13287.86
509.145	13403.33
509.514	13418.25
509.882	13438.14
510.25	13532.37
510.618	13620.05
510.986	13724.68
511.354	13785.92
511.722	13880.16
512.09	13980.72
512.458	13952.92
512.826	14097.33
513.193	14143.88
513.561	14183.88
513.929	14318.11
514.297	14338.68
514.664	14416.19
515.032	14359.69
515.4	14558.33
515.767	14673.58
516.135	14764.2
516.502	14631.32
516.869	14752.23
517.237	14741.15
517.604	14755.39
517.972	14895.95
518.339	14953.35
518.706	14936.18
519.073	14911.09
519.44	15061.14
519.808	15118.32
520.175	15105.66
520.542	15342.94
520.909	15301.36
521.276	15326
521.643	15457.97
522.009	15580.68
522.376	15474.69
522.743	15612.99
523.11	15600.79
523.477	15761.69
523.843	15711.3
524.21	15866.09
524.577	15918.3
524.943	15899.99
525.31	15952.42
525.676	15931.4
526.043	16044.17
526.409	16099.99
526.776	16188.8
527.142	16071.96
527.508	16264.5
527.874	16361.45
528.241	16387.44
528.607	16287.55
528.973	16401.67
529.339	16347.21
529.705	16434.44
530.071	16475.34
530.437	16504.72
530.803	16473.54
531.169	16554.66
531.535	16476.7
531.901	16366.19
532.267	16506.08
532.632	16536.13
532.998	16554.21
533.364	16543.59
533.73	16517.38
534.095	16539.07
534.461	16609.8
534.826	16568.22
535.192	16598.96
535.557	16623.59
535.923	16477.6
536.288	16656.58
536.653	16647.09
537.019	16535.91
537.384	16548.56
537.749	16461.78
538.114	16384.5
538.479	16378.4
538.845	16460.65
539.21	16337.27
539.575	16367.78
539.94	16353.99
540.305	16368
540.67	16235.58
541.034	16367.78
541.399	16257.04
541.764	16289.36
542.129	16301.11
542.494	16375.23
542.858	16199.87
543.223	16210.27
543.587	16246.42
543.952	16122.13
544.316	16167.33
544.681	16170.27
545.045	16075.35
545.41	16108.8
545.774	16157.16
546.138	15985.41
546.503	15971.63
546.867	15962.14
547.231	16071.51
547.595	15962.14
547.959	15987.67
548.324	15939.76
548.688	15847.34
549.052	15836.94
549.416	15915.58
549.779	15851.18
550.143	15808.47
550.507	15725.76
550.871	15719.21
551.235	15712.88
551.599	15808.24
551.962	15784.74
552.326	15696.16
552.689	15769.15
553.053	15669.72
553.417	15608.7
553.78	15738.64
554.143	15669.04
554.507	15707.23
554.87	15674.23
555.234	15805.3
555.597	15547.46
555.96	15607.8
556.323	15533.67
556.686	15557.85
557.05	15642.6
557.413	15650.73
557.776	15599.21
558.139	15627
558.502	15577.29
558.865	15548.36
559.228	15617.74
559.59	15718.98
559.953	15653.67
560.316	15724.63
560.679	15688.7
561.041	15766.89
561.404	15705.87
561.767	15840.11
562.129	15695.48
562.492	15885.53
562.854	15815.25
563.217	15826.55
563.579	15768.24
563.941	15816.38
564.304	15961.01
564.666	15974.57
565.028	15954.23
565.39	15908.58
565.753	15881.69
566.115	15987.45
566.477	16033.55
566.839	16014.56
567.201	16149.25
567.563	16063.38
567.925	16039.65
568.287	16137.5
568.648	16123.71
569.01	16170.94
569.372	16241.9
569.734	16125.52
570.095	16262.47
570.457	16331.84
570.819	16201.45
571.18	16287.33
571.542	16393.31
571.903	16304.73
572.265	16290.72
572.626	16384.27
572.987	16473.54
573.349	16438.73
573.71	16429.02
574.071	16424.05
574.432	16551.95
574.794	16581.1
575.155	16505.17
575.516	16460.43
575.877	16467.43
576.238	16468.11
576.599	16525.74
576.96	16490.03
577.32	16569.35
577.681	16691.38
578.042	16683.02
578.403	16639.86
578.763	16558.51
579.124	16687.77
579.485	16669.24
579.845	16720.08
580.206	16610.71
580.566	16601.89
580.927	16628.33
581.287	16669.91
581.648	16615
582.008	16735
582.368	16631.05
582.728	16722.34
583.089	16633.76
583.449	16597.15
583.809	16701.55
584.169	16699.07
584.529	16626.53
584.889	16735.68
585.249	16582.01
585.609	16531.16
585.969	16598.28
586.329	16668.33
586.688	16559.41
587.048	16560.54
587.408	16533.65
587.768	16484.61
588.127	16447.55
588.487	16516.02
588.846	16611.39
589.206	16430.6
589.565	16346.53
589.925	16480.77
590.284	16365.52
590.643	16484.16
591.003	16488.45
591.362	16428.34
591.721	16419.75
592.08	16537.04
592.44	16423.82
592.799	16597.15
593.158	16557.6
593.517	16478.06
593.876	16489.35
594.235	16421.56
594.593	16490.94
594.952	16493.65
595.311	16347.44
595.67	16500.43
596.029	16586.08
596.387	16466.3
596.746	16493.2
597.104	16450.26
597.463	16359.19
597.822	16483.93
598.18	16407.1
598.538	16444.84
598.897	16499.3
599.255	16348.79
599.613	16423.14
599.972	16472.86
600.33	16371.84
600.688	16362.13
601.046	16418.62
601.404	16496.13
601.762	16381.11
602.12	16537.26
602.478	16501.78
602.836	16422.69
603.194	16393.54
603.552	16408.9
603.91	16328.23
604.268	16419.75
604.625	16373.2
604.983	16419.53
605.341	16276.03
605.698	16397.38
606.056	16467.89
606.413	16499.07
606.771	16473.08
607.128	16485.74
607.485	16412.52
607.843	16404.61
608.2	16558.51
608.557	16606.41
608.914	16450.49
609.272	16610.03
609.629	16601.44
609.986	16645.96
610.343	16575
610.7	16705.39
611.057	16688.22
611.414	16651.38
611.771	16634.44
612.127	16683.7
612.484	16630.82
612.841	16711.27
613.198	16699.52
613.554	16667.2
613.911	16719.86
614.267	16727.31
614.624	16782.91
614.98	16717.82
615.337	16887.76
615.693	16810.93
616.05	16744.72
616.406	16873.07
616.762	16820.87
617.118	16742.91
617.475	16727.09
617.831	16808.67
618.187	16911.72
618.543	16876.24
618.899	16942.45
619.255	17006.86
619.611	16910.13
619.967	17007.76
620.323	17082.11
620.678	16927.31
621.034	16876.69
621.39	16931.15
621.746	16929.57
622.101	17117.81
622.457	17037.59
622.812	16994.43
623.168	16995.1
623.523	17021.77
623.879	16981.32
624.234	16928.89
624.589	16867.2
624.945	16965.27
625.3	17004.14
625.655	17017.25
626.01	17002.11
626.365	17029.91
626.72	16927.31
627.075	16990.81
627.43	16851.38
627.785	16960.53
628.14	17016.57
628.495	17020.41
628.85	16869.91
629.205	16837.82
629.559	17022.22
629.914	16894.99
630.269	16836.69
630.623	16940.64
630.978	16801.44
631.332	16897.93
631.687	16986.97
632.041	16782.91
632.396	16840.98
632.75	16815
633.104	16862.9
633.459	16777.71
633.813	16843.02
634.167	16707.2
634.521	16697.26
634.875	16597.37
635.229	16637.6
635.583	16522.12
635.937	16580.65
636.291	16597.83
636.645	16609.8
636.999	16496.36
637.352	16510.6
637.706	16413.2
638.06	16534.78
638.413	16553.76
638.767	16442.35
639.121	16489.58
639.474	16346.76
639.828	16372.75
640.181	16383.59
640.534	16485.51
640.888	16385.85
641.241	16306.76
641.594	16317.61
641.947	16320.09
642.301	16297.27
642.654	16331.39
643.007	16311.28
643.36	16365.29
643.713	16218.63
644.066	16300.88
644.419	16128.23
644.771	16089.59
645.124	16078.97
645.477	15919.88
645.83	15835.81
646.182	15807.56
646.535	15760.11
646.888	15860.67
647.24	15650.51
647.593	15726.44
647.945	15729.83
648.298	15659.09
648.65	15663.16
649.002	15631.52
649.355	15759.66
649.707	15692.77
650.059	15730.05
650.411	15848.69
650.763	15948.58
651.115	16090.49
651.467	16010.95
651.819	16022.02
652.171	16076.94
652.523	16077.84
652.875	16072.19
653.227	15977.28
653.578	16062.02
653.93	16067.44
654.282	15997.84
654.633	15971.4
654.985	15963.94
655.337	15980.22
655.688	16048.91
656.039	16025.64
656.391	15875.13
656.742	16007.33
657.094	15954.91
657.445	15946.77
657.796	15969.14
658.147	15961.46
658.498	15941.12
658.849	16019.08
659.2	16043.26
659.551	16027.22
659.902	15996.71
660.253	15980.89
660.604	15979.09
660.955	15976.6
661.306	15997.62
661.656	16024.06
662.007	16068.8
662.358	16024.06
662.708	15982.25
663.059	16036.03
663.409	15928.69
663.76	16103.6
664.11	16073.77
664.461	16054.56
664.811	15973.89
665.161	15974.34
665.511	16005.98
665.862	16074.68
666.212	16093.21
666.562	16044.85
666.912	16032.87
667.262	16017.28
667.612	16018.63
667.962	15996.26
668.312	16026.32
668.662	16094.56
669.011	16013.89
669.361	16032.64
669.711	15886.43
670.06	15863.16
670.41	15895.7
670.76	15972.98
671.109	15904.06
671.459	15949.03
671.808	15817.51
672.157	15954.91
672.507	15855.7
672.856	15897.73
673.205	15868.58
673.554	15996.26
673.904	15847.11
674.253	15871.07
674.602	15889.82
674.951	15629.26
675.3	15610.28
675.649	15818.19
675.998	15805.98
676.346	15870.16
676.695	15922.59
677.044	15747.68
677.393	15784.06
677.741	15774.57
678.09	15766.66
678.438	15630.39
678.787	15652.54
679.135	15653.67
679.484	15510.85
679.832	15611.86
680.181	15484.86
680.529	15561.24
680.877	15597.63
681.225	15461.13
681.573	15532.09
681.922	15419.33
682.27	15351.98
682.618	15413.22
682.966	15341.36
683.314	15388.59
683.661	15410.06
684.009	15323.28
684.357	15164.64
684.705	15236.51
685.053	15223.63
685.4	15140.46
685.748	15078.77
686.095	15090.07
686.443	14990.64
686.79	15056.62
687.138	14978.66
687.485	15024.53
687.832	14876.97
688.18	14889.17
688.527	14827.7
688.874	14806.46
689.221	14726.46
689.568	14693.02
689.915	14633.81
690.262	14700.93
690.609	14557.88
690.956	14544.55
691.303	14564.89
691.65	14476.3
691.997	14467.49
692.344	14446.47
692.69	14312.91
693.037	14338.68
693.383	14117.44
693.73	14162.86
694.077	14126.7
694.423	14219.58
694.769	14126.7
695.116	14098.01
695.462	13966.71
695.808	13950.21
696.155	13947.73
696.501	13906.82
696.847	13848.07
697.193	13805.13
697.539	13813.27
697.885	13708.64
698.231	13648.75
698.577	13635.42
698.923	13654.63
699.269	13469.55
699.614	13493.5
699.96	13413.73
700.306	13334.86
700.651	13348.19
700.997	13223.45
701.342	13138.93
701.688	13249.67
702.033	13189.1
702.379	13133.96
702.724	13090.8
703.069	13092.16
703.415	13016.23
703.76	13015.32
704.105	12926.28
704.45	12886.29
704.795	12802.9
705.14	12761.99
705.485	12704.37
705.83	12689.23
706.175	12774.88
706.52	12565.62
706.865	12618.5
707.209	12554.09
707.554	12542.79
707.899	12584.37
708.243	12526.29
708.588	12408.56
708.932	12357.26
709.277	12302.35
709.621	12418.5
709.966	12308.22
710.31	12266.87
710.654	12126.31
710.998	12144.84
711.342	12188.45
711.687	12061
712.031	12111.39
712.375	12079.53
712.719	12041.79
713.063	12039.53
713.407	12118.17
713.75	12037.72
714.094	11953.43
714.438	11921.11
714.782	11922.47
715.125	11943.26
715.469	11940.55
715.812	11801.79
716.156	11724.73
716.499	11809.93
716.843	11829.82
717.186	11681.35
717.53	11763.83
717.873	11766.99
718.216	11694.23
718.559	11715.92
718.902	11571.74
719.246	11676.6
719.589	11609.93
719.932	11491.52
720.275	11563.61
720.617	11529.94
720.96	11573.1
721.303	11572.42
721.646	11562.7
721.989	11503.72
722.331	11519.09
722.674	11501.69
723.016	11472.54
723.359	11429.15
723.701	11448.81
724.044	11389.38
724.386	11365.87
724.729	11420.56
725.071	11345.99
725.413	11304.86
725.755	11268.02
726.097	11321.58
726.439	11227.12
726.782	11309.83
727.124	11244.07
727.465	11213.34
727.807	11230.74
728.149	11295.37
728.491	11251.75
728.833	11295.14
729.175	11220.11
729.516	11265.76
729.858	11222.6
730.199	11251.98
730.541	11213.11
730.882	11146.22
731.224	11228.48
731.565	11189.61
731.906	11135.82
732.248	11201.13
732.589	11120.91
732.93	11091.53
733.271	11097.63
733.612	11074.36
733.953	11103.28
734.294	11104.41
734.635	11054.24
734.976	11084.52
735.317	11055.83
735.658	11035.26
735.999	11110.06
736.339	11077.75
736.68	11109.83
737.021	11110.51
737.361	11004.98
737.702	11163.62
738.042	11138.76
738.383	11073
738.723	11106.9
739.063	11102.83
739.404	11163.84
739.744	11137.86
740.084	11060.34
740.424	11110.51
740.764	11111.87
741.104	11213.56
741.444	11108.71
741.784	11159.33
742.124	11222.37
742.464	11176.27
742.804	11197.52
743.143	11225.31
743.483	11296.04
743.823	11229.61
744.162	11282.26
744.502	11288.59
744.841	11347.34
745.181	11415.14
745.52	11392.77
745.86	11451.07
746.199	11450.62
746.538	11481.8
746.877	11578.3
747.216	11574.91
747.556	11568.81
747.895	11656.94
748.234	11639.54
748.573	11788.91
748.911	11774.9
749.25	11925.86
749.589	11954.56
749.928	12051.73
750.267	12118.62
750.605	12133.08
750.944	12239.97
751.283	12258.05
751.621	12341.67
751.96	12482.91
752.298	12526.75
752.636	12606.97
752.975	12657.36
753.313	12772.16
753.651	12915.89
753.989	12993.4
754.327	13130.57
754.666	13053.96
755.004	13246.28
755.342	13498.7
755.679	13539.83
756.017	13680.39
