Data from hue_180_FLMS001491_00076.txt Node
Date: Tue Feb 07 16:47:27 GMT 2017
User: dcchb
Spectrometer: FLMS00149
Trigger mode: 0
Integration Time (sec): 2.000000E-2
Scans to average: 10
Electric dark correction enabled: true
Nonlinearity correction enabled: false
Boxcar width: 0
XAxis mode: Wavelengths
Number of Pixels in Spectrum: 2048
>>>>>Begin Spectral Data<<<<<
341.393	-10
341.776	-10
342.16	-10
342.543	-87.51
342.927	-75.08
343.31	-59.26
343.693	-64.46
344.077	-34.18
344.46	-55.2
344.843	-68.98
345.226	-42.77
345.61	-35.54
345.993	-36.67
346.376	-2.09
346.759	10.11
347.142	8.3
347.525	28.87
347.908	63.44
348.291	85.36
348.674	92.6
349.057	110.45
349.44	112.48
349.823	149.32
350.206	164.68
350.588	192.93
350.971	204.46
351.354	219.37
351.737	234.29
352.119	222.31
352.502	257.79
352.884	252.14
353.267	275.64
353.65	279.26
354.032	312.03
354.414	298.47
354.797	324.91
355.179	314.51
355.562	310.67
355.944	338.24
356.326	351.57
356.709	318.81
357.091	322.19
357.473	338.01
357.855	324.45
358.238	315.64
358.62	322.19
359.002	334.4
359.384	319.94
359.766	330.33
360.148	330.56
360.53	314.29
360.912	317.68
361.294	325.58
361.676	335.75
362.057	312.03
362.439	318.35
362.821	314.74
363.203	316.77
363.584	324.68
363.966	292.82
364.348	311.12
364.729	317.22
365.111	324.45
365.493	295.75
365.874	328.07
366.256	309.77
366.637	310.67
367.019	301.86
367.4	322.19
367.781	315.64
368.163	304.12
368.544	293.95
368.925	293.5
369.306	319.48
369.688	280.16
370.069	307.51
370.45	301.18
370.831	301.86
371.212	318.81
371.593	308.86
371.974	303.21
372.355	319.71
372.736	303.89
373.117	320.61
373.498	312.25
373.879	329.88
374.26	313.16
374.641	305.7
375.021	312.7
375.402	308.64
375.783	308.41
376.163	309.99
376.544	321.74
376.925	320.16
377.305	312.7
377.686	324
378.066	326.04
378.447	318.13
378.827	324.23
379.208	335.3
379.588	314.06
379.968	314.96
380.349	320.84
380.729	330.33
381.109	330.78
381.489	355.41
381.87	319.71
382.25	331.46
382.63	330.1
383.01	313.38
383.39	334.85
383.77	333.95
384.15	325.36
384.53	342.08
384.91	331.69
385.29	337.56
385.67	335.75
386.049	347.5
386.429	362.42
386.809	325.36
387.189	333.72
387.568	334.62
387.948	329.43
388.328	349.54
388.707	338.92
389.087	347.5
389.466	356.54
389.846	364
390.225	358.58
390.605	360.39
390.984	359.26
391.363	361.97
391.743	350.44
392.122	360.39
392.501	355.87
392.881	364.68
393.26	361.06
393.639	375.07
394.018	379.59
394.397	375.98
394.776	376.43
395.155	397.67
395.534	378.46
395.913	384.34
396.292	370.1
396.671	395.41
397.05	345.02
397.429	374.17
397.808	376.2
398.186	381.63
398.565	378.01
398.944	390.67
399.323	392.02
399.701	396.54
400.08	403.55
400.458	393.83
400.837	399.71
401.215	416.88
401.594	404.23
401.972	422.76
402.351	413.94
402.729	417.56
403.107	418.46
403.486	416.66
403.864	381.18
404.242	412.36
404.62	431.57
404.999	421.4
405.377	422.98
405.755	427.05
406.133	462.98
406.511	432.47
406.889	453.04
407.267	469.08
407.645	443.32
408.023	473.15
408.401	484.68
408.779	465.47
409.156	468.63
409.534	486.03
409.912	503.89
410.29	506.6
410.667	478.8
411.045	506.82
411.422	521.74
411.8	500.72
412.178	506.37
412.555	547.05
412.933	526.03
413.31	540.04
413.687	540.27
414.065	560.38
414.442	557.22
414.819	577.56
415.197	591.34
415.574	572.81
415.951	591.57
416.328	611.68
416.705	602.64
417.082	620.04
417.46	617.78
417.837	639.47
418.214	639.47
418.591	653.49
418.967	643.99
419.344	642.86
419.721	667.27
420.098	663.2
420.475	694.61
420.852	678.8
421.228	676.54
421.605	707.95
421.982	718.57
422.358	709.53
422.735	702.3
423.111	739.59
423.488	750.88
423.864	743.2
424.241	761.96
424.617	758.79
424.994	782.75
425.37	786.36
425.746	818.68
426.123	812.8
426.499	835.63
426.875	835.18
427.251	868.17
427.627	864.78
428.003	881.5
428.379	877.43
428.756	904.55
429.132	903.65
429.507	883.76
429.883	909.07
430.259	917.43
430.635	949.52
431.011	947.04
431.387	970.99
431.763	984.1
432.138	996.3
432.514	1006.24
432.89	990.88
433.265	1031.1
433.641	1062.06
434.016	1054.15
434.392	1061.84
434.767	1091.44
435.143	1097.99
435.518	1115.62
435.894	1143.64
436.269	1178.44
436.644	1158.56
437.02	1180.48
437.395	1211.21
437.77	1202.62
438.145	1194.49
438.52	1253.47
438.895	1288.72
439.271	1276.75
439.646	1332.56
440.021	1330.3
440.395	1326.46
440.77	1351.32
441.145	1339.57
441.52	1382.96
441.895	1399.91
442.27	1395.61
442.645	1406.01
443.019	1445.33
443.394	1418.21
443.769	1487.36
444.143	1466.8
444.518	1450.3
444.892	1505.89
445.267	1496.63
445.641	1514.71
446.016	1525.1
446.39	1543.41
446.764	1549.51
447.139	1555.38
447.513	1631.54
447.887	1575.95
448.262	1621.14
448.636	1605.78
449.01	1639
449.384	1605.55
449.758	1657.75
450.132	1673.8
450.506	1683.97
450.88	1709.73
451.254	1695.49
451.628	1711.08
452.002	1744.53
452.376	1771.87
452.75	1803.74
453.123	1824.53
453.497	1805.55
453.871	1827.92
454.244	1893
454.618	1889.39
454.992	1905.88
455.365	1919.44
455.739	1952.89
456.112	1982.04
456.486	1983.39
456.859	2046.9
457.232	2049.38
457.606	2068.36
457.979	2107.91
458.352	2108.81
458.725	2174.12
459.099	2173.9
459.472	2190.17
459.845	2214.12
460.218	2253.44
460.591	2243.05
460.964	2281.92
461.337	2358.3
461.71	2364.85
462.083	2424.06
462.456	2432.65
462.829	2471.52
463.201	2447.11
463.574	2526.2
463.947	2551.51
464.32	2575.02
464.692	2605.75
465.065	2656.6
465.438	2716.71
465.81	2682.81
466.183	2742.47
466.555	2806.88
466.928	2849.13
467.3	2826.54
467.672	2889.36
468.045	2967.78
468.417	2985.18
468.789	3023.59
469.161	3065.63
469.534	3067.43
469.906	3198.28
470.278	3216.81
470.65	3264.26
471.022	3327.77
471.394	3405.05
471.766	3460.19
472.138	3457.93
472.51	3553.3
472.882	3651.82
473.253	3621.77
473.625	3720.3
473.997	3799.39
474.369	3908.99
474.74	3861.31
475.112	4008.43
475.484	4045.03
475.855	4117.58
476.227	4185.82
476.598	4268.31
476.97	4355.99
477.341	4447.96
477.713	4494.29
478.084	4522.54
478.455	4668.52
478.827	4758.91
479.198	4873.26
479.569	4934.28
479.94	5064.44
480.311	5110.32
480.682	5212.46
481.053	5371.55
481.424	5460.82
481.795	5551.21
482.166	5648.83
482.537	5693.58
482.908	5869.62
483.279	5957.08
483.65	6003.4
484.021	6204.07
484.391	6242.72
484.762	6345.99
485.133	6400
485.503	6479.32
485.874	6665.53
486.244	6745.75
486.615	6882.02
486.985	7009.7
487.356	7106.2
487.726	7155.01
488.097	7390.03
488.467	7386.64
488.837	7586.41
489.207	7687.65
489.578	7776.69
489.948	7911.83
490.318	7992.73
490.688	8112.72
491.058	8212.38
491.428	8301.19
491.798	8437.01
492.168	8534.41
492.538	8579.6
492.908	8749.09
493.278	8849.2
493.648	8828.41
494.017	8995.87
494.387	8994.51
494.757	9131
495.126	9248.29
495.496	9256.42
495.866	9343.88
496.235	9425.01
496.605	9523.53
496.974	9640.14
497.344	9639.24
497.713	9729.86
498.082	9843.3
498.452	9877.65
498.821	9935.73
499.19	9974.82
499.559	9992.68
499.928	10133.24
500.298	10213.69
500.667	10345.89
501.036	10273.35
501.405	10290.97
501.774	10314.93
502.143	10489.16
502.512	10436.96
502.88	10594.69
503.249	10544.53
503.618	10660.68
503.987	10661.81
504.356	10666.33
504.724	10717.85
505.093	10761.92
505.462	10785.2
505.83	10813.44
506.199	10949.94
506.567	11008.24
506.936	11025.87
507.304	11122.36
507.672	11054.34
508.041	11203.72
508.409	11177.28
508.777	11291.62
509.145	11389.47
509.514	11205.52
509.882	11389.25
510.25	11297.95
510.618	11359.19
510.986	11335.24
511.354	11505.4
511.722	11551.28
512.09	11571.84
512.458	11513.09
512.826	11627.43
513.193	11649.13
513.561	11705.4
513.929	11738.17
514.297	11758.28
514.664	11743.59
515.032	11802.57
515.4	11761.67
515.767	11851.84
516.135	11850.71
516.502	11712.4
516.869	11930.48
517.237	11948.56
517.604	11877.82
517.972	11898.39
518.339	12032.85
518.706	12015.45
519.073	11923.47
519.44	12038.95
519.808	12078.72
520.175	12031.94
520.542	12235.1
520.909	12173.86
521.276	12099.51
521.643	12123.69
522.009	12138.83
522.376	12300.86
522.743	12232.16
523.11	12324.37
523.477	12297.7
523.843	12321.65
524.21	12440.07
524.577	12452.5
524.943	12406.4
525.31	12403.46
525.676	12496.34
526.043	12500.41
526.409	12505.15
526.776	12532.72
527.142	12461.76
527.508	12545.38
527.874	12566.84
528.241	12618.82
528.607	12477.36
528.973	12534.08
529.339	12467.19
529.705	12509.22
530.071	12552.61
530.437	12459.5
530.803	12561.42
531.169	12559.39
531.535	12431.71
531.901	12451.14
532.267	12420.41
532.632	12472.61
532.998	12423.35
533.364	12438.49
533.73	12392.39
534.095	12414.53
534.461	12362.1
534.826	12383.57
535.192	12347.42
535.557	12324.14
535.923	12274.65
536.288	12298.15
536.653	12259.73
537.019	12130.92
537.384	12198.27
537.749	12149
538.114	12132.96
538.479	12013.19
538.845	12024.26
539.21	11942.68
539.575	11948.78
539.94	11857.26
540.305	11922.12
540.67	11826.75
541.034	11802.35
541.399	11789.01
541.764	11708.79
542.129	11677.6
542.494	11636.7
542.858	11651.39
543.223	11574.1
543.587	11584.27
543.952	11517.38
544.316	11462.24
544.681	11422.24
545.045	11322.58
545.41	11369.14
545.774	11342.02
546.138	11216.15
546.503	11164.17
546.867	11191.97
547.231	11168.46
547.595	11110.39
547.959	11086.43
548.324	11052.53
548.688	11009.37
549.052	10958.98
549.416	10980.67
549.779	10889.15
550.143	10902.26
550.507	10870.62
550.871	10776.16
551.235	10727.35
551.599	10765.31
551.962	10667.46
552.326	10650.28
552.689	10636.27
553.053	10598.53
553.417	10489.61
553.78	10587.91
554.143	10446.45
554.507	10483.51
554.87	10486
555.234	10453.23
555.597	10386.56
555.96	10395.38
556.323	10305.44
556.686	10342.04
557.05	10309.28
557.413	10290.29
557.776	10275.38
558.139	10332.55
558.502	10272.44
558.865	10277.19
559.228	10192.67
559.59	10204.87
559.953	10149.51
560.316	10206.91
560.679	10192.9
561.041	10268.83
561.404	10207.36
561.767	10234.25
562.129	10123.75
562.492	10202.39
562.854	10162.16
563.217	10100.47
563.579	10165.78
563.941	10145.44
564.304	10093.24
564.666	10141.82
565.028	10190.64
565.39	10183.4
565.753	10140.92
566.115	10144.08
566.477	10130.07
566.839	10091.43
567.201	10145.89
567.563	10128.26
567.925	10198.32
568.287	10206
568.648	10153.12
569.01	10125.33
569.372	10169.62
569.734	10172.56
570.095	10165.1
570.457	10186.34
570.819	10158.09
571.18	10151.32
571.542	10220.24
571.903	10183.18
572.265	10242.84
572.626	10202.16
572.987	10177.75
573.349	10182.95
573.71	10145.67
574.071	10119.9
574.432	10123.07
574.794	10274.25
575.155	10195.38
575.516	10152.44
575.877	10155.38
576.238	10207.58
576.599	10193.57
576.96	10163.52
577.32	10142.73
577.681	10199.9
578.042	10181.82
578.403	10222.05
578.763	10159.22
579.124	10214.59
579.485	10166.46
579.845	10266.57
580.206	10141.37
580.566	10158.77
580.927	10213.01
581.287	10161.26
581.648	10195.38
582.008	10224.76
582.368	10135.5
582.728	10173.01
583.089	10094.59
583.449	10122.62
583.809	10111.77
584.169	10067.02
584.529	10053.46
584.889	10191.31
585.249	10092.56
585.609	10049.4
585.969	10135.5
586.329	10061.37
586.688	10047.14
587.048	10065.44
587.408	10006.46
587.768	10037.87
588.127	9934.15
588.487	9992
588.846	10106.12
589.206	10034.93
589.565	9866.8
589.925	9987.93
590.284	9951.77
590.643	9970.08
591.003	9958.1
591.362	9982.28
591.721	9871.55
592.08	9879.01
592.44	9942.28
592.799	9973.47
593.158	9966.01
593.517	9863.64
593.876	9942.05
594.235	9846.01
594.593	9841.94
594.952	9822.96
595.311	9816.41
595.67	9857.54
596.029	9890.98
596.387	9856.41
596.746	9877.2
597.104	9858.67
597.463	9827.93
597.822	9810.98
598.18	9785
598.538	9797.43
598.897	9803.53
599.255	9763.08
599.613	9786.8
599.972	9812.11
600.33	9786.58
600.688	9710.65
601.046	9825.9
601.404	9807.14
601.762	9782.06
602.12	9786.13
602.478	9784.09
602.836	9774.38
603.194	9760.36
603.552	9801.49
603.91	9712
604.268	9734.15
604.625	9680.37
604.983	9759.91
605.341	9650.31
605.698	9768.95
606.056	9737.54
606.413	9780.25
606.771	9803.75
607.128	9761.72
607.485	9679.01
607.843	9705.45
608.2	9751.1
608.557	9822.28
608.914	9747.71
609.272	9717.88
609.629	9811.66
609.986	9813.92
610.343	9755.17
610.7	9817.09
611.057	9857.76
611.414	9784.32
611.771	9731.67
612.127	9843.75
612.484	9881.72
612.841	9872.23
613.198	9838.55
613.554	9808.95
613.911	9857.09
614.267	9857.09
614.624	9807.14
614.98	9892.79
615.337	9881.27
615.693	9849.4
616.05	9885.11
616.406	9937.31
616.762	9912.23
617.118	9898.21
617.475	9965.11
617.831	9957.42
618.187	9986.35
618.543	9989.74
618.899	9964.43
619.255	9969.17
619.611	9950.42
619.967	9973.01
620.323	10034.26
620.678	9987.03
621.034	9890.53
621.39	9951.77
621.746	9908.16
622.101	10007.82
622.457	9921.49
622.812	9947.25
623.168	9952.45
623.523	9955.61
623.879	10062.05
624.234	9875.39
624.589	9901.6
624.945	10001.49
625.3	9948.83
625.655	9951.32
626.01	9919.23
626.365	9939.8
626.72	9913.58
627.075	9909.74
627.43	9905.22
627.785	9827.03
628.14	9904.77
628.495	9897.99
628.85	9890.08
629.205	9890.08
629.559	9931.21
629.914	9859.8
630.269	9874.49
630.623	9872.45
630.978	9839.46
631.332	9844.43
631.687	9902.06
632.041	9817.76
632.396	9798.78
632.75	9845.56
633.104	9854.83
633.459	9812.57
633.813	9756.98
634.167	9794.49
634.521	9745
634.875	9753.36
635.229	9728.28
635.583	9735.51
635.937	9664.32
636.291	9705
636.645	9634.72
636.999	9667.26
637.352	9617.09
637.706	9672.91
638.06	9688.05
638.413	9559.47
638.767	9575.74
639.121	9591.33
639.474	9553.82
639.828	9573.48
640.181	9501.16
640.534	9537.77
640.888	9514.72
641.241	9521.73
641.594	9509.3
641.947	9549.3
642.301	9532.57
642.654	9503.87
643.007	9472.01
643.36	9513.82
643.713	9501.61
644.066	9530.31
644.419	9501.61
644.771	9436.31
645.124	9373.48
645.477	9321.05
645.83	9251.68
646.182	9261.39
646.535	9225.92
646.888	9198.35
647.24	9155.63
647.593	9186.59
647.945	9161.06
648.298	9086.03
648.65	9134.62
649.002	9046.26
649.355	9108.4
649.707	9096.88
650.059	9204.22
650.411	9281.06
650.763	9317.21
651.115	9410.54
651.467	9321.73
651.819	9336.65
652.171	9359.7
652.523	9326.48
652.875	9304.11
653.227	9321.51
653.578	9366.7
653.93	9391.79
654.282	9361.28
654.633	9290.09
654.985	9309.53
655.337	9343.43
655.688	9388.85
656.039	9377.32
656.391	9326.25
656.742	9288.74
657.094	9425.01
657.445	9323.31
657.796	9418.23
658.147	9352.92
658.498	9324.67
658.849	9404.22
659.2	9374.16
659.551	9340.71
659.902	9396.08
660.253	9410.54
660.604	9516.08
660.955	9401.5
661.306	9438.34
661.656	9451.45
662.007	9416.65
662.358	9448.51
662.708	9385.46
663.059	9426.36
663.409	9400.15
663.76	9478.56
664.11	9399.92
664.461	9452.12
664.811	9440.83
665.161	9393.82
665.511	9397.89
665.862	9339.58
666.212	9393.59
666.562	9408.96
666.912	9465.01
667.262	9465.23
667.612	9361.51
667.962	9467.94
668.312	9427.49
668.662	9474.95
669.011	9435.4
669.361	9437.44
669.711	9416.87
670.06	9381.17
670.41	9439.7
670.76	9356.31
671.109	9423.88
671.459	9372.8
671.808	9371.67
672.157	9384.56
672.507	9357.66
672.856	9312.47
673.205	9367.38
673.554	9431.56
673.904	9339.58
674.253	9390.21
674.602	9383.88
674.951	9215.75
675.3	9252.58
675.649	9279.47
675.998	9273.6
676.346	9267.04
676.695	9302.75
677.044	9170.32
677.393	9271.79
677.741	9265.69
678.09	9246.25
678.438	9171.23
678.787	9189.98
679.135	9160.83
679.484	9123.32
679.832	9134.62
680.181	9094.62
680.529	9142.3
680.877	9098.01
681.225	9147.05
681.573	9141.4
681.922	9118.12
682.27	9060.27
682.618	8992.7
682.966	8968.07
683.314	8982.31
683.661	9002.64
684.009	8946.15
684.357	8871.35
684.705	8878.58
685.053	8903.44
685.4	8850.78
685.748	8810.11
686.095	8808.98
686.443	8798.58
686.79	8745.93
687.138	8787.51
687.485	8779.15
687.832	8733.5
688.18	8709.77
688.527	8668.64
688.874	8717.45
689.221	8685.82
689.568	8599.27
689.915	8595.42
690.262	8633.39
690.609	8564.69
690.956	8559.49
691.303	8501.87
691.65	8488.99
691.997	8469.55
692.344	8416.22
692.69	8361.08
693.037	8358.82
693.383	8329.44
693.73	8300.29
694.077	8291.02
694.423	8288.09
694.769	8176.68
695.116	8208.09
695.462	8156.79
695.808	8092.39
696.155	8126.51
696.501	8062.33
696.847	8096.91
697.193	7995.89
697.539	7988.89
697.885	7954.08
698.231	7938.94
698.577	7931.71
698.923	7884.93
699.269	7850.81
699.614	7809.46
699.96	7769
700.306	7787.76
700.651	7732.62
700.997	7697.37
701.342	7663.7
701.688	7655.79
702.033	7621.66
702.379	7688.55
702.724	7609.01
703.069	7606.3
703.415	7489.69
703.76	7517.26
704.105	7465.96
704.45	7449.24
704.795	7443.82
705.14	7436.36
705.485	7361.56
705.83	7274.78
706.175	7323.37
706.52	7308.68
706.865	7300.99
707.209	7250.6
707.554	7269.13
707.899	7209.47
708.243	7200.66
708.588	7166.99
708.932	7199.53
709.277	7084.05
709.621	7095.12
709.966	7034.33
710.31	7099.19
710.654	7042.02
710.998	7053.77
711.342	7017.16
711.687	7003.83
712.031	6944.17
712.375	6939.65
712.719	6929.7
713.063	6930.38
713.407	6951.17
713.75	6919.08
714.094	6869.37
714.438	6823.27
714.782	6889.25
715.125	6820.33
715.469	6814.91
715.812	6789.6
716.156	6746.88
716.499	6745.08
716.843	6811.52
717.186	6779.43
717.53	6776.94
717.873	6760.67
718.216	6734
718.559	6701.24
718.902	6701.01
719.246	6732.65
719.589	6687.9
719.932	6633.67
720.275	6678.19
720.617	6662.59
720.96	6608.36
721.303	6624.63
721.646	6592.31
721.989	6585.08
722.331	6617.17
722.674	6586.66
723.016	6610.17
723.359	6588.47
723.701	6633.67
724.044	6546.89
724.386	6590.28
724.729	6639.32
725.071	6574.01
725.413	6531.98
725.755	6561.35
726.097	6564.97
726.439	6552.09
726.782	6550.28
727.124	6537.85
727.465	6487.91
727.807	6488.13
728.149	6510.05
728.491	6523.16
728.833	6591.63
729.175	6512.54
729.516	6493.11
729.858	6486.33
730.199	6564.97
730.541	6487.23
730.882	6481.81
731.224	6508.7
731.565	6518.64
731.906	6511.41
732.248	6451.53
732.589	6502.37
732.93	6428.7
733.271	6476.84
733.612	6530.85
733.953	6508.92
734.294	6471.86
734.635	6440.9
734.976	6505.54
735.317	6458.76
735.658	6486.78
735.999	6511.41
736.339	6545.31
736.68	6533.33
737.021	6533.33
737.361	6534.46
737.702	6496.04
738.042	6474.8
738.383	6515.48
738.723	6552.31
739.063	6617.85
739.404	6559.55
739.744	6622.82
740.084	6574.69
740.424	6587.34
740.764	6600.45
741.104	6622.59
741.444	6607
741.784	6673.21
742.124	6647
742.464	6697.85
742.804	6670.05
743.143	6757.51
743.483	6730.61
743.823	6696.04
744.162	6734.68
744.502	6787.34
744.841	6787.11
745.181	6858.75
745.52	6886.77
745.86	6937.61
746.199	6983.04
746.538	7008.8
746.877	7035.92
747.216	7111.17
747.556	7086.99
747.895	7156.59
748.234	7181.9
748.573	7238.62
748.911	7345.06
749.25	7355.68
749.589	7346.19
749.928	7455.11
750.267	7608.33
750.605	7618.5
750.944	7702.57
751.283	7726.97
751.621	7834.09
751.96	7909.11
752.298	7980.98
752.636	8095.78
752.975	8110.01
753.313	8263.23
753.651	8345.49
753.989	8453.96
754.327	8558.14
754.666	8702.31
755.004	8820.95
755.342	8932.59
755.679	9051.68
756.017	9166.03
756.355	9351.56
756.693	9416.42
757.031	9590.65
757.368	9649.18
757.706	9852.34
758.044	9911.77
758.381	10128.26
758.719	10223.63
759.056	10414.13
759.394	10553.79
759.731	10632.43
760.068	10789.26
760.405	10919.2
760.743	11152.42
761.08	11318.74
761.417	11384.5
761.754	11603.93
762.091	11769.35
762.428	11938.16
762.765	12086.63
763.102	12295.21
763.438	12371.82
763.775	12660.85
764.112	12726.39
764.449	13000.96
764.785	13117.11
