Data from hue_34_FLMS001491_00085.txt Node
Date: Tue Feb 07 17:26:19 GMT 2017
User: dcchb
Spectrometer: FLMS00149
Trigger mode: 0
Integration Time (sec): 2.000000E-2
Scans to average: 10
Electric dark correction enabled: true
Nonlinearity correction enabled: false
Boxcar width: 0
XAxis mode: Wavelengths
Number of Pixels in Spectrum: 2048
>>>>>Begin Spectral Data<<<<<
341.393	-22.53
341.776	-22.53
342.16	-22.53
342.543	-76.54
342.927	-71.11
343.31	-75.18
343.693	-59.81
344.077	-68.63
344.46	-56.2
344.843	-51.45
345.226	-50.55
345.61	-13.94
345.993	-18.69
346.376	-1.51
346.759	6.4
347.142	31.48
347.525	39.62
347.908	73.29
348.291	68.09
348.674	69.67
349.057	107.41
349.44	120.29
349.823	153.29
350.206	173.63
350.588	202.1
350.971	217.01
351.354	231.7
351.737	246.62
352.119	248.43
352.502	281.65
352.884	279.16
353.267	282.55
353.65	307.63
354.032	300.63
354.414	303.79
354.797	289.78
355.179	326.16
355.562	302.21
355.944	315.32
356.326	343.34
356.709	338.82
357.091	324.58
357.473	318.25
357.855	329.1
358.238	342.89
358.62	339.95
359.002	355.54
359.384	318.93
359.766	336.78
360.148	343.11
360.53	342.66
360.912	339.5
361.294	310.8
361.676	341.76
362.057	316.9
362.439	324.58
362.821	334.3
363.203	326.84
363.584	323.23
363.966	339.95
364.348	323.23
364.729	321.19
365.111	321.19
365.493	332.72
365.874	348.54
366.256	314.64
366.637	311.02
367.019	312.6
367.4	309.67
367.781	333.4
368.163	325.71
368.544	311.47
368.925	325.03
369.306	326.16
369.688	288.42
370.069	307.63
370.45	299.05
370.831	330.46
371.212	319.61
371.593	328.88
371.974	303.11
372.355	311.93
372.736	319.38
373.117	325.03
373.498	320.51
373.879	317.58
374.26	323.68
374.641	309.22
375.021	317.12
375.402	316.9
375.783	337.01
376.163	327.75
376.544	332.49
376.925	313.51
377.305	317.8
377.686	320.74
378.066	303.11
378.447	321.87
378.827	309.89
379.208	340.17
379.588	348.54
379.968	327.97
380.349	344.02
380.729	332.94
381.109	339.27
381.489	335.43
381.87	339.27
382.25	338.82
382.63	330.68
383.01	354.64
383.39	343.79
383.77	349.67
384.15	347.18
384.53	339.04
384.91	338.14
385.29	357.35
385.67	363.22
386.049	374.98
386.429	346.5
386.809	338.82
387.189	355.54
387.568	341.53
387.948	356.9
388.328	347.41
388.707	374.3
389.087	359.38
389.466	346.5
389.846	352.38
390.225	370.46
390.605	370.91
390.984	384.69
391.363	374.98
391.743	384.47
392.122	365.03
392.501	357.58
392.881	365.26
393.26	368.42
393.639	380.63
394.018	356.22
394.397	359.84
394.776	403.9
395.155	387.63
395.534	391.25
395.913	375.43
396.292	390.34
396.671	407.52
397.05	369.78
397.429	391.92
397.808	385.37
398.186	399.61
398.565	400.06
398.944	392.15
399.323	390.57
399.701	396.22
400.08	392.15
400.458	408.2
400.837	395.09
401.215	393.28
401.594	419.49
401.972	408.42
402.351	411.59
402.729	418.36
403.107	414.07
403.486	413.62
403.864	400.06
404.242	401.64
404.62	420.62
404.999	417.01
405.377	410
405.755	405.48
406.133	421.08
406.511	412.49
406.889	418.82
407.267	422.43
407.645	417.46
408.023	453.39
408.401	447.29
408.779	450.91
409.156	457.01
409.534	449.32
409.912	436.9
410.29	448.87
410.667	447.52
411.045	433.05
411.422	468.76
411.8	464.24
412.178	473.73
412.555	499.49
412.933	441.64
413.31	459.72
413.687	473.73
414.065	488.19
414.442	485.71
414.819	484.13
415.197	483.22
415.574	496.55
415.951	505.14
416.328	482.32
416.705	486.61
417.082	484.8
417.46	494.75
417.837	508.53
418.214	504.24
418.591	517.35
418.967	514.63
419.344	526.16
419.721	541.3
420.098	533.62
420.475	525.93
420.852	528.19
421.228	520.06
421.605	534.97
421.982	538.14
422.358	515.54
422.735	555.54
423.111	545.37
423.488	543.56
423.864	539.94
424.241	557.34
424.617	532.26
424.994	562.99
425.37	567.97
425.746	566.38
426.123	536.1
426.499	592.82
426.875	573.39
427.251	573.16
427.627	585.37
428.003	599.15
428.379	603.22
428.756	593.05
429.132	620.85
429.507	606.83
429.883	616.78
430.259	611.35
430.635	609.09
431.011	628.3
431.387	618.13
431.763	634.86
432.138	626.49
432.514	662.2
432.89	642.09
433.265	642.99
433.641	643.22
434.016	665.82
434.392	656.32
434.767	673.73
435.143	653.16
435.518	668.75
435.894	662.2
436.269	709.88
436.644	714.18
437.02	708.53
437.395	717.57
437.77	724.35
438.145	735.87
438.52	735.64
438.895	717.57
439.271	722.31
439.646	737.9
440.021	715.76
440.395	722.54
440.77	725.02
441.145	762.31
441.52	755.3
441.895	765.93
442.27	753.5
442.645	769.32
443.019	791.01
443.394	759.6
443.769	801.86
444.143	763.44
444.518	784.23
444.892	791.91
445.267	781.07
445.641	770.9
446.016	777
446.39	817.68
446.764	796.21
447.139	826.49
447.513	802.99
447.887	812.03
448.262	797.11
448.636	827.17
449.01	832.14
449.384	824.23
449.758	847.51
450.132	851.57
450.506	851.12
450.88	848.64
451.254	853.83
451.628	862.42
452.002	896.09
452.376	882.08
452.75	901.74
453.123	874.4
453.497	886.6
453.871	904
454.244	939.48
454.618	945.36
454.992	963.89
455.365	948.75
455.739	969.99
456.112	968.86
456.486	984.23
456.859	994.85
457.232	993.94
457.606	996.43
457.979	1010.44
458.352	1011.8
458.725	1029.65
459.099	1053.15
459.472	1052.02
459.845	1047.5
460.218	1068.74
460.591	1101.06
460.964	1106.26
461.337	1082.75
461.71	1097.22
462.083	1131.11
462.456	1148.74
462.829	1148.29
463.201	1166.59
463.574	1166.14
463.947	1202.3
464.32	1188.97
464.692	1213.6
465.065	1221.51
465.438	1253.82
465.81	1234.61
466.183	1280.94
466.555	1298.12
466.928	1291.34
467.3	1295.86
467.672	1323.2
468.045	1381.73
468.417	1383.54
468.789	1396.64
469.161	1399.58
469.534	1391.9
469.906	1465.34
470.278	1442.52
470.65	1468.28
471.022	1508.51
471.394	1520.93
471.766	1583.76
472.138	1567.94
472.51	1612.23
472.882	1650.42
473.253	1651.55
473.625	1701.72
473.997	1723.87
474.369	1737.43
474.74	1758.44
475.112	1799.8
475.484	1840.25
475.855	1884.31
476.227	1920.25
476.598	1953.24
476.97	1998.66
477.341	2042.5
477.713	2042.95
478.084	2101.03
478.455	2178.32
478.827	2216.28
479.198	2257.64
479.569	2285.21
479.94	2389.61
480.311	2405.88
480.682	2480.68
481.053	2550.96
481.424	2595.48
481.795	2627.57
482.166	2735.37
482.537	2791.64
482.908	2847.91
483.279	2863.5
483.65	3007.9
484.021	3045.87
484.391	3131.74
484.762	3167.67
485.133	3213.32
485.503	3314.33
485.874	3396.14
486.244	3449.92
486.615	3574.67
486.985	3613.99
487.356	3698.5
487.726	3799.74
488.097	3900.08
488.467	3947.31
488.837	4046.07
489.207	4138.94
489.578	4186.18
489.948	4285.38
490.318	4388.88
490.688	4401.08
491.058	4572.15
491.428	4634.07
491.798	4695.09
492.168	4845.82
492.538	4882.65
492.908	4987.96
493.278	5053.5
493.648	5102.08
494.017	5204.45
494.387	5278.58
494.757	5306.37
495.126	5493.03
495.496	5522.86
495.866	5610.09
496.235	5653.93
496.605	5735.96
496.974	5822.06
497.344	5906.81
497.713	5942.97
498.082	6038.78
498.452	6101.83
498.821	6135.5
499.19	6229.51
499.559	6320.81
499.928	6385.89
500.298	6429.73
500.667	6534.81
501.036	6565.55
501.405	6695.49
501.774	6663.4
502.143	6782.04
502.512	6815.94
502.88	6907.23
503.249	6985.2
503.618	6982.49
503.987	7073.56
504.356	7141.8
504.724	7157.4
505.093	7196.49
505.462	7292.53
505.83	7331.63
506.199	7491.4
506.567	7574.11
506.936	7509.25
507.304	7643.49
507.672	7675.8
508.041	7772.75
508.409	7876.25
508.777	7873.76
509.145	7946.53
509.514	7948.56
509.882	7992.63
510.25	8056.58
510.618	8149.46
510.986	8182
511.354	8262.9
511.722	8315.78
512.09	8335.9
512.458	8409.79
512.826	8448.44
513.193	8480.98
513.561	8519.17
513.929	8590.13
514.297	8709.45
514.664	8695.21
515.032	8772.04
515.4	8822.89
515.767	8899.05
516.135	8921.64
516.502	8867.86
516.869	9059.95
517.237	9029.44
517.604	9059.95
517.972	9137.68
518.339	9221.07
518.706	9267.17
519.073	9228.53
519.44	9323.67
519.808	9459.03
520.175	9395.98
520.542	9506.49
520.909	9622.87
521.276	9567.05
521.643	9680.04
522.009	9701.51
522.376	9742.19
522.743	9836.2
523.11	9894.5
523.477	9964.33
523.843	9992.35
524.21	10151.89
524.577	10193.25
524.943	10282.51
525.31	10294.94
525.676	10423.07
526.043	10480.02
526.409	10447.93
526.776	10555.27
527.142	10525.67
527.508	10721.37
527.874	10712.56
528.241	10750.07
528.607	10838.2
528.973	10888.82
529.339	10911.87
529.705	10990.74
530.071	11043.17
530.437	11065.54
530.803	11174.92
531.169	11343.73
531.535	11273.45
531.901	11317.74
532.267	11383.27
532.632	11448.36
532.998	11465.76
533.364	11528.81
533.73	11628.69
534.095	11673.66
534.461	11720.44
534.826	11698.29
535.192	11798.4
535.557	11846.31
535.923	11849.93
536.288	11931.06
536.653	12086.53
537.019	12014.44
537.384	11980.55
537.749	12115.91
538.114	12200.43
538.479	12200.2
538.845	12329.24
539.21	12295.11
539.575	12311.84
539.94	12373.3
540.305	12435.45
540.67	12437.03
541.034	12477.93
541.399	12563.58
541.764	12650.36
542.129	12616.01
542.494	12709.57
542.858	12804.48
543.223	12727.65
543.587	12859.85
543.952	12868.43
544.316	12955.21
544.681	12979.62
545.045	13006.51
545.41	13102.55
545.774	13129.44
546.138	13203.34
546.503	13180.06
546.867	13277.24
547.231	13430.68
547.595	13335.54
547.959	13468.64
548.324	13498.02
548.688	13480.62
549.052	13616.89
549.416	13544.57
549.779	13624.8
550.143	13610.11
550.507	13759.93
550.871	13759.03
551.235	13760.39
551.599	13897.56
551.962	13883.55
552.326	13984.34
552.689	14067.72
553.053	13986.14
553.417	14032.47
553.78	14268.17
554.143	14090.55
554.507	14261.84
554.87	14265.23
555.234	14486.7
555.597	14402.63
555.96	14438.56
556.323	14440.14
556.686	14468.62
557.05	14651.66
557.413	14610.53
557.776	14680.59
558.139	14723.53
558.502	14763.52
558.865	14818.44
559.228	14915.38
559.59	14966.91
559.953	14999
560.316	15141.82
560.679	15187.02
561.041	15116.28
561.404	15341.59
561.767	15365.99
562.129	15332.32
562.492	15462.71
562.854	15495.71
563.217	15402.6
563.579	15537.29
563.941	15588.81
564.304	15668.13
564.666	15671.3
565.028	15789.49
565.39	15723.27
565.753	15871.97
566.115	15857.51
566.477	15922.36
566.839	16022.02
567.201	16161.91
567.563	16203.71
567.925	16302.92
568.287	16324.39
568.648	16361.45
569.01	16293.88
569.372	16477.6
569.734	16566.19
570.095	16557.6
570.457	16638.96
570.819	16663.36
571.18	16772.51
571.542	16819.29
571.903	16964.82
572.265	17041.88
572.626	17076.23
572.987	17161.43
573.349	17172.73
573.71	17359.84
574.071	17408.88
574.432	17486.62
574.794	17663.56
575.155	17735.2
575.516	17705.37
575.877	17799.38
576.238	17962.99
576.599	18107.39
576.96	18160.27
577.32	18202.3
577.681	18414.28
578.042	18531.11
578.403	18673.25
578.763	18695.4
579.124	18917.09
579.485	18947.14
579.845	19174.93
580.206	19254.03
580.566	19448.15
580.927	19552.78
581.287	19802.04
581.648	19820.57
582.008	20089.03
582.368	20189.82
582.728	20323.83
583.089	20428.69
583.449	20723.37
583.809	20835.23
584.169	21042.46
584.529	21256.01
584.889	21527.19
585.249	21670.46
585.609	21866.84
585.969	22173.05
586.329	22287.62
586.688	22611.23
587.048	22754.05
587.408	22909.98
587.768	23072.23
588.127	23165.56
588.487	23586.34
588.846	23978.88
589.206	23974.58
589.565	24295.7
589.925	24637.61
590.284	24737.27
590.643	24987.89
591.003	25315.11
591.362	25650.47
591.721	25701.09
592.08	25960.74
592.44	26291.36
592.799	26549.66
593.158	26739.71
593.517	27044.78
593.876	27327.04
594.235	27544.21
594.593	27726.12
594.952	28048.6
595.311	28224.64
595.67	28499.43
596.029	28922.7
596.387	29033.43
596.746	29370.82
597.104	29502.8
597.463	29733.53
597.822	30102.33
598.18	30270.46
598.538	30397.92
598.897	30827.06
599.255	30754.06
599.613	31441.73
599.972	31420.71
600.33	31618.9
600.688	31732.57
601.046	32129.85
601.404	32337.07
601.762	32410.29
602.12	32728.48
602.478	32982.25
602.836	33222.7
603.194	33166.2
603.552	33402.36
603.91	33430.38
604.268	33886.64
604.625	33853.87
604.983	34273.97
605.341	34255.22
605.698	34523
606.056	34791.47
606.413	34833.28
606.771	35050.45
607.128	35398.24
607.485	35375.86
607.843	35538.12
608.2	35803.87
608.557	36019.01
608.914	36176.52
609.272	36488.83
609.629	36599.33
609.986	36770.63
610.343	36832.1
610.7	37213.56
611.057	37259.2
611.414	37246.1
611.771	37418.3
612.127	37605.64
612.484	37837.49
612.841	37823.26
613.198	37933.54
613.554	38012.18
613.911	38296.24
614.267	38414.65
614.624	38539.4
614.98	38616.46
615.337	38989.33
615.693	38929.89
616.05	39093.73
616.406	39376.89
616.762	39183.67
617.118	39418.7
617.475	39288.3
617.831	39740.04
618.187	39769.87
618.543	39813.49
618.899	40136.64
619.255	40120.82
619.611	40094.16
619.967	40364.66
620.323	40574.82
620.678	40391.1
621.034	40371.89
621.39	40457.31
621.746	40563.07
622.101	41024.98
622.457	40803.52
622.812	40846
623.168	40973
623.523	41025.66
623.879	41220.91
624.234	41030.86
624.589	41324.63
624.945	41247.57
625.3	41412.54
625.655	41309.04
626.01	41269.27
626.365	41413.9
626.72	41439.88
627.075	41622.93
627.43	41596.94
627.785	41493.67
628.14	41584.06
628.495	41744.74
628.85	41610.05
629.205	41584.29
629.559	41918.97
629.914	41890.27
630.269	41767.33
630.623	41800.78
630.978	41642.14
631.332	41876.03
631.687	41998.51
632.041	41727.56
632.396	41810.5
632.75	41745.64
633.104	41925.75
633.459	41720.56
633.813	41640.33
634.167	41699.09
634.521	41600.78
634.875	41820.89
635.229	41763.27
635.583	41563.05
635.937	41645.3
636.291	41743.83
636.645	41783.83
636.999	41707
637.352	41862.47
637.706	41609.15
638.06	41703.15
638.413	41522.59
638.767	41546.77
639.121	41643.27
639.474	41355.37
639.828	41461.35
640.181	41624.06
640.534	41424.97
640.888	41484.63
641.241	41342.94
641.594	41327.57
641.947	41509.94
642.301	41544.06
642.654	41340
643.007	41453.67
643.36	41435.82
643.713	41382.03
644.066	41571.18
644.419	41217.07
644.771	40995.15
645.124	40551.32
645.477	40537.76
645.83	40323.98
646.182	40330.54
646.535	40062.52
646.888	40126.93
647.24	40020.94
647.593	40225.68
647.945	40119.24
648.298	39938.68
648.65	39902.75
649.002	39728.97
649.355	39974.16
649.707	40042.63
650.059	40099.58
650.411	40544.99
650.763	40668.83
651.115	41010.07
651.467	40798.32
651.819	40903.18
652.171	40795.61
652.523	40688.04
652.875	40695.95
653.227	40615.73
653.578	40846.68
653.93	40695.05
654.282	40560.36
654.633	40531.21
654.985	40692.11
655.337	40576.86
655.688	40622.96
656.039	40716.97
656.391	40393.58
656.742	40486.69
657.094	40454.15
657.445	40776.85
657.796	40530.76
658.147	40463.87
658.498	40464.09
658.849	40609.62
659.2	40440.59
659.551	40463.19
659.902	40615.95
660.253	40465.22
660.604	40502.51
660.955	40327.82
661.306	40589.51
661.656	40382.06
662.007	40362.85
662.358	40309.75
662.708	40487.14
663.059	40364.21
663.409	40098.68
663.76	40461.61
664.11	40353.81
664.461	40376.86
664.811	40291.89
665.161	40330.99
665.511	40160.37
665.862	40263.87
666.212	40370.76
666.562	40364.21
666.912	40304.1
667.262	40224.32
667.612	40279.92
667.962	40293.7
668.312	40189.07
668.662	40295.51
669.011	40350.42
669.361	40091.67
669.711	40126.02
670.06	40224.78
670.41	40109.3
670.76	40229.3
671.109	40161.95
671.459	40144.1
671.808	40017.78
672.157	40270.65
672.507	39901.85
672.856	39882.86
673.205	39941.39
673.554	40088.73
673.904	39977.1
674.253	39983.88
674.602	39951.79
674.951	39422.99
675.3	39284.91
675.649	39805.35
675.998	39772.36
676.346	39754.05
676.695	40019.81
677.044	39646.03
677.393	39927.38
677.741	39817.1
678.09	39738.46
678.438	39706.6
678.787	39771.91
679.135	39748.4
679.484	39496.66
679.832	39636.54
680.181	39444.68
680.529	39585.02
680.877	39345.02
681.225	39621.18
681.573	39542.08
681.922	39337.12
682.27	39172.6
682.618	39324.01
682.966	39204.01
683.314	39299.6
683.661	39184.35
684.009	39063.22
684.357	38813.97
684.705	38925.15
685.053	39026.39
685.4	38820.74
685.748	38593.86
686.095	38567.64
686.443	38552.5
686.79	38448.1
687.138	38519.74
687.485	38470.92
687.832	38295.33
688.18	38378.27
688.527	38139.41
688.874	38173.98
689.221	38169.69
689.568	37998.62
689.915	37893.31
690.262	37869.36
690.609	37775.35
690.956	37748.91
691.303	37496.71
691.65	37505.98
691.997	37369.94
692.344	37329.71
692.69	37224.4
693.037	37174.91
693.383	36977.86
693.73	37157.29
694.077	36825.32
694.423	36949.16
694.769	36778.54
695.116	36618.77
695.462	36683.17
695.808	36607.24
696.155	36641.37
696.501	36151.44
696.847	36336.74
697.193	36113.47
697.539	36205.9
697.885	35974.27
698.231	35950.09
698.577	35878
698.923	35781.73
699.269	35647.27
699.614	35503.32
699.96	35421.96
700.306	35548.74
700.651	35291.8
700.997	35192.82
701.342	35103.33
701.688	35102.42
702.033	34991.24
702.379	34974.29
702.724	34683.23
703.069	34905.82
703.415	34542.67
703.76	34513.74
704.105	34519.39
704.45	34343.12
704.795	34190.13
705.14	34154.65
705.485	34164.37
705.83	34030.36
706.175	34143.81
706.52	33895.9
706.865	33804.15
707.209	33839.41
707.554	33678.96
707.899	33772.06
708.243	33547.89
708.588	33428.12
708.932	33298.63
709.277	33428.57
709.621	33297.95
709.966	33188.35
710.31	33135.92
710.654	32937.28
710.998	32909.26
711.342	32923.27
711.687	32849.15
712.031	32801.92
712.375	32574.36
712.719	32735.71
713.063	32647.35
713.407	32688.02
713.75	32463.17
714.094	32390.86
714.438	32365.77
714.782	32492.32
715.125	32249.84
715.469	32290.07
715.812	32089.85
716.156	31959.23
716.499	32025.44
716.843	32001.26
717.186	31757.65
717.53	32086.68
717.873	31915.62
718.216	31785.68
718.559	31587.94
718.902	31432.01
719.246	31584.1
719.589	31385.91
719.932	31323.77
720.275	31253.26
720.617	31363.99
720.96	31253.49
721.303	31178.23
721.646	31221.4
721.989	31003.78
722.331	30979.6
722.674	30801.75
723.016	31026.15
723.359	30935.3
723.701	31082.87
724.044	30709.32
724.386	30547.74
724.729	30652.6
725.071	30581.87
725.413	30536.67
725.755	30583
726.097	30407.41
726.439	30387.29
726.782	30372.83
727.124	30404.02
727.465	30258.71
727.807	30281.53
728.149	30195.43
728.491	30124.48
728.833	30151.82
729.175	30125.83
729.516	30009.68
729.858	29973.07
730.199	30071.14
730.541	30033.63
730.882	29938.94
731.224	29959.73
731.565	29874.31
731.906	29810.81
732.248	29758.61
732.589	29605.85
732.93	29592.06
733.271	29527.2
733.612	29582.34
733.953	29563.14
734.294	29430.94
734.635	29385.51
734.976	29536.92
735.317	29374.89
735.658	29393.2
735.999	29269.13
736.339	29143.49
736.68	29294.89
737.021	29115.01
737.361	28925.41
737.702	29122.69
738.042	29082.92
738.383	28991.4
738.723	29032.53
739.063	28849.93
739.404	28959.76
739.744	28813.55
740.084	28691.52
740.424	28691.97
740.764	28647.68
741.104	28822.59
741.444	28611.52
741.784	28540.11
742.124	28674.12
742.464	28618.3
742.804	28435.26
743.143	28450.17
743.483	28437.29
743.823	28421.24
744.162	28324.75
744.502	28309.61
744.841	28282.72
745.181	28370.62
745.52	28226
745.86	28193
746.199	28173.79
746.538	28171.08
746.877	28085.89
747.216	27954.59
747.556	28009.28
747.895	28017.86
748.234	27866.23
748.573	27870.3
748.911	27817.87
749.25	27881.15
749.589	27698.33
749.928	27750.08
750.267	27904.65
750.605	27649.06
750.944	27600.25
751.283	27581.04
751.621	27584.88
751.96	27397.77
752.298	27452.46
752.636	27450.65
752.975	27281.39
753.313	27244.55
753.651	27326.36
753.989	27152.8
754.327	27178.79
754.666	26912.13
755.004	26976.31
755.342	26958.91
755.679	26927.72
756.017	26822.42
756.355	26887.5
756.693	26699.71
757.031	26781.74
757.368	26571.35
757.706	26529.77
758.044	26475.98
