Data from hue_60_FLMS001491_37.txt Node
Date: Mon Feb 06 15:17:18 GMT 2017
User: dcchb
Spectrometer: FLMS00149
Trigger mode: 0
Integration Time (sec): 2.000000E-2
Scans to average: 10
Electric dark correction enabled: true
Nonlinearity correction enabled: false
Boxcar width: 0
XAxis mode: Wavelengths
Number of Pixels in Spectrum: 2048
>>>>>Begin Spectral Data<<<<<
341.393	-5.42
341.776	-5.42
342.16	-5.42
342.543	-52.43
342.927	-54.24
343.31	-75.48
343.693	-71.18
344.077	-56.5
344.46	-75.93
344.843	-65.99
345.226	-39.1
345.61	-48.13
345.993	-33.9
346.376	-25.08
346.759	33.9
347.142	23.28
347.525	51.07
347.908	73.9
348.291	82.26
348.674	105.31
349.057	121.58
349.44	124.97
349.823	128.81
350.206	173.78
350.588	190.96
350.971	210.84
351.354	227.56
351.737	255.13
352.119	263.04
352.502	267.34
352.884	254.68
353.267	289.71
353.65	283.83
354.032	279.31
354.414	315.7
354.797	300.33
355.179	320.9
355.562	323.61
355.944	332.65
356.326	341.69
356.709	343.95
357.091	331.52
357.473	331.74
357.855	354.79
358.238	352.31
358.62	351.63
359.002	342.82
359.384	335.81
359.766	336.04
360.148	326.09
360.53	328.13
360.912	341.91
361.294	328.8
361.676	345.98
362.057	357.05
362.439	337.17
362.821	334.91
363.203	330.84
363.584	316.6
363.966	338.97
364.348	307.34
364.729	334.23
365.111	319.31
365.493	325.42
365.874	313.89
366.256	314.34
366.637	306.66
367.019	316.6
367.4	311.86
367.781	326.32
368.163	321.35
368.544	299.88
368.925	312.99
369.306	314.34
369.688	319.77
370.069	316.38
370.45	321.8
370.831	304.17
371.212	331.74
371.593	317.96
371.974	326.32
372.355	298.98
372.736	334.68
373.117	316.15
373.498	307.34
373.879	306.66
374.26	329.26
374.641	303.95
375.021	308.24
375.402	312.53
375.783	336.71
376.163	333.1
376.544	334.91
376.925	350.27
377.305	300.56
377.686	324.96
378.066	322.48
378.447	338.97
378.827	314.57
379.208	307.79
379.588	339.65
379.968	336.26
380.349	333.32
380.729	328.58
381.109	327.45
381.489	333.55
381.87	311.4
382.25	340.1
382.63	331.52
383.01	343.95
383.39	335.81
383.77	362.25
384.15	324.06
384.53	349.14
384.91	344.4
385.29	348.69
385.67	344.62
386.049	342.36
386.429	362.93
386.809	341.46
387.189	354.11
387.568	345.75
387.948	345.75
388.328	368.13
388.707	354.34
389.087	342.59
389.466	362.48
389.846	343.49
390.225	365.87
390.605	375.36
390.984	362.02
391.363	363.61
391.743	352.99
392.122	338.75
392.501	389.82
392.881	371.06
393.26	364.28
393.639	349.82
394.018	372.65
394.397	365.64
394.776	395.02
395.155	368.13
395.534	366.77
395.913	380.33
396.292	361.57
396.671	378.97
397.05	368.58
397.429	389.82
397.808	386.43
398.186	361.35
398.565	382.36
398.944	368.8
399.323	370.84
399.701	397.96
400.08	372.42
400.458	385.53
400.837	400.22
401.215	392.98
401.594	370.16
401.972	371.06
402.351	363.38
402.729	381.68
403.107	403.83
403.486	392.53
403.864	385.53
404.242	402.7
404.62	398.18
404.999	388.92
405.377	397.5
405.755	409.03
406.133	402.7
406.511	406.54
406.889	398.63
407.267	406.99
407.645	436.37
408.023	413.55
408.401	424.17
408.779	438.86
409.156	401.57
409.534	434.79
409.912	440.89
410.29	437.5
410.667	423.49
411.045	419.42
411.422	419.42
411.8	422.59
412.178	440.67
412.555	442.93
412.933	430.72
413.31	451.97
413.687	443.83
414.065	455.36
414.442	451.97
414.819	435.92
415.197	465.3
415.574	478.63
415.951	455.36
416.328	461.68
416.705	445.41
417.082	464.62
417.46	453.32
417.837	480.44
418.214	482.25
418.591	501.23
418.967	487.44
419.344	467.78
419.721	483.83
420.098	494.22
420.475	483.38
420.852	514.11
421.228	490.16
421.605	510.5
421.982	521.34
422.358	516.6
422.735	517.27
423.111	498.07
423.488	522.25
423.864	517.27
424.241	504.62
424.617	528.57
424.994	543.26
425.37	550.49
425.746	495.81
426.123	512.08
426.499	542.58
426.875	545.75
427.251	541
427.627	549.82
428.003	551.85
428.379	538.52
428.756	541.45
429.132	569.25
429.507	578.74
429.883	567.44
430.259	576.03
430.635	589.82
431.011	595.92
431.387	566.31
431.763	600.66
432.138	585.07
432.514	604.73
432.89	617.61
433.265	628.68
433.641	614.22
434.016	624.16
434.392	630.27
434.767	628.23
435.143	633.2
435.518	635.24
435.894	633.43
436.269	625.07
436.644	618.74
437.02	647.21
437.395	656.71
437.77	653.32
438.145	677.5
438.52	679.53
438.895	681.56
439.271	659.64
439.646	710.49
440.021	669.59
440.395	679.08
440.77	688.57
441.145	684.73
441.52	696.93
441.895	703.48
442.27	721.34
442.645	720.43
443.019	720.21
443.394	696.7
443.769	710.72
444.143	729.02
444.518	734.67
444.892	719.08
445.267	731.28
445.641	721.11
446.016	724.5
446.39	753.2
446.764	764.27
447.139	740.32
447.513	735.8
447.887	754.78
448.262	753.88
448.636	790.26
449.01	761.56
449.384	772.86
449.758	780.54
450.132	803.82
450.506	785.74
450.88	801.11
451.254	807.44
451.628	832.97
452.002	811.28
452.376	830.26
452.75	827.32
453.123	825.74
453.497	832.29
453.871	848.57
454.244	841.79
454.618	828.45
454.992	872.75
455.365	880.2
455.739	889.92
456.112	891.5
456.486	905.06
456.859	930.15
457.232	917.72
457.606	937.15
457.979	920.2
458.352	942.35
458.725	970.37
459.099	958.17
459.472	976.92
459.845	974.89
460.218	1004.27
460.591	992.52
460.964	1018.28
461.337	1040.2
461.71	1051.72
462.083	1051.05
462.456	1029.13
462.829	1075.23
463.201	1115.45
463.574	1084.49
463.947	1086.3
464.32	1144.38
464.692	1128.78
465.065	1171.27
465.438	1202
465.81	1170.36
466.183	1212.4
466.555	1232.51
466.928	1233.41
467.3	1250.81
467.672	1275.45
468.045	1334.88
468.417	1301.43
468.789	1292.62
469.161	1345.28
469.534	1382.11
469.906	1398.61
470.278	1437.25
470.65	1425.5
471.022	1482.22
471.394	1489.68
471.766	1496.91
472.138	1540.3
472.51	1581.2
472.882	1619.17
473.253	1643.57
473.625	1654.65
473.997	1703.23
474.369	1758.37
474.74	1782.1
475.112	1816.45
475.484	1868.65
475.855	1936.45
476.227	1959.72
476.598	2052.15
476.97	2073.39
477.341	2130.79
477.713	2177.57
478.084	2217.79
478.455	2267.96
478.827	2335.98
479.198	2402.42
479.569	2484.68
479.94	2559.71
480.311	2613.26
480.682	2737.1
481.053	2791.79
481.424	2878.12
481.795	2945.46
482.166	3016.19
482.537	3102.97
482.908	3209.63
483.279	3262.74
483.65	3380.02
484.021	3507.7
484.391	3624.54
484.762	3671.09
485.133	3761.48
485.503	3862.05
485.874	4046.45
486.244	4117.41
486.615	4245.76
486.985	4335.25
487.356	4489.83
487.726	4647.11
488.097	4805.98
488.467	4847.78
488.837	5019.53
489.207	5153.76
489.578	5236.7
489.948	5372.29
490.318	5526.18
490.688	5658.61
491.058	5843.91
491.428	5965.04
491.798	6056.11
492.168	6282.32
492.538	6347.4
492.908	6576.32
493.278	6726.6
493.648	6764.57
494.017	6978.35
494.387	7089.98
494.757	7278.68
495.126	7423.76
495.496	7512.8
495.866	7658.78
496.235	7890.41
496.605	8032.56
496.974	8085.89
497.344	8284.98
497.713	8466.67
498.082	8584.63
498.452	8711.86
498.821	8849.03
499.19	9001.35
499.559	9152.08
499.928	9301
500.298	9397.04
500.667	9599.97
501.036	9637.94
501.405	9802
501.774	9910.02
502.143	10142.11
502.512	10226.4
502.88	10388.88
503.249	10441.76
503.618	10615.31
503.987	10798.13
504.356	10916.78
504.724	10979.82
505.093	11110.89
505.462	11156.09
505.83	11469.08
506.199	11596.08
506.567	11706.36
506.936	11826.81
507.304	11960.14
507.672	12111.55
508.041	12242.16
508.409	12363.06
508.777	12479.45
509.145	12722.83
509.514	12741.13
509.882	12913.33
510.25	13012.99
510.618	13158.3
510.986	13231.74
511.354	13446.2
511.722	13502.47
512.09	13712.18
512.458	13785.63
512.826	13938.62
513.193	14006.19
513.561	14136.13
513.929	14323.69
514.297	14461.54
514.664	14586.74
515.032	14674.42
515.4	14836.67
515.767	14971.81
516.135	15078.25
516.502	15147.17
516.869	15342.65
517.237	15492.93
517.604	15497.45
517.972	15632.81
518.339	15820.37
518.706	15809.98
519.073	16005.91
519.44	16099.92
519.808	16280.7
520.175	16359.12
520.542	16613.12
520.909	16693.12
521.276	16725.44
521.643	16897.63
522.009	17108.93
522.376	17188.25
522.743	17271.18
523.11	17521.12
523.477	17712.3
523.843	17851.96
524.21	18031.16
524.577	18160.65
524.943	18246.75
525.31	18388.67
525.676	18571.94
526.043	18672.73
526.409	18868.2
526.776	19001.53
527.142	19119.5
527.508	19235.65
527.874	19432.26
528.241	19587.28
528.607	19559.26
528.973	19845.35
529.339	19787.05
529.705	20073.6
530.071	20233.82
530.437	20300.71
530.803	20371.44
531.169	20553.36
531.535	20515.62
531.901	20515.39
532.267	20709.96
532.632	20766.23
532.998	20917.42
533.364	21088.94
533.73	21144.53
534.095	21286.67
534.461	21294.13
534.826	21491.86
535.192	21679.88
535.557	21747.45
535.923	21842.82
536.288	21901.12
536.653	22097.72
537.019	22022.25
537.384	22118.97
537.749	22235.12
538.114	22348.79
538.479	22424.27
538.845	22424.5
539.21	22402.8
539.575	22471.27
539.94	22624.94
540.305	22785.39
540.67	22649.35
541.034	22864.48
541.399	22993.75
541.764	23143.57
542.129	23043.69
542.494	23180.18
542.858	23259.95
543.223	23261.99
543.587	23531.81
543.952	23490
544.316	23615.2
544.681	23599.15
545.045	23691.35
545.41	23739.71
545.774	23725.7
546.138	23900.84
546.503	24009.31
546.867	24038.01
547.231	24259.25
547.595	24191.23
547.959	24273.71
548.324	24301.28
548.688	24386.03
549.052	24552.8
549.416	24533.37
549.779	24691.78
550.143	24748.28
550.507	24771.33
550.871	25008.61
551.235	24806.81
551.599	25236.17
551.962	25108.72
552.326	25214.7
552.689	25450.4
553.053	25334.48
553.417	25386.9
553.78	25797.97
554.143	25592.55
554.507	25827.12
554.87	25905.08
555.234	26133.32
555.597	26020.56
555.96	26057.17
556.323	26207.45
556.686	26209.71
557.05	26457.16
557.413	26425.07
557.776	26684.5
558.139	26855.34
558.502	26905.51
558.865	26988.44
559.228	27211.04
559.59	27206.97
559.953	27353.41
560.316	27607.41
560.679	27508.2
561.041	27836.1
561.404	27833.62
561.767	28088.98
562.129	28038.36
562.492	28314.51
562.854	28371.91
563.217	28300.72
563.579	28418.46
563.941	28627.5
564.304	28767.83
564.666	28932.12
565.028	28937.32
565.39	29115.62
565.753	29059.12
566.115	29305.67
566.477	29545.66
566.839	29575.27
567.201	29780.69
567.563	29721.93
567.925	30050.28
568.287	29992.21
568.648	30101.36
569.01	30235.82
569.372	30470.61
569.734	30361.01
570.095	30557.39
570.457	30642.58
570.819	30765.07
571.18	30749.93
571.542	30961.22
571.903	31008.45
572.265	31163.02
572.626	31249.8
572.987	31206.86
573.349	31420.19
573.71	31510.36
574.071	31610.69
574.432	31657.47
574.794	31859.28
575.155	31830.35
575.516	31825.83
575.877	31925.26
576.238	31949.22
576.599	32051.13
576.96	32228.76
577.32	32255.42
577.681	32512.59
578.042	32461.07
578.403	32412.71
578.763	32635.3
579.124	32604.11
579.485	32649.76
579.845	32800.04
580.206	32679.59
580.566	32836.65
580.927	32765.92
581.287	32854.5
581.648	32838.46
582.008	32906.25
582.368	32990.09
582.728	33001.84
583.089	33027.61
583.449	33077.55
583.809	33033.48
584.169	33156.42
584.529	32961.39
584.889	33270.99
585.249	33073.93
585.609	32948.96
585.969	33213.82
586.329	33069.19
586.688	33219.92
587.048	33128.17
587.408	33178.79
587.768	33233.93
588.127	33221.05
588.487	33226.7
588.846	33413.81
589.206	33217.88
589.565	33160.48
589.925	33405.22
590.284	33317.77
590.643	33370.87
591.003	33392.12
591.362	33630.75
591.721	33404.09
592.08	33428.5
592.44	33616.52
592.799	33440.48
593.158	33505.11
593.517	33587.37
593.876	33631.66
594.235	33580.59
594.593	33698.1
594.952	33613.58
595.311	33637.08
595.67	33827.59
596.029	34020.35
596.387	33951.42
596.746	33888.15
597.104	33836.62
597.463	33854.48
597.822	34046.79
598.18	33820.81
598.538	33912.78
598.897	34053.57
599.255	33896.96
599.613	34362.94
599.972	34083.17
600.33	34211.98
600.688	34098.99
601.046	34300.12
601.404	34350.74
601.762	34297.18
602.12	34399.32
602.478	34549.37
602.836	34498.75
603.194	34313
603.552	34480.9
603.91	34393.9
604.268	34621.91
604.625	34380.34
604.983	34565.42
605.341	34536.04
605.698	34788.01
606.056	34829.59
606.413	34752.76
606.771	34924.05
607.128	34917.5
607.485	34909.59
607.843	34809.48
608.2	35112.98
608.557	35296.02
608.914	35121.11
609.272	35340.31
609.629	35360.88
609.986	35454.43
610.343	35319.75
610.7	35522.46
611.057	35604.26
611.414	35581.44
611.771	35711.38
612.127	35703.02
612.484	35859.85
612.841	35886.51
613.198	35850.13
613.554	35836.57
613.911	36064.14
614.267	35987.3
614.624	36024.59
614.98	36090.35
615.337	36385.26
615.693	36182.55
616.05	36217.35
616.406	36441.75
616.762	36306.84
617.118	36375.77
617.475	36349.33
617.831	36484.92
618.187	36537.34
618.543	36693.72
618.899	36870.89
619.255	36668.64
619.611	36762.2
619.967	36897.11
620.323	37054.62
620.678	36741.63
621.034	36794.51
621.39	36805.81
621.746	36827.28
622.101	37199.02
622.457	37046.94
622.812	37009.87
623.168	37191.79
623.523	37171.45
623.879	37251.22
624.234	37004
624.589	37171.68
624.945	37326.93
625.3	37373.48
625.655	37333.03
626.01	37489.64
626.365	37346.14
626.72	37342.52
627.075	37352.24
627.43	37349.07
627.785	37340.71
628.14	37431.56
628.495	37367.15
628.85	37359.24
629.205	37218.46
629.559	37426.36
629.914	37315.4
630.269	37361.73
630.623	37348.85
630.978	37214.61
631.332	37276.76
631.687	37471.78
632.041	37201.73
632.396	37354.95
632.75	37180.49
633.104	37210.32
633.459	37179.81
633.813	37173.49
634.167	37172.81
634.521	37167.61
634.875	37139.14
635.229	37166.48
635.583	36932.14
635.937	36885.36
636.291	37020.27
636.645	36962.87
636.999	36876.77
637.352	36988.63
637.706	36726.94
638.06	36928.07
638.413	36967.62
638.767	36805.13
639.121	36871.12
639.474	36654.63
639.828	36685.14
640.181	36843.55
640.534	36710
640.888	36557.91
641.241	36445.14
641.594	36630.45
641.947	36795.19
642.301	36663.67
642.654	36646.49
643.007	36659.6
643.36	36655.53
643.713	36410.79
644.066	36557.23
644.419	36360.4
644.771	36161.99
645.124	35839.74
645.477	35785.95
645.83	35413.31
646.182	35520.42
646.535	35276.13
646.888	35371.05
647.24	35242.01
647.593	35446.3
647.945	35255.34
648.298	35286.76
648.65	35171.05
649.002	35012.86
649.355	35235.91
649.707	35170.37
650.059	35280.43
650.411	35741.89
650.763	35707.76
651.115	36144.36
651.467	35920.86
651.819	35845.84
652.171	35886.29
652.523	35763.58
652.875	35810.58
653.227	35686.97
653.578	35905.95
653.93	35755.9
654.282	35618.27
654.633	35634.77
654.985	35655.33
655.337	35781.66
655.688	35619.63
656.039	35760.64
656.391	35401.78
656.742	35583.25
657.094	35482.91
657.445	35709.34
657.796	35590.7
658.147	35483.36
658.498	35612.85
658.849	35592.74
659.2	35504.83
659.551	35483.36
659.902	35639.97
660.253	35479.52
660.604	35664.82
660.955	35371.95
661.306	35573.98
661.656	35303.7
662.007	35359.3
662.358	35294.67
662.708	35268.23
663.059	35451.27
663.409	35156.14
663.76	35472.29
664.11	35416.47
664.461	35230.26
664.811	35326.98
665.161	35247.89
665.511	35266.42
665.862	35366.98
666.212	35475.68
666.562	35490.14
666.912	35300.77
667.262	35302.57
667.612	35190.94
667.962	35347.09
668.312	35241.11
668.662	35394.1
669.011	35338.51
669.361	35178.06
669.711	35205.63
670.06	35210.6
670.41	35094.22
670.76	35069.81
671.109	35313.87
671.459	35015.12
671.808	35178.06
672.157	35204.27
672.507	34839.76
672.856	35011.28
673.205	34997.27
673.554	35109.59
673.904	35000.89
674.253	35164.5
674.602	35012.86
674.951	34429.6
675.3	34336.5
675.649	34914.79
675.998	34853.55
676.346	34890.83
676.695	34942.13
677.044	34701.01
677.393	34751.85
677.741	34874.34
678.09	34700.1
678.438	34719.99
678.787	34806.77
679.135	34727
679.484	34606.55
679.832	34499.43
680.181	34538.53
680.529	34637.51
680.877	34514.12
681.225	34435.48
681.573	34603.61
681.922	34419.21
682.27	34257.86
682.618	34312.09
682.966	34239.78
683.314	34247.01
683.661	34171.53
684.009	33984.19
684.357	33860.35
684.705	33760.92
685.053	33936.73
685.4	33913.91
685.748	33573.13
686.095	33739.23
686.443	33536.29
686.79	33478.44
687.138	33660.36
687.485	33609.74
687.832	33447.48
688.18	33463.07
688.527	33317.99
688.874	33309.63
689.221	33096.3
689.568	33094.95
689.915	33132.46
690.262	33061.05
690.609	32951.22
690.956	32744.68
691.303	32861.28
691.65	32674.4
691.997	32594.85
692.344	32504.46
692.69	32470.78
693.037	32513.95
693.383	32080.51
693.73	32310.34
694.077	32117.57
694.423	32139.27
694.769	32073.28
695.116	31926.39
695.462	31846.85
695.808	31756.45
696.155	31831.48
696.501	31576.8
696.847	31652.5
697.193	31341.55
697.539	31518.04
697.885	31289.35
698.231	31244.15
698.577	31187.65
698.923	30997.38
699.269	30974.55
699.614	30781.11
699.96	30846.65
700.306	30866.99
700.651	30725.29
700.997	30621.79
701.342	30591.06
701.688	30557.61
702.033	30430.16
702.379	30391.07
702.724	30253.89
703.069	30323.5
703.415	29997.18
703.76	30076.72
704.105	30024.97
704.45	29914.47
704.795	29871.98
705.14	29788.37
705.485	29836.05
705.83	29610.07
706.175	29639.22
706.52	29612.55
706.865	29287.37
707.209	29318.55
707.554	29272.9
707.899	29307.48
708.243	29067.71
708.588	29074.49
708.932	28933.48
709.277	28907.94
709.621	28945.45
709.966	28829.07
710.31	28841.05
710.654	28429.76
710.998	28536.65
711.342	28624.11
711.687	28590.89
712.031	28434.28
712.375	28310.89
712.719	28253.72
713.063	28174.17
713.407	28363.1
713.75	28131.01
714.094	28238.35
714.438	28116.1
714.782	28097.79
715.125	27993.39
715.469	28044.91
715.812	27834.52
716.156	27699.38
716.499	27823.45
716.843	27730.8
717.186	27562.67
717.53	27731.02
717.873	27705.26
718.216	27543.46
718.559	27430.92
718.902	27175.1
719.246	27447.87
719.589	27286.06
719.932	27157.03
720.275	27238.83
720.617	27165.39
720.96	27159.06
721.303	27057.37
721.646	27204.03
721.989	26836.36
722.331	26994.54
722.674	26825.74
723.016	26835.45
723.359	26821.44
723.701	26897.37
724.044	26762.91
724.386	26586.87
724.729	26701.67
725.071	26616.25
725.413	26629.81
725.755	26657.38
726.097	26433.88
726.439	26299.65
726.782	26359.53
727.124	26432.3
727.465	26308.23
727.807	26279.53
728.149	26159.09
728.491	26107.79
728.833	26219.88
729.175	26087.45
729.516	26047.9
729.858	25866.66
730.199	25972.42
730.541	25955.25
730.882	25939.43
731.224	25993.89
731.565	25764.75
731.906	25747.35
732.248	25753.67
732.589	25535.15
732.93	25583.28
733.271	25611.3
733.612	25610.17
733.953	25537.86
734.294	25602.72
734.635	25400.46
734.976	25503.28
735.317	25308.94
735.658	25369.28
735.999	25257.19
736.339	25294.48
736.68	25339.9
737.021	25144.2
737.361	25086.8
737.702	25251.77
738.042	25096.97
738.383	25162.05
738.723	25114.37
739.063	24879.35
739.404	24995.27
739.744	24913.7
740.084	24774.72
740.424	24978.55
740.764	24843.87
741.104	24966.35
741.444	24722.51
741.784	24625.12
742.124	24693.81
742.464	24666.02
742.804	24580.82
743.143	24624.66
743.483	24642.06
743.823	24507.6
744.162	24522.07
744.502	24437.55
744.841	24373.6
745.181	24429.41
745.52	24327.04
745.86	24304.9
746.199	24257.22
746.538	24176.54
746.877	24178.12
747.216	24188.06
747.556	24114.17
747.895	24062.42
748.234	24107.84
748.573	24042.08
748.911	23990.78
749.25	23916.89
749.589	23789.43
749.928	23878.47
750.267	23850.45
750.605	23760.51
750.944	23783.56
751.283	23653.39
751.621	23795.31
751.96	23464.24
752.298	23437.12
752.636	23480.29
752.975	23448.42
753.313	23337.47
753.651	23430.57
753.989	23195.55
754.327	23160.97
754.666	23208.66
755.004	23254.3
755.342	23273.29
755.679	23183.57
756.017	23019.51
756.355	22954.42
756.693	22890.7
757.031	22851.15
