Data from hue_130_FLMS001491_00066.txt Node
Date: Tue Feb 07 16:57:56 GMT 2017
User: dcchb
Spectrometer: FLMS00149
Trigger mode: 0
Integration Time (sec): 2.000000E-2
Scans to average: 10
Electric dark correction enabled: true
Nonlinearity correction enabled: false
Boxcar width: 0
XAxis mode: Wavelengths
Number of Pixels in Spectrum: 2048
>>>>>Begin Spectral Data<<<<<
341.393	-15.56
341.776	-15.56
342.16	-15.56
342.543	-51.72
342.927	-42.68
343.31	-78.61
343.693	-82
344.077	-52.63
344.46	-47.43
344.843	-76.58
345.226	-37.71
345.61	-23.02
345.993	-26.41
346.376	-6.3
346.759	6.81
347.142	27.15
347.525	50.42
347.908	65.11
348.291	80.25
348.674	76.64
349.057	124.32
349.44	108.95
349.823	126.13
350.206	165.22
350.588	187.59
350.971	225.79
351.354	226.01
351.737	235.5
352.119	275.5
352.502	274.15
352.884	266.91
353.267	284.09
353.65	294.48
354.032	319.79
354.414	334.26
354.797	316.86
355.179	313.01
355.562	336.74
355.944	325.44
356.326	324.77
356.709	328.16
357.091	323.86
357.473	355.05
357.855	353.01
358.238	344.88
358.62	335.39
359.002	340.58
359.384	336.74
359.766	368.38
360.148	345.56
360.53	352.34
360.912	345.78
361.294	344.43
361.676	305.33
362.057	364.09
362.439	333.8
362.821	327.03
363.203	329.06
363.584	320.7
363.966	346.23
364.348	314.37
364.729	316.18
365.111	318.89
365.493	330.42
365.874	304.88
366.256	319.34
366.637	335.84
367.019	318.66
367.4	331.32
367.781	307.59
368.163	315.73
368.544	310.3
368.925	324.09
369.306	319.34
369.688	335.39
370.069	314.82
370.45	306.91
370.831	327.7
371.212	316.63
371.593	303.3
371.974	306.69
372.355	324.99
372.736	309.62
373.117	313.92
373.498	309.17
373.879	323.18
374.26	321.6
374.641	307.59
375.021	333.35
375.402	332.22
375.783	338.1
376.163	332.22
376.544	337.19
376.925	337.65
377.305	339.45
377.686	344.65
378.066	346.23
378.447	341.71
378.827	328.16
379.208	331.09
379.588	358.66
379.968	330.64
380.349	354.82
380.729	356.63
381.109	337.87
381.489	356.4
381.87	332.45
382.25	337.87
382.63	339.68
383.01	366.12
383.39	335.39
383.77	363.41
384.15	356.63
384.53	343.52
384.91	364.99
385.29	355.05
385.67	351.43
386.049	359.34
386.429	355.95
386.809	351.43
387.189	378.32
387.568	373.8
387.948	362.5
388.328	359.79
388.707	383.3
389.087	379.68
389.466	359.11
389.846	377.42
390.225	367.93
390.605	358.66
390.984	374.48
391.363	374.26
391.743	389.62
392.122	390.07
392.501	374.48
392.881	396.63
393.26	396.4
393.639	382.39
394.018	387.36
394.397	372.45
394.776	386.23
395.155	377.65
395.534	404.76
395.913	400.02
396.292	386.91
396.671	425.55
397.05	412.9
397.429	408.38
397.808	419
398.186	410.64
398.565	389.85
398.944	408.38
399.323	414.93
399.701	401.15
400.08	387.36
400.458	411.32
400.837	414.48
401.215	407.25
401.594	414.71
401.972	413.58
402.351	421.71
402.729	432.33
403.107	429.4
403.486	430.3
403.864	414.93
404.242	413.12
404.62	451.99
404.999	431.88
405.377	440.69
405.755	438.89
406.133	433.46
406.511	433.69
406.889	449.96
407.267	442.95
407.645	463.74
408.023	468.04
408.401	451.99
408.779	453.12
409.156	459.68
409.534	472.11
409.912	466.46
410.29	468.04
410.667	461.26
411.045	480.24
411.422	485.21
411.8	498.77
412.178	473.24
412.555	508.26
412.933	495.61
413.31	496.74
413.687	491.99
414.065	537.19
414.442	522.95
414.819	517.98
415.197	522.95
415.574	532.67
415.951	533.35
416.328	538.09
416.705	539
417.082	506.68
417.46	535.61
417.837	523.86
418.214	566.79
418.591	562.27
418.967	554.36
419.344	536.51
419.721	567.02
420.098	551.65
420.475	574.02
420.852	562.5
421.228	566.12
421.605	577.87
421.982	574.25
422.358	573.8
422.735	605.44
423.111	603.4
423.488	612.44
423.864	593.46
424.241	603.63
424.617	608.83
424.994	604.98
425.37	604.53
425.746	612.89
426.123	606.11
426.499	645.21
426.875	637.98
427.251	644.08
427.627	610.86
428.003	676.17
428.379	637.07
428.756	674.59
429.132	653.34
429.507	675.94
429.883	668.03
430.259	683.63
430.635	659.22
431.011	697.64
431.387	682.95
431.763	719.11
432.138	708.71
432.514	710.97
432.89	696.28
433.265	715.94
433.641	759.56
434.016	731.53
434.392	741.25
434.767	756.84
435.143	745.77
435.518	768.6
435.894	758.2
436.269	769.73
436.644	793.23
437.02	780.8
437.395	784.64
437.77	800.23
438.145	796.84
438.52	836.39
438.895	818.76
439.271	833
439.646	849.72
440.021	862.38
440.395	855.6
440.77	842.72
441.145	862.38
441.52	874.36
441.895	891.76
442.27	891.98
442.645	877.07
443.019	903.73
443.394	889.04
443.769	866.9
444.143	907.8
444.518	919.1
444.892	895.37
445.267	938.53
445.641	913.22
446.016	949.61
446.39	948.25
446.764	945.54
447.139	943.96
447.513	957.97
447.887	945.99
448.262	945.09
448.636	973.34
449.01	956.84
449.384	962.49
449.758	1002.94
450.132	1008.36
450.506	1007.91
450.88	1032.09
451.254	1020.11
451.628	1018.76
452.002	1042.26
452.376	1040.68
452.75	1053.11
453.123	1060.11
453.497	1074.58
453.871	1107.12
454.244	1117.51
454.618	1097.4
454.992	1139.89
455.365	1096.04
455.739	1181.01
456.112	1151.86
456.486	1182.37
456.859	1197.96
457.232	1199.77
457.606	1208.13
457.979	1189.6
458.352	1222.37
458.725	1257.85
459.099	1259.66
459.472	1292.88
459.845	1326.77
460.218	1299.88
460.591	1330.16
460.964	1350.28
461.337	1345.98
461.71	1367.45
462.083	1389.37
462.456	1406.32
462.829	1439.99
463.201	1452.65
463.574	1444.96
463.947	1442.93
464.32	1500.1
464.692	1487.22
465.065	1534.9
465.438	1541
465.81	1586.2
466.183	1604.51
466.555	1607.9
466.928	1645.41
467.3	1664.39
467.672	1682.02
468.045	1726.99
468.417	1738.06
468.789	1745.97
469.161	1777.83
469.534	1793.2
469.906	1857.15
470.278	1874.33
470.65	1896.93
471.022	1949.36
471.394	1963.14
471.766	1993.65
472.138	2050.6
472.51	2113.64
472.882	2128.33
473.253	2185.28
473.625	2223.7
473.997	2266.86
474.369	2279.52
474.74	2374.88
475.112	2419.17
475.484	2468.66
475.855	2538.04
476.227	2582.11
476.598	2677.7
476.97	2684.7
477.341	2769.22
477.713	2827.75
478.084	2876.11
478.455	2974.41
478.827	3000.63
479.198	3131.02
479.569	3172.83
479.94	3325.82
480.311	3367.4
480.682	3461.41
481.053	3558.58
481.424	3651.68
481.795	3747.73
482.166	3854.39
482.537	3940.26
482.908	4050.09
483.279	4129.86
483.65	4231.78
484.021	4358.56
484.391	4464.54
484.762	4576.63
485.133	4688.72
485.503	4738.21
485.874	4935.72
486.244	5025.88
486.615	5197.41
486.985	5320.57
487.356	5455.93
487.726	5595.59
488.097	5769.37
488.467	5824.28
488.837	6024.73
489.207	6126.19
489.578	6337.71
489.948	6353.76
490.318	6553.53
490.688	6635.33
491.058	6860.64
491.428	6969.79
491.798	7127.3
492.168	7283.9
492.538	7359.38
492.908	7567.96
493.278	7727.28
493.648	7823.1
494.017	7927.96
494.387	8076.43
494.757	8264.9
495.126	8447.26
495.496	8453.14
495.866	8559.13
496.235	8828.5
496.605	8974.48
496.974	9029.4
497.344	9179.45
497.713	9212.67
498.082	9322.04
498.452	9610.62
498.821	9551.87
499.19	9707.34
499.559	9855.36
499.928	9938.75
500.298	10047.67
500.667	10237.73
501.036	10252.19
501.405	10343.49
501.774	10432.52
502.143	10558.39
502.512	10677.26
502.88	10813.3
503.249	10833.42
503.618	10917.71
503.987	11035.44
504.356	11123.8
504.724	11218.26
505.093	11327.64
505.462	11357.92
505.83	11506.84
506.199	11503
506.567	11699.38
506.936	11752.04
507.304	11876.78
507.672	11937.34
508.041	11994.97
508.409	12007.17
508.777	12223.66
509.145	12206.26
509.514	12269.99
509.882	12366.48
510.25	12421.4
510.618	12422.75
510.986	12505.46
511.354	12677.21
511.722	12767.38
512.09	12783.87
512.458	12771.22
512.826	12992.45
513.193	12931.21
513.561	13016.41
513.929	13165.33
514.297	13190.42
514.664	13159.91
515.032	13279.68
515.4	13399.22
515.767	13318.55
516.135	13417.08
516.502	13252.56
516.869	13518.77
517.237	13514.7
517.604	13492.1
517.972	13609.39
518.339	13604.42
518.706	13658.65
519.073	13754.69
519.44	13759.44
519.808	13843.73
520.175	13860.68
520.542	13909.49
520.909	13981.36
521.276	13974.58
521.643	14043.5
522.009	14082.37
522.376	14129.83
522.743	14176.38
523.11	14234.46
523.477	14367.33
523.843	14309.48
524.21	14498.86
524.577	14440.78
524.943	14417.05
525.31	14467.67
525.676	14618.17
526.043	14636.48
526.409	14657.27
526.776	14767.1
527.142	14665.86
527.508	14741.11
527.874	14804.61
528.241	14741.34
528.607	14808.9
528.973	14854.33
529.339	14741.56
529.705	14860.2
530.071	14890.94
530.437	14924.38
530.803	15005.06
531.169	14958.73
531.535	14860.2
531.901	14862.46
532.267	14896.13
532.632	15021.55
532.998	14955.79
533.364	14930.48
533.73	14919.86
534.095	14946.98
534.461	14938.84
534.826	14921.67
535.192	15011.84
535.557	15040.08
535.923	15010.93
536.288	14896.13
536.653	14970.26
537.019	14850.03
537.384	14858.39
537.749	14892.74
538.114	14820.2
538.479	14862.91
538.845	14826.31
539.21	14626.76
539.575	14744.27
539.94	14707.89
540.305	14685.29
540.67	14619.98
541.034	14630.15
541.399	14758.74
541.764	14575.24
542.129	14597.61
542.494	14557.39
542.858	14581.57
543.223	14461.57
543.587	14486.2
543.952	14368.46
544.316	14505.18
544.681	14357.62
545.045	14410.72
545.41	14384.28
545.774	14380.67
546.138	14283.72
546.503	14261.12
546.867	14276.04
547.231	14338.86
547.595	14245.98
547.959	14244.85
548.324	14178.19
548.688	14146.32
549.052	14175.7
549.416	14075.14
549.779	14066.78
550.143	14043.27
550.507	14027.23
550.871	13984.07
551.235	13902.26
551.599	14006.44
551.962	13878.08
552.326	13963.05
552.689	13994.24
553.053	13787.24
553.417	13794.02
553.78	13933.45
554.143	13879.21
554.507	13792.21
554.87	13814.35
555.234	13962.82
555.597	13783.62
555.96	13821.36
556.323	13792.21
556.686	13707.69
557.05	13744.07
557.413	13717.86
557.776	13713.34
558.139	13686.22
558.502	13710.18
558.865	13641.03
559.228	13823.17
559.59	13805.99
559.953	13801.7
560.316	13856.84
560.679	13806.9
561.041	13828.59
561.404	13880.57
561.767	13852.77
562.129	13754.24
562.492	13989.49
562.854	13857.74
563.217	13823.17
563.579	13816.39
563.941	13938.64
564.304	13929.61
564.666	13875.14
565.028	14035.59
565.39	13945.42
565.753	13972.99
566.115	13989.94
566.477	14015.25
566.839	14069.49
567.201	14090.73
567.563	14011.64
567.925	14111.3
568.287	14059.77
568.648	14029.26
569.01	14160.11
569.372	14175.93
569.734	14087.79
570.095	14219.77
570.457	14179.77
570.819	14231.74
571.18	14148.36
571.542	14249.37
571.903	14286.43
572.265	14259.54
572.626	14325.3
572.987	14339.99
573.349	14341.12
573.71	14328.69
574.071	14365.53
574.432	14429.48
574.794	14443.94
575.155	14439.65
575.516	14357.84
575.877	14421.8
576.238	14403.27
576.599	14495.24
576.96	14457.28
577.32	14435.58
577.681	14446.65
578.042	14487.56
578.403	14530.27
578.763	14477.84
579.124	14544.05
579.485	14571.62
579.845	14527.78
580.206	14487.56
580.566	14521
580.927	14455.24
581.287	14538.4
581.648	14484.62
582.008	14527.1
582.368	14500.44
582.728	14550.38
583.089	14492.08
583.449	14547.89
583.809	14429.25
584.169	14490.95
584.529	14464.05
584.889	14567.78
585.249	14519.87
585.609	14430.38
585.969	14392.19
586.329	14431.74
586.688	14444.62
587.048	14430.61
587.408	14401.46
587.768	14341.35
588.127	14321.69
588.487	14238.07
588.846	14459.76
589.206	14298.86
589.565	14333.66
589.925	14407.56
590.284	14323.04
590.643	14340.89
591.003	14388.8
591.362	14371.85
591.721	14302.7
592.08	14294.79
592.44	14353.1
592.799	14395.58
593.158	14334.79
593.517	14349.93
593.876	14247.79
594.235	14241.24
594.593	14256.38
594.952	14234.46
595.311	14254.79
595.67	14352.19
596.029	14297.73
596.387	14247.79
596.746	14202.82
597.104	14181.8
597.463	14262.7
597.822	14391.97
598.18	14240.11
598.538	14283.27
598.897	14246.43
599.255	14120.11
599.613	14328.69
599.972	14225.87
600.33	14266.32
600.688	14156.04
601.046	14220.22
601.404	14305.87
601.762	14233.1
602.12	14297.73
602.478	14254.79
602.836	14241.46
603.194	14216.38
603.552	14221.8
603.91	14205.98
604.268	14261.35
604.625	14210.28
604.983	14305.19
605.341	14238.07
605.698	14223.38
606.056	14350.16
606.413	14405.98
606.771	14340.67
607.128	14335.92
607.485	14253.66
607.843	14324.17
608.2	14307.45
608.557	14312.19
608.914	14405.53
609.272	14370.27
609.629	14423.6
609.986	14454.34
610.343	14311.74
610.7	14441.23
611.057	14410.27
611.414	14379.09
611.771	14421.8
612.127	14434.9
612.484	14448.91
612.841	14519.87
613.198	14521.68
613.554	14448.24
613.911	14557.39
614.267	14509.48
614.624	14514.9
614.98	14594.9
615.337	14629.93
615.693	14578.63
616.05	14561.23
616.406	14646.87
616.762	14599.64
617.118	14614.56
617.475	14602.13
617.831	14665.18
618.187	14681.68
618.543	14626.31
618.899	14764.84
619.255	14721.22
619.611	14661.56
619.967	14702.01
620.323	14777.04
620.678	14664.73
621.034	14648.46
621.39	14607.55
621.746	14624.5
622.101	14742.01
622.457	14645.07
622.812	14726.65
623.168	14727.78
623.523	14640.77
623.879	14843.48
624.234	14676.25
624.589	14710.15
624.945	14749.7
625.3	14749.7
625.655	14689.59
626.01	14764.84
626.365	14716.93
626.72	14712.41
627.075	14674.44
627.43	14709.47
627.785	14675.12
628.14	14760.77
628.495	14710.38
628.85	14706.08
629.205	14659.76
629.559	14734.78
629.914	14566.65
630.269	14641.23
630.623	14528.23
630.978	14580.89
631.332	14645.52
631.687	14621.56
632.041	14522.81
632.396	14609.81
632.75	14546.54
633.104	14475.58
633.459	14459.76
633.813	14489.14
634.167	14495.92
634.521	14502.25
634.875	14502.92
635.229	14487.33
635.583	14443.94
635.937	14403.04
636.291	14453.66
636.645	14325.53
636.999	14346.77
637.352	14379.99
637.706	14271.74
638.06	14380.44
638.413	14318.97
638.767	14328.24
639.121	14318.3
639.474	14209.37
639.828	14189.94
640.181	14263.83
640.534	14183.84
640.888	14180.9
641.241	14210.95
641.594	14077.17
641.947	14181.58
642.301	14118.3
642.654	14204.85
643.007	14146.32
643.36	14170.28
643.713	14206.89
644.066	14185.87
644.419	14093.89
644.771	13950.85
645.124	13796.05
645.477	13843.05
645.83	13712.21
646.182	13698.88
646.535	13687.13
646.888	13674.24
647.24	13606
647.593	13692.55
647.945	13553.57
648.298	13574.36
648.65	13576.39
649.002	13615.72
649.355	13623.85
649.707	13653.45
650.059	13640.57
650.411	13809.83
650.763	13811.42
651.115	13991.3
651.467	13883.05
651.819	13919.66
652.171	13844.86
652.523	13763.73
652.875	13894.35
653.227	13768.48
653.578	13926.67
653.93	13837.18
654.282	13815.94
654.633	13830.85
654.985	13817.52
655.337	13901.81
655.688	13912.66
656.039	13795.15
656.391	13749.95
656.742	13850.51
657.094	13882.6
657.445	13874.01
657.796	13902.26
658.147	13857.74
658.498	13869.04
658.849	13870.62
659.2	13957.85
659.551	13835.6
659.902	13939.32
660.253	13928.02
660.604	13889.15
660.955	13895.03
661.306	13892.09
661.656	13908.82
662.007	13950.62
662.358	13941.58
662.708	13952.2
663.059	13983.16
663.409	13874.24
663.76	13905.2
664.11	13934.8
664.461	13968.47
664.811	13998.3
665.161	13924.63
665.511	13780.46
665.862	14016.16
666.212	13860.68
666.562	13904.52
666.912	13926.44
667.262	13890.96
667.612	13929.38
667.962	13889.61
668.312	13871.75
668.662	13884.63
669.011	13792.66
669.361	13900.68
669.711	13847.57
670.06	13908.36
670.41	13831.75
670.76	13777.07
671.109	13922.15
671.459	13829.04
671.808	13883.73
672.157	13821.13
672.507	13767.12
672.856	13825.2
673.205	13824.52
673.554	13874.47
673.904	13815.71
674.253	13825.2
674.602	13813.9
674.951	13684.41
675.3	13534.81
675.649	13741.59
675.998	13726.67
676.346	13702.49
676.695	13733.9
677.044	13653.68
677.393	13694.81
677.741	13661.82
678.09	13762.38
678.438	13636.51
678.787	13675.6
679.135	13638.77
679.484	13583.63
679.832	13549.95
680.181	13442.16
680.529	13486.23
680.877	13441.93
681.225	13430.64
681.573	13545.21
681.922	13441.48
682.27	13348.15
682.618	13368.72
682.966	13378.21
683.314	13289.4
683.661	13408.94
684.009	13236.52
684.357	13233.8
684.705	13220.47
685.053	13246.01
685.4	13206.91
685.748	13131.89
686.095	13110.42
686.443	13105.67
686.79	13036.52
687.138	13127.59
687.485	13108.61
687.832	12968.95
688.18	12949.29
688.527	12951.78
688.874	12994.49
689.221	12848.96
689.568	12896.64
689.915	12788.84
690.262	12823.65
690.609	12783.65
690.956	12725.8
691.303	12674.27
691.65	12545.24
691.997	12620.49
692.344	12566.25
692.69	12546.37
693.037	12490.1
693.383	12399.48
693.73	12438.35
694.077	12301.85
694.423	12281.06
694.769	12286.03
695.116	12246.94
695.462	12213.49
695.808	12223.44
696.155	12159.48
696.501	12058.47
696.847	12059.6
697.193	11974.18
697.539	12033.84
697.885	11897.79
698.231	11856.21
698.577	11977.57
698.923	11874.52
699.269	11766.05
699.614	11654.64
699.96	11632.04
700.306	11682.43
700.651	11577.58
700.997	11608.08
701.342	11553.4
701.688	11522.89
702.033	11408.32
702.379	11429.56
702.724	11328.09
703.069	11447.41
703.415	11297.36
703.76	11295.55
704.105	11270.47
704.45	11176.68
704.795	11144.82
705.14	11177.59
705.485	11107.76
705.83	11057.59
706.175	11100.3
706.52	10967.88
706.865	10873.87
707.209	10996.8
707.554	10862.57
707.899	10945.05
708.243	10912.28
708.588	10786.41
708.932	10689.46
709.277	10756.13
709.621	10766.98
709.966	10655.79
710.31	10705.51
710.654	10678.62
710.998	10625.29
711.342	10622.35
711.687	10647.88
712.031	10523.37
712.375	10492.86
712.719	10489.7
713.063	10455.8
713.407	10517.04
713.75	10405.86
714.094	10388.91
714.438	10407.44
714.782	10434.33
715.125	10310.04
715.469	10443.14
715.812	10302.36
716.156	10271.4
716.499	10300.32
716.843	10324.73
717.186	10182.13
717.53	10284.5
717.873	10229.59
718.216	10285.41
718.559	10189.59
718.902	10134.23
719.246	10107.11
719.589	10154.79
719.932	10127.22
720.275	10089.03
720.617	10079.31
720.96	10053.55
721.303	10006.54
721.646	10095.36
721.989	9986.21
722.331	10047.45
722.674	9940.56
723.016	9987.79
723.359	9955.7
723.701	10021.01
724.044	9944.85
724.386	9908.47
724.729	9904.85
725.071	9946.66
725.413	9877.73
725.755	9884.06
726.097	9914.57
726.439	9774.01
726.782	9835.7
727.124	9928.13
727.465	9794.12
727.807	9807.45
728.149	9770.84
728.491	9762.26
728.833	9839.32
729.175	9814.46
729.516	9716.61
729.858	9762.03
730.199	9814.46
730.541	9732.2
730.882	9714.35
731.224	9801.13
731.565	9745.08
731.906	9737.17
732.248	9790.73
732.589	9784.4
732.93	9714.8
733.271	9700.79
733.612	9702.15
733.953	9723.16
734.294	9681.81
734.635	9717.51
734.976	9743.95
735.317	9654.01
735.658	9708.93
735.999	9776.04
736.339	9718.19
736.68	9715.93
737.021	9733.33
737.361	9734.69
737.702	9690.85
738.042	9738.98
738.383	9749.83
738.723	9705.54
739.063	9693.33
739.404	9721.35
739.744	9725.65
740.084	9741.47
740.424	9738.53
740.764	9746.89
741.104	9812.43
741.444	9837.06
741.784	9769.49
742.124	9847.23
742.464	9814.23
742.804	9903.5
743.143	9849.03
743.483	9875.7
743.823	9896.04
744.162	9947.34
744.502	9969.03
744.841	9955.92
745.181	10008.35
745.52	9974.91
745.86	10045.41
746.199	10068.92
746.538	10148.24
746.877	10149.59
747.216	10220.78
747.556	10203.6
747.895	10277.5
748.234	10335.35
748.573	10361.11
748.911	10456.48
749.25	10489.02
749.589	10527.89
749.928	10701.67
750.267	10712.51
750.605	10804.49
750.944	10813.98
751.283	10869.8
751.621	11019.4
751.96	11051.49
752.298	11084.48
752.636	11231.15
752.975	11266.4
753.313	11312.95
753.651	11482.89
753.989	11604.69
754.327	11665.26
754.666	11760.4
755.004	11982.09
755.342	12071.8
755.679	12249.2
756.017	12245.58
756.355	12498.46
756.693	12552.69
757.031	12771.44
757.368	12848.5
757.706	12982.74
