Data from hue_180_FLMS001491_00048.txt Node
Date: Tue Feb 07 16:47:03 GMT 2017
User: dcchb
Spectrometer: FLMS00149
Trigger mode: 0
Integration Time (sec): 2.000000E-2
Scans to average: 10
Electric dark correction enabled: true
Nonlinearity correction enabled: false
Boxcar width: 0
XAxis mode: Wavelengths
Number of Pixels in Spectrum: 2048
>>>>>Begin Spectral Data<<<<<
341.393	-12.53
341.776	-12.53
342.16	-12.53
342.543	-59.08
342.927	-82.81
343.31	-78.06
343.693	-62.92
344.077	-68.8
344.46	-63.37
344.843	-33.32
345.226	-29.25
345.61	-38.97
345.993	-17.05
346.376	-17.05
346.759	19.56
347.142	8.26
347.525	34.7
347.908	45.78
348.291	77.19
348.674	104.53
349.057	118.77
349.44	129.16
349.823	155.83
350.206	153.12
350.588	182.04
350.971	216.39
351.354	222.95
351.737	236.51
352.119	246.9
352.502	268.82
352.884	270.85
353.267	286.22
353.65	289.39
354.032	296.39
354.414	304.07
354.797	309.05
355.179	333.68
355.562	304.98
355.944	321.02
356.326	318.54
356.709	332.77
357.091	335.03
357.473	327.8
357.855	318.08
358.238	346.33
358.62	348.82
359.002	328.03
359.384	330.29
359.766	345.43
360.148	331.87
360.53	344.98
360.912	341.36
361.294	349.27
361.676	314.02
362.057	315.6
362.439	340.46
362.821	330.06
363.203	302.04
363.584	319.21
363.966	345.2
364.348	311.08
364.729	327.8
365.111	321.93
365.493	314.92
365.874	310.18
366.256	311.08
366.637	296.39
367.019	319.67
367.4	302.72
367.781	304.75
368.163	309.27
368.544	313.34
368.925	310.63
369.306	307.69
369.688	320.12
370.069	311.08
370.45	300.01
370.831	322.83
371.212	293
371.593	319.44
371.974	303.62
372.355	311.08
372.736	296.84
373.117	314.92
373.498	328.25
373.879	315.15
374.26	330.29
374.641	300.01
375.021	307.24
375.402	321.25
375.783	311.53
376.163	347.69
376.544	336.16
376.925	305.2
377.305	330.74
377.686	326.45
378.066	311.76
378.447	314.92
378.827	343.39
379.208	335.71
379.588	325.77
379.968	328.03
380.349	344.07
380.729	339.33
381.109	321.7
381.489	326.67
381.87	323.96
382.25	318.76
382.63	344.3
383.01	349.5
383.39	320.57
383.77	350.63
384.15	330.06
384.53	325.99
384.91	351.08
385.29	347.91
385.67	326.45
386.049	355.37
386.429	352.21
386.809	329.84
387.189	339.55
387.568	337.07
387.948	352.43
388.328	337.52
388.707	349.5
389.087	352.89
389.466	365.09
389.846	356.73
390.225	367.35
390.605	333.68
390.984	364.19
391.363	345.43
391.743	364.19
392.122	351.53
392.501	383.17
392.881	387.24
393.26	403.96
393.639	380.23
394.018	353.34
394.397	377.97
394.776	357.63
395.155	387.01
395.534	375.94
395.913	378.87
396.292	380.91
396.671	378.87
397.05	396.5
397.429	380.46
397.808	386.78
398.186	384.98
398.565	377.29
398.944	364.86
399.323	390.63
399.701	397.4
400.08	387.46
400.458	414.81
400.837	410.51
401.215	407.12
401.594	416.61
401.972	408.7
402.351	393.56
402.729	404.64
403.107	424.3
403.486	420.91
403.864	439.44
404.242	441.92
404.62	411.87
404.999	432.21
405.377	422.94
405.755	448.25
406.133	463.84
406.511	450.28
406.889	446.9
407.267	460.23
407.645	449.83
408.023	481.02
408.401	456.39
408.779	471.08
409.156	467.23
409.534	485.09
409.912	509.27
410.29	494.8
410.667	523.28
411.045	514.92
411.422	523.05
411.8	503.62
412.178	523.28
412.555	528.7
412.933	555.37
413.31	573.45
413.687	549.94
414.065	554.69
414.442	574.35
414.819	567.8
415.197	587
415.574	597.4
415.951	606.44
416.328	606.66
416.705	617.51
417.082	599.66
417.46	616.16
417.837	636.04
418.214	658.64
418.591	645.76
418.967	634.23
419.344	665.87
419.721	684.4
420.098	658.19
420.475	683.95
420.852	694.8
421.228	696.15
421.605	695.02
421.982	718.07
422.358	715.59
422.735	721.69
423.111	741.8
423.488	741.35
423.864	744.74
424.241	770.73
424.617	797.39
424.994	798.3
425.37	817.05
425.746	812.54
426.123	810.28
426.499	843.49
426.875	858.41
427.251	866.77
427.627	875.36
428.003	877.39
428.379	878.97
428.756	888.01
429.132	888.92
429.507	928.69
429.883	936.6
430.259	946.54
430.635	956.71
431.011	966.66
431.387	964.17
431.763	998.29
432.138	989.71
432.514	1021.8
432.89	1035.81
433.265	1059.08
433.641	1094.34
434.016	1058.18
434.392	1097.95
434.767	1116.93
435.143	1108.8
435.518	1145.63
435.894	1144.05
436.269	1185.86
436.644	1190.83
437.02	1211.17
437.395	1208.68
437.77	1241.45
438.145	1266.99
438.52	1259.3
438.895	1293.88
439.271	1301.34
439.646	1330.94
440.021	1372.07
440.395	1362.13
440.77	1347.89
441.145	1388.79
441.52	1398.06
441.895	1428.79
442.27	1443.7
442.645	1435.34
443.019	1450.71
443.394	1451.61
443.769	1484.38
444.143	1466.98
444.518	1525.06
444.892	1523.93
445.267	1489.35
445.641	1537.71
446.016	1555.11
446.39	1575.23
446.764	1592.63
447.139	1603.47
447.513	1624.27
447.887	1633.08
448.262	1620.65
448.636	1645.73
449.01	1651.61
449.384	1657.26
449.758	1704.94
450.132	1701.1
450.506	1720.31
450.88	1735.67
451.254	1720.31
451.628	1737.48
452.002	1765.5
452.376	1765.28
452.75	1824.71
453.123	1848.67
453.497	1859.97
453.871	1875.56
454.244	1887.76
454.618	1937.93
454.992	1954.43
455.365	1978.61
455.739	1986.52
456.112	2031.71
456.486	2021.09
456.859	2042.56
457.232	2099.28
457.606	2098.38
457.979	2100.64
458.352	2184.48
458.725	2203.46
459.099	2228.54
459.472	2279.39
459.845	2282.33
460.218	2239.39
460.591	2296.56
460.964	2326.62
461.337	2393.96
461.71	2406.39
462.083	2461.53
462.456	2463.79
462.829	2471.02
463.201	2541.53
463.574	2499.27
463.947	2573.62
464.32	2639.38
464.692	2666.05
465.065	2692.26
465.438	2725.03
465.81	2781.75
466.183	2839.83
466.555	2801.86
466.928	2892.71
467.3	2847.74
467.672	2953.04
468.045	3026.49
468.417	3033.49
468.789	3074.62
469.161	3102.64
469.534	3131.12
469.906	3223.32
470.278	3288.18
470.65	3313.94
471.022	3370.21
471.394	3400.49
471.766	3459.92
472.138	3499.92
472.51	3599.58
472.882	3633.25
473.253	3713.93
473.625	3722.97
473.997	3808.16
474.369	3852.68
474.74	3869.63
475.112	3995.5
475.484	4060.13
475.855	4155.95
476.227	4209.51
476.598	4320.24
476.97	4343.29
477.341	4449.28
477.713	4529.95
478.084	4607.69
478.455	4711.87
478.827	4782.83
479.198	4920.9
479.569	4922.48
479.94	5072.76
480.311	5138.3
480.682	5221.23
481.053	5345.07
481.424	5457.16
481.795	5519.76
482.166	5654.44
482.537	5721.33
482.908	5850.37
483.279	5892.85
483.65	6092.85
484.021	6193.86
484.391	6205.61
484.762	6336.68
485.133	6420.3
485.503	6451.93
485.874	6565.6
486.244	6705.71
486.615	6834.52
486.985	6901.64
487.356	7088.08
487.726	7168.98
488.097	7301.63
488.467	7301.86
488.837	7488.07
489.207	7570.1
489.578	7742.75
489.948	7789.75
490.318	7899.13
490.688	7919.01
491.058	8108.39
491.428	8171.21
491.798	8258.22
492.168	8429.96
492.538	8540.24
492.908	8586.12
493.278	8714.25
493.648	8723.29
494.017	8807.13
494.387	8949.95
494.757	9008.25
495.126	9095.93
495.496	9108.81
495.866	9195.14
496.235	9323.5
496.605	9348.81
496.974	9387.68
497.344	9501.57
497.713	9551.51
498.082	9661.34
498.452	9688.69
498.821	9786.76
499.19	9771.4
499.559	9907.89
499.928	9858.85
500.298	9992.18
500.667	10031.05
501.036	10083.03
501.405	10116.7
501.774	10134.32
502.143	10158.73
502.512	10255.22
502.88	10311.72
503.249	10292.51
503.618	10366.86
503.987	10475.78
504.356	10454.54
504.724	10538.38
505.093	10564.14
505.462	10558.27
505.83	10688.66
506.199	10707.64
506.567	10740.41
506.936	10714.87
507.304	10819.28
507.672	10859.73
508.041	10937.24
508.409	10988.31
508.777	10945.38
509.145	11067.63
509.514	10996.9
509.882	10989.67
510.25	11077.35
510.618	11075.09
510.986	11153.28
511.354	11207.29
511.722	11313.05
512.09	11301.75
512.458	11293.39
512.826	11280.28
513.193	11372.48
513.561	11394.63
513.929	11426.27
514.297	11431.24
514.664	11434.63
515.032	11435.98
515.4	11567.51
515.767	11600.05
516.135	11591.46
516.502	11548.07
516.869	11658.13
517.237	11654.51
517.604	11630.78
517.972	11681.4
518.339	11709.2
518.706	11639.82
519.073	11644.79
519.44	11695.64
519.808	11809.53
520.175	11688.86
520.542	11818.12
520.909	11823.09
521.276	11768.86
521.643	11873.49
522.009	11818.35
522.376	11887.05
522.743	11894.05
523.11	11912.13
523.477	11968.63
523.843	11923.2
524.21	12072.8
524.577	12093.14
524.943	12033.26
525.31	12038.23
525.676	12125.23
526.043	12127.72
526.409	12108.96
526.776	12157.77
527.142	12129.75
527.508	12133.37
527.874	12157.1
528.241	12134.95
528.607	12098.11
528.973	12126.14
529.339	12106.7
529.705	12233.03
530.071	12158.45
530.437	12128.62
530.803	12160.71
531.169	12120.94
531.535	12014.73
531.901	12043.65
532.267	12000.72
532.632	12113.25
532.998	11967.27
533.364	12010.66
533.73	11898.8
534.095	11969.3
534.461	11965.01
534.826	11893.83
535.192	11872.81
535.557	12004.56
535.923	11788.74
536.288	11826.71
536.653	11842.75
537.019	11673.94
537.384	11682.98
537.749	11748.97
538.114	11559.6
538.479	11579.48
538.845	11557.11
539.21	11576.55
539.575	11529.09
539.94	11424.23
540.305	11475.31
540.67	11375.87
541.034	11366.83
541.399	11346.5
541.764	11249.1
542.129	11231.92
542.494	11233.5
542.858	11230.34
543.223	11068.76
543.587	11148.76
543.952	10945.38
544.316	11019.72
544.681	10948.77
545.045	10931.59
545.41	10852.05
545.774	10888.88
546.138	10796.91
546.503	10714.65
546.867	10682.78
547.231	10663.35
547.595	10600.98
547.959	10647.76
548.324	10537.93
548.688	10483.24
549.052	10511.72
549.416	10396.01
549.779	10361.44
550.143	10316.69
550.507	10327.77
550.871	10299.07
551.235	10247.32
551.599	10238.05
551.962	10159.86
552.326	10219.07
552.689	10122.35
553.053	10068.56
553.417	10071.05
553.78	10097.04
554.143	9954.89
554.507	9918.28
554.87	9915.12
555.234	9977.72
555.597	9880.09
555.96	9875.12
556.323	9832.64
556.686	9777.05
557.05	9814.78
557.413	9810.26
557.776	9678.52
558.139	9763.49
558.502	9765.52
558.865	9704.5
559.228	9714.67
559.59	9735.46
559.953	9662.02
560.316	9703.83
560.679	9686.88
561.041	9684.17
561.404	9659.08
561.767	9627.22
562.129	9559.2
562.492	9690.95
562.854	9576.82
563.217	9569.14
563.579	9525.75
563.941	9595.81
564.304	9617.73
564.666	9632.19
565.028	9576.37
565.39	9567.33
565.753	9573.43
566.115	9594.9
566.477	9629.03
566.839	9544.28
567.201	9643.49
567.563	9621.57
567.925	9608.24
568.287	9559.42
568.648	9490.05
569.01	9601.46
569.372	9628.57
569.734	9530.95
570.095	9608.91
570.457	9611.17
570.819	9588.12
571.18	9547.67
571.542	9567.33
571.903	9533.21
572.265	9581.8
572.626	9595.36
572.987	9558.52
573.349	9605.3
573.71	9524.62
574.071	9606.88
574.432	9590.38
574.794	9647.78
575.155	9610.27
575.516	9542.93
575.877	9681.23
576.238	9570.72
576.599	9610.04
576.96	9589.71
577.32	9586.54
577.681	9627.44
578.042	9589.03
578.403	9584.06
578.763	9639.65
579.124	9595.81
579.485	9636.26
579.845	9587.22
580.206	9510.84
580.566	9544.51
580.927	9596.03
581.287	9544.06
581.648	9546.54
582.008	9596.03
582.368	9576.15
582.728	9512.65
583.089	9553.77
583.449	9523.72
583.809	9511.97
584.169	9484.17
584.529	9451.63
584.889	9520.33
585.249	9471.74
585.609	9415.92
585.969	9452.08
586.329	9374.8
586.688	9413.44
587.048	9439.2
587.408	9441.23
587.768	9438.75
588.127	9403.5
588.487	9353.33
588.846	9429.03
589.206	9332.76
589.565	9411.86
589.925	9354.23
590.284	9381.8
590.643	9347.9
591.003	9334.57
591.362	9312.65
591.721	9301.13
592.08	9365.53
592.44	9350.39
592.799	9296.61
593.158	9296.61
593.517	9303.16
593.876	9325.76
594.235	9252.77
594.593	9305.19
594.952	9268.13
595.311	9199.21
595.67	9184.29
596.029	9234.91
596.387	9299.77
596.746	9254.57
597.104	9226.55
597.463	9193.11
597.822	9191.3
598.18	9134.35
598.538	9190.39
598.897	9221.58
599.255	9174.8
599.613	9251.86
599.972	9170.96
600.33	9212.99
600.688	9158.98
601.046	9217.96
601.404	9200.79
601.762	9186.78
602.12	9209.6
602.478	9167.34
602.836	9165.08
603.194	9053
603.552	9103.16
603.91	9097.74
604.268	9132.54
604.625	9107.68
604.983	9131.19
605.341	9136.84
605.698	9133.22
606.056	9177.51
606.413	9116.95
606.771	9216.83
607.128	9198.98
607.485	9150.85
607.843	9069.95
608.2	9201.69
608.557	9272.2
608.914	9203.27
609.272	9152.2
609.629	9256.38
609.986	9224.74
610.343	9158.08
610.7	9265.65
611.057	9227.46
611.414	9158.08
611.771	9162.6
612.127	9237.62
612.484	9286.89
612.841	9261.58
613.198	9294.35
613.554	9208.02
613.911	9288.92
614.267	9222.71
614.624	9239.88
614.98	9228.36
615.337	9299.54
615.693	9259.32
616.05	9264.74
616.406	9329.15
616.762	9209.6
617.118	9275.82
617.475	9295.48
617.831	9306.1
618.187	9343.38
618.543	9321.92
618.899	9350.16
619.255	9369.6
619.611	9287.34
619.967	9383.84
620.323	9370.5
620.678	9399.88
621.034	9361.69
621.39	9368.02
621.746	9345.42
622.101	9336.83
622.457	9360.78
622.812	9342.93
623.168	9306.78
623.523	9382.25
623.879	9431.29
624.234	9385.19
624.589	9359.2
624.945	9365.76
625.3	9324.63
625.655	9295.7
626.01	9349.49
626.365	9285.76
626.72	9280.79
627.075	9300.45
627.43	9244.63
627.785	9257.74
628.14	9339.77
628.495	9279.21
628.85	9269.26
629.205	9240.56
629.559	9347.68
629.914	9287.34
630.269	9326.66
630.623	9256.38
630.978	9255.48
631.332	9337.28
631.687	9313.78
632.041	9211.64
632.396	9244.4
632.75	9155.82
633.104	9187.91
633.459	9206.66
633.813	9165.76
634.167	9189.26
634.521	9116.05
634.875	9143.39
635.229	9130.51
635.583	9094.8
635.937	9139.55
636.291	9111.75
636.645	9085.09
636.999	9043.51
637.352	9011.42
637.706	8998.08
638.06	9118.08
638.413	8992.21
638.767	8949.04
639.121	8989.27
639.474	8950.17
639.828	8972.77
640.181	9065.2
640.534	8973.45
640.888	8984.75
641.241	8952.66
641.594	8927.58
641.947	8982.26
642.301	8949.04
642.654	8932.32
643.007	8919.44
643.36	8973.22
643.713	8966.22
644.066	8962.15
644.419	8886.67
644.771	8882.15
645.124	8757.18
645.477	8746.56
645.83	8762.16
646.182	8613.69
646.535	8650.75
646.888	8692.1
647.24	8627.47
647.593	8675.61
647.945	8584.53
648.298	8574.82
648.65	8572.56
649.002	8556.51
649.355	8615.04
649.707	8701.37
650.059	8601.71
650.411	8775.94
650.763	8713.34
651.115	8816.62
651.467	8755.83
651.819	8797.18
652.171	8787.69
652.523	8808.71
652.875	8707.69
653.227	8812.78
653.578	8811.19
653.93	8833.79
654.282	8765.32
654.633	8765.77
654.985	8815.71
655.337	8785.66
655.688	8750.86
656.039	8811.65
656.391	8789.27
656.742	8842.15
657.094	8831.76
657.445	8784.75
657.796	8857.97
658.147	8799.67
658.498	8831.08
658.849	8818.43
659.2	8819.78
659.551	8789.05
659.902	8823.62
660.253	8845.32
660.604	8824.98
660.955	8811.19
661.306	8861.82
661.656	8863.4
662.007	8870.63
662.358	8817.97
662.708	8832.66
663.059	8879.67
663.409	8843.51
663.76	8907.69
664.11	8918.08
664.461	8932.1
664.811	8951.76
665.161	8881.02
665.511	8967.8
665.862	8850.29
666.212	8965.32
666.562	8960.34
666.912	8949.95
667.262	8901.81
667.612	8889.84
667.962	8944.98
668.312	8869.5
668.662	8977.52
669.011	8882.15
669.361	8892.32
669.711	8878.54
670.06	8918.54
670.41	8854.81
670.76	8755.38
671.109	8851.87
671.459	8847.58
671.808	8884.19
672.157	8858.88
672.507	8774.13
672.856	8791.99
673.205	8821.36
673.554	8861.36
673.904	8848.26
674.253	8830.18
674.602	8829.27
674.951	8706.79
675.3	8661.37
675.649	8786.56
675.998	8790.86
676.346	8741.82
676.695	8783.85
677.044	8724.42
677.393	8746.34
677.741	8746.56
678.09	8674.93
678.438	8719.45
678.787	8742.04
679.135	8694.36
679.484	8692.1
679.832	8701.37
680.181	8607.81
680.529	8635.15
680.877	8580.01
681.225	8592.67
681.573	8638.54
681.922	8589.73
682.27	8528.04
682.618	8572.78
682.966	8494.82
683.314	8524.2
683.661	8501.37
684.009	8469.28
684.357	8414.14
684.705	8404.2
685.053	8413.69
685.4	8464.99
685.748	8329.85
686.095	8330.3
686.443	8428.15
686.79	8321.49
687.138	8330.3
687.485	8338.66
687.832	8268.84
688.18	8265.9
688.527	8233.58
688.874	8214.6
689.221	8165.34
689.568	8133.25
689.915	8095.96
690.262	8122.85
690.609	8129.86
690.956	8127.37
691.303	8126.69
691.65	7970.99
691.997	7987.71
692.344	7978.9
692.69	7948.62
693.037	7901.39
693.383	7847.15
693.73	7852.58
694.077	7761.28
694.423	7834.95
694.769	7751.11
695.116	7753.37
695.462	7716.53
695.808	7706.14
696.155	7684.9
696.501	7624.11
696.847	7666.37
697.193	7545.92
697.539	7585.46
697.885	7480.83
698.231	7542.08
698.577	7467.5
698.923	7420.5
699.269	7401.06
699.614	7388.18
699.96	7352.48
700.306	7352.7
700.651	7302.76
700.997	7290.33
701.342	7242.87
701.688	7190.67
702.033	7169.88
702.379	7191.8
702.724	7217.56
703.069	7206.94
703.415	7050.34
703.76	7105.03
704.105	7144.8
704.45	7067.74
704.795	7001.52
705.14	6996.1
705.485	6962.2
705.83	6889.44
706.175	6914.97
706.52	6891.7
706.865	6901.41
707.209	6858.7
707.554	6813.96
707.899	6897.35
708.243	6768.54
708.588	6780.97
708.932	6665.94
709.277	6686.28
709.621	6727.18
709.966	6697.13
710.31	6679.73
710.654	6576
710.998	6611.7
711.342	6622.1
711.687	6637.69
712.031	6576.23
712.375	6537.58
712.719	6594.53
713.063	6517.92
713.407	6537.13
713.75	6483.12
714.094	6485.61
714.438	6471.37
714.782	6499.39
715.125	6482.44
715.469	6430.01
715.812	6442.44
716.156	6400.64
716.499	6352.28
716.843	6390.24
717.186	6353.63
717.53	6389.34
717.873	6390.02
718.216	6401.31
718.559	6385.72
718.902	6326.74
719.246	6349.34
719.589	6310.02
719.932	6282.22
720.275	6335.33
720.617	6268.66
720.96	6220.75
721.303	6266.63
721.646	6352.05
721.989	6269.79
722.331	6296.68
722.674	6292.62
723.016	6251.71
723.359	6276.8
723.701	6265.95
724.044	6183.69
724.386	6231.83
724.729	6231.6
725.071	6204.48
725.413	6233.64
725.755	6231.83
726.097	6195.9
726.439	6131.72
726.782	6154.32
727.124	6188.44
727.465	6158.61
727.807	6143.47
728.149	6117.93
728.491	6150.7
728.833	6161.1
729.175	6122
729.516	6178.95
729.858	6150.02
730.199	6174.43
730.541	6122.23
730.882	6167.87
731.224	6213.07
731.565	6164.94
731.906	6160.87
732.248	6143.92
732.589	6059.4
732.93	6132.62
733.271	6165.39
733.612	6150.7
733.953	6183.92
734.294	6168.1
734.635	6189.79
734.976	6145.05
735.317	6164.71
735.658	6132.17
735.999	6170.81
736.339	6181.43
736.68	6220.3
737.021	6150.47
737.361	6253.52
737.702	6224.82
738.042	6197.48
738.383	6208.78
738.723	6233.64
739.063	6181.21
739.404	6229.12
739.744	6267.31
740.084	6253.52
740.424	6215.56
740.764	6259.4
741.104	6301.66
741.444	6264.37
741.784	6273.18
742.124	6328.1
742.464	6339.17
742.804	6361.99
743.143	6384.14
743.483	6366.29
743.823	6378.94
744.162	6426.4
744.502	6506.85
744.841	6495.78
745.181	6506.4
745.52	6566.06
745.86	6595.43
746.199	6608.77
746.538	6618.94
746.877	6720.63
747.216	6707.3
747.556	6766.73
747.895	6818.7
748.234	6830.68
748.573	6882.66
748.911	7016.21
749.25	7051.69
749.589	7080.62
749.928	7162.42
750.267	7218.02
750.605	7291.01
750.944	7354.28
751.283	7411.01
751.621	7463.89
751.96	7535.07
752.298	7667.27
752.636	7800.83
752.975	7793.59
753.313	7879.24
753.651	8061.38
753.989	8097.32
754.327	8267.25
754.666	8314.26
755.004	8434.03
755.342	8648.26
755.679	8726.9
756.017	8822.49
756.355	8995.82
756.693	9149.49
757.031	9231.3
757.368	9355.81
757.706	9492.53
758.044	9608.01
758.381	9791.06
758.719	9937.27
759.056	10088
759.394	10210.71
759.731	10363.47
760.068	10500.64
760.405	10632.39
760.743	10824.48
761.08	11042.1
761.417	11100.63
761.754	11327.74
762.091	11411.35
762.428	11597.34
762.765	11730.21
763.102	11887.05
763.438	12181.05
763.775	12202.97
764.112	12518.89
764.449	12685.9
764.785	12745.1
765.122	12868.26
765.458	12983.74
765.795	13236.16
766.131	13402.94
766.467	13518.19
