Data from hue_270_FLMS001491_00042.txt Node
Date: Tue Feb 07 15:57:14 GMT 2017
User: dcchb
Spectrometer: FLMS00149
Trigger mode: 0
Integration Time (sec): 2.000000E-2
Scans to average: 10
Electric dark correction enabled: true
Nonlinearity correction enabled: false
Boxcar width: 0
XAxis mode: Wavelengths
Number of Pixels in Spectrum: 2048
>>>>>Begin Spectral Data<<<<<
341.393	-23.7
341.776	-23.7
342.16	-23.7
342.543	-67.99
342.927	-60.76
343.31	-77.94
343.693	-67.99
344.077	-70.48
344.46	-79.52
344.843	-47.43
345.226	-47.2
345.61	-35.9
345.993	-7.43
346.376	-19.41
346.759	18.78
347.142	43.64
347.525	65.11
347.908	56.07
348.291	73.25
348.674	79.57
349.057	116.86
349.44	132.91
349.823	165.22
350.206	161.38
350.588	205.9
350.971	194.15
351.354	219.23
351.737	248.16
352.119	240.25
352.502	259.46
352.884	271.66
353.267	274.37
353.65	293.81
354.032	283.86
354.414	293.35
354.797	316.86
355.179	318.89
355.562	322.51
355.944	325.67
356.326	329.51
356.709	338.1
357.091	319.34
357.473	328.61
357.855	327.48
358.238	343.07
358.62	316.4
359.002	352.11
359.384	322.05
359.766	333.35
360.148	343.07
360.53	354.6
360.912	335.61
361.294	333.35
361.676	331.32
362.057	330.19
362.439	319.34
362.821	331.09
363.203	316.63
363.584	330.42
363.966	317.76
364.348	306.01
364.729	335.84
365.111	326.35
365.493	328.38
365.874	300.81
366.256	299.23
366.637	330.87
367.019	318.89
367.4	300.13
367.781	308.72
368.163	307.36
368.544	301.72
368.925	306.69
369.306	322.51
369.688	304.2
370.069	314.14
370.45	296.74
370.831	294.48
371.212	315.5
371.593	304.43
371.974	309.17
372.355	339.45
372.736	298.78
373.117	309.85
373.498	303.98
373.879	329.06
374.26	305.1
374.641	296.29
375.021	309.17
375.402	322.96
375.783	314.82
376.163	322.96
376.544	320.47
376.925	326.8
377.305	325.44
377.686	296.07
378.066	332.67
378.447	340.36
378.827	321.15
379.208	306.01
379.588	349.17
379.968	345.56
380.349	331.32
380.729	345.1
381.109	338.55
381.489	322.28
381.87	331.77
382.25	343.75
382.63	327.25
383.01	335.16
383.39	334.26
383.77	327.25
384.15	339.68
384.53	340.36
384.91	354.82
385.29	346.23
385.67	338.1
386.049	315.73
386.429	355.5
386.809	354.14
387.189	362.5
387.568	361.37
387.948	360.24
388.328	366.8
388.707	367.7
389.087	367.25
389.466	368.38
389.846	362.28
390.225	348.95
390.605	365.22
390.984	385.78
391.363	367.93
391.743	374.93
392.122	379.45
392.501	379.45
392.881	388.27
393.26	387.59
393.639	367.48
394.018	382.62
394.397	405.44
394.776	381.49
395.155	405.89
395.534	390.07
395.913	359.57
396.292	394.14
396.671	407.25
397.05	405.67
397.429	415.38
397.808	397.76
398.186	418.77
398.565	425.33
398.944	401.6
399.323	421.03
399.701	428.72
400.08	425.33
400.458	414.25
400.837	435.72
401.215	432.11
401.594	440.47
401.972	425.33
402.351	451.54
402.729	431.2
403.107	434.14
403.486	447.47
403.864	427.81
404.242	442.05
404.62	455.84
404.999	453.12
405.377	467.13
405.755	464.42
406.133	473.46
406.511	480.24
406.889	482.95
407.267	480.47
407.645	468.94
408.023	503.52
408.401	489.51
408.779	484.31
409.156	502.16
409.534	500.13
409.912	499.22
410.29	533.57
410.667	525.89
411.045	535.16
411.422	522.95
411.8	554.36
412.178	552.33
412.555	537.87
412.933	569.96
413.31	571.54
413.687	583.52
414.065	561.6
414.442	583.74
414.819	588.71
415.197	603.18
415.574	571.76
415.951	610.41
416.328	629.16
416.705	632.1
417.082	642.95
417.46	642.5
417.837	639.56
418.214	656.06
418.591	660.35
418.967	658.32
419.344	658.54
419.721	684.3
420.098	697.64
420.475	712.55
420.852	700.8
421.228	721.82
421.605	728.14
421.982	721.14
422.358	745.32
422.735	745.55
423.111	762.49
423.488	753.23
423.864	756.62
424.241	773.57
424.617	798.2
424.994	810.4
425.37	820.12
425.746	815.37
426.123	860.57
426.499	854.47
426.875	814.92
427.251	868.25
427.627	887.24
428.003	891.53
428.379	901.93
428.756	917.52
429.132	908.48
429.507	952.32
429.883	945.09
430.259	962.04
430.635	965.65
431.011	952.32
431.387	991.64
431.763	1008.36
432.138	1003.39
432.514	1017.4
432.89	1010.17
433.265	1063.73
433.641	1084.52
434.016	1099.89
434.392	1091.3
434.767	1150.05
435.143	1164.52
435.518	1136.04
435.894	1179.21
436.269	1171.97
436.644	1202.26
437.02	1225.08
437.395	1238.41
437.77	1223.5
438.145	1257.17
438.52	1255.14
438.895	1302.14
439.271	1320.9
439.646	1349.6
440.021	1358.18
440.395	1346.66
440.77	1370.61
441.145	1348.92
441.52	1402.93
441.895	1409.71
442.27	1393.44
442.645	1429.37
443.019	1409.03
443.394	1430.73
443.769	1458.75
444.143	1475.7
444.518	1488.35
444.892	1478.86
445.267	1488.8
445.641	1508.46
446.016	1508.46
446.39	1541.46
446.764	1547.33
447.139	1531.97
447.513	1553.66
447.887	1569.03
448.262	1606.09
448.636	1554.56
449.01	1607.67
449.384	1615.8
449.758	1639.31
450.132	1649.7
450.506	1645.18
450.88	1610.83
451.254	1662.36
451.628	1681.34
452.002	1709.59
452.376	1708.01
452.75	1709.81
453.123	1715.69
453.497	1767.89
453.871	1745.97
454.244	1786.2
454.618	1778.96
454.992	1824.39
455.365	1826.19
455.739	1866.42
456.112	1822.13
456.486	1867.32
456.859	1895.8
457.232	1931.73
457.606	1910.03
457.979	1924.5
458.352	1971.28
458.725	2003.82
459.099	1994.78
459.472	2060.31
459.845	2057.15
460.218	2093.08
460.591	2095.57
460.964	2098.73
461.337	2127.43
461.71	2151.84
462.083	2178.73
462.456	2168.33
462.829	2207.88
463.201	2214.66
463.574	2210.59
463.947	2257.6
464.32	2328.78
464.692	2325.16
465.065	2323.36
465.438	2323.13
465.81	2375.56
466.183	2414.43
466.555	2462.34
466.928	2457.36
467.3	2437.48
467.672	2483.8
468.045	2566.97
468.417	2560.41
468.789	2577.81
469.161	2599.96
469.534	2637.02
469.906	2693.74
470.278	2665.95
470.65	2729.9
471.022	2731.03
471.394	2793.18
471.766	2801.76
472.138	2818.71
472.51	2861.87
472.882	2921.99
473.253	2957.69
473.625	2960.4
473.997	3018.71
474.369	3019.61
474.74	3088.08
475.112	3113.84
475.484	3149.55
475.855	3190.45
476.227	3201.75
476.598	3246.72
476.97	3307.74
477.341	3340.28
477.713	3398.36
478.084	3444.01
478.455	3519.71
478.827	3526.26
479.198	3591.35
479.569	3600.39
479.94	3663.89
480.311	3696.88
480.682	3775.07
481.053	3842.87
481.424	3898.68
481.795	3934.61
482.166	3971.68
482.537	3963.54
482.908	4049.64
483.279	4115.17
483.65	4144.1
484.021	4235.4
484.391	4240.82
484.762	4309.29
485.133	4322.63
485.503	4350.2
485.874	4443.3
486.244	4443.3
486.615	4535.28
486.985	4533.02
487.356	4642.84
487.726	4656.18
488.097	4759.68
488.467	4745.67
488.837	4840.58
489.207	4890.97
489.578	4958.99
489.948	4967.81
490.318	5041.93
490.688	5042.61
491.058	5081.48
491.428	5141.59
491.798	5191.76
492.168	5284.18
492.538	5284.18
492.908	5317.4
493.278	5336.61
493.648	5390.39
494.017	5438.53
494.387	5463.61
494.757	5503.16
495.126	5552.42
495.496	5589.94
495.866	5554.68
496.235	5626.1
496.605	5697.96
496.974	5712.65
497.344	5805.53
497.713	5769.14
498.082	5773.44
498.452	5837.84
498.821	5905.18
499.19	5830.38
499.559	5902.7
499.928	5976.14
500.298	5951.06
500.667	5985.86
501.036	5991.06
501.405	6038.51
501.774	6070.6
502.143	6076.93
502.512	6097.72
502.88	6156.25
503.249	6131.62
503.618	6166.19
503.987	6184.95
504.356	6186.76
504.724	6262.69
505.093	6304.5
505.462	6305.17
505.83	6290.48
506.199	6311.27
506.567	6371.84
506.936	6395.11
507.304	6459.29
507.672	6410.26
508.041	6396.92
508.409	6474.66
508.777	6501.33
509.145	6503.59
509.514	6507.43
509.882	6544.04
510.25	6577.71
510.618	6627.42
510.986	6619.52
511.354	6708.33
511.722	6689.12
512.09	6684.15
512.458	6667.65
512.826	6725.28
513.193	6746.07
513.561	6785.16
513.929	6756.01
514.297	6866.97
514.664	6828.78
515.032	6829.23
515.4	6893.86
515.767	6917.59
516.135	6887.76
516.502	6871.03
516.869	6938.6
517.237	6971.37
517.604	6903.8
517.972	6946.29
518.339	7002.56
518.706	6989.67
519.073	7020.63
519.44	7050.92
519.808	7115.32
520.175	7054.08
520.542	7118.71
520.909	7046.4
521.276	7106.06
521.643	7180.18
522.009	7130.46
522.376	7273.51
522.743	7242.78
523.11	7277.8
523.477	7345.82
523.843	7290.23
524.21	7408.65
524.577	7410.45
524.943	7390.57
525.31	7445.03
525.676	7588.98
526.043	7535.42
526.409	7525.48
526.776	7603.22
527.142	7581.75
527.508	7592.37
527.874	7708.07
528.241	7656.1
528.607	7683.67
528.973	7714.18
529.339	7694.97
529.705	7737.45
530.071	7769.54
530.437	7820.84
530.803	7821.29
531.169	7853.61
531.535	7860.39
531.901	7868.52
532.267	7819.94
532.632	7910.1
532.998	7904.23
533.364	7882.31
533.73	7970.67
534.095	7982.64
534.461	7950.78
534.826	8045.92
535.192	8014.73
535.557	8095.41
535.923	8002.76
536.288	8056.31
536.653	8096.76
537.019	8041.85
537.384	8085.47
537.749	8091.79
538.114	8023.32
538.479	8064.9
538.845	8158.91
539.21	8080.04
539.575	8128.63
539.94	8105.58
540.305	8171.11
540.67	8186.71
541.034	8168.18
541.399	8190.77
541.764	8208.4
542.129	8196.87
542.494	8227.16
542.858	8256.08
543.223	8219.25
543.587	8268.51
543.952	8252.01
544.316	8233.26
544.681	8233.71
545.045	8254.73
545.41	8322.07
545.774	8266.25
546.138	8277.1
546.503	8300.37
546.867	8261.96
547.231	8340.6
547.595	8351.67
547.959	8359.36
548.324	8463.53
548.688	8356.42
549.052	8353.25
549.416	8402.52
549.779	8406.36
550.143	8393.03
550.507	8430.99
550.871	8387.6
551.235	8396.64
551.599	8425.57
551.962	8464.21
552.326	8400.03
552.689	8602.06
553.053	8447.49
553.417	8458.56
553.78	8618.33
554.143	8518.67
554.507	8574.49
554.87	8559.35
555.234	8671.44
555.597	8559.8
555.96	8608.16
556.323	8661.72
556.686	8684.55
557.05	8674.15
557.413	8654.49
557.776	8732.45
558.139	8722.74
558.502	8799.12
558.865	8702.62
559.228	8831.66
559.59	8797.31
559.953	8820.59
560.316	8899.68
560.679	8923.18
561.041	8925.22
561.404	8949.85
561.767	8971.77
562.129	8965.22
562.492	9070.07
562.854	9064.2
563.217	9040.92
563.579	9045.21
563.941	9157.53
564.304	9183.06
564.666	9228.49
565.028	9151.2
565.39	9234.81
565.753	9244.76
566.115	9324.08
566.477	9262.84
566.839	9306.68
567.201	9472.1
567.563	9425.09
567.925	9467.12
568.287	9502.15
568.648	9496.28
569.01	9536.5
569.372	9627.57
569.734	9577.18
570.095	9636.84
570.457	9673.22
570.819	9771.97
571.18	9731.3
571.542	9720.68
571.903	9717.74
572.265	9797.28
572.626	9828.02
572.987	9914.12
573.349	9912.99
573.71	9922.71
574.071	9964.06
574.432	9987.34
574.794	10079.54
575.155	10052.65
575.516	10033.44
575.877	10187.56
576.238	10100.55
576.599	10172.87
576.96	10197.73
577.32	10189.14
577.681	10264.84
578.042	10303.26
578.403	10292.41
578.763	10296.93
579.124	10309.14
579.485	10439.75
579.845	10403.14
580.206	10388.68
580.566	10463.03
580.927	10529.02
581.287	10573.99
581.648	10512.75
582.008	10616.7
582.368	10662.8
582.728	10683.36
583.089	10682.46
583.449	10686.53
583.809	10788.67
584.169	10788.22
584.529	10726.07
584.889	10868.44
585.249	10832.96
585.609	10802.46
585.969	10849.91
586.329	10880.19
586.688	10847.88
587.048	10974.43
587.408	10952.28
587.768	10969.01
588.127	11028.66
588.487	11023.02
588.846	11076.35
589.206	11061.66
589.565	11078.83
589.925	11174.65
590.284	11187.53
590.643	11215.1
591.003	11233.63
591.362	11225.5
591.721	11237.92
592.08	11268.21
592.44	11333.97
592.799	11229.56
593.158	11323.35
593.517	11267.75
593.876	11480.63
594.235	11324.48
594.593	11388.2
594.952	11476.79
595.311	11424.36
595.67	11450.35
596.029	11604.92
596.387	11533.28
596.746	11536
597.104	11490.57
597.463	11562.66
597.822	11653.06
598.18	11599.72
598.538	11669.33
598.897	11684.24
599.255	11623
599.613	11713.17
599.972	11739.38
600.33	11773.5
600.688	11642.21
601.046	11787.97
601.404	11772.83
601.762	11827.97
602.12	11845.59
602.478	11832.49
602.836	11880.39
603.194	11735.54
603.552	11758.36
603.91	11797.68
604.268	11840.39
604.625	11814.41
604.983	11900.51
605.341	11791.58
605.698	11877.91
606.056	11922.43
606.413	11963.33
606.771	11937.12
607.128	11925.59
607.485	11863.9
607.843	11905.93
608.2	12008.07
608.557	12045.14
608.914	11995.19
609.272	12017.34
609.629	12001.75
609.986	12139.37
610.343	12006.72
610.7	12237.22
611.057	12050.78
611.414	12135.08
611.771	12135.53
612.127	12203.78
612.484	12207.84
612.841	12284.45
613.198	12184.79
613.554	12218.92
613.911	12295.75
614.267	12238.58
614.624	12290.55
614.98	12244.45
615.337	12268.41
615.693	12311.34
616.05	12355.86
616.406	12358.35
616.762	12377.56
617.118	12359.48
617.475	12354.28
617.831	12358.8
618.187	12405.13
618.543	12414.84
618.899	12474.95
619.255	12414.84
619.611	12350.21
619.967	12439.48
620.323	12455.52
620.678	12421.85
621.034	12383.21
621.39	12463.43
621.746	12383.21
622.101	12433.83
622.457	12461.17
622.812	12359.48
623.168	12480.83
623.523	12432.47
623.879	12533.03
624.234	12461.4
624.589	12463.43
624.945	12421.62
625.3	12516.54
625.655	12435.86
626.01	12452.36
626.365	12494.84
626.72	12442.41
627.075	12457.55
627.43	12455.97
627.785	12446.25
628.14	12502.52
628.495	12467.05
628.85	12430.44
629.205	12417.33
629.559	12464.79
629.914	12394.5
630.269	12419.81
630.623	12426.37
630.978	12278.35
631.332	12368.06
631.687	12342.98
632.041	12294.62
632.396	12356.31
632.75	12251.46
633.104	12359.7
633.459	12286.94
633.813	12262.53
634.167	12295.98
634.521	12218.92
634.875	12281.29
635.229	12217.79
635.583	12131.69
635.937	12178.69
636.291	12100.5
636.645	12216.43
636.999	12198.58
637.352	12200.61
637.706	12057.11
638.06	12062.99
638.413	12032.93
638.767	12087.62
639.121	12080.61
639.474	11978.02
639.828	12037.9
640.181	12069.99
640.534	12086.04
640.888	11999.03
641.241	11975.31
641.594	11967.17
641.947	12057.34
642.301	12059.82
642.654	12041.75
643.007	11967.4
643.36	11969.21
643.713	11993.16
644.066	12037.23
644.419	11857.8
644.771	11930.79
645.124	11693.28
645.477	11685.14
645.83	11574.19
646.182	11611.25
646.535	11481.31
646.888	11587.75
647.24	11507.07
647.593	11544.81
647.945	11546.39
648.298	11505.94
648.65	11482.89
649.002	11448.77
649.355	11527.18
649.707	11505.04
650.059	11534.41
650.411	11711.13
650.763	11635.2
651.115	11816.67
651.467	11743.45
651.819	11801.75
652.171	11766.5
652.523	11731.02
652.875	11702.09
653.227	11718.36
653.578	11795.2
653.93	11743.9
654.282	11671.36
654.633	11655.99
654.985	11618.25
655.337	11690.12
655.688	11684.24
656.039	11701.87
656.391	11689.89
656.742	11774.86
657.094	11698.48
657.445	11769.44
657.796	11733.96
658.147	11737.8
658.498	11742.77
658.849	11782.32
659.2	11715.43
659.551	11646.73
659.902	11758.59
660.253	11704.58
660.604	11721.3
660.955	11600.18
661.306	11735.09
661.656	11688.31
662.007	11703.45
662.358	11715.65
662.708	11766.72
663.059	11699.16
663.409	11650.34
663.76	11797.46
664.11	11743.9
664.461	11719.95
664.811	11701.87
665.161	11662.77
665.511	11689.66
665.862	11791.13
666.212	11725.6
666.562	11774.86
666.912	11719.04
667.262	11770.11
667.612	11735.31
667.962	11715.2
668.312	11665.03
668.662	11722.21
669.011	11718.14
669.361	11712.49
669.711	11702.77
670.06	11685.37
670.41	11676.11
670.76	11652.15
671.109	11696.44
671.459	11640.17
671.808	11608.54
672.157	11620.74
672.507	11568.09
672.856	11592.49
673.205	11553.85
673.554	11653.96
673.904	11590.01
674.253	11703.68
674.602	11611.47
674.951	11434.3
675.3	11400.41
675.649	11548.65
675.998	11530.57
676.346	11561.53
676.695	11549.1
677.044	11489.67
677.393	11519.95
677.741	11505.26
678.09	11437.02
678.438	11451.25
678.787	11423.91
679.135	11550.46
679.484	11397.69
679.832	11406.28
680.181	11398.15
680.529	11380.07
680.877	11351.37
681.225	11375.77
681.573	11387.75
681.922	11324.93
682.27	11299.39
682.618	11203.8
682.966	11266.4
683.314	11173.29
683.661	11232.95
684.009	11180.75
684.357	11146.18
684.705	11170.81
685.053	11180.98
685.4	11146.18
685.748	11036.12
686.095	11073.86
686.443	11044.03
686.79	10954.54
687.138	11006.74
687.485	11038.61
687.832	10957.25
688.18	10952.73
688.527	10925.39
688.874	10829.12
689.221	10832.51
689.568	10849.46
689.915	10740.76
690.262	10787.32
690.609	10706.64
690.956	10666.64
691.303	10613.53
691.65	10602.69
691.997	10637.26
692.344	10468.45
692.69	10492.41
693.037	10504.84
693.383	10519.3
693.73	10527.44
694.077	10376.03
694.423	10361.34
694.769	10316.59
695.116	10344.39
695.462	10323.15
695.808	10303.49
696.155	10293.99
696.501	10182.36
696.847	10175.35
697.193	10060.55
697.539	10116.37
697.885	10060.1
698.231	10007.22
698.577	10077.28
698.923	10007.9
699.269	9979.65
699.614	9896.04
699.96	9894.23
700.306	9873.44
700.651	9748.25
700.997	9709.6
701.342	9787.34
701.688	9678.64
702.033	9728.13
702.379	9632.32
702.724	9592.77
703.069	9567.23
703.415	9486.56
703.76	9501.7
704.105	9525.65
704.45	9541.92
704.795	9444.75
705.14	9409.27
705.485	9371.76
705.83	9322.95
706.175	9333.12
706.52	9341.7
706.865	9275.04
707.209	9302.16
707.554	9196.62
707.899	9226.23
708.243	9152.56
708.588	9243.18
708.932	9161.82
709.277	9073.91
709.621	9091.09
709.966	9070.75
710.31	9071.65
710.654	8974.93
710.998	8944.43
711.342	8996.85
711.687	8979
712.031	8899.68
712.375	8926.12
712.719	8886.12
713.063	8888.83
713.407	8878.44
713.75	8788.05
714.094	8873.02
714.438	8829.4
714.782	8783.53
715.125	8761.15
715.469	8762.51
715.812	8702.4
716.156	8667.6
716.499	8687.71
716.843	8733.13
717.186	8689.52
717.53	8656.07
717.873	8739.46
718.216	8608.84
718.559	8645.68
718.902	8531.78
719.246	8607.49
719.589	8627.37
719.932	8527.26
720.275	8552.57
720.617	8515.74
720.96	8501.05
721.303	8539.24
721.646	8506.7
721.989	8494.72
722.331	8508.05
722.674	8441.39
723.016	8520.26
723.359	8464.89
723.701	8490.88
724.044	8387.6
724.386	8414.04
724.729	8381.28
725.071	8397.77
725.413	8397.32
725.755	8418.79
726.097	8343.09
726.439	8319.81
726.782	8337.66
727.124	8388.06
727.465	8325.46
727.807	8294.05
728.149	8322.75
728.491	8215.18
728.833	8304.44
729.175	8323.65
729.516	8285.23
729.858	8320.49
730.199	8321.17
730.541	8301.28
730.882	8238.46
731.224	8291.34
731.565	8266.93
731.906	8322.07
732.248	8263.77
732.589	8268.29
732.93	8211.56
733.271	8256.76
733.612	8190.32
733.953	8229.42
734.294	8173.82
734.635	8191
734.976	8203.2
735.317	8172.02
735.658	8182.41
735.999	8217.44
736.339	8206.14
736.68	8204.78
737.021	8214.73
737.361	8253.82
737.702	8268.29
738.042	8281.84
738.383	8239.81
738.723	8217.44
739.063	8192.13
739.404	8309.64
739.744	8293.37
740.084	8277.1
740.424	8284.56
740.764	8258.79
741.104	8319.36
741.444	8267.83
741.784	8294.95
742.124	8407.04
742.464	8332.24
742.804	8308.74
743.143	8282.52
743.483	8308.96
743.823	8353.25
744.162	8350.09
744.502	8364.78
744.841	8376.31
745.181	8443.65
745.52	8524.1
745.86	8464.21
746.199	8542.63
746.538	8567.49
746.877	8664.21
747.216	8657.65
747.556	8630.99
747.895	8708.05
748.234	8716.64
748.573	8765.45
748.911	8782.4
749.25	8865.11
749.589	8864.2
749.928	8926.8
750.267	9021.26
750.605	9041.15
750.944	9123.86
751.283	9124.76
751.621	9245.89
751.96	9281.14
752.298	9382.61
752.636	9426.45
752.975	9456.95
753.313	9554.58
753.651	9729.26
753.989	9805.65
754.327	9857.4
754.666	9921.12
755.004	10022.36
755.342	10214.22
755.679	10335.12
756.017	10369.93
756.355	10541.22
756.693	10619.86
757.031	10713.42
757.368	10767.65
757.706	10957.93
758.044	11077.7
758.381	11286.29
758.719	11340.52
759.056	11610.34
759.394	11618.03
759.731	11719.04
760.068	11925.14
760.405	12009.88
760.743	12164.23
761.08	12262.98
761.417	12490.1
761.754	12634.95
762.091	12759.47
