Data from hue_150_FLMS001491_00061.txt Node
Date: Tue Feb 07 16:54:21 GMT 2017
User: dcchb
Spectrometer: FLMS00149
Trigger mode: 0
Integration Time (sec): 2.000000E-2
Scans to average: 10
Electric dark correction enabled: true
Nonlinearity correction enabled: false
Boxcar width: 0
XAxis mode: Wavelengths
Number of Pixels in Spectrum: 2048
>>>>>Begin Spectral Data<<<<<
341.393	-3.22
341.776	-3.22
342.16	-3.22
342.543	-53.39
342.927	-68.98
343.31	-72.37
343.693	-65.82
344.077	-66.95
344.46	-64.01
344.843	-32.6
345.226	-54.52
345.61	-23.78
345.993	-28.3
346.376	-9.1
346.759	-3.45
347.142	25.48
347.525	47.17
347.908	64.35
348.291	70.68
348.674	91.47
349.057	121.75
349.44	127.17
349.823	148.19
350.206	180.5
350.588	199.26
350.971	203.1
351.354	216.66
351.737	232.03
352.119	250.33
352.502	262.54
352.884	280.16
353.267	283.78
353.65	289.65
354.032	295.75
354.414	307.73
354.797	316.32
355.179	314.29
355.562	313.83
355.944	325.36
356.326	333.27
356.709	335.08
357.091	325.58
357.473	336.88
357.855	333.72
358.238	353.83
358.62	345.92
359.002	361.52
359.384	352.93
359.766	349.99
360.148	330.33
360.53	344.79
360.912	338.92
361.294	351.12
361.676	354.06
362.057	317
362.439	324.45
362.821	327.39
363.203	323.78
363.584	324.23
363.966	310.9
364.348	329.65
364.729	318.35
365.111	328.75
365.493	318.13
365.874	324.23
366.256	331.01
366.637	323.1
367.019	307.05
367.4	316.77
367.781	329.2
368.163	323.78
368.544	313.83
368.925	308.86
369.306	317.68
369.688	322.87
370.069	313.61
370.45	324.45
370.831	314.74
371.212	323.32
371.593	320.16
371.974	323.55
372.355	312.25
372.736	327.39
373.117	326.04
373.498	313.16
373.879	319.48
374.26	327.84
374.641	313.38
375.021	300.73
375.402	317.9
375.783	336.21
376.163	323.1
376.544	345.47
376.925	313.16
377.305	350.44
377.686	340.73
378.066	333.72
378.447	313.16
378.827	344.12
379.208	339.6
379.588	337.11
379.968	335.3
380.349	321.29
380.729	344.34
381.109	347.28
381.489	337.56
381.87	338.69
382.25	345.25
382.63	339.14
383.01	352.93
383.39	343.44
383.77	351.35
384.15	332.59
384.53	357.9
384.91	353.15
385.29	347.28
385.67	358.8
386.049	349.76
386.429	333.95
386.809	357.45
387.189	349.31
387.568	364.91
387.948	350.44
388.328	385.47
388.707	360.16
389.087	357.67
389.466	353.38
389.846	364.45
390.225	385.92
390.605	374.62
390.984	376.43
391.363	392.25
391.743	395.19
392.122	393.38
392.501	376.2
392.881	397.9
393.26	375.75
393.639	388.63
394.018	378.92
394.397	395.41
394.776	408.52
395.155	404.23
395.534	399.26
395.913	384.57
396.292	388.18
396.671	378.01
397.05	383.21
397.429	390.22
397.808	401.51
398.186	401.29
398.565	388.63
398.944	402.42
399.323	408.52
399.701	434.96
400.08	421.18
400.458	420.27
400.837	416.2
401.215	421.85
401.594	425.47
401.972	418.01
402.351	423.66
402.729	424.79
403.107	425.02
403.486	443.55
403.864	421.63
404.242	437.22
404.62	441.06
404.999	430.89
405.377	426.82
405.755	449.2
406.133	453.49
406.511	428.63
406.889	469.08
407.267	439.93
407.645	440.84
408.023	456.88
408.401	484.9
408.779	479.7
409.156	462.76
409.534	481.29
409.912	493.94
410.29	498.69
410.667	475.64
411.045	482.64
411.422	513.38
411.8	504.11
412.178	500.04
412.555	514.96
412.933	507.5
413.31	514.28
413.687	508.63
414.065	522.19
414.442	514.05
414.819	534.84
415.197	547.95
415.574	547.5
415.951	525.35
416.328	553.38
416.705	538.23
417.082	533.94
417.46	558.35
417.837	559.25
418.214	557.67
418.591	560.38
418.967	574.39
419.344	580.04
419.721	586.59
420.098	583.21
420.475	576.2
420.852	596.09
421.228	572.13
421.605	578.46
421.982	584.56
422.358	596.54
422.735	640.38
423.111	625.69
423.488	626.59
423.864	620.72
424.241	623.43
424.617	623.88
424.994	620.94
425.37	636.08
425.746	641.51
426.123	644.45
426.499	650.32
426.875	661.17
427.251	643.99
427.627	649.87
428.003	649.19
428.379	697.33
428.756	660.72
429.132	695.29
429.507	703.65
429.883	705.69
430.259	691
430.635	705.69
431.011	726.03
431.387	737.78
431.763	727.16
432.138	752.47
432.514	747.72
432.89	735.97
433.265	759.25
433.641	774.84
434.016	784.78
434.392	798.34
434.767	805.35
435.143	794.95
435.518	812.35
435.894	788.4
436.269	845.12
436.644	853.93
437.02	835.85
437.395	852.58
437.77	848.96
438.145	846.93
438.52	862.29
438.895	864.1
439.271	882.86
439.646	890.77
440.021	896.19
440.395	888.06
440.77	893.25
441.145	910.65
441.52	924.44
441.895	925.79
442.27	926.25
442.645	931.44
443.019	947.72
443.394	926.92
443.769	951.1
444.143	941.39
444.518	965.12
444.892	966.02
445.267	973.25
445.641	998.79
446.016	973.25
446.39	1018.22
446.764	996.53
447.139	992.01
447.513	1032.23
447.887	1024.78
448.262	1023.42
448.636	1033.14
449.01	1043.08
449.384	1050.54
449.758	1053.48
450.132	1067.71
450.506	1062.51
450.88	1069.75
451.254	1081.05
451.628	1097.32
452.002	1117.2
452.376	1105.23
452.75	1153.36
453.123	1126.02
453.497	1154.26
453.871	1169.18
454.244	1183.42
454.618	1206.24
454.992	1207.37
455.365	1236.07
455.739	1252.11
456.112	1243.75
456.486	1261.83
456.859	1289.63
457.232	1292.11
457.606	1290.08
457.979	1319.46
458.352	1342.28
458.725	1318.33
459.099	1370.98
459.472	1387.03
459.845	1406.23
460.218	1413.47
460.591	1401.04
460.964	1436.52
461.337	1471.54
461.71	1506.8
462.083	1515.61
462.456	1528.72
462.829	1549.06
463.201	1555.16
463.574	1556.96
463.947	1575.04
464.32	1637.41
464.692	1651.65
465.065	1637.19
465.438	1669.73
465.81	1721.93
466.183	1722.16
466.555	1770.07
466.928	1805.55
467.3	1782.72
467.672	1813.46
468.045	1882.38
468.417	1911.53
468.789	1894.81
469.161	1952.21
469.534	1997.63
469.906	2033.56
470.278	2038.53
470.65	2102.49
471.022	2144.07
471.394	2173.9
471.766	2180.68
472.138	2221.81
472.51	2273.56
472.882	2337.51
473.253	2392.2
473.625	2441.46
473.997	2458.18
474.369	2521.69
474.74	2567.33
475.112	2586.77
475.484	2697.5
475.855	2741.34
476.227	2813.2
476.598	2864.27
476.97	2949.24
477.341	3023.59
477.713	3068.34
478.084	3118.28
478.455	3194.66
478.827	3310.82
479.198	3398.72
479.569	3409.12
479.94	3561.21
480.311	3637.14
480.682	3744.93
481.053	3872.61
481.424	3938.15
481.795	4052.72
482.166	4133.39
482.537	4201.87
482.908	4360.51
483.279	4431.47
483.65	4551.91
484.021	4679.82
484.391	4783.32
484.762	4900.83
485.133	4978.12
485.503	5096.31
485.874	5256.3
486.244	5350.99
486.615	5512.11
486.985	5612
487.356	5770.64
487.726	5890.86
488.097	6073.23
488.467	6147.13
488.837	6310.51
489.207	6454.24
489.578	6591.18
489.948	6788.69
490.318	6835.7
490.688	6957.5
491.058	7105.07
491.428	7307.77
491.798	7474.55
492.168	7578.5
492.538	7743.92
492.908	7879.74
493.278	8070.92
493.648	8135.77
494.017	8316.11
494.387	8423.9
494.757	8572.6
495.126	8686.04
495.496	8778.92
495.866	8853.27
496.235	9093.49
496.605	9201.74
496.974	9291.9
497.344	9465.68
497.713	9568.05
498.082	9649.63
498.452	9810.53
498.821	9916.97
499.19	9917.65
499.559	10122.16
499.928	10222.73
500.298	10307.02
500.667	10514.7
501.036	10486.9
501.405	10628.36
501.774	10614.13
502.143	10781.58
502.512	10900.67
502.88	11056.38
503.249	11012.54
503.618	11168.92
503.987	11239.65
504.356	11328.01
504.724	11347.89
505.093	11446.87
505.462	11558.06
505.83	11630.82
506.199	11831.5
506.567	11926.64
506.936	11950.14
507.304	12054.54
507.672	12142.9
508.041	12149.68
508.409	12243.24
508.777	12293.86
509.145	12424.02
509.514	12505.6
509.882	12442.33
510.25	12608.2
510.618	12631.02
510.986	12638.71
511.354	12872.15
511.722	12820.85
512.09	12985.82
512.458	12868.53
512.826	13025.82
513.193	13036.89
513.561	13104.01
513.929	13178.58
514.297	13298.35
514.664	13312.14
515.032	13392.59
515.4	13466.26
515.767	13500.61
516.135	13508.29
516.502	13313.49
516.869	13633.26
517.237	13707.83
517.604	13654.73
517.972	13762.29
518.339	13820.15
518.706	13805.68
519.073	13865.34
519.44	13907.15
519.808	13926.13
520.175	13964.1
520.542	14086.58
520.909	14169.06
521.276	14058.56
521.643	14133.13
522.009	14246.12
522.376	14300.13
522.743	14266.69
523.11	14397.31
523.477	14472.78
523.843	14493.8
524.21	14623.97
524.577	14605.44
524.943	14609.28
525.31	14677.98
525.676	14790.29
526.043	14793.68
526.409	14853.34
526.776	14907.8
527.142	14856.73
527.508	14913.9
527.874	14906.67
528.241	15058.98
528.607	14906.9
528.973	15116.83
529.339	14960.68
529.705	15146.89
530.071	15157.51
530.437	15061.24
530.803	15190.5
531.169	15098.3
531.535	15128.81
531.901	15085.65
532.267	15149.38
532.632	15092.43
532.998	15078.87
533.364	15159.32
533.73	15146.89
534.095	15258.07
534.461	15182.6
534.826	15183.5
535.192	15139.88
535.557	15196.61
535.923	15140.79
536.288	15164.29
536.653	15188.7
537.019	15075.03
537.384	15126.78
537.749	15114.8
538.114	15148.7
538.479	15031.86
538.845	15002.49
539.21	14953.9
539.575	14981.7
539.94	15009.94
540.305	15007.23
540.67	14893.11
541.034	14935.37
541.399	14869.38
541.764	14874.13
542.129	14835.26
542.494	14791.87
542.858	14793
543.223	14727.69
543.587	14738.77
543.952	14726.79
544.316	14682.27
544.681	14592.1
545.045	14608.37
545.41	14698.99
545.774	14580.35
546.138	14654.7
546.503	14559.33
546.867	14493.57
547.231	14628.49
547.595	14542.16
547.959	14441.15
548.324	14388.04
548.688	14435.5
549.052	14378.55
549.416	14375.38
549.779	14442.28
550.143	14377.42
550.507	14321.83
550.871	14381.03
551.235	14199.12
551.599	14230.98
551.962	14301.94
552.326	14253.58
552.689	14279.34
553.053	14176.97
553.417	14051.78
553.78	14342.39
554.143	14104.88
554.507	14113.24
554.87	14118.67
555.234	14244.31
555.597	14076.64
555.96	14096.07
556.323	14143.07
556.686	14106.01
557.05	14172.68
557.413	14182.85
557.776	14141.27
558.139	14122.51
558.502	14093.58
558.865	14031.66
559.228	14211.1
559.59	14068.05
559.953	14093.81
560.316	14202.06
560.679	14115.05
561.041	14261.72
561.404	14202.96
561.767	14189.85
562.129	14162.73
562.492	14268.72
562.854	14248.38
563.217	14189.4
563.579	14146.69
563.941	14257.42
564.304	14232.56
564.666	14252.45
565.028	14326.35
565.39	14325.67
565.753	14373.58
566.115	14355.95
566.477	14377.42
566.839	14373.35
567.201	14489.28
567.563	14402.73
567.925	14437.53
568.287	14440.92
568.648	14526.34
569.01	14472.33
569.372	14608.6
569.734	14562.27
570.095	14629.84
570.457	14624.64
570.819	14651.31
571.18	14642.95
571.542	14664.19
571.903	14636.62
572.265	14717.75
572.626	14679.56
572.987	14740.8
573.349	14755.49
573.71	14703.06
574.071	14776.05
574.432	14781.02
574.794	14765.66
575.155	14863.06
575.516	14754.13
575.877	14847.24
576.238	14963.84
576.599	14870.06
576.96	14924.07
577.32	14916.39
577.681	14834.81
578.042	14913.45
578.403	14941.02
578.763	14925.43
579.124	14877.07
579.485	14991.64
579.845	14938.76
580.206	14900.79
580.566	14958.87
580.927	14922.04
581.287	14919.33
581.648	14898.76
582.008	15044.29
582.368	14934.24
582.728	14908.93
583.089	14910.29
583.449	14903.51
583.809	14854.24
584.169	14851.76
584.529	14858.76
584.889	14889.27
585.249	14910.51
585.609	14797.52
585.969	14823.96
586.329	14868.25
586.688	14921.13
587.048	14841.14
587.408	14841.81
587.768	14841.59
588.127	14936.5
588.487	14856.5
588.846	14855.37
589.206	14757.3
589.565	14759.56
589.925	14811.31
590.284	14767.69
590.643	14827.58
591.003	14853.79
591.362	14894.69
591.721	14812.89
592.08	14783.74
592.44	14832.32
592.799	14815.83
593.158	14754.58
593.517	14672.1
593.876	14784.64
594.235	14792.77
594.593	14694.7
594.952	14819.21
595.311	14675.72
595.67	14774.47
596.029	14743.74
596.387	14769.72
596.746	14835.26
597.104	14771.98
597.463	14657.19
597.822	14674.36
598.18	14683.17
598.538	14729.95
598.897	14757.75
599.255	14603.18
599.613	14791.42
599.972	14737.86
600.33	14733.34
600.688	14731.31
601.046	14802.72
601.404	14815.37
601.762	14707.58
602.12	14822.15
602.478	14780.8
602.836	14891.3
603.194	14722.49
603.552	14713.68
603.91	14666.9
604.268	14838.2
604.625	14734.02
604.983	14824.41
605.341	14692.21
605.698	14788.48
606.056	14798.65
606.413	14821.02
606.771	14732.66
607.128	14843.62
607.485	14708.48
607.843	14774.92
608.2	14884.75
608.557	14779.44
608.914	14842.04
609.272	14844.3
609.629	14916.61
609.986	14908.25
610.343	14899.44
610.7	14942.38
611.057	14861.93
611.414	14844.75
611.771	14850.63
612.127	14918.2
612.484	14958.87
612.841	15000.23
613.198	14970.62
613.554	14969.04
613.911	14993.67
614.267	14955.71
614.624	14941.92
614.98	14980.34
615.337	15069.6
615.693	14972.66
616.05	14970.17
616.406	14989.15
616.762	14954.58
617.118	15010.62
617.475	15107.34
617.831	15179.21
618.187	15115.25
618.543	15053.33
618.899	15184.63
619.255	15144.63
619.611	15149.6
619.967	15259.66
620.323	15229.37
620.678	15200.22
621.034	15135.59
621.39	15099.66
621.746	15097.4
622.101	15216.04
622.457	15149.15
622.812	15166.55
623.168	15204.74
623.523	15190.73
623.879	15226.21
624.234	15113.9
624.589	15200.67
624.945	15205.42
625.3	15195.93
625.655	15217.85
626.01	15248.81
626.365	15185.53
626.72	15183.05
627.075	15240.9
627.43	15137.4
627.785	15155.48
628.14	15248.81
628.495	15244.51
628.85	15212.65
629.205	15119.77
629.559	15188.24
629.914	15127
630.269	15108.25
630.623	15086.33
630.978	15083.61
631.332	15206.1
631.687	15140.56
632.041	15098.08
632.396	15043.84
632.75	15075.03
633.104	15089.26
633.459	15014.46
633.813	15069.6
634.167	15014.46
634.521	15000
634.875	15000.68
635.229	14955.93
635.583	14845.88
635.937	14910.74
636.291	14887.46
636.645	14820.34
636.999	14884.52
637.352	14796.39
637.706	14731.76
638.06	14732.21
638.413	14706
638.767	14663.29
639.121	14671.2
639.474	14660.57
639.828	14614.02
640.181	14638.88
640.534	14684.98
640.888	14558.66
641.241	14579.22
641.594	14515.04
641.947	14660.8
642.301	14607.7
642.654	14615.15
643.007	14602.05
643.36	14584.64
643.713	14515.95
644.066	14569.5
644.419	14435.27
644.771	14406.57
645.124	14304.2
645.477	14248.38
645.83	14252.45
646.182	14228.95
646.535	14102.17
646.888	14104.66
647.24	13985.56
647.593	14035.51
647.945	14068.27
648.298	13976.75
648.65	13987.82
649.002	13900.82
649.355	14095.17
649.707	14021.5
650.059	14077.99
650.411	14260.36
650.763	14260.59
651.115	14356.4
651.467	14251.32
651.819	14325.67
652.171	14322.28
652.523	14354.14
652.875	14343.75
653.227	14223.3
653.578	14308.04
653.93	14377.87
654.282	14282.05
654.633	14257.87
654.985	14168.61
655.337	14280.7
655.688	14294.71
656.039	14323.63
656.391	14168.16
656.742	14290.64
657.094	14318.89
657.445	14342.62
657.796	14254.26
658.147	14196.63
658.498	14311.21
658.849	14317.53
659.2	14291.77
659.551	14239.34
659.902	14325.44
660.253	14267.14
660.604	14364.09
660.955	14178.33
661.306	14256.97
661.656	14245.44
662.007	14268.27
662.358	14345.56
662.708	14283.18
663.059	14287.7
663.409	14241.83
663.76	14328.38
664.11	14379.45
664.461	14351.43
664.811	14288.83
665.161	14249.29
665.511	14248.61
665.862	14284.77
666.212	14311.88
666.562	14376.29
666.912	14326.8
667.262	14308.04
667.612	14360.7
667.962	14337.19
668.312	14291.32
668.662	14308.27
669.011	14291.09
669.361	14307.36
669.711	14330.64
670.06	14268.27
670.41	14275.27
670.76	14249.29
671.109	14359.34
671.459	14228.5
671.808	14171.55
672.157	14218.33
672.507	14164.99
672.856	14149.85
673.205	14097.65
673.554	14208.16
673.904	14077.77
674.253	14232.34
674.602	14143.53
674.951	13993.25
675.3	13846.81
675.649	14187.82
675.998	14167.03
676.346	14067.6
676.695	14123.64
677.044	14003.64
677.393	13970.65
677.741	14059.23
678.09	14038.22
678.438	13946.47
678.787	14104.88
679.135	13926.81
679.484	13913.02
679.832	13965.45
680.181	13896.53
680.529	13896.3
680.877	13761.16
681.225	13774.95
681.573	13850.88
681.922	13771.56
682.27	13702.86
682.618	13762.07
682.966	13691.56
683.314	13635.07
683.661	13642.07
684.009	13595.52
684.357	13578.57
684.705	13650.21
685.053	13601.39
685.4	13603.65
685.748	13478.91
686.095	13456.76
686.443	13409.53
686.79	13411.57
687.138	13372.47
687.485	13355.98
687.832	13422.19
688.18	13361.17
688.527	13259.48
688.874	13294.74
689.221	13237.11
689.568	13168.64
689.915	13151.69
690.262	13173.83
690.609	13182.65
690.956	13039.83
691.303	12941.52
691.65	12952.37
691.997	12914.63
692.344	12847.29
692.69	12810.68
693.037	12774.75
693.383	12705.82
693.73	12754.18
694.077	12615.21
694.423	12671.02
694.769	12569.56
695.116	12538.37
695.462	12584.92
695.808	12399.39
696.155	12493.17
696.501	12411.59
696.847	12424.93
697.193	12266.06
697.539	12370.24
697.885	12257.47
698.231	12188.78
698.577	12192.17
698.923	12135.9
699.269	12020.87
699.614	12069
699.96	11937.71
700.306	11986.97
700.651	11939.52
700.997	11854.32
701.342	11833.98
701.688	11802.8
702.033	11729.13
702.379	11716.25
702.724	11710.14
703.069	11746.98
703.415	11531.84
703.76	11609.81
704.105	11580.2
704.45	11577.94
704.795	11450.49
705.14	11398.97
705.485	11389.93
705.83	11357.16
706.175	11360.77
706.52	11288.46
706.865	11215.02
707.209	11282.81
707.554	11198.75
707.899	11145.64
708.243	11158.07
708.588	11100.22
708.932	11000.78
709.277	11032.87
709.621	11098.63
709.966	10900.45
710.31	10976.15
710.654	10855.25
710.998	10861.35
711.342	10907.45
711.687	10817.96
712.031	10785.42
712.375	10733.22
712.719	10760.11
713.063	10744.29
713.407	10666.33
713.75	10684.41
714.094	10695.26
714.438	10695.71
714.782	10738.64
715.125	10618.87
715.469	10617.52
715.812	10613.68
716.156	10520.12
716.499	10542.94
716.843	10496.16
717.186	10413.23
717.53	10506.11
717.873	10461.59
718.216	10518.99
718.559	10420.46
718.902	10326.23
719.246	10346.79
719.589	10283.29
719.932	10310.63
720.275	10330.75
720.617	10348.37
720.96	10276.51
721.303	10328.26
721.646	10300.24
721.989	10211.88
722.331	10246.23
722.674	10200.58
723.016	10188.83
723.359	10170.52
723.701	10250.52
724.044	10221.37
724.386	10125.1
724.729	10182.73
725.071	10119
725.413	10150.64
725.755	10190.64
726.097	10067.02
726.439	9998.32
726.782	10007.59
727.124	10105.44
727.465	10037.19
727.807	10038.55
728.149	10084.88
728.491	9997.87
728.833	10012.79
729.175	9980.7
729.516	10046.91
729.858	9995.16
730.199	10071.54
730.541	9965.11
730.882	9934.15
731.224	10019.12
731.565	9927.59
731.906	9959
732.248	10003.52
732.589	9927.82
732.93	9941.83
733.271	9917.87
733.612	9998.1
733.953	9984.09
734.294	9964.65
734.635	9940.7
734.976	9949.29
735.317	9891.21
735.658	9844.66
735.999	9886.46
736.339	9875.62
736.68	9875.39
737.021	9894.82
737.361	9847.59
737.702	9920.81
738.042	9844.88
738.383	9934.37
738.723	9912.68
739.063	9842.62
739.404	9971.43
739.744	9944.54
740.084	9922.39
740.424	9954.26
740.764	9946.35
741.104	10041.26
741.444	9945.44
741.784	9897.99
742.124	9956.52
742.464	10012.11
742.804	10065.22
743.143	10050.75
743.483	10149.96
743.823	10050.3
744.162	10060.92
744.502	10137.53
744.841	10081.26
745.181	10211.2
745.52	10226.12
745.86	10265.21
746.199	10224.99
746.538	10252.1
746.877	10384.08
747.216	10382.5
747.556	10410.52
747.895	10500.68
748.234	10511.53
748.573	10483.96
748.911	10554.24
749.25	10657.06
749.589	10728.25
749.928	10832.2
750.267	10871.75
750.605	10907.68
750.944	10916.04
751.283	10914.23
751.621	11049.14
751.96	11150.38
752.298	11160.33
752.636	11335.69
752.975	11409.14
753.313	11542.46
753.651	11582.46
753.989	11545.85
754.327	11749.01
754.666	11804.83
755.004	11983.81
755.342	12120.98
755.679	12228.32
756.017	12316.91
756.355	12475.55
756.693	12621.76
