Data from hue_50_FLMS001491_30.txt Node
Date: Mon Feb 06 15:09:50 GMT 2017
User: dcchb
Spectrometer: FLMS00149
Trigger mode: 0
Integration Time (sec): 2.000000E-2
Scans to average: 10
Electric dark correction enabled: true
Nonlinearity correction enabled: false
Boxcar width: 0
XAxis mode: Wavelengths
Number of Pixels in Spectrum: 2048
>>>>>Begin Spectral Data<<<<<
341.393	-10.38
341.776	-10.38
342.16	-10.38
342.543	-59.87
342.927	-72.75
343.31	-66.42
343.693	-49.48
344.077	-59.65
344.46	-61.23
344.843	-60.32
345.226	-17.39
345.61	-46.99
345.993	-32.98
346.376	-10.16
346.759	-1.79
347.142	21.03
347.525	37.75
347.908	75.94
348.291	67.13
348.674	107.36
349.057	97.19
349.44	114.59
349.823	129.73
350.206	168.82
350.588	176.05
350.971	193.68
351.354	234.36
351.737	226.9
352.119	238.65
352.502	250.85
352.884	277.75
353.267	269.39
353.65	289.95
354.032	303.06
354.414	326.11
354.797	304.64
355.179	304.64
355.562	331.98
355.944	332.66
356.326	340.8
356.709	329.95
357.091	334.92
357.473	341.7
357.855	326.79
358.238	329.27
358.62	325.2
359.002	352.1
359.384	347.35
359.766	334.47
360.148	339.67
360.53	322.04
360.912	339.21
361.294	327.92
361.676	349.84
362.057	331.08
362.439	335.82
362.821	348.71
363.203	329.72
363.584	346.9
363.966	310.97
364.348	310.06
364.729	307.35
365.111	324.3
365.493	320.46
365.874	325.88
366.256	324.98
366.637	333.79
367.019	306.67
367.4	327.69
367.781	325.43
368.163	311.64
368.544	320.68
368.925	302.38
369.306	324.3
369.688	320.01
370.069	305.32
370.45	310.06
370.831	326.11
371.212	297.18
371.593	320.01
371.974	287.24
372.355	313.45
372.736	323.85
373.117	317.52
373.498	302.61
373.879	298.31
374.26	306.9
374.641	323.4
375.021	334.69
375.402	322.49
375.783	310.97
376.163	317.97
376.544	319.1
376.925	305.77
377.305	317.29
377.686	321.36
378.066	321.14
378.447	309.84
378.827	311.64
379.208	331.53
379.588	319.1
379.968	327.69
380.349	333.56
380.729	328.59
381.109	341.02
381.489	343.06
381.87	311.42
382.25	348.25
382.63	324.75
383.01	329.5
383.39	345.54
383.77	346.9
384.15	342.38
384.53	356.16
384.91	336.05
385.29	328.37
385.67	350.06
386.049	375.15
386.429	349.84
386.809	357.29
387.189	370.4
387.568	343.51
387.948	332.89
388.328	321.59
388.707	351.42
389.087	351.19
389.466	340.12
389.846	341.7
390.225	365.65
390.605	352.1
390.984	346.9
391.363	340.34
391.743	344.86
392.122	375.6
392.501	379.44
392.881	377.63
393.26	370.17
393.639	358.87
394.018	371.3
394.397	355.94
394.776	374.02
395.155	382.38
395.534	345.54
395.913	363.39
396.292	375.6
396.671	377.41
397.05	391.64
397.429	368.59
397.808	372.89
398.186	357.74
398.565	360.23
398.944	349.16
399.323	378.99
399.701	391.42
400.08	386.9
400.458	390.74
400.837	411.08
401.215	366.78
401.594	396.39
401.972	395.71
402.351	374.24
402.729	394.35
403.107	389.83
403.486	382.15
403.864	393.22
404.242	394.81
404.62	390.06
404.999	394.35
405.377	385.31
405.755	410.62
406.133	408.14
406.511	403.17
406.889	411.08
407.267	406.11
407.645	423.05
408.023	417.63
408.401	404.3
408.779	428.48
409.156	409.72
409.534	421.02
409.912	415.14
410.29	447.46
410.667	435.48
411.045	418.76
411.422	432.55
411.8	445.43
412.178	450.4
412.555	427.57
412.933	445.43
413.31	451.75
413.687	457.86
414.065	457.63
414.442	441.81
414.819	464.41
415.197	453.79
415.574	462.6
415.951	465.09
416.328	461.7
416.705	493.11
417.082	465.54
417.46	474.8
417.837	482.26
418.214	481.13
418.591	457.18
418.967	487.23
419.344	490.85
419.721	475.48
420.098	494.46
420.475	504.41
420.852	475.03
421.228	494.92
421.605	480
421.982	516.16
422.358	492.66
422.735	516.61
423.111	507.8
423.488	529.94
423.864	520.68
424.241	518.64
424.617	513.67
424.994	521.81
425.37	531.53
425.746	525.65
426.123	551.41
426.499	539.89
426.875	540.11
427.251	535.14
427.627	538.53
428.003	535.37
428.379	570.39
428.756	560
429.132	557.74
429.507	564.52
429.883	552.32
430.259	579.89
430.635	589.38
431.011	579.43
431.387	595.93
431.763	595.48
432.138	581.24
432.514	601.13
432.89	608.36
433.265	603.61
433.641	609.94
434.016	617.63
434.392	613.11
434.767	654.69
435.143	608.81
435.518	614.69
435.894	631.41
436.269	649.71
436.644	649.94
437.02	654.69
437.395	646.55
437.77	665.76
438.145	671.18
438.52	684.29
438.895	664.86
439.271	681.13
439.646	675.93
440.021	698.98
440.395	687
440.77	690.84
441.145	696.27
441.52	706.21
441.895	700.33
442.27	717.51
442.645	699.66
443.019	740.33
443.394	722.48
443.769	744.63
444.143	744.63
444.518	711.63
444.892	739.43
445.267	730.62
445.641	745.76
446.016	727.68
446.39	736.49
446.764	746.44
447.139	762.48
447.513	749.37
447.887	740.11
448.262	774.01
448.636	768.36
449.01	789.15
449.384	776.49
449.758	774.01
450.132	789.6
450.506	794.12
450.88	784.85
451.254	778.07
451.628	795.02
452.002	821.91
452.376	806.55
452.75	855.13
453.123	839.99
453.497	843.83
453.871	848.13
454.244	880.44
454.618	874.57
454.992	870.73
455.365	874.57
455.739	876.15
456.112	898.97
456.486	881.12
456.859	914.79
457.232	930.39
457.606	922.7
457.979	942.14
458.352	948.69
458.725	947.33
459.099	950.95
459.472	987.33
459.845	969.93
460.218	987.56
460.591	1003.38
460.964	1004.73
461.337	1013.32
461.71	1038.86
462.083	1048.35
462.456	1040.66
462.829	1061.68
463.201	1064.39
463.574	1085.64
463.947	1103.94
464.32	1122.47
464.692	1105.75
465.065	1126.09
465.438	1170.83
465.81	1152.07
466.183	1186.2
466.555	1204.73
466.928	1213.32
467.3	1242.69
467.672	1242.24
468.045	1277.72
468.417	1287.66
468.789	1310.49
469.161	1331.5
469.534	1353.2
469.906	1364.72
470.278	1387.77
470.65	1398.62
471.022	1456.47
471.394	1464.16
471.766	1467.32
472.138	1493.99
472.51	1541.89
472.882	1574.44
473.253	1604.49
473.625	1645.62
473.997	1660.31
474.369	1708.44
474.74	1712.96
475.112	1730.36
475.484	1796.13
475.855	1858.95
476.227	1894.43
476.598	1949.12
476.97	1966.97
477.341	2059.62
477.713	2097.59
478.084	2140.07
478.455	2233.4
478.827	2261.42
479.198	2298.26
479.569	2365.15
479.94	2438.37
480.311	2488.54
480.682	2590.68
481.053	2648.98
481.424	2699.38
481.795	2793.39
482.166	2873.16
482.537	2933.72
482.908	3063.44
483.279	3085.13
483.65	3175.98
484.021	3312.47
484.391	3362.19
484.762	3473.6
485.133	3509.98
485.503	3647.6
485.874	3707.26
486.244	3779.35
486.615	3952.23
486.985	4053.01
487.356	4172.11
487.726	4269.51
488.097	4428.15
488.467	4492.1
488.837	4617.29
489.207	4751.53
489.578	4913.11
489.948	4940.22
490.318	5097.28
490.688	5192.42
491.058	5281.01
491.428	5459.31
491.798	5557.83
492.168	5755.79
492.538	5848
492.908	5881.22
493.278	6140.42
493.648	6159.63
494.017	6315.33
494.387	6465.38
494.757	6592.84
495.126	6659.27
495.496	6788.54
495.866	6939.04
496.235	7040.73
496.605	7157.34
496.974	7328.41
497.344	7421.06
497.713	7566.59
498.082	7649.3
498.452	7786.48
498.821	7935.62
499.19	7984.44
499.559	8162.06
499.928	8240.02
500.298	8367.48
500.667	8506.91
501.036	8581.26
501.405	8729.28
501.774	8790.97
502.143	8923.85
502.512	8986.9
502.88	9196.38
503.249	9244.97
503.618	9338.53
503.987	9415.81
504.356	9505.75
504.724	9643.15
505.093	9743.26
505.462	9808.34
505.83	9921.34
506.199	10053.08
506.567	10254.43
506.936	10272.96
507.304	10385.96
507.672	10465.73
508.041	10619.62
508.409	10704.14
508.777	10833.63
509.145	10890.12
509.514	11012.83
509.882	11130.79
510.25	11127.41
510.618	11279.27
510.986	11297.34
511.354	11478.36
511.722	11626.38
512.09	11803.32
512.458	11796.31
512.826	11895.29
513.193	12026.14
513.561	12067.72
513.929	12238.56
514.297	12319.01
514.664	12412.8
515.032	12504.09
515.4	12667.48
515.767	12634.48
516.135	12782.5
516.502	12709.28
516.869	13069.05
517.237	13115.38
517.604	13041.93
517.972	13242.83
518.339	13388.59
518.706	13362.6
519.073	13415.93
519.44	13562.37
519.808	13736.6
520.175	13743.16
520.542	13912.64
520.909	13912.87
521.276	13984.73
521.643	14173.88
522.009	14242.58
522.376	14462.46
522.743	14470.82
523.11	14664.26
523.477	14813.64
523.843	14830.13
524.21	14969.11
524.577	15092.72
524.943	15117.13
525.31	15284.81
525.676	15483
526.043	15551.92
526.409	15657.68
526.776	15760.73
527.142	15906.04
527.508	15930.22
527.874	16045.92
528.241	16163.66
528.607	16149.19
528.973	16314.61
529.339	16328.4
529.705	16592.57
530.071	16703.53
530.437	16754.38
530.803	16803.64
531.169	16984.88
531.535	16969.96
531.901	16977.19
532.267	17107.59
532.632	17281.14
532.998	17349.61
533.364	17418.54
533.73	17456.5
534.095	17531.76
534.461	17609.04
534.826	17701.47
535.192	17804.07
535.557	17920.9
535.923	17932.65
536.288	17966.55
536.653	18176.03
537.019	18184.17
537.384	18181.46
537.749	18319.98
538.114	18421.45
538.479	18465.29
538.845	18541
539.21	18549.36
539.575	18535.57
539.94	18687.88
540.305	18776.7
540.67	18740.99
541.034	18845.17
541.399	19020.08
541.764	19038.16
542.129	19146.18
542.494	19141.43
542.858	19261.88
543.223	19277.93
543.587	19333.74
543.952	19324.48
544.316	19414.42
544.681	19470.91
545.045	19559.5
545.41	19618.71
545.774	19773.28
546.138	19785.26
546.503	19815.09
546.867	19868.87
547.231	20071.8
547.595	20005.59
547.959	20057.34
548.324	20145.47
548.688	20281.29
549.052	20338.46
549.416	20384.79
549.779	20333.72
550.143	20470.89
550.507	20598.12
550.871	20570.77
551.235	20642.41
551.599	20860.26
551.962	20793.82
552.326	20894.38
552.689	21022.06
553.053	20976.64
553.417	21105
553.78	21360.36
554.143	21234.48
554.507	21364.65
554.87	21471.77
555.234	21549.73
555.597	21458.21
555.96	21650.52
556.323	21747.24
556.686	21768.03
557.05	21905.43
557.413	21940
557.776	22045.08
558.139	22198.3
558.502	22226.32
558.865	22208.92
559.228	22438.97
559.59	22554.45
559.953	22562.81
560.316	22830.83
560.679	22791.73
561.041	22836.7
561.404	23024.04
561.767	23164.38
562.129	23031.95
562.492	23288.22
562.854	23303.58
563.217	23312.62
563.579	23456.12
563.941	23581.54
564.304	23743.12
564.666	23886.62
565.028	23888.2
565.39	24010.46
565.753	24089.32
566.115	24196.89
566.477	24254.07
566.839	24175.42
567.201	24391.46
567.563	24472.59
567.925	24712.13
568.287	24748.74
568.648	24667.39
569.01	24832.81
569.372	25001.62
569.734	24908.51
570.095	25085.91
570.457	25294.04
570.819	25429.85
571.18	25355.28
571.542	25556.18
571.903	25709.62
572.265	25683.63
572.626	25818.32
572.987	25822.84
573.349	25946.22
573.71	26044.3
574.071	26245.2
574.432	26229.38
574.794	26479.09
575.155	26489.49
575.516	26348.47
575.877	26579.88
576.238	26645.87
576.599	26808.35
576.96	26858.52
577.32	26818.97
577.681	26941
578.042	27116.14
578.403	27230.03
578.763	27168.34
579.124	27340.76
579.485	27445.62
579.845	27496.69
580.206	27562.45
580.566	27689.68
580.927	27765.84
581.287	27884.93
581.648	28005.15
582.008	28160.4
582.368	28096.22
582.728	28277.24
583.089	28327.63
583.449	28371.92
583.809	28439.94
584.169	28574.63
584.529	28634.06
584.889	28964.9
585.249	28904.56
585.609	28934.17
585.969	29190.21
586.329	29109.98
586.688	29351.11
587.048	29399.02
587.408	29411.67
587.768	29529.41
588.127	29561.5
588.487	29658.9
588.846	29872.9
589.206	29840.81
589.565	29845.11
589.925	30201.25
590.284	30107.02
590.643	30304.3
591.003	30446.67
591.362	30528.02
591.721	30660.45
592.08	30751.52
592.44	30808.7
592.799	30963.04
593.158	30956.04
593.517	31076.71
593.876	31199.87
594.235	31207.56
594.593	31247.33
594.952	31516.02
595.311	31462.46
595.67	31673.53
596.029	31894.99
596.387	31923.24
596.746	32092.28
597.104	31945.39
597.463	32168.66
597.822	32268.77
598.18	32207.08
598.538	32298.83
598.897	32514.41
599.255	32324.36
599.613	32895.87
599.972	32730.68
600.33	32778.81
600.688	32789.89
601.046	33038.02
601.404	33075.3
601.762	33224
602.12	33341.74
602.478	33286.6
602.836	33545.57
603.194	33370.44
603.552	33632.12
603.91	33557.78
604.268	33549.64
604.625	33604.78
604.983	33807.26
605.341	33705.34
605.698	33862.85
606.056	34074.15
606.413	34084.09
606.771	34072.56
607.128	34235.27
607.485	34157.31
607.843	34275.95
608.2	34566.56
608.557	34571.99
608.914	34530.18
609.272	34630.06
609.629	34928.14
609.986	34990.73
610.343	34907.8
610.7	35252.19
611.057	35097.62
611.414	35089.04
611.771	35257.39
612.127	35428.46
612.484	35414.9
612.841	35541.23
613.198	35525.63
613.554	35501.91
613.911	35834.33
614.267	35653.77
614.624	35777.6
614.98	35935.11
615.337	36005.4
615.693	35883.36
616.05	35953.87
616.406	36223.92
616.762	36133.53
617.118	36121.78
617.475	36236.35
617.831	36379.17
618.187	36270.92
618.543	36550.92
618.899	36644.7
619.255	36668.43
619.611	36601.31
619.967	36757.92
620.323	36861.42
620.678	36803.57
621.034	36741.19
621.39	36760.86
621.746	36894.19
622.101	37290.11
622.457	36996.56
622.812	37037.68
623.168	37140.73
623.523	37146.16
623.879	37249.88
624.234	37134.63
624.589	37285.14
624.945	37316.32
625.3	37405.36
625.655	37458.69
626.01	37360.84
626.365	37473.83
626.72	37426.15
627.075	37448.75
627.43	37399.03
627.785	37324.46
628.14	37378.01
628.495	37472.25
628.85	37382.53
629.205	37267.96
629.559	37512.47
629.914	37513.83
630.269	37423.44
630.623	37389.09
630.978	37399.48
631.332	37435.41
631.687	37608.29
632.041	37344.34
632.396	37470.44
632.75	37197.23
633.104	37433.61
633.459	37348.18
633.813	37170.79
634.167	37310.9
634.521	37309.77
634.875	37318.58
635.229	37262.99
635.583	37208.53
635.937	37115.65
636.291	37048.53
636.645	37175.76
636.999	37080.85
637.352	37193.16
637.706	36965.14
638.06	37166.49
638.413	37011.47
638.767	36954.07
639.121	37045.59
639.474	36886.73
639.828	36864.13
640.181	36910.91
640.534	36888.31
640.888	36828.2
641.241	36680.41
641.594	36788.88
641.947	36853.51
642.301	36786.39
642.654	36809.89
643.007	36743.45
643.36	36717.24
643.713	36782.32
644.066	36761.31
644.419	36665.04
644.771	36328.1
645.124	35944.83
645.477	36061.89
645.83	35856.92
646.182	35599.08
646.535	35569.93
646.888	35606.08
647.24	35310.72
647.593	35681.34
647.945	35609.47
648.298	35498.97
648.65	35346.2
649.002	35264.17
649.355	35409.7
649.707	35284.06
650.059	35550.49
650.411	35899.41
650.763	35859.18
651.115	36271.15
651.467	36068.22
651.819	36194.99
652.171	36049.46
652.523	35934.89
652.875	36122.23
653.227	35931.05
653.578	36118.61
653.93	36091.72
654.282	35854.66
654.633	35729.7
654.985	35855.79
655.337	35864.16
655.688	35786.42
656.039	36092.85
656.391	35711.39
656.742	35753.65
657.094	35708.68
657.445	35872.29
657.796	35762.46
658.147	35693.31
658.498	35659.42
658.849	35710.94
659.2	35648.57
659.551	35680.43
659.902	35883.14
660.253	35616.7
660.604	35701.67
660.955	35642.01
661.306	35688.34
661.656	35647.66
662.007	35717.04
662.358	35486.76
662.708	35603.15
663.059	35610.83
663.409	35509.36
663.76	35635.01
664.11	35689.02
664.461	35562.24
664.811	35643.82
665.161	35596.82
665.511	35539.64
665.862	35571.51
666.212	35688.12
666.562	35615.8
666.912	35590.49
667.262	35484.96
667.612	35551.17
667.962	35578.51
668.312	35469.36
668.662	35668.45
669.011	35554.56
669.361	35532.87
669.711	35491.51
670.06	35480.66
670.41	35373.32
670.76	35351.85
671.109	35443.15
671.459	35344.85
671.808	35302.59
672.157	35496.48
672.507	35259.88
672.856	35351.85
673.205	35290.84
673.554	35416.03
673.904	35285.41
674.253	35521.57
674.602	35293.55
674.951	34844.52
675.3	34680.23
675.649	35221.01
675.998	35170.84
676.346	35235.47
676.695	35267.79
677.044	34995.48
677.393	35025.76
677.741	35197.05
678.09	35049.49
678.438	34986.66
678.787	34949.15
679.135	35115.47
679.484	34802.26
679.832	34863.28
680.181	34640.91
680.529	34802.71
680.877	34684.75
681.225	34768.59
681.573	34746.22
681.922	34694.47
682.27	34602.95
682.618	34486.11
682.966	34468.94
683.314	34473.46
683.661	34370.64
684.009	34341.48
684.357	34163.41
684.705	34155.5
685.053	34160.47
685.4	34032.34
685.748	34013.36
686.095	33913.92
686.443	33998.89
686.79	33873.02
687.138	33986.92
687.485	33852.68
687.832	33816.98
688.18	33748.28
688.527	33626.25
688.874	33576.31
689.221	33509.19
689.568	33515.74
689.915	33381.51
690.262	33489.08
690.609	33330.66
690.956	33145.13
691.303	32991.92
691.65	33002.54
691.997	33054.96
692.344	32675.31
692.69	32733.84
693.037	32901.75
693.383	32551.25
693.73	32588.31
694.077	32488.2
694.423	32420.18
694.769	32415.66
695.116	32308.54
695.462	32252.73
695.808	32175.89
696.155	32232.39
696.501	32064.03
696.847	31931.38
697.193	31654.1
697.539	31831.49
697.885	31688.9
698.231	31462.46
698.577	31457.72
698.923	31546.76
699.269	31284.16
699.614	31112.64
699.96	31050.72
700.306	31185.41
700.651	30962.82
700.997	30927.34
701.342	30843.95
701.688	30797.85
702.033	30587.68
702.379	30597.63
702.724	30654.8
703.069	30584.75
703.415	30338.88
703.76	30394.02
704.105	30318.09
704.45	30121.71
704.795	30051.43
705.14	30115.15
705.485	30044.2
705.83	29775.5
706.175	29941.37
706.52	29719.23
706.865	29719.68
707.209	29629.29
707.554	29562.85
707.899	29527.15
708.243	29505.45
708.588	29441.05
708.932	29204.9
709.277	29213.71
709.621	29303.42
709.966	29019.82
710.31	29048.52
710.654	28873.61
710.998	28982.53
711.342	28873.83
711.687	28786.6
712.031	28675.64
712.375	28578.25
712.719	28635.65
713.063	28583.9
713.407	28783.21
713.75	28558.59
714.094	28531.24
714.438	28311.36
714.782	28469.1
715.125	28211.7
715.469	28275.88
715.812	28287.63
716.156	28018.49
716.499	28126.28
716.843	28103.46
717.186	27859.39
717.53	28100.74
717.873	28030.24
718.216	27964.93
718.559	27738.27
718.902	27562
719.246	27652.85
719.589	27512.51
719.932	27436.13
720.275	27381.44
720.617	27439.74
720.96	27299.41
721.303	27385.28
721.646	27352.74
721.989	27130.6
722.331	27236.81
722.674	27164.5
723.016	27216.25
723.359	27100.54
723.701	27235.23
724.044	26996.37
724.386	26788.69
724.729	26937.16
725.071	26872.3
725.413	26766.32
725.755	26798.18
726.097	26702.59
726.439	26538.98
726.782	26588.92
727.124	26658.52
727.465	26450.17
727.807	26466.89
728.149	26457.62
728.491	26361.58
728.833	26414.91
729.175	26363.39
729.516	26284.29
729.858	26278.42
730.199	26310.96
730.541	26135.15
730.882	26201.13
731.224	26160
731.565	26023.51
731.906	26027.35
732.248	25972.89
732.589	25885.66
732.93	25921.82
733.271	25841.37
733.612	25821.48
733.953	25900.8
734.294	25750.3
734.635	25636.63
734.976	25759.11
735.317	25531.55
735.658	25597.76
735.999	25600.7
736.339	25472.34
736.68	25513.69
737.021	25490.87
737.361	25399.12
737.702	25427.14
738.042	25322.29
738.383	25376.97
738.723	25324.09
739.063	25325
739.404	25240.71
739.744	25284.32
740.084	25113.03
740.424	25096.08
740.764	25069.64
741.104	25154.15
741.444	24955.97
741.784	24978.11
742.124	25040.71
742.464	24934.73
742.804	24805.69
743.143	24860.38
743.483	24858.34
743.823	24736.09
744.162	24672.81
744.502	24689.99
744.841	24633.49
745.181	24610.21
745.52	24521.86
745.86	24612.7
746.199	24534.51
746.538	24539.48
746.877	24593.04
747.216	24580.16
747.556	24422.87
747.895	24497.9
748.234	24250.22
748.573	24317.11
748.911	24274.18
749.25	24186.72
749.589	24164.8
749.928	24160.28
750.267	24123
750.605	23999.84
750.944	23963.23
751.283	23998.03
751.621	23900.85
751.96	23787.64
752.298	23761.2
752.636	23826.96
752.975	23654.99
753.313	23661.31
753.651	23714.87
753.989	23542.45
754.327	23506.06
754.666	23480.53
755.004	23407.76
755.342	23491.15
755.679	23444.82
756.017	23290.25
756.355	23405.95
756.693	23278.72
757.031	23239.63
