Data from hue_38_FLMS001491_00022.txt Node
Date: Tue Feb 07 17:31:16 GMT 2017
User: dcchb
Spectrometer: FLMS00149
Trigger mode: 0
Integration Time (sec): 2.000000E-2
Scans to average: 10
Electric dark correction enabled: true
Nonlinearity correction enabled: false
Boxcar width: 0
XAxis mode: Wavelengths
Number of Pixels in Spectrum: 2048
>>>>>Begin Spectral Data<<<<<
341.393	-6.84
341.776	-6.84
342.16	-6.84
342.543	-63.33
342.927	-75.08
343.31	-54.97
343.693	-74.4
344.077	-52.94
344.46	-67.85
344.843	-45.71
345.226	-50.22
345.61	-43.9
345.993	-17.91
346.376	3.56
346.759	16.67
347.142	38.13
347.525	41.3
347.908	39.94
348.291	73.84
348.674	98.47
349.057	95.99
349.44	131.47
349.823	144.12
350.206	165.14
350.588	213.95
350.971	221.41
351.354	225.7
351.737	252.82
352.119	244.68
352.502	258.47
352.884	271.8
353.267	293.04
353.65	304.57
354.032	307.28
354.414	305.7
354.797	318.58
355.179	338.47
355.562	340.73
355.944	344.57
356.326	333.72
356.709	363.78
357.091	329.65
357.473	354.28
357.855	350.89
358.238	339.82
358.62	354.74
359.002	356.32
359.384	334.4
359.766	343.44
360.148	337.56
360.53	346.38
360.912	353.15
361.294	361.52
361.676	311.8
362.057	343.44
362.439	328.3
362.821	333.49
363.203	330.33
363.584	307.28
363.966	352.25
364.348	338.69
364.729	311.57
365.111	346.15
365.493	323.1
365.874	306.15
366.256	293.5
366.637	321.07
367.019	341.63
367.4	326.26
367.781	324
368.163	328.97
368.544	321.52
368.925	320.16
369.306	327.39
369.688	325.36
370.069	324.23
370.45	306.15
370.831	322.42
371.212	325.81
371.593	293.72
371.974	325.58
372.355	319.26
372.736	314.29
373.117	318.35
373.498	317
373.879	324.68
374.26	320.84
374.641	326.49
375.021	335.08
375.402	340.05
375.783	326.94
376.163	335.08
376.544	338.01
376.925	340.95
377.305	335.53
377.686	342.31
378.066	336.43
378.447	342.08
378.827	325.81
379.208	344.57
379.588	349.54
379.968	330.56
380.349	361.06
380.729	344.57
381.109	334.17
381.489	340.73
381.87	342.99
382.25	337.11
382.63	348.63
383.01	345.25
383.39	357
383.77	343.66
384.15	351.12
384.53	372.36
384.91	359.48
385.29	371.46
385.67	380.05
386.049	343.21
386.429	347.5
386.809	353.15
387.189	355.87
387.568	352.48
387.948	361.74
388.328	365.81
388.707	371.69
389.087	377.33
389.466	373.72
389.846	377.33
390.225	374.85
390.605	359.93
390.984	354.51
391.363	356.09
391.743	365.58
392.122	380.5
392.501	385.92
392.881	391.35
393.26	399.48
393.639	378.24
394.018	381.85
394.397	389.09
394.776	394.51
395.155	397
395.534	405.81
395.913	414.4
396.292	383.66
396.671	396.32
397.05	394.28
397.429	404.23
397.808	397
398.186	404.68
398.565	399.26
398.944	411.46
399.323	393.83
399.701	419.59
400.08	395.64
400.458	403.77
400.837	401.29
401.215	409.88
401.594	408.07
401.972	415.3
402.351	407.16
402.729	406.71
403.107	413.04
403.486	415.53
403.864	410.78
404.242	424.34
404.62	429.99
404.999	448.29
405.377	451.68
405.755	408.75
406.133	448.07
406.511	430.21
406.889	455.07
407.267	452.36
407.645	427.05
408.023	450.1
408.401	456.88
408.779	448.29
409.156	473.83
409.534	453.04
409.912	450.33
410.29	452.36
410.667	477.22
411.045	468.63
411.422	472.25
411.8	453.94
412.178	472.7
412.555	462.3
412.933	509.76
413.31	480.38
413.687	471.12
414.065	491.68
414.442	497.33
414.819	508.63
415.197	526.26
415.574	515.41
415.951	492.59
416.328	487.16
416.705	514.28
417.082	496.65
417.46	502.76
417.837	506.37
418.214	517.22
418.591	543.43
418.967	526.26
419.344	525.35
419.721	539.14
420.098	558.35
420.475	538.69
420.852	538.69
421.228	568.74
421.605	549.08
421.982	563.77
422.358	546.82
422.735	564.22
423.111	582.08
423.488	564.22
423.864	562.19
424.241	584.56
424.617	572.81
424.994	591.79
425.37	571.23
425.746	586.37
426.123	561.06
426.499	589.08
426.875	581.62
427.251	605.58
427.627	598.8
428.003	622.98
428.379	617.33
428.756	606.71
429.132	639.02
429.507	643.09
429.883	630.44
430.259	650.55
430.635	636.08
431.011	656.88
431.387	644.67
431.763	678.12
432.138	654.62
432.514	665.01
432.89	666.59
433.265	697.55
433.641	674.05
434.016	680.15
434.392	703.65
434.767	710.21
435.143	683.09
435.518	720.6
435.894	710.66
436.269	752.24
436.644	744.78
437.02	757.66
437.395	738.23
437.77	755.18
438.145	768.06
438.52	775.74
438.895	780.26
439.271	771.67
439.646	780.04
440.021	793.14
440.395	780.49
440.77	771.9
441.145	781.17
441.52	791.34
441.895	813.48
442.27	804.89
442.645	829.53
443.019	815.74
443.394	824.1
443.769	850.32
444.143	836.98
444.518	859.13
444.892	859.81
445.267	816.65
445.641	844.67
446.016	852.8
446.39	852.35
446.764	859.13
447.139	876.08
447.513	866.81
447.887	852.12
448.262	900.48
448.636	852.12
449.01	899.35
449.384	881.05
449.758	884.89
450.132	909.75
450.506	872.01
450.88	897.77
451.254	919.24
451.628	956.53
452.002	969.86
452.376	932.35
452.75	957.88
453.123	938.68
453.497	975.29
453.871	971.67
454.244	994.95
454.618	1005.11
454.992	1039.46
455.365	1019.8
455.739	1038.11
456.112	1038.33
456.486	1053.48
456.859	1031.1
457.232	1065.45
457.606	1074.72
457.979	1118.78
458.352	1095.96
458.725	1128.95
459.099	1117.88
459.472	1134.38
459.845	1147.48
460.218	1157.65
460.591	1183.19
460.964	1180.03
461.337	1193.13
461.71	1211.66
462.083	1236.3
462.456	1221.83
462.829	1225.67
463.201	1260.93
463.574	1242.85
463.947	1300.25
464.32	1300.02
464.692	1330.76
465.065	1323.07
465.438	1344.54
465.81	1369.4
466.183	1395.61
466.555	1406.23
466.928	1413.69
467.3	1434.03
467.672	1452.11
468.045	1482.39
468.417	1505.89
468.789	1498.21
469.161	1513.58
469.534	1564.42
469.906	1592.22
470.278	1568.49
470.65	1606.91
471.022	1654.59
471.394	1666.57
471.766	1733.01
472.138	1734.59
472.51	1798.99
472.882	1831.99
473.253	1832.89
473.625	1843.28
473.997	1926.9
474.369	1930.51
474.74	1967.58
475.112	2007.12
475.484	2029.27
475.855	2123.05
476.227	2139.55
476.598	2177.97
476.97	2194.69
477.341	2259.32
477.713	2352.65
478.084	2384.51
478.455	2448.92
478.827	2487.56
479.198	2585.19
479.569	2622.7
479.94	2668.8
480.311	2754.22
480.682	2798.51
481.053	2898.4
481.424	2979.53
481.795	3023.14
482.166	3128.45
482.537	3175.45
482.908	3238.73
483.279	3347.43
483.65	3385.84
484.021	3513.07
484.391	3565.05
484.762	3639.17
485.133	3710.35
485.503	3793.29
485.874	3918.71
486.244	3992.61
486.615	4097.24
486.985	4180.85
487.356	4316.67
487.726	4385.59
488.097	4479.37
488.467	4521.41
488.837	4680.05
489.207	4772.7
489.578	4879.59
489.948	4977.89
490.318	5096.31
490.688	5192.35
491.058	5293.82
491.428	5383.98
491.798	5472.57
492.168	5627.37
492.538	5717.08
492.908	5819.68
493.278	5930.86
493.648	6057.19
494.017	6110.74
494.387	6172.66
494.757	6277.52
495.126	6373.11
495.496	6460.34
495.866	6539.43
496.235	6679.77
496.605	6838.63
496.974	6856.03
497.344	6984.62
497.713	7148.46
498.082	7177.16
498.452	7299.64
498.821	7371.5
499.19	7401.33
499.559	7491.95
499.928	7592.51
500.298	7682.45
500.667	7790.93
501.036	7841.09
501.405	7906.4
501.774	7980.07
502.143	8067.53
502.512	8129.9
502.88	8294.19
503.249	8343
503.618	8409.44
503.987	8494.41
504.356	8622.32
504.724	8710.67
505.093	8697.34
505.462	8821.18
505.83	8935.53
506.199	8954.96
506.567	9079.93
506.936	9158.8
507.304	9215.97
507.672	9255.97
508.041	9375.52
508.409	9440.6
508.777	9511.33
509.145	9647.6
509.514	9648.28
509.882	9756.75
510.25	9779.12
510.618	9778.44
510.986	9859.12
511.354	10067.7
511.722	10123.29
512.09	10147.93
512.458	10166.91
512.826	10304.53
513.193	10373.91
513.561	10433.12
513.929	10507.46
514.297	10584.52
514.664	10679.66
515.032	10744.07
515.4	10817.06
515.767	10840.56
516.135	10949.03
516.502	10894.12
516.869	11015.7
517.237	11112.87
517.604	11101.8
517.972	11258.86
518.339	11297.73
518.706	11348.35
519.073	11363.49
519.44	11434.9
519.808	11591.05
520.175	11613.2
520.542	11730.93
520.909	11791.27
521.276	11859.07
521.643	11950.82
522.009	12045.73
522.376	12062.45
522.743	12083.02
523.11	12262.9
523.477	12347.42
523.843	12437.58
524.21	12487.98
524.577	12628.09
524.943	12658.37
525.31	12718.93
525.676	12829.21
526.043	12980.39
526.409	12932.94
526.776	13102.65
527.142	13076.44
527.508	13299.71
527.874	13360.95
528.241	13310.55
528.607	13412.47
528.973	13614.05
529.339	13534.05
529.705	13745.8
530.071	13835.06
530.437	13899.69
530.803	13894.95
531.169	14014.26
531.535	14035.96
531.901	14109.18
532.267	14115.73
532.632	14277.99
532.998	14353.24
533.364	14398.66
533.73	14422.16
534.095	14559.79
534.461	14663.29
534.826	14682.04
535.192	14748.26
535.557	14772.21
535.923	14824.64
536.288	14926.1
536.653	14969.72
537.019	14956.84
537.384	14985.99
537.749	15144.63
538.114	15142.6
538.479	15209.04
538.845	15240.22
539.21	15281.12
539.575	15351.63
539.94	15478.86
540.305	15478.18
540.67	15524.73
541.034	15552.08
541.399	15645.63
541.764	15741.9
542.129	15797.04
542.494	15867.32
542.858	15939.41
543.223	15904.16
543.587	16057.37
543.952	16069.35
544.316	16141.67
544.681	16158.61
545.045	16188.67
545.41	16332.85
545.774	16460.53
546.138	16393.18
546.503	16469.34
546.867	16442.22
547.231	16620.3
547.595	16622.56
547.959	16768.32
548.324	16751.59
548.688	16781.88
549.052	16939.16
549.416	16890.12
549.779	16871.14
550.143	17069.33
550.507	17018.93
550.871	17181.86
551.235	17206.72
551.599	17272.03
551.962	17328.08
552.326	17380.96
552.689	17498.24
553.053	17437.68
553.417	17472.93
553.78	17646.94
554.143	17668.86
554.507	17784.33
554.87	17745.24
555.234	17987.04
555.597	17876.54
555.96	17899.81
556.323	17992.46
556.686	17969.87
557.05	18202.85
557.413	18233.36
557.776	18255.51
558.139	18406.69
558.502	18417.09
558.865	18449.4
559.228	18689.62
559.59	18610.53
559.953	18669.96
560.316	18872.44
560.679	18806
561.041	18932.1
561.404	19012.55
561.767	19129.38
562.129	19005.32
562.492	19260
562.854	19276.95
563.217	19282.6
563.579	19324.18
563.941	19408.7
564.304	19488.24
564.666	19731.18
565.028	19647.56
565.39	19761.68
565.753	19936.14
566.115	19936.14
566.477	20049.36
566.839	20078.06
567.201	20131.39
567.563	20201.45
567.925	20388.56
568.287	20283.03
568.648	20447.09
569.01	20583.81
569.372	20491.61
569.734	20664.94
570.095	20661.1
570.457	20961.43
570.819	20935.21
571.18	20955.55
571.542	21146.96
571.903	21082.55
572.265	21236
572.626	21262.44
572.987	21389.44
573.349	21430.34
573.71	21612.26
574.071	21726.15
574.432	21806.15
574.794	21901.29
575.155	21922.98
575.516	21991.91
575.877	22095.63
576.238	22223.77
576.599	22431.67
576.96	22435.51
577.32	22537.88
577.681	22736.97
578.042	22834.15
578.403	22935.61
578.763	23122.95
579.124	23167.92
579.485	23381.25
579.845	23512.55
580.206	23641.13
580.566	23736.49
580.927	23834.8
581.287	24140.78
581.648	24229.36
582.008	24408.34
582.368	24520.65
582.728	24652.63
583.089	24781.44
583.449	24926.29
583.809	25073.63
584.169	25368.09
584.529	25361.54
584.889	25908.87
585.249	25855.53
585.609	25936.66
585.969	26303.43
586.329	26505.01
586.688	26704.33
587.048	26764.21
587.408	27021.15
587.768	27172.56
588.127	27334.82
588.487	27668.82
588.846	27866.33
589.206	27917.63
589.565	28248.01
589.925	28509.48
590.284	28587.44
590.643	28884.83
591.003	29165.05
591.362	29302.9
591.721	29516.68
592.08	29810.69
592.44	29949.44
592.799	30234.18
593.158	30265.14
593.517	30509.2
593.876	30750.77
594.235	30969.07
594.593	31136.98
594.952	31398.67
595.311	31609.96
595.67	31720.69
596.029	32203.62
596.387	32362.93
596.746	32442.93
597.104	32519.99
597.463	32802.92
597.822	33180.09
598.18	33191.84
598.538	33275.45
598.897	33685.61
599.255	33492.4
599.613	34214.64
599.972	34146.16
600.33	34368.98
600.688	34412.82
601.046	34672.7
601.404	34871.57
601.762	34978.91
602.12	35253.93
602.478	35483.76
602.836	35629.06
603.194	35497.77
603.552	35920.13
603.91	35787.93
604.268	36178.88
604.625	36093.01
604.983	36448.7
605.341	36383.39
605.698	36723.05
606.056	36993.55
606.413	36950.61
606.771	37323.03
607.128	37410.03
607.485	37362.12
607.843	37533.87
608.2	37876.69
608.557	38014.09
608.914	37973.18
609.272	38189.67
609.629	38494.98
609.986	38525.03
610.343	38624.24
610.7	38948.3
611.057	38838.02
611.414	38969.09
611.771	39155.3
612.127	39385.12
612.484	39487.04
612.841	39642.29
613.198	39405.24
613.554	39667.15
613.911	40046.12
614.267	39920.7
614.624	40052
614.98	40163.63
615.337	40352.55
615.693	40476.39
616.05	40472.33
616.406	40759.78
616.762	40769.94
617.118	40807.23
617.475	40865.31
617.831	41095.81
618.187	41129.48
618.543	41219.65
618.899	41342.36
619.255	41469.14
619.611	41402.24
619.967	41670.03
620.323	41720.43
620.678	41679.53
621.034	41736.02
621.39	41651.5
621.746	41806.08
622.101	42185.27
622.457	42032.51
622.812	42000.65
623.168	42241.77
623.523	42298.94
623.879	42491.48
624.234	42255.56
624.589	42232.73
624.945	42442.22
625.3	42416.23
625.655	42496.45
626.01	42528.54
626.365	42592.27
626.72	42630.46
627.075	42662.55
627.43	42546.17
627.785	42630.69
628.14	42662.78
628.495	42697.35
628.85	42728.76
629.205	42594.76
629.559	42850.79
629.914	42640.63
630.269	42763.56
630.623	42609.22
630.978	42664.13
631.332	42911.13
631.687	43054.18
632.041	42823
632.396	42890.79
632.75	42749.55
633.104	42921.53
633.459	42746.16
633.813	42760.4
634.167	42871.81
634.521	42781.87
634.875	42863.68
635.229	42816.9
635.583	42678.37
635.937	42728.99
636.291	42657.13
636.645	42869.32
636.999	42664.36
637.352	42700.97
637.706	42551.14
638.06	42578.94
638.413	42632.27
638.767	42628.43
639.121	42672.49
639.474	42551.37
639.828	42433.4
640.181	42462.1
640.534	42526.28
640.888	42370.35
641.241	42270.92
641.594	42373.52
641.947	42584.59
642.301	42321.54
642.654	42556.34
643.007	42459.17
643.36	42349.56
643.713	42397.92
644.066	42370.58
644.419	42121.55
644.771	42012.85
645.124	41552.75
645.477	41567.66
645.83	41381.91
646.182	41319.54
646.535	41126.55
646.888	41196.6
647.24	40986.44
647.593	41127.22
647.945	40995.25
648.298	41027.79
648.65	40783.28
649.002	40935.82
649.355	40948.92
649.707	41043.84
650.059	41120.67
650.411	41374.9
650.763	41652.86
651.115	42011.49
651.467	41856.7
651.819	41846.07
652.171	41759.98
652.523	41736.25
652.875	41683.14
653.227	41562.01
653.578	41772.86
653.93	41698.28
654.282	41487.21
654.633	41292.42
654.985	41483.15
655.337	41439.08
655.688	41599.08
656.039	41782.57
656.391	41362.92
656.742	41358.18
657.094	41451.73
657.445	41687.66
657.796	41429.81
658.147	41464.84
658.498	41429.14
658.849	41546.87
659.2	41488.57
659.551	41389.36
659.902	41638.4
660.253	41300.78
660.604	41425.97
660.955	41255.36
661.306	41325.86
661.656	41263.27
662.007	41368.57
662.358	41299.2
662.708	41321.79
663.059	41286.32
663.409	41141.69
663.76	41478.4
664.11	41470.27
664.461	41354.34
664.811	41423.49
665.161	41331.51
665.511	41195.92
665.862	41331.29
666.212	41498.51
666.562	41323.15
666.912	41332.42
667.262	41177.17
667.612	41177.84
667.962	41345.52
668.312	41257.62
668.662	41427.78
669.011	41428.68
669.361	41109.37
669.711	41231.63
670.06	41007.68
670.41	40979.43
670.76	40938.98
671.109	41149.82
671.459	41040.9
671.808	41095.81
672.157	41059.43
672.507	40886.78
672.856	40963.39
673.205	40989.83
673.554	40985.98
673.904	40971.75
674.253	41155.7
674.602	40994.35
674.951	40366.79
675.3	40263.07
675.649	40820.57
675.998	40827.8
676.346	40877.96
676.695	41094.91
677.044	40619.89
677.393	40969.71
677.741	40869.6
678.09	40658.99
678.438	40550.52
678.787	40582.61
679.135	40627.12
679.484	40391.2
679.832	40607.24
680.181	40294.03
680.529	40523.17
680.877	40404.3
681.225	40226.91
681.573	40583.06
681.922	40300.35
682.27	40148.27
682.618	40096.74
682.966	40140.81
683.314	40046.57
683.661	39964.09
684.009	39689.97
684.357	39814.49
684.705	39696.53
685.053	39734.49
685.4	39650.65
685.748	39452.24
686.095	39522.75
686.443	39442.07
686.79	39353.26
687.138	39450.43
687.485	39563.42
687.832	39218.35
688.18	39258.12
688.527	38973.83
688.874	38965.02
689.221	38983.55
689.568	39012.25
689.915	38848.19
690.262	38788.08
690.609	38766.38
690.956	38715.31
691.303	38709.66
691.65	38354.42
691.997	38278.49
692.344	38287.3
692.69	38289.78
693.037	38127.98
693.383	37889.79
693.73	38048.43
694.077	37718.5
694.423	37726.41
694.769	37686.18
695.116	37553.53
695.462	37569.8
695.808	37496.13
696.155	37539.07
696.501	37233.54
696.847	37253.43
697.193	37079.65
697.539	37043.26
697.885	36816.38
698.231	36745.64
698.577	36739.77
698.923	36730.05
699.269	36485.09
699.614	36288.03
699.96	36395.14
700.306	36342.94
700.651	36117.41
700.997	36054.36
701.342	36015.27
701.688	35933.46
702.033	35935.04
702.379	35888.04
702.724	35553.81
703.069	35677.88
703.415	35386.36
703.76	35450.31
704.105	35509.07
704.45	35496.41
704.795	35305
705.14	35114.95
705.485	35109.53
705.83	34941.4
706.175	35027.05
706.52	34804.45
706.865	34774.4
707.209	34817.79
707.554	34647.17
707.899	34631.12
708.243	34505.93
708.588	34460.51
708.932	34165.37
709.277	34213.28
709.621	34337.57
709.966	33896.68
710.31	34086.28
710.654	33758.15
710.998	33761.32
711.342	33821.43
711.687	33763.35
712.031	33564.48
712.375	33395.45
712.719	33418.27
713.063	33514.09
713.407	33512.51
713.75	33366.98
714.094	33414.66
714.438	33168.56
714.782	33130.37
715.125	33047.21
715.469	33223.48
715.812	32932.86
716.156	32832.98
716.499	32835.01
716.843	32895.12
717.186	32644.51
717.53	32704.85
717.873	32736.71
718.216	32615.13
718.559	32409.26
718.902	32231.41
719.246	32452.65
719.589	32214.46
719.932	32180.11
720.275	32099.21
720.617	32068.48
720.96	32122.94
721.303	32086.11
721.646	32070.51
721.989	31912.78
722.331	31999.33
722.674	31906
723.016	31846.56
723.359	31688.6
723.701	31853.57
724.044	31651.77
724.386	31590.3
724.729	31466.23
725.071	31544.88
725.413	31489.06
725.755	31490.64
726.097	31238.44
726.439	31213.13
726.782	31186.69
727.124	31299.01
727.465	31156.86
727.807	31126.81
728.149	31063.99
728.491	30991.9
728.833	30942.86
729.175	30826.93
729.516	30787.83
729.858	30869.64
730.199	30763.43
730.541	30744.22
730.882	30793.94
731.224	30794.61
731.565	30548.29
731.906	30562.08
732.248	30542.87
732.589	30383.1
732.93	30323.67
733.271	30319.15
733.612	30220.17
733.953	30390.78
734.294	30099.27
734.635	30080.51
734.976	30162.54
735.317	30042.32
735.658	30024.01
735.999	29976.1
736.339	29860.85
736.68	30074.86
737.021	29892.72
737.361	29755.09
737.702	29945.6
738.042	29877.35
738.383	29739.95
738.723	29903.34
739.063	29699.28
739.404	29801.65
739.744	29617.24
740.084	29583.12
740.424	29550.58
740.764	29529.56
741.104	29491.82
741.444	29402.33
741.784	29275.78
742.124	29322.56
742.464	29213.19
742.804	29233.07
743.143	29042.8
743.483	29243.24
743.823	29071.04
744.162	28894.33
744.502	28992.4
744.841	28932.06
745.181	29147.65
745.52	28894.55
745.86	29039.41
746.199	28968
746.538	28749.02
746.877	28840.99
747.216	28852.52
747.556	28715.12
747.895	28720.32
748.234	28569.59
748.573	28504.05
748.911	28548.35
749.25	28377.28
749.589	28311.74
749.928	28351.06
750.267	28372.76
750.605	28297.5
750.944	28258.41
751.283	28144.51
751.621	28174.8
751.96	28095.02
752.298	27941.58
752.636	28005.31
752.975	27779.33
753.313	27772.55
753.651	27896.84
753.989	27646.67
754.327	27772.32
754.666	27527.58
755.004	27611.87
755.342	27636.73
755.679	27590.63
756.017	27296.85
756.355	27463.4
756.693	27346.34
757.031	27338.21
