Data from hue_230_FLMS001491_00005.txt Node
Date: Tue Feb 07 16:36:43 GMT 2017
User: dcchb
Spectrometer: FLMS00149
Trigger mode: 0
Integration Time (sec): 2.000000E-2
Scans to average: 10
Electric dark correction enabled: true
Nonlinearity correction enabled: false
Boxcar width: 0
XAxis mode: Wavelengths
Number of Pixels in Spectrum: 2048
>>>>>Begin Spectral Data<<<<<
341.393	-16.62
341.776	-16.62
342.16	-16.62
342.543	-66.57
342.927	-64.08
343.31	-58.66
343.693	-83.74
344.077	-61.37
344.46	-55.27
344.843	-54.59
345.226	-21.82
345.61	-20.01
345.993	-29.05
346.376	-3.06
346.759	12.75
347.142	34
347.525	38.74
347.908	44.62
348.291	71.28
348.674	92.07
349.057	94.11
349.44	112.64
349.823	139.76
350.206	170.72
350.588	199.19
350.971	209.13
351.354	215.01
351.737	226.99
352.119	236.93
352.502	260.88
352.884	250.26
353.267	293.65
353.65	291.39
354.032	298.85
354.414	274.22
354.797	302.24
355.179	309.92
355.562	323.03
355.944	325.29
356.326	338.4
356.709	328.9
357.091	339.52
357.473	348.34
357.855	362.35
358.238	318.96
358.62	314.44
359.002	344.72
359.384	337.49
359.766	326.42
360.148	327.55
360.53	348.79
360.912	330.26
361.294	334.78
361.676	315.34
362.057	337.94
362.439	325.29
362.821	342.69
363.203	317.38
363.584	308.57
363.966	333.65
364.348	315.57
364.729	325.06
365.111	323.71
365.493	308.11
365.874	297.94
366.256	299.75
366.637	323.93
367.019	295.23
367.4	308.79
367.781	307.89
368.163	316.7
368.544	301.56
368.925	300.2
369.306	322.58
369.688	306.53
370.069	275.35
370.45	313.76
370.831	311.05
371.212	304.05
371.593	292.75
371.974	314.67
372.355	338.17
372.736	318.28
373.117	286.42
373.498	311.5
373.879	317.6
374.26	315.57
374.641	334.1
375.021	317.83
375.402	318.28
375.783	324.61
376.163	313.54
376.544	336.59
376.925	335.01
377.305	313.76
377.686	312.86
378.066	336.36
378.447	326.42
378.827	320.32
379.208	324.61
379.588	334.78
379.968	328.45
380.349	340.43
380.729	322.58
381.109	351.95
381.489	331.16
381.87	319.64
382.25	340.65
382.63	337.49
383.01	355.34
383.39	342.91
383.77	353.99
384.15	359.41
384.53	337.49
384.91	350.6
385.29	363.48
385.67	345.63
386.049	368.68
386.429	341.78
386.809	347.66
387.189	363.25
387.568	355.34
387.948	344.27
388.328	352.18
388.707	363.48
389.087	368.9
389.466	370.26
389.846	346.53
390.225	367.77
390.605	370.26
390.984	378.85
391.363	372.07
391.743	375.23
392.122	368.22
392.501	384.27
392.881	396.47
393.26	387.66
393.639	379.75
394.018	390.15
394.397	389.69
394.776	400.54
395.155	393.99
395.534	386.53
395.913	367.09
396.292	378.17
396.671	393.08
397.05	408.68
397.429	411.61
397.808	385.17
398.186	385.85
398.565	385.85
398.944	407.77
399.323	403.03
399.701	394.89
400.08	403.25
400.458	421.56
400.837	414.55
401.215	427.21
401.594	419.52
401.972	427.66
402.351	415.91
402.729	444.61
403.107	434.44
403.486	426.98
403.864	449.35
404.242	441.67
404.62	435.79
404.999	438.73
405.377	441.22
405.755	466.53
406.133	476.24
406.511	478.05
406.889	465.17
407.267	456.13
407.645	449.8
408.023	484.15
408.401	484.61
408.779	474.66
409.156	512.85
409.534	513.08
409.912	483.02
410.29	511.72
410.667	514.89
411.045	521.44
411.422	534.77
411.8	514.66
412.178	553.98
412.555	554.21
412.933	563.47
413.31	570.25
413.687	589.01
414.065	582.68
414.442	599.41
414.819	600.99
415.197	616.58
415.574	593.76
415.951	612.29
416.328	614.77
416.705	621.1
417.082	640.99
417.46	637.14
417.837	643.25
418.214	640.76
418.591	674.21
418.967	650.48
419.344	687.09
419.721	646.86
420.098	686.86
420.475	702.45
420.852	706.07
421.228	704.71
421.605	718.27
421.982	746.75
422.358	729.35
422.735	755.56
423.111	771.38
423.488	796.91
423.864	793.52
424.241	799.63
424.617	826.29
424.994	797.59
425.37	824.26
425.746	824.26
426.123	839.85
426.499	858.16
426.875	847.08
427.251	886.86
427.627	875.33
428.003	880.3
428.379	903.8
428.756	938.38
429.132	950.58
429.507	951.26
429.883	951.94
430.259	956.91
430.635	959.4
431.011	963.01
431.387	998.72
431.763	1004.14
432.138	1010.69
432.514	1009.56
432.89	1049.56
433.265	1041.88
433.641	1095.44
434.016	1093.18
434.392	1126.17
434.767	1163.01
435.143	1148.32
435.518	1158.94
435.894	1174.76
436.269	1207.07
436.644	1226.51
437.02	1250.46
437.395	1250.46
437.77	1282.78
438.145	1284.58
438.52	1335.21
438.895	1345.6
439.271	1355.32
439.646	1386.96
440.021	1373.62
440.395	1400.97
440.77	1407.52
441.145	1403.68
441.52	1445.94
441.895	1440.51
442.27	1483.22
442.645	1487.74
443.019	1489.1
443.394	1498.82
443.769	1518.93
444.143	1484.35
444.518	1563.9
444.892	1521.64
445.267	1539.72
445.641	1569.32
446.016	1558.7
446.39	1601.19
446.764	1593.96
447.139	1590.57
447.513	1631.47
447.887	1652.26
448.262	1644.8
448.636	1652.48
449.01	1666.27
449.384	1670.79
449.758	1697.46
450.132	1721.18
450.506	1711.24
450.88	1735.87
451.254	1755.76
451.628	1781.97
452.002	1771.35
452.376	1757.11
452.75	1800.73
453.123	1843.67
453.497	1829.43
453.871	1861.74
454.244	1879.37
454.618	1879.82
454.992	1922.08
455.365	1904.91
455.739	1951.23
456.112	1989.2
456.486	1990.1
456.859	2037.33
457.232	2044.79
457.606	2067.16
457.979	2096.99
458.352	2109.65
458.725	2120.5
459.099	2151.91
459.472	2183.32
459.845	2179.25
460.218	2233.03
460.591	2240.94
460.964	2272.81
461.337	2316.87
461.71	2324.56
462.083	2372.01
462.456	2368.85
462.829	2387.61
463.201	2437.32
463.574	2416.53
463.947	2455.63
464.32	2451.33
464.692	2508.28
465.065	2508.28
465.438	2545.12
465.81	2595.51
466.183	2637.32
466.555	2685.45
466.928	2708.73
467.3	2677.77
467.672	2714.15
468.045	2764.77
468.417	2815.62
468.789	2833.24
469.161	2823.98
469.534	2870.31
469.906	2957.76
470.278	2970.19
470.65	3004.77
471.022	3057.87
471.394	3095.38
471.766	3109.85
472.138	3136.51
472.51	3198.66
472.882	3215.83
473.253	3245.44
473.625	3325.89
473.997	3331.54
474.369	3367.47
474.74	3410.86
475.112	3484.53
475.484	3544.64
475.855	3588.48
476.227	3601.36
476.598	3647.46
476.97	3656.27
477.341	3801.58
477.713	3857.62
478.084	3835.7
478.455	3902.6
478.827	3949.6
479.198	4106.43
479.569	4047.9
479.94	4152.98
480.311	4183.49
480.682	4244.28
481.053	4344.62
481.424	4412.19
481.795	4422.81
482.166	4490.83
482.537	4581.67
482.908	4615.57
483.279	4672.74
483.65	4723.59
484.021	4827.99
484.391	4870.71
484.762	4894.66
485.133	4925.17
485.503	5013.75
485.874	5074.32
486.244	5124.94
486.615	5242.67
486.985	5257.14
487.356	5342.33
487.726	5415.32
488.097	5426.4
488.467	5484.47
488.837	5583.91
489.207	5619.84
489.578	5712.04
489.948	5729.67
490.318	5770.12
490.688	5798.82
491.058	5902.99
491.428	5929.21
491.798	5993.16
492.168	6092.59
492.538	6103.44
492.908	6165.59
493.278	6212.82
493.648	6232.93
494.017	6308.86
494.387	6341.63
494.757	6357.67
495.126	6433.6
495.496	6457.33
495.866	6518.8
496.235	6590.43
496.605	6621.17
496.974	6615.52
497.344	6694.61
497.713	6712.46
498.082	6790.2
498.452	6801.05
498.821	6777.77
499.19	6878.79
499.559	6952.68
499.928	6948.62
500.298	6941.61
500.667	6987.71
501.036	6987.26
501.405	7051.66
501.774	7057.31
502.143	7170.08
502.512	7095.96
502.88	7140.25
503.249	7147.48
503.618	7159.23
503.987	7182.96
504.356	7257.76
504.724	7255.28
505.093	7278.55
505.462	7330.75
505.83	7301.6
506.199	7373.24
506.567	7429.28
506.936	7422.95
507.304	7485.55
507.672	7493.46
508.041	7552.89
508.409	7571.88
508.777	7629.95
509.145	7669.73
509.514	7594.7
509.882	7636.96
510.25	7718.09
510.618	7703.4
510.986	7729.39
511.354	7762.15
511.722	7786.11
512.09	7848.25
512.458	7774.36
512.826	7902.04
513.193	7859.55
513.561	7898.87
513.929	7910.17
514.297	7980.23
514.664	7957.86
515.032	7974.35
515.4	8024.52
515.767	8004.41
516.135	8116.27
516.502	8029.72
516.869	8113.78
517.237	8081.92
517.604	8020
517.972	8151.97
518.339	8121.47
518.706	8123.5
519.073	8184.52
519.44	8196.72
519.808	8236.72
520.175	8164.86
520.542	8257.96
520.909	8259.99
521.276	8252.09
521.643	8277.62
522.009	8277.4
522.376	8340.67
522.743	8290.73
523.11	8407.56
523.477	8384.96
523.843	8474.9
524.21	8511.51
524.577	8461.57
524.943	8507.9
525.31	8492.98
525.676	8620.21
526.043	8597.16
526.409	8604.84
526.776	8698.18
527.142	8628.12
527.508	8662.7
527.874	8704.73
528.241	8736.37
528.607	8688.01
528.973	8749.93
529.339	8692.3
529.705	8762.58
530.071	8786.08
530.437	8797.16
530.803	8817.04
531.169	8790.38
531.535	8833.76
531.901	8749.47
532.267	8783.6
532.632	8888.23
532.998	8754.22
533.364	8802.13
533.73	8799.87
534.095	8852.97
534.461	8877.38
534.826	8794.67
535.192	8836.25
535.557	8909.24
535.923	8854.33
536.288	8810.49
536.653	8813.43
537.019	8836.48
537.384	8824.95
537.749	8899.75
538.114	8792.18
538.479	8775.01
538.845	8826.31
539.21	8783.37
539.575	8806.65
539.94	8782.47
540.305	8773.65
540.67	8767.1
541.034	8761.68
541.399	8761.45
541.764	8735.91
542.129	8770.72
542.494	8800.09
542.858	8756.25
543.223	8735.69
543.587	8705.18
543.952	8731.62
544.316	8733.43
544.681	8732.98
545.045	8701.56
545.41	8748.8
545.774	8657.05
546.138	8720.32
546.503	8692.53
546.867	8678.06
547.231	8697.05
547.595	8677.84
547.959	8735.69
548.324	8636.48
548.688	8642.81
549.052	8668.35
549.416	8590.16
549.779	8598.29
550.143	8595.13
550.507	8660.89
550.871	8669.7
551.235	8575.47
551.599	8655.24
551.962	8608.01
552.326	8653.88
552.689	8572.3
553.053	8552.42
553.417	8613.66
553.78	8619.99
554.143	8579.99
554.507	8546.54
554.87	8602.58
555.234	8666.31
555.597	8578.63
555.96	8566.88
556.323	8642.58
556.686	8619.31
557.05	8660.21
557.413	8616.6
557.776	8530.72
558.139	8619.08
558.502	8573.66
558.865	8583.83
559.228	8626.99
559.59	8617.5
559.953	8667.22
560.316	8704.73
560.679	8680.77
561.041	8764.61
561.404	8742.92
561.767	8776.14
562.129	8737.04
562.492	8791.05
562.854	8742.69
563.217	8742.47
563.579	8790.83
563.941	8842.35
564.304	8822.69
564.666	8887.1
565.028	8863.82
565.39	8991.27
565.753	8918.28
566.115	8894.78
566.477	8935.01
566.839	8942.91
567.201	9050.93
567.563	8998.73
567.925	9061.78
568.287	9042.12
568.648	9009.58
569.01	9086.64
569.372	9119.18
569.734	9098.16
570.095	9188.11
570.457	9153.98
570.819	9176.81
571.18	9141.55
571.542	9227.65
571.903	9216.81
572.265	9231.72
572.626	9348.55
572.987	9263.81
573.349	9353.07
573.71	9361.21
574.071	9320.31
574.432	9385.84
574.794	9422.45
575.155	9464.03
575.516	9380.64
575.877	9486.86
576.238	9500.19
576.599	9487.76
576.96	9469.68
577.32	9493.41
577.681	9592.16
578.042	9552.62
578.403	9603.01
578.763	9657.7
579.124	9590.36
579.485	9637.81
579.845	9671.93
580.206	9638.49
580.566	9742.89
580.927	9747.19
581.287	9739.73
581.648	9711.03
582.008	9728.2
582.368	9774.98
582.728	9810.69
583.089	9791.03
583.449	9775.89
583.809	9791.25
584.169	9822.21
584.529	9862.89
584.889	9960.97
585.249	9863.34
585.609	9919.39
585.969	9836.9
586.329	9894.75
586.688	9975.43
587.048	9948.99
587.408	9869.22
587.768	9885.71
588.127	9903.79
588.487	9893.4
588.846	10014.52
589.206	9908.09
589.565	9905.15
589.925	10004.36
590.284	10049.1
590.643	10027.18
591.003	10015.2
591.362	10109.21
591.721	10012.94
592.08	10072.6
592.44	10092.71
592.799	10009.1
593.158	10040.06
593.517	10046.39
593.876	10108.08
594.235	10075.99
594.593	10087.52
594.952	10117.35
595.311	10076.9
595.67	10167.74
596.029	10145.37
596.387	10167.29
596.746	10224.91
597.104	10186.72
597.463	10134.52
597.822	10165.48
598.18	10124.13
598.538	10070.79
598.897	10213.62
599.255	10107.4
599.613	10240.96
599.972	10204.58
600.33	10202.99
600.688	10198.93
601.046	10193.28
601.404	10268.08
601.762	10186.95
602.12	10327.28
602.478	10242.09
602.836	10231.47
603.194	10263.78
603.552	10262.65
603.91	10262.88
604.268	10304.46
604.625	10200.28
604.983	10306.04
605.341	10285.25
605.698	10359.83
606.056	10315.99
606.413	10282.31
606.771	10337.68
607.128	10387.62
607.485	10353.5
607.843	10296.78
608.2	10403.22
608.557	10389.43
608.914	10315.76
609.272	10369.09
609.629	10407.73
609.986	10383.33
610.343	10424.46
610.7	10473.27
611.057	10439.37
611.414	10389.66
611.771	10480.05
612.127	10454.51
612.484	10518.69
612.841	10551.46
613.198	10482.76
613.554	10534.96
613.911	10614.96
614.267	10499.48
614.624	10542.19
614.98	10599.82
615.337	10569.09
615.693	10560.95
616.05	10586.71
616.406	10619.71
616.762	10512.36
617.118	10556.43
617.475	10610.22
617.831	10595.3
618.187	10599.82
618.543	10652.93
618.899	10609.09
619.255	10648.41
619.611	10657.9
619.967	10709.2
620.323	10758.46
620.678	10582.42
621.034	10601.63
621.39	10641.63
621.746	10649.08
622.101	10768.63
622.457	10658.8
622.812	10679.37
623.168	10740.61
623.523	10659.93
623.879	10699.03
624.234	10668.74
624.589	10653.6
624.945	10613.15
625.3	10656.99
625.655	10684.34
626.01	10638.92
626.365	10656.32
626.72	10608.41
627.075	10576.77
627.43	10700.38
627.785	10652.7
628.14	10641.4
628.495	10616.32
628.85	10621.74
629.205	10605.7
629.559	10638.24
629.914	10585.81
630.269	10620.38
630.623	10543.55
630.978	10621.29
631.332	10551.46
631.687	10633.27
632.041	10499.71
632.396	10604.11
632.75	10538.58
633.104	10529.54
633.459	10460.39
633.813	10552.14
634.167	10443.89
634.521	10441.86
634.875	10447.96
635.229	10427.17
635.583	10372.71
635.937	10420.16
636.291	10358.24
636.645	10344.01
636.999	10294.07
637.352	10438.02
637.706	10337.23
638.06	10374.29
638.413	10312.37
638.767	10325.48
639.121	10347.62
639.474	10283.9
639.828	10280.96
640.181	10239.6
640.534	10287.06
640.888	10233.95
641.241	10162.54
641.594	10237.57
641.947	10179.94
642.301	10247.06
642.654	10254.52
643.007	10183.33
643.36	10244.8
643.713	10098.14
644.066	10167.29
644.419	10130.68
644.771	10100.17
645.124	10016.33
645.477	9972.72
645.83	9885.71
646.182	9912.61
646.535	9859.27
646.888	9812.72
647.24	9772.05
647.593	9823.34
647.945	9767.07
648.298	9808.65
648.65	9701.54
649.002	9703.57
649.355	9742.44
649.707	9769.56
650.059	9861.53
650.411	9969.78
650.763	9957.58
651.115	10101.08
651.467	10024.69
651.819	10057.91
652.171	10000.51
652.523	9994.64
652.875	9956
653.227	9920.97
653.578	9967.07
653.93	10004.58
654.282	9976.33
654.633	9993.28
654.985	10045.48
655.337	10006.39
655.688	9959.16
656.039	9945.15
656.391	9970.68
656.742	10009.55
657.094	9995.09
657.445	9987.86
657.796	9956.22
658.147	9988.99
658.498	9976.33
658.849	10017.91
659.2	9964.81
659.551	9982.21
659.902	9970.68
660.253	9957.58
660.604	10038.03
660.955	9950.12
661.306	10015.2
661.656	9964.36
662.007	9995.99
662.358	9980.85
662.708	9946.28
663.059	9961.64
663.409	9988.31
663.76	10032.38
664.11	9949.67
664.461	10026.73
664.811	10009.55
665.161	9903.57
665.511	9939.72
665.862	9908.76
666.212	9991.93
666.562	10014.52
666.912	10050.68
667.262	9915.77
667.612	10027.63
667.962	9926.17
668.312	9932.27
668.662	10035.32
669.011	10000.97
669.361	9951.48
669.711	9995.09
670.06	9916.67
670.41	9855.66
670.76	9961.42
671.109	10000.06
671.459	9949.89
671.808	9937.24
672.157	9964.13
672.507	9831.93
672.856	9858.37
673.205	9902.44
673.554	9867.41
673.904	9861.31
674.253	9855.43
674.602	9916.67
674.951	9754.64
675.3	9636.46
675.649	9803.91
675.998	9825.15
676.346	9798.71
676.695	9844.13
677.044	9794.87
677.393	9797.36
677.741	9765.49
678.09	9728.66
678.438	9770.01
678.787	9746.96
679.135	9741.99
679.484	9646.62
679.832	9636.23
680.181	9617.47
680.529	9712.61
680.877	9592.84
681.225	9628.55
681.573	9675.1
681.922	9593.52
682.27	9609.79
682.618	9506.29
682.966	9522.79
683.314	9522.79
683.661	9535.67
684.009	9412.28
684.357	9495.44
684.705	9476.91
685.053	9440.3
685.4	9457.48
685.748	9329.35
686.095	9379.97
686.443	9336.8
686.79	9345.16
687.138	9330.93
687.485	9331.38
687.832	9330.25
688.18	9271.27
688.527	9210.7
688.874	9162.12
689.221	9177.26
689.568	9136.36
689.915	9160.31
690.262	9109.69
690.609	9071.27
690.956	9078.5
691.303	9067.88
691.65	8978.17
691.997	9021.1
692.344	8980.2
692.69	8896.14
693.037	8849.13
693.383	8873.76
693.73	8878.74
694.077	8788.12
694.423	8817.49
694.769	8763.94
695.116	8722.58
695.462	8721.23
695.808	8687.78
696.155	8695.01
696.501	8654.33
696.847	8670.15
697.193	8522.59
697.539	8595.58
697.885	8589.03
698.231	8505.64
698.577	8488.92
698.923	8451.63
699.269	8414.79
699.614	8371.4
699.96	8367.34
700.306	8373.89
700.651	8302.93
700.997	8339.54
701.342	8272.65
701.688	8243.05
702.033	8188.58
702.379	8145.42
702.724	8220
703.069	8170.73
703.415	8049.38
703.76	8022.03
704.105	8081.69
704.45	8039.66
704.795	8032.66
705.14	7935.26
705.485	7970.28
705.83	7920.12
706.175	7940.68
706.52	7916.27
706.865	7847.12
707.209	7865.65
707.554	7800.35
707.899	7839.21
708.243	7761.02
708.588	7718.99
708.932	7749.95
709.277	7698.65
709.621	7678.09
709.966	7675.15
710.31	7690.29
710.654	7573.01
710.998	7653.91
711.342	7624.76
711.687	7564.19
712.031	7589.73
712.375	7510.18
712.719	7514.93
713.063	7537.75
713.407	7528.49
713.75	7481.48
714.094	7464.54
714.438	7463.18
714.782	7459.79
715.125	7426.57
715.469	7388.61
715.812	7394.93
716.156	7368.49
716.499	7360.13
716.843	7390.64
717.186	7327.59
717.53	7361.04
717.873	7318.1
718.216	7294.6
718.559	7274.48
718.902	7218.89
719.246	7211.89
719.589	7238.78
719.932	7196.07
720.275	7186.8
720.617	7174.15
720.96	7259.34
721.303	7181.38
721.646	7227.93
721.989	7133.7
722.331	7172.34
722.674	7179.12
723.016	7198.55
723.359	7094.38
723.701	7120.14
724.044	7064.77
724.386	7132.34
724.729	7111.1
725.071	7148.39
725.413	7137.31
725.755	7111.78
726.097	7134.15
726.439	7065.9
726.782	7031.33
727.124	7074.26
727.465	7004.43
727.807	7013.93
728.149	7024.09
728.491	7020.93
728.833	6964.44
729.175	7013.25
729.516	7022.29
729.858	7032.23
730.199	7044.43
730.541	7003.98
730.882	7010.31
731.224	7001.27
731.565	6962.18
731.906	7005.56
732.248	7008.73
732.589	6990.65
732.93	6903.42
733.271	6924.44
733.612	6969.18
733.953	6973.93
734.294	6942.74
734.635	6968.28
734.976	6944.1
735.317	6929.41
735.658	6977.99
735.999	6959.69
736.339	6954.27
736.68	7048.95
737.021	6982.51
737.361	6933.7
737.702	7040.82
738.042	7021.16
738.383	6966.02
738.723	7002.17
739.063	6955.62
739.404	7012.12
739.744	6952.01
740.084	6952.68
740.424	7004.21
740.764	7024.32
741.104	7041.95
741.444	7016.41
741.784	6975.96
742.124	7020.48
742.464	7049.41
742.804	7062.29
743.143	7030.65
743.483	7088.95
743.823	7048.05
744.162	7071.1
744.502	7129.63
744.841	7139.57
745.181	7188.16
745.52	7181.15
745.86	7191.55
746.199	7248.04
746.538	7251.89
746.877	7287.14
747.216	7351.77
747.556	7358.78
747.895	7370.98
748.234	7461.15
748.573	7454.14
748.911	7417.3
749.25	7538.88
749.589	7502.05
749.928	7567.36
750.267	7694.81
750.605	7717.64
750.944	7740.69
751.283	7770.06
751.621	7891.19
751.96	7871.98
752.298	8026.33
752.636	8017.06
752.975	8129.15
753.313	8132.77
753.651	8298.86
753.989	8331.86
754.327	8354
754.666	8432.19
755.004	8551.51
755.342	8676.71
755.679	8781.79
756.017	8782.69
756.355	8960.54
756.693	9015
757.031	9118.96
757.368	9152.4
757.706	9257.26
758.044	9355.79
758.381	9522.33
758.719	9630.35
759.056	9771.14
759.394	9934.53
759.731	9939.27
760.068	10086.39
760.405	10186.95
760.743	10304.69
761.08	10403.67
761.417	10527.51
761.754	10617.45
762.091	10764.56
762.428	10881.17
762.765	10963.43
763.102	11172.01
763.438	11194.61
763.775	11310.99
764.112	11505.33
764.449	11668.94
764.785	11739.23
765.122	11729.51
