Data from hue_340_FLMS001491_51.txt Node
Date: Mon Feb 06 15:43:17 GMT 2017
User: dcchb
Spectrometer: FLMS00149
Trigger mode: 0
Integration Time (sec): 2.000000E-2
Scans to average: 10
Electric dark correction enabled: true
Nonlinearity correction enabled: false
Boxcar width: 0
XAxis mode: Wavelengths
Number of Pixels in Spectrum: 2048
>>>>>Begin Spectral Data<<<<<
341.393	-17.43
341.776	-17.43
342.16	-17.43
342.543	-82.96
342.927	-53.59
343.31	-55.62
343.693	-88.61
344.077	-48.61
344.46	-55.62
344.843	-51.55
345.226	-47.26
345.61	-28.05
345.993	-14.27
346.376	-20.37
346.759	3.81
347.142	13.3
347.525	61.89
347.908	41.33
348.291	72.96
348.674	100.53
349.057	116.13
349.44	117.48
349.823	151.83
350.206	144.6
350.588	191.61
350.971	204.49
351.354	208.78
351.737	223.69
352.119	260.3
352.502	264.6
352.884	275.44
353.267	267.31
353.65	297.59
354.032	298.49
354.414	289.68
354.797	318.61
355.179	311.83
355.562	334.65
355.944	339.17
356.326	331.04
356.709	334.65
357.091	319.96
357.473	351.15
357.855	342.11
358.238	341.21
358.62	326.06
359.002	320.64
359.384	356.12
359.766	350.02
360.148	317.93
360.53	351.15
360.912	322.68
361.294	310.92
361.676	334.88
362.057	328.78
362.439	314.31
362.821	321.77
363.203	319.51
363.584	314.54
363.966	313.18
364.348	300.98
364.729	323.58
365.111	306.18
365.493	305.05
365.874	319.06
366.256	319.96
366.637	329.68
367.019	317.7
367.4	297.82
367.781	284.94
368.163	311.15
368.544	311.6
368.925	297.59
369.306	315.9
369.688	303.69
370.069	305.73
370.45	289.68
370.831	332.62
371.212	279.51
371.593	314.54
371.974	300.53
372.355	305.73
372.736	319.74
373.117	310.25
373.498	332.62
373.879	312.51
374.26	293.98
374.641	312.28
375.021	291.94
375.402	304.37
375.783	310.7
376.163	295.33
376.544	326.29
376.925	315.9
377.305	337.82
377.686	323.13
378.066	328.55
378.447	337.36
378.827	323.35
379.208	313.41
379.588	324.71
379.968	312.51
380.349	328.78
380.729	342.79
381.109	325.84
381.489	332.17
381.87	337.59
382.25	321.55
382.63	334.2
383.01	327.87
383.39	352.05
383.77	322
384.15	342.56
384.53	349.34
384.91	338.49
385.29	354.76
385.67	342.79
386.049	345.05
386.429	371.26
386.809	342.79
387.189	336.23
387.568	347.53
387.948	363.13
388.328	359.06
388.707	342.34
389.087	356.8
389.466	360.19
389.846	344.37
390.225	347.53
390.605	357.93
390.984	341.66
391.363	340.75
391.743	360.64
392.122	357.7
392.501	373.75
392.881	356.8
393.26	358.38
393.639	357.7
394.018	385.5
394.397	356.12
394.776	380.53
395.155	380.75
395.534	376.01
395.913	362
396.292	358.61
396.671	380.07
397.05	378.27
397.429	378.04
397.808	374.2
398.186	367.87
398.565	399.51
398.944	373.97
399.323	369.91
399.701	376.69
400.08	392.96
400.458	373.3
400.837	391.6
401.215	387.31
401.594	373.75
401.972	399.51
402.351	401.77
402.729	375.78
403.107	387.76
403.486	386.4
403.864	409.68
404.242	408.77
404.62	407.42
404.999	414.65
405.377	411.94
405.755	412.84
406.133	392.5
406.511	407.87
406.889	415.78
407.267	437.47
407.645	427.53
408.023	427.53
408.401	427.76
408.779	442.45
409.156	419.62
409.534	431.15
409.912	438.15
410.29	454.2
410.667	450.36
411.045	441.54
411.422	438.6
411.8	460.75
412.178	467.53
412.555	473.18
412.933	477.7
413.31	472.5
413.687	490.13
414.065	477.47
414.442	472.05
414.819	494.2
415.197	477.7
415.574	505.27
415.951	499.39
416.328	512.27
416.705	545.49
417.082	528.09
417.46	520.18
417.837	521.54
418.214	540.52
418.591	515.66
418.967	526.06
419.344	520.18
419.721	556.79
420.098	536.23
420.475	551.37
420.852	554.53
421.228	552.73
421.605	592.72
421.982	569.9
422.358	566.74
422.735	580.07
423.111	561.09
423.488	573.06
423.864	605.15
424.241	598.83
424.617	603.8
424.994	606.28
425.37	609.67
425.746	613.74
426.123	598.15
426.499	619.62
426.875	630.24
427.251	627.53
427.627	619.84
428.003	660.07
428.379	648.99
428.756	648.32
429.132	673.63
429.507	671.59
429.883	664.36
430.259	689.9
430.635	699.84
431.011	693.51
431.387	693.74
431.763	700.74
432.138	711.37
432.514	735.32
432.89	702.55
433.265	718.6
433.641	745.94
434.016	733.74
434.392	736.9
434.767	754.53
435.143	760.63
435.518	752.27
435.894	771.48
436.269	767.64
436.644	781.87
437.02	796.11
437.395	786.62
437.77	791.59
438.145	810.35
438.52	821.42
438.895	817.13
439.271	802.21
439.646	836.11
440.021	838.59
440.395	823
440.77	827.29
441.145	851.25
441.52	873.4
441.895	861.87
442.27	855.32
442.645	857.8
443.019	889.21
443.394	877.69
443.769	898.71
444.143	894.86
444.518	903
444.892	885.37
445.267	897.58
445.641	914.07
446.016	896.22
446.39	916.56
446.764	928.08
447.139	934.18
447.513	911.36
447.887	931.02
448.262	943.68
448.636	904.58
449.01	937.8
449.384	962.43
449.758	930.12
450.132	964.92
450.506	944.35
450.88	955.43
451.254	947.74
451.628	971.7
452.002	991.58
452.376	982.54
452.75	970.12
453.123	976.67
453.497	985.93
453.871	1012.83
454.244	1023.9
454.618	1023
454.992	1009.44
455.365	1055.54
455.739	1063.45
456.112	1068.42
456.486	1058.7
456.859	1073.16
457.232	1106.16
457.606	1077.91
457.979	1088.76
458.352	1084.46
458.725	1120.17
459.099	1093.5
459.472	1126.04
459.845	1118.13
460.218	1142.31
460.591	1165.82
460.964	1174.63
461.337	1202.43
461.71	1197.23
462.083	1222.99
462.456	1222.09
462.829	1185.7
463.201	1202.2
463.574	1230.45
463.947	1234.29
464.32	1269.09
464.692	1273.38
465.065	1274.06
465.438	1308.86
465.81	1297.56
466.183	1317.45
466.555	1328.98
466.928	1330.56
467.3	1326.04
467.672	1341.18
468.045	1365.36
468.417	1394.96
468.789	1386.83
469.161	1406.26
469.534	1451.46
469.906	1424.57
470.278	1461.4
470.65	1493.72
471.022	1444.91
471.394	1537.78
471.766	1529.88
472.138	1533.94
472.51	1534.17
472.882	1595.64
473.253	1577.56
473.625	1573.94
473.997	1680.83
474.369	1629.53
474.74	1679.93
475.112	1684.67
475.484	1738.01
475.855	1738.01
476.227	1759.25
476.598	1827.27
476.97	1785.01
477.341	1848.96
477.713	1875.85
478.084	1866.14
478.455	1921.5
478.827	1945.68
479.198	1993.37
479.569	1966.7
479.94	2032.23
480.311	2053.93
480.682	2093.25
481.053	2132.8
481.424	2152.23
481.795	2188.61
482.166	2247.6
482.537	2254.15
482.908	2267.48
483.279	2272.45
483.65	2299.35
484.021	2386.35
484.391	2393.36
484.762	2388.61
485.133	2420.02
485.503	2449.17
485.874	2515.16
486.244	2547.7
486.615	2600.13
486.985	2576.63
487.356	2634.93
487.726	2655.95
488.097	2706.79
488.467	2708.38
488.837	2722.39
489.207	2848.26
489.578	2822.04
489.948	2853
490.318	2903.62
490.688	2885.77
491.058	2936.39
491.428	2928.48
491.798	3051.87
492.168	3086.22
492.538	3055.71
492.908	3073.79
493.278	3169.15
493.648	3152.88
494.017	3182.49
494.387	3235.14
494.757	3244.41
495.126	3266.1
495.496	3287.34
495.866	3286.21
496.235	3342.48
496.605	3366.66
496.974	3434.23
497.344	3392.65
497.713	3399.2
498.082	3429.71
498.452	3453.44
498.821	3471.74
499.19	3515.36
499.559	3546.32
499.928	3533.89
500.298	3567.34
500.667	3604.4
501.036	3587.67
501.405	3664.06
501.774	3613.66
502.143	3627.9
502.512	3667.9
502.88	3677.62
503.249	3686.43
503.618	3744.51
503.987	3743.15
504.356	3770.49
504.724	3781.57
505.093	3799.65
505.462	3812.98
505.83	3835.58
506.199	3860.89
506.567	3897.27
506.936	3901.79
507.304	3928.46
507.672	3949.25
508.041	3974.56
508.409	3935.46
508.777	3931.17
509.145	4046.65
509.514	4005.52
509.882	4035.12
510.25	4024.05
510.618	4050.94
510.986	4030.6
511.354	4079.86
511.722	4114.67
512.09	4164.61
512.458	4113.54
512.826	4115.8
513.193	4187.66
513.561	4140.65
513.929	4176.59
514.297	4205.51
514.664	4206.41
515.032	4247.54
515.4	4238.05
515.767	4283.02
516.135	4320.99
516.502	4245.74
516.869	4348.11
517.237	4327.99
517.604	4299.29
517.972	4363.47
518.339	4400.99
518.706	4382.68
519.073	4406.41
519.44	4398.5
519.808	4406.86
520.175	4407.99
520.542	4473.53
520.909	4497.48
521.276	4460.19
521.643	4507.2
522.009	4556.69
522.376	4531.83
522.743	4599.17
523.11	4617.48
523.477	4592.62
523.843	4668.78
524.21	4661.54
524.577	4630.13
524.943	4697.93
525.31	4693.18
525.676	4734.31
526.043	4762.11
526.409	4801.2
526.776	4802.56
527.142	4846.62
527.508	4860.41
527.874	4848.66
528.241	4892.95
528.607	4915.77
528.973	4980.63
529.339	4963.46
529.705	4979.28
530.071	5026.96
530.437	5048.88
530.803	5071.48
531.169	5112.61
531.535	5088.2
531.901	5112.83
532.267	5155.99
532.632	5161.19
532.998	5187.63
533.364	5228.08
533.73	5188.54
534.095	5305.82
534.461	5259.72
534.826	5275.54
535.192	5345.59
535.557	5369.55
535.923	5325.71
536.288	5386.04
536.653	5400.06
537.019	5407.97
537.384	5442.77
537.749	5463.78
538.114	5500.84
538.479	5497
538.845	5493.39
539.21	5519.37
539.575	5569.32
539.94	5594.85
540.305	5646.15
540.67	5649.09
541.034	5667.62
541.399	5604.8
541.764	5676.21
542.129	5715.53
542.494	5727.05
542.858	5736.77
543.223	5788.52
543.587	5841.85
543.952	5830.1
544.316	5871.91
544.681	5847.95
545.045	5883.43
545.41	5915.75
545.774	5992.81
546.138	5944.22
546.503	5987.84
546.867	5961.4
547.231	6027.16
547.595	6030.77
547.959	6062.64
548.324	6070.77
548.688	6073.48
549.052	6178.11
549.416	6166.14
549.779	6162.3
550.143	6151
550.507	6186.48
550.871	6180.83
551.235	6220.37
551.599	6277.55
551.962	6286.36
552.326	6332.01
552.689	6355.51
553.053	6296.98
553.417	6375.17
553.78	6409.29
554.143	6404.32
554.507	6455.85
554.87	6458.56
555.234	6501.5
555.597	6489.97
555.96	6516.64
556.323	6531.33
556.686	6516.86
557.05	6583.75
557.413	6593.92
557.776	6585.56
558.139	6640.93
558.502	6610.65
558.865	6659.91
559.228	6745.56
559.59	6749.62
559.953	6732
560.316	6771.09
560.679	6751.88
561.041	6797.99
561.404	6863.52
561.767	6836.18
562.129	6871.66
562.492	6851.77
562.854	6914.82
563.217	6904.42
563.579	6934.03
563.941	7038.43
564.304	7005.21
564.666	7027.13
565.028	7047.02
565.39	7084.08
565.753	7077.53
566.115	7110.29
566.477	7193.68
566.839	7201.14
567.201	7282.04
567.563	7194.81
567.925	7241.36
568.287	7277.07
568.648	7347.8
569.01	7342.38
569.372	7387.8
569.734	7378.76
570.095	7436.84
570.457	7460.34
570.819	7533.11
571.18	7460.57
571.542	7553.45
571.903	7600.68
572.265	7615.82
572.626	7709.83
572.987	7690.39
573.349	7788.24
573.71	7790.5
574.071	7890.16
574.432	7898.97
574.794	7996.15
575.155	8012.64
575.516	8077.95
575.877	8097.16
576.238	8107.1
576.599	8218.96
576.96	8270.04
577.32	8290.6
577.681	8397.94
578.042	8521.1
578.403	8542.12
578.763	8613.98
579.124	8695.34
579.485	8801.77
579.845	9003.12
580.206	8973.75
580.566	9032.73
580.927	9145.04
581.287	9359.73
581.648	9339.84
582.008	9578.7
582.368	9640.17
582.728	9747.74
583.089	9927.62
583.449	9998.13
583.809	10195.86
584.169	10355.63
584.529	10512.46
584.889	10704.78
585.249	10869.06
585.609	10953.58
585.969	11248.49
586.329	11363.29
586.688	11641.93
587.048	11840.11
587.408	11983.39
587.768	12201.91
588.127	12352.87
588.487	12721.67
588.846	12887.99
589.206	13056.58
589.565	13194.65
589.925	13562.1
590.284	13804.35
590.643	14061.52
591.003	14397.56
591.362	14586.03
591.721	14822.18
592.08	15072.34
592.44	15421.71
592.799	15689.73
593.158	15887.24
593.517	16077.97
593.876	16336.49
594.235	16608.8
594.593	16934.44
594.952	17231.84
595.311	17433.41
595.67	17847.41
596.029	18084.02
596.387	18354.74
596.746	18678.12
597.104	18779.82
597.463	19175.96
597.822	19368.95
598.18	19687.59
598.538	19977.53
598.897	20389.94
599.255	20474.01
599.613	21018.4
599.972	21082.58
600.33	21368.68
600.688	21686.18
601.046	21936.34
601.404	22327.75
601.762	22515.31
602.12	22858.58
602.478	23069.42
602.836	23325.23
603.194	23571.33
603.552	23865.33
603.91	23983.52
604.268	24357.75
604.625	24450.63
604.983	24790.73
605.341	24907.11
605.698	25299.65
606.056	25513.88
606.413	25821.67
606.771	26042.45
607.128	26247.19
607.485	26348.43
607.843	26730.57
608.2	26905.48
608.557	27305.92
608.914	27338.69
609.272	27636.08
609.629	27768.28
609.986	28051.66
610.343	28110.65
610.7	28494.82
611.057	28773.23
611.414	28805.77
611.771	28961.92
612.127	29240.11
612.484	29390.61
612.841	29630.61
613.198	29737.95
613.554	29812.07
613.911	30156.69
614.267	30380.64
614.624	30497.7
614.98	30577.25
615.337	30887.3
615.693	31008.87
616.05	31024.69
616.406	31350.11
616.762	31459.94
617.118	31570.67
617.475	31591.23
617.831	31926.36
618.187	32051.33
618.543	32200.71
618.899	32423.07
619.255	32462.17
619.611	32475.5
619.967	32723.41
620.323	32811.99
620.678	32936.05
621.034	32869.16
621.39	32996.62
621.746	33195.71
622.101	33683.38
622.457	33316.38
622.812	33610.39
623.168	33749.82
623.523	33662.14
623.879	33882.24
624.234	33743.94
624.589	34026.87
624.945	34173.31
625.3	34134.22
625.655	34246.98
626.01	34325.85
626.365	34310.93
626.72	34424.6
627.075	34372.18
627.43	34482.45
627.785	34411.27
628.14	34596.35
628.495	34812.84
628.85	34656.69
629.205	34560.42
629.559	35037.69
629.914	34761.09
630.269	34943.69
630.623	34850.58
630.978	34940.75
631.332	35083.12
631.687	35261.87
632.041	34988.66
632.396	35151.36
632.75	35064.13
633.104	35166.05
633.459	34977.81
633.813	35013.29
634.167	35149.1
634.521	35131.93
634.875	35197.24
635.229	35087.86
635.583	35019.62
635.937	35084.92
636.291	35003.12
636.645	35183
636.999	35045.38
637.352	35111.82
637.706	34911.82
638.06	35196.56
638.413	35063.68
638.767	35068.43
639.121	35151.14
639.474	34909.11
639.828	35013.06
640.181	34947.53
640.534	35086.51
640.888	34867.76
641.241	34945.27
641.594	34926.06
641.947	35171.48
642.301	34812.39
642.654	35010.35
643.007	35059.84
643.36	35001.09
643.713	34945.95
644.066	35164.24
644.419	34940.52
644.771	34738.95
645.124	34350.25
645.477	34318.39
645.83	34138.74
646.182	34107.55
646.535	34025.29
646.888	34029.81
647.24	33756.15
647.593	34024.84
647.945	34013.09
648.298	33727.9
648.65	33764.51
649.002	33752.08
649.355	33962.24
649.707	33771.06
650.059	34009.25
650.411	34395.9
650.763	34431.83
651.115	34881.77
651.467	34719.96
651.819	34668.21
652.171	34695.78
652.523	34710.25
652.875	34541.66
653.227	34393.64
653.578	34762.22
653.93	34549.35
654.282	34512.96
654.633	34493.3
654.985	34497.14
655.337	34511.38
655.688	34480.2
656.039	34590.25
656.391	34170.15
656.742	34376.92
657.094	34334.44
657.445	34431.61
657.796	34407.43
658.147	34370.59
658.498	34314.32
658.849	34458.73
659.2	34391.61
659.551	34403.81
659.902	34337.6
660.253	34163.59
660.604	34329.24
660.955	34251.73
661.306	34309.35
661.656	34185.51
662.007	34385.28
662.358	34221.67
662.708	34177.15
663.059	34335.34
663.409	33998.85
663.76	34355.45
664.11	34195.46
664.461	34187.55
664.811	34194.55
665.161	34130.6
665.511	34151.39
665.862	34118.62
666.212	34219.18
666.562	34288.34
666.912	34219.64
667.262	34206.3
667.612	34191.84
667.962	34250.37
668.312	34030.94
668.662	34331.95
669.011	34235
669.361	34105.97
669.711	34093.99
670.06	33922.92
670.41	34098.51
670.76	34008.12
671.109	34211.73
671.459	34032.98
671.808	33940.32
672.157	34139.19
672.507	33836.6
672.856	33914.11
673.205	33944.16
673.554	34105.97
673.904	34008.8
674.253	34161.11
674.602	33971.06
674.951	33429.15
675.3	33314.8
675.649	33915.24
675.998	33724.06
676.346	33924.28
676.695	33938.74
677.044	33733.1
677.393	33717.05
677.741	33805.64
678.09	33764.51
678.438	33661.69
678.787	33737.16
679.135	33651.74
679.484	33471.41
679.832	33643.38
680.181	33419.66
680.529	33508.02
680.877	33490.16
681.225	33400
681.573	33662.82
681.922	33313.67
682.27	33281.81
682.618	33235.71
682.966	33270.51
683.314	33275.03
683.661	33252.43
684.009	32976.28
684.357	32952.1
684.705	32919.56
685.053	32883.17
685.4	32960.01
685.748	32709.17
686.095	32592.56
686.443	32711.43
686.79	32690.19
687.138	32591.88
687.485	32658.55
687.832	32583.97
688.18	32478.44
688.527	32257.43
688.874	32410.87
689.221	32391.89
689.568	32210.2
689.915	32136.08
690.262	32067.15
690.609	32188.5
690.956	31939.7
691.303	31911.22
691.65	31842.98
691.997	31793.49
692.344	31451.8
692.69	31693.38
693.037	31627.61
693.383	31354.18
693.73	31559.59
694.077	31225.59
694.423	31306.04
694.769	31136.78
695.116	31110.34
695.462	31045.71
695.808	30942.66
696.155	30978.59
696.501	30751.03
696.847	30706.06
697.193	30563.24
697.539	30725.27
697.885	30400.98
698.231	30447.76
698.577	30494.09
698.923	30300.42
699.269	30135.68
699.614	30008.22
699.96	29953.99
700.306	30047.77
700.651	29915.34
700.997	29823.59
701.342	29723.71
701.688	29775.01
702.033	29728.91
702.379	29627.22
702.724	29570.04
703.069	29580.89
703.415	29332.53
703.76	29194.68
704.105	29223.38
704.45	29149.49
704.795	28993.79
705.14	28915.14
705.485	28951.75
705.83	28751.31
706.175	28810.06
706.52	28713.79
706.865	28664.98
707.209	28568.49
707.554	28426.79
707.899	28596.73
708.243	28446.23
708.588	28398.32
708.932	28184.32
709.277	28181.38
709.621	28128.95
709.966	27967.15
710.31	28155.16
710.654	27823.87
710.998	27984.09
711.342	27865
711.687	27778
712.031	27641.05
712.375	27568.96
712.719	27716.98
713.063	27525.12
713.407	27616.42
713.75	27378.69
714.094	27494.84
714.438	27463.43
714.782	27368.74
715.125	27123.55
715.469	27373.04
715.812	27180.27
716.156	26955.87
716.499	27013.95
716.843	26969.88
717.186	26908.87
717.53	26955.2
717.873	26965.82
718.216	26895.31
718.559	26721.53
718.902	26634.53
719.246	26615.32
719.589	26552.27
719.932	26460.97
720.275	26470.91
720.617	26540.74
720.96	26297.36
721.303	26423.23
721.646	26333.06
721.989	26161.09
722.331	26338.49
722.674	26260.98
723.016	26314.08
723.359	26138.72
723.701	26111.6
724.044	25962.23
724.386	25892.17
724.729	25893.3
725.071	25901.89
725.413	25831.83
725.755	25876.13
726.097	25720.2
726.439	25603.14
726.782	25631.84
727.124	25719.52
727.465	25488.79
727.807	25586.19
728.149	25536.02
728.491	25483.37
728.833	25539.19
729.175	25383.71
729.516	25391.39
729.858	25296.48
730.199	25294.67
730.541	25155.02
730.882	25172.42
731.224	25209.7
731.565	25071.4
731.906	25122.02
732.248	25153.43
732.589	24942.14
732.93	24870.73
733.271	25020.56
733.612	25011.07
733.953	24976.26
734.294	24922.71
734.635	24745.54
734.976	24813.1
735.317	24611.98
735.658	24763.39
735.999	24727.23
736.339	24706.89
736.68	24657.63
737.021	24603.62
737.361	24563.62
737.702	24637.74
738.042	24518.88
738.383	24487.01
738.723	24553.22
739.063	24355.26
739.404	24404.3
739.744	24359.11
740.084	24242.27
740.424	24302.84
740.764	24205.21
741.104	24357.75
741.444	24159.34
741.784	24073.01
742.124	24153.46
742.464	24129.73
742.804	23932.45
743.143	24056.29
743.483	23990.08
743.823	23844.09
744.162	23891.09
744.502	23869.17
744.841	23802.51
745.181	24004.54
745.52	23791.44
745.86	23790.53
746.199	23858.1
746.538	23694.94
746.877	23722.06
747.216	23551.44
747.556	23660.59
747.895	23586.7
748.234	23555.96
748.573	23436.64
748.911	23569.07
749.25	23375.18
749.589	23328.4
749.928	23336.31
750.267	23317.1
750.605	23260.15
750.944	23065.35
751.283	23131.57
751.621	23117.1
751.96	23044.34
752.298	23031.91
752.636	23079.36
752.975	22915.75
753.313	22923.21
753.651	22926.6
753.989	22812.48
754.327	22744.68
754.666	22664.69
755.004	22748.98
755.342	22697.68
755.679	22591.69
756.017	22476.67
756.355	22568.19
756.693	22447.07
757.031	22544.92
757.368	22373.85
757.706	22345.6
758.044	22250.46
758.381	22160.29
758.719	22153.51
759.056	22172.04
759.394	22105.15
759.731	21939.73
760.068	21902.22
760.405	21796.46
760.743	21716.91
761.08	21815.67
