Data from hue_00_FLMS001491_11.txt Node
Date: Mon Feb 06 15:29:19 GMT 2017
User: dcchb
Spectrometer: FLMS00149
Trigger mode: 0
Integration Time (sec): 2.000000E-2
Scans to average: 10
Electric dark correction enabled: true
Nonlinearity correction enabled: false
Boxcar width: 0
XAxis mode: Wavelengths
Number of Pixels in Spectrum: 2048
>>>>>Begin Spectral Data<<<<<
341.393	11.07
341.776	11.07
342.16	11.07
342.543	-64.86
342.927	-72.31
343.31	-65.53
343.693	-87.23
344.077	-59.66
344.46	-72.99
344.843	-52.43
345.226	-37.74
345.61	-28.02
345.993	-28.7
346.376	9.49
346.759	12.2
347.142	16.04
347.525	52.43
347.908	59.66
348.291	76.16
348.674	104.18
349.057	102.14
349.44	107.12
349.823	141.01
350.206	174.23
350.588	208.81
350.971	211.97
351.354	233.21
351.737	240.67
352.119	256.49
352.502	244.06
352.884	288.13
353.267	288.35
353.65	292.2
354.032	295.81
354.414	324.74
354.797	296.26
355.179	307.79
355.562	288.35
355.944	338.52
356.326	323.16
356.709	312.76
357.091	344.17
357.473	317.73
357.855	353.66
358.238	322.48
358.62	333.32
359.002	353.89
359.384	322.7
359.766	331.52
360.148	339.65
360.53	337.39
360.912	343.49
361.294	315.92
361.676	345.08
362.057	325.19
362.439	316.83
362.821	317.51
363.203	324.51
363.584	322.48
363.966	302.14
364.348	323.38
364.729	316.38
365.111	303.27
365.493	317.05
365.874	316.83
366.256	317.05
366.637	308.24
367.019	314.79
367.4	308.92
367.781	297.17
368.163	317.28
368.544	294
368.925	328.8
369.306	309.37
369.688	305.3
370.069	319.99
370.45	286.32
370.831	309.14
371.212	297.85
371.593	310.73
371.974	308.47
372.355	300.11
372.736	310.27
373.117	316.15
373.498	323.38
373.879	306.88
374.26	322.25
374.641	318.86
375.021	289.48
375.402	316.15
375.783	318.18
376.163	330.61
376.544	309.82
376.925	311.86
377.305	320.9
377.686	327.9
378.066	324.51
378.447	318.86
378.827	289.26
379.208	313.89
379.588	323.61
379.968	322.7
380.349	317.51
380.729	324.06
381.109	318.18
381.489	312.31
381.87	335.58
382.25	327.9
382.63	321.57
383.01	348.92
383.39	341.91
383.77	354.57
384.15	341.46
384.53	335.36
384.91	339.88
385.29	322.25
385.67	321.12
386.049	346.21
386.429	349.82
386.809	343.27
387.189	351.4
387.568	355.02
387.948	351.4
388.328	356.15
388.707	336.26
389.087	332.19
389.466	337.17
389.846	337.84
390.225	361.35
390.605	358.18
390.984	355.02
391.363	326.09
391.743	334
392.122	360.67
392.501	347.34
392.881	374.45
393.26	362.7
393.639	348.69
394.018	367.67
394.397	367
394.776	363.38
395.155	384.62
395.534	364.06
395.913	336.94
396.292	361.12
396.671	366.77
397.05	387.56
397.429	378.52
397.808	362.48
398.186	356.83
398.565	388.92
398.944	370.84
399.323	393.66
399.701	392.76
400.08	390.27
400.458	380.33
400.837	384.62
401.215	384.85
401.594	387.56
401.972	393.66
402.351	396.83
402.729	410.61
403.107	375.81
403.486	406.09
403.864	390.27
404.242	402.93
404.62	409.93
404.999	418.07
405.377	422.14
405.755	422.36
406.133	421.01
406.511	397.73
406.889	424.85
407.267	405.19
407.645	424.62
408.023	401.12
408.401	401.35
408.779	421.46
409.156	416.26
409.534	432.08
409.912	425.3
410.29	421.68
410.667	432.76
411.045	457.84
411.422	445.86
411.8	453.1
412.178	441.12
412.555	445.19
412.933	461.23
413.31	439.08
413.687	452.64
414.065	450.38
414.442	483.38
414.819	459.65
415.197	475.69
415.574	473.21
415.951	497.84
416.328	472.53
416.705	476.15
417.082	471.85
417.46	486.54
417.837	470.5
418.214	497.39
418.591	495.81
418.967	491.51
419.344	503.04
419.721	512.3
420.098	511.62
420.475	512.08
420.852	525.41
421.228	515.24
421.605	516.82
421.982	513.66
422.358	523.38
422.735	554.56
423.111	521.34
423.488	529.7
423.864	556.14
424.241	543.04
424.617	524.73
424.994	534
425.37	549.36
425.746	541.45
426.123	565.18
426.499	563.38
426.875	567.44
427.251	555.69
427.627	573.32
428.003	576.93
428.379	586.88
428.756	586.65
429.132	575.35
429.507	612.41
429.883	602.24
430.259	602.92
430.635	617.38
431.011	601.79
431.387	635.01
431.763	613.77
432.138	626.65
432.514	616.93
432.89	635.46
433.265	635.92
433.641	636.82
434.016	633.66
434.392	655.35
434.767	650.38
435.143	647.44
435.518	661.23
435.894	668.91
436.269	687.44
436.644	670.72
437.02	695.35
437.395	686.31
437.77	698.06
438.145	705.29
438.52	724.95
438.895	712.3
439.271	733.99
439.646	720.43
440.021	733.09
440.395	731.73
440.77	743.03
441.145	736.7
441.52	752.3
441.895	758.4
442.27	747.1
442.645	757.95
443.019	754.78
443.394	766.31
443.769	781
444.143	764.73
444.518	771.73
444.892	777.83
445.267	788.91
445.641	763.6
446.016	802.46
446.39	797.27
446.764	802.92
447.139	825.06
447.513	805.63
447.887	790.49
448.262	812.63
448.636	806.31
449.01	825.74
449.384	826.64
449.758	821.9
450.132	828.45
450.506	842.92
450.88	822.35
451.254	837.49
451.628	836.81
452.002	845.63
452.376	860.99
452.75	876.81
453.123	871.39
453.497	881.11
453.871	891.73
454.244	886.53
454.618	897.83
454.992	901.67
455.365	926.08
455.739	962.01
456.112	943.93
456.486	943.03
456.859	957.49
457.232	969.92
457.606	967.21
457.979	968.34
458.352	984.38
458.725	1021.44
459.099	1019.18
459.472	1033.19
459.845	1022.57
460.218	1029.8
460.591	1014.21
460.964	1047.43
461.337	1059.41
461.71	1089.91
462.083	1066.19
462.456	1084.94
462.829	1100.99
463.201	1120.87
463.574	1112.97
463.947	1125.85
464.32	1130.14
464.692	1155.9
465.065	1147.09
465.438	1178.05
465.81	1182.57
466.183	1191.38
466.555	1237.93
466.928	1215.34
467.3	1238.16
467.672	1251.94
468.045	1279.29
468.417	1279.74
468.789	1279.97
469.161	1300.3
469.534	1300.08
469.906	1345.28
470.278	1365.16
470.65	1363.81
471.022	1413.07
471.394	1395.67
471.766	1443.13
472.138	1435.44
472.51	1451.94
472.882	1498.27
473.253	1529.9
473.625	1516.8
473.997	1551.6
474.369	1568.77
474.74	1597.02
475.112	1623.69
475.484	1642.22
475.855	1682.67
476.227	1691.03
476.598	1732.38
476.97	1730.58
477.341	1763.8
477.713	1831.36
478.084	1816.22
478.455	1867.75
478.827	1856.67
479.198	1906.84
479.569	1970.34
479.94	1976.22
480.311	2012.83
480.682	2053.51
481.053	2093.5
481.424	2140.96
481.795	2154.75
482.166	2217.79
482.537	2211.92
482.908	2260.51
483.279	2293.95
483.65	2328.75
484.021	2387.96
484.391	2394.06
484.762	2456.66
485.133	2432.93
485.503	2511.57
485.874	2560.38
486.244	2584.56
486.615	2617.78
486.985	2668.4
487.356	2708.4
487.726	2743.43
488.097	2783.43
488.467	2798.8
488.837	2871.34
489.207	2886.93
489.578	2953.37
489.948	2977.55
490.318	3046.7
490.688	3099.13
491.058	3072.01
491.428	3124.66
491.798	3183.42
492.168	3213.02
492.538	3246.24
492.908	3269.97
493.278	3345.67
493.648	3344.54
494.017	3341.61
494.387	3427.93
494.757	3488.72
495.126	3511.77
495.496	3506.8
495.866	3502.73
496.235	3549.51
496.605	3619.79
496.974	3618.89
497.344	3642.84
497.713	3704.31
498.082	3673.58
498.452	3743.4
498.821	3742.95
499.19	3784.76
499.559	3791.31
499.928	3827.47
500.298	3833.57
500.667	3894.13
501.036	3869.95
501.405	3916.96
501.774	3958.99
502.143	3983.85
502.512	4005.32
502.88	4036.05
503.249	4043.51
503.618	4074.7
503.987	4080.8
504.356	4125.77
504.724	4083.51
505.093	4135.03
505.462	4109.5
505.83	4186.1
506.199	4191.98
506.567	4245.09
506.936	4250.06
507.304	4284.63
507.672	4315.82
508.041	4328.02
508.409	4359.21
508.777	4333.22
509.145	4425.65
509.514	4420.45
509.882	4441.24
510.25	4478.07
510.618	4472.88
510.986	4456.15
511.354	4522.37
511.722	4541.58
512.09	4535.47
512.458	4543.16
512.826	4589.94
513.193	4625.42
513.561	4611.4
513.929	4643.04
514.297	4662.02
514.664	4684.17
515.032	4671.74
515.4	4738.86
515.767	4759.42
516.135	4754
516.502	4724.85
516.869	4810.95
517.237	4811.62
517.604	4796.94
517.972	4847.78
518.339	4848.23
518.706	4870.38
519.073	4839.19
519.44	4913.77
519.808	4900.21
520.175	4959.19
520.542	4979.76
520.909	5015.01
521.276	5015.91
521.643	5023.14
522.009	5096.59
522.376	5085.97
522.743	5143.82
523.11	5190.15
523.477	5220.2
523.843	5191.5
524.21	5245.51
524.577	5241.9
524.943	5304.27
525.31	5320.31
525.676	5351.95
526.043	5381.78
526.409	5419.97
526.776	5452.29
527.142	5444.38
527.508	5461.1
527.874	5541.55
528.241	5579.74
528.607	5542.91
528.973	5614.32
529.339	5652.05
529.705	5628.78
530.071	5694.99
530.437	5679.85
530.803	5744.48
531.169	5784.25
531.535	5755.78
531.901	5797.59
532.267	5819.28
532.632	5823.58
532.998	5864.93
533.364	5935.89
533.73	5956.23
534.095	5916.91
534.461	5991.93
534.826	5978.15
535.192	6074.19
535.557	6109.67
535.923	6052.95
536.288	6123
536.653	6097.01
537.019	6120.52
537.384	6115.09
537.749	6159.84
538.114	6206.16
538.479	6223.79
538.845	6345.6
539.21	6245.03
539.575	6279.61
539.94	6299.27
540.305	6377.91
540.67	6348.31
541.034	6364.58
541.399	6375.88
541.764	6466.5
542.129	6505.59
542.494	6457.68
542.858	6560.51
543.223	6505.59
543.587	6579.04
543.952	6595.31
544.316	6575.65
544.681	6608.64
545.045	6628.3
545.41	6682.99
545.774	6732.93
546.138	6736.32
546.503	6743.1
546.867	6756.88
547.231	6868.97
547.595	6856.99
547.959	6852.48
548.324	6894.73
548.688	6906.03
549.052	7007.95
549.416	6929.31
549.779	6979.93
550.143	6955.75
550.507	7103.54
550.871	7071
551.235	7063.77
551.599	7047.72
551.962	7122.52
552.326	7193.48
552.689	7218.12
553.053	7162.3
553.417	7183.31
553.78	7280.71
554.143	7221.96
554.507	7349.86
554.87	7298.79
555.234	7413.36
555.597	7315.97
555.96	7375.4
556.323	7378.79
556.686	7363.2
557.05	7470.99
557.413	7468.5
557.776	7456.3
558.139	7463.53
558.502	7531.78
558.865	7541.27
559.228	7624.66
559.59	7637.54
559.953	7620.14
560.316	7721.38
560.679	7739.46
561.041	7776.97
561.404	7769.51
561.767	7812
562.129	7814.48
562.492	7848.16
562.854	7899.91
563.217	7894.26
563.579	7955.95
563.941	7971.54
564.304	8008.6
564.666	8041.14
565.028	8102.16
565.39	8062.84
565.753	8090.18
566.115	8167.69
566.477	8121.82
566.839	8156.17
567.201	8162.72
567.563	8253.79
567.925	8328.14
568.287	8338.76
568.648	8281.14
569.01	8428.7
569.372	8461.47
569.734	8447.46
570.095	8466.22
570.457	8508.25
570.819	8554.58
571.18	8571.3
571.542	8586.67
571.903	8631.41
572.265	8703.5
572.626	8710.05
572.987	8748.7
573.349	8819.66
573.71	8853.33
574.071	8918.18
574.432	8955.02
574.794	9017.62
575.155	9049.25
575.516	8990.05
575.877	9157.05
576.238	9218.06
576.599	9306.65
576.96	9377.15
577.32	9452.18
577.681	9548.22
578.042	9560.88
578.403	9669.12
578.763	9714.55
579.124	9802
579.485	9995.9
579.845	10029.11
580.206	10031.15
580.566	10230.69
580.927	10316.34
581.287	10420.97
581.648	10484.7
582.008	10646.05
582.368	10698.25
582.728	10931.01
583.089	11007.62
583.449	11098.24
583.809	11329.19
584.169	11440.83
584.529	11655.96
584.889	11838.33
585.249	11959.01
585.609	12098.44
585.969	12340.24
586.329	12403.74
586.688	12709.72
587.048	12859.1
587.408	12981.81
587.768	13212.76
588.127	13472.64
588.487	13609.81
588.846	13921.22
589.206	14007.09
589.565	14288.89
589.925	14540.86
590.284	14721.65
590.643	14943.11
591.003	15223.55
591.362	15504.68
591.721	15767.72
592.08	15993.03
592.44	16251.32
592.799	16440.47
593.158	16746
593.517	16897.63
593.876	17231.86
594.235	17531.29
594.593	17813.09
594.952	18138.73
595.311	18258.05
595.67	18560.87
596.029	18883.8
596.387	19192.04
596.746	19392.71
597.104	19625.02
597.463	19869.08
597.822	20225.91
598.18	20381.84
598.538	20625.67
598.897	21014.81
599.255	20967.36
599.613	21702.71
599.972	21742.48
600.33	22141.79
600.688	22273.09
601.046	22529.58
601.404	22887.08
601.762	23033.07
602.12	23400.74
602.478	23577.46
602.836	23915.53
603.194	24009.31
603.552	24231
603.91	24430.32
604.268	24760.7
604.625	24946.46
604.983	25318.66
605.341	25378.77
605.698	25689.95
606.056	26022.14
606.413	26267.33
606.771	26451.51
607.128	26695.12
607.485	26771.27
607.843	26943.92
608.2	27379.39
608.557	27592.49
608.914	27727.86
609.272	28051.24
609.629	28322.65
609.986	28489.87
610.343	28451.46
610.7	28797.66
611.057	28927.37
611.414	29210.08
611.771	29368.72
612.127	29682.16
612.484	29704.08
612.841	29978.19
613.198	29932.09
613.554	30114.91
613.911	30402.59
614.267	30710.15
614.624	30812.3
614.98	30932.52
615.337	31130.93
615.693	31207.09
616.05	31379.06
616.406	31678.26
616.762	31504.93
617.118	31794.19
617.475	31960.52
617.831	32208.42
618.187	32205.48
618.543	32291.13
618.899	32593.04
619.255	32773.15
619.611	32840.04
619.967	32988.06
620.323	33094.27
620.678	32991.9
621.034	33239.8
621.39	33294.04
621.746	33244.32
622.101	33767.02
622.457	33519.57
622.812	33750.3
623.168	33964.3
623.523	33949.62
623.879	34105.32
624.234	33928.15
624.589	34070.97
624.945	34275.93
625.3	34279.55
625.655	34377.63
626.01	34519.77
626.365	34552.54
626.72	34518.41
627.075	34694.23
627.43	34696.71
627.785	34645.87
628.14	34846.32
628.495	34945.07
628.85	34793.21
629.205	34841.57
629.559	35091.73
629.914	34982.81
630.269	35041.79
630.623	34974.67
630.978	34910.95
631.332	35093.54
631.687	35182.58
632.041	35110.94
632.396	35165.4
632.75	35091.28
633.104	35258.51
633.459	35060.1
633.813	35188.45
634.167	35197.27
634.521	35294.67
634.875	35288.11
635.229	35166.98
635.583	35160.66
635.937	35141.45
636.291	35173.09
636.645	35157.04
636.999	35049.7
637.352	35373.76
637.706	35040.66
638.06	35279.98
638.413	35150.71
638.767	35137.61
639.121	35202.46
639.474	35025.07
639.828	35063.26
640.181	35195.01
640.534	35219.41
640.888	35089.47
641.241	34957.72
641.594	35170.15
641.947	35189.81
642.301	35007.44
642.654	35169.02
643.007	35120.43
643.36	35056.03
643.713	35117.95
644.066	35182.58
644.419	34892.64
644.771	34824.4
645.124	34472.31
645.477	34407.46
645.83	34274.58
646.182	34132.21
646.535	34047.69
646.888	34119.55
647.24	33855.83
647.593	34163.85
647.945	34118.65
648.298	33882.95
648.65	33919.11
649.002	33758.21
649.355	33849.05
649.707	33934.93
650.059	34080.46
650.411	34516.83
650.763	34534.91
651.115	34976.03
651.467	34778.75
651.819	34559.77
652.171	34715.25
652.523	34571.97
652.875	34677.73
653.227	34480.68
653.578	34599.09
653.93	34605.42
654.282	34543.27
654.633	34397.74
654.985	34491.97
655.337	34457.4
655.688	34519.32
656.039	34656.26
656.391	34342.37
656.742	34383.5
657.094	34461.92
657.445	34483.61
657.796	34508.92
658.147	34500.11
658.498	34376.27
658.849	34486.55
659.2	34417.4
659.551	34416.72
659.902	34477.29
660.253	34288.59
660.604	34441.13
660.955	34276.16
661.306	34362.03
661.656	34328.59
662.007	34357.74
662.358	34303.05
662.708	34258.99
663.059	34402.26
663.409	34020.35
663.76	34336.95
664.11	34355.93
664.461	34384.41
664.811	34318.19
665.161	34293.11
665.511	34281.36
665.862	34328.81
666.212	34425.08
666.562	34380.34
666.912	34254.01
667.262	34303.5
667.612	34194.58
667.962	34403.62
668.312	34202.49
668.662	34328.59
669.011	34247.91
669.361	34288.36
669.711	34205.43
670.06	34118.65
670.41	34097.63
670.76	34058.99
671.109	34257.4
671.459	34117.3
671.808	34072.1
672.157	34105.09
672.507	33883.63
672.856	34090.86
673.205	34092.66
673.554	33982.61
673.904	33897.41
674.253	34075.49
674.602	33913.91
674.951	33560.7
675.3	33372.68
675.649	33965.21
675.998	33883.63
676.346	33926.57
676.695	33965.43
677.044	33637.08
677.393	33804.99
677.741	33875.72
678.09	33776.29
678.438	33658.78
678.787	33853.57
679.135	33753.91
679.484	33663.3
679.832	33732.9
680.181	33514.15
680.529	33604.77
680.877	33461.04
681.225	33570.19
681.573	33706.68
681.922	33448.61
682.27	33333.81
682.618	33353.7
682.966	33302.63
683.314	33335.85
683.661	33246.81
684.009	33006.36
684.357	33119.36
684.705	33034.84
685.053	33008.85
685.4	32901.51
685.748	32742.64
686.095	32855.86
686.443	32729.99
686.79	32646.15
687.138	32876.88
687.485	32700.16
687.832	32473.04
688.18	32666.49
688.527	32470.78
688.874	32398.7
689.221	32465.36
689.568	32299.94
689.915	32311.47
690.262	32212.49
690.609	32064.69
690.956	32105.14
691.303	31974.07
691.65	31772.95
691.997	31888.88
692.344	31748.32
692.69	31726.85
693.037	31768.66
693.383	31360.31
693.73	31433.52
694.077	31358.5
694.423	31424.03
694.769	31281.66
695.116	31256.13
695.462	31130.48
695.808	31052.06
696.155	31082.35
696.501	30934.1
696.847	30849.81
697.193	30558.29
697.539	30820.88
697.885	30523.27
698.231	30355.13
698.577	30478.52
698.923	30276.49
699.269	30119.66
699.614	30022.49
699.96	30020.68
700.306	30095.93
700.651	29856.39
700.997	29864.75
701.342	29943.17
701.688	29734.13
702.033	29663.4
702.379	29698.2
702.724	29613.91
703.069	29646
703.415	29323.07
703.76	29269.06
704.105	29314.26
704.45	29269.51
704.795	29060.7
705.14	28946.81
705.485	28900.26
705.83	28871.33
706.175	28953.59
706.52	28838.11
706.865	28718.34
707.209	28688.96
707.554	28533.94
707.899	28661.17
708.243	28403.55
708.588	28397.9
708.932	28105.48
709.277	28175.76
709.621	28164.91
709.966	27982.99
710.31	28138.92
710.654	27860.28
710.998	28006.5
711.342	27968.53
711.687	27795.43
712.031	27699.38
712.375	27526.51
712.719	27665.26
713.063	27658.03
713.407	27715.43
713.75	27455.1
714.094	27605.38
714.438	27387.98
714.782	27500.97
715.125	27270.7
715.469	27318.38
715.812	27100.98
716.156	27105.73
716.499	27106.41
716.843	27059.63
717.186	26934.66
717.53	27009.01
717.873	27015.56
718.216	26922.68
718.559	26786.19
718.902	26687.21
719.246	26700.09
719.589	26687.43
719.932	26561.56
720.275	26572.41
720.617	26493.09
720.96	26526.76
721.303	26482.47
721.646	26473.2
721.989	26284.73
722.331	26364.28
722.674	26300.55
723.016	26253.32
723.359	26180.55
723.701	26229.82
724.044	25985.31
724.386	25961.13
724.729	26066.43
725.071	25943.95
725.413	25909.15
725.755	25886.55
726.097	25708.7
726.439	25748.25
726.782	25633.9
727.124	25727.91
727.465	25554.58
727.807	25631.19
728.149	25580.34
728.491	25509.39
728.833	25611.08
729.175	25329.5
729.516	25300.8
729.858	25302.16
730.199	25409.05
730.541	25247.47
730.882	25355.49
731.224	25308.49
731.565	25189.85
731.906	25262.39
732.248	25150.3
732.589	25100.13
732.93	24972.9
733.271	25034.37
733.612	24951.43
733.953	25009.51
734.294	24949.85
734.635	24840.7
734.976	24940.14
735.317	24723.42
735.658	24826.24
735.999	24803.42
736.339	24696.07
736.68	24787.6
737.021	24725
737.361	24617.43
737.702	24655.62
738.042	24604.55
738.383	24496.53
738.723	24597.09
739.063	24536.08
739.404	24477.1
739.744	24405.23
740.084	24301.51
740.424	24332.69
740.764	24427.61
741.104	24366.36
741.444	24236.65
741.784	24218.57
742.124	24181.06
742.464	24162.75
742.804	24038.24
743.143	24060.84
743.483	24083.21
743.823	24004.57
744.162	24012.7
744.502	23944
744.841	23859.71
745.181	23902.65
745.52	23965.7
745.86	23860.39
746.199	23784.46
746.538	23836.89
746.877	23849.77
747.216	23790.33
747.556	23722.31
747.895	23730.22
748.234	23696.33
748.573	23612.26
748.911	23606.84
749.25	23534.97
749.589	23383.34
749.928	23432.83
750.267	23441.19
750.605	23374.75
750.944	23320.97
751.283	23333.4
751.621	23280.07
751.96	23261.31
752.298	23180.63
752.636	23129.11
752.975	23037.59
753.313	23007.08
753.651	23098.83
753.989	22957.59
754.327	22890.02
754.666	22748.78
755.004	22742.68
755.342	22866.07
755.679	22723.02
756.017	22682.57
756.355	22752.4
756.693	22705.84
757.031	22617.94
757.368	22517.37
757.706	22534.32
758.044	22390.82
758.381	22426.75
758.719	22410.94
759.056	22291.17
759.394	22219.08
759.731	22017.95
760.068	22123.26
760.405	22059.08
760.743	22011.62
761.08	21944.28
