Data from hue_300_FLMS001491_00009.txt Node
Date: Tue Feb 07 15:49:39 GMT 2017
User: dcchb
Spectrometer: FLMS00149
Trigger mode: 0
Integration Time (sec): 2.000000E-2
Scans to average: 10
Electric dark correction enabled: true
Nonlinearity correction enabled: false
Boxcar width: 0
XAxis mode: Wavelengths
Number of Pixels in Spectrum: 2048
>>>>>Begin Spectral Data<<<<<
341.393	3.32
341.776	3.32
342.16	3.32
342.543	-50.92
342.927	-59.05
343.31	-67.87
343.693	-80.52
344.077	-59.5
344.46	-50.92
344.843	-51.59
345.226	-33.06
345.61	-27.41
345.993	-37.36
346.376	-8.43
346.759	31.79
347.142	25.69
347.525	42.41
347.908	45.13
348.291	79.02
348.674	88.06
349.057	104.56
349.44	119.93
349.823	161.73
350.206	179.59
350.588	179.36
350.971	212.13
351.354	217.1
351.737	240.38
352.119	238.57
352.502	239.25
352.884	270.66
353.267	258.23
353.65	263.43
354.032	283.99
354.414	298.68
354.797	285.57
355.179	313.37
355.562	318.11
355.944	320.37
356.326	326.25
356.709	332.8
357.091	327.38
357.473	337.1
357.855	317.66
358.238	349.98
358.62	311.56
359.002	320.82
359.384	324.44
359.766	374.38
360.148	317.44
360.53	344.78
360.912	337.32
361.294	319.69
361.676	314.5
362.057	333.48
362.439	330.77
362.821	326.25
363.203	324.67
363.584	330.09
363.966	322.41
364.348	313.37
364.729	332.58
365.111	315.85
365.493	312.69
365.874	298
366.256	330.32
366.637	315.18
367.019	303.2
367.4	314.72
367.781	311.33
368.163	315.18
368.544	299.58
368.925	337.32
369.306	302.97
369.688	287.61
370.069	316.08
370.45	301.84
370.831	306.36
371.212	318.79
371.593	314.5
371.974	317.21
372.355	317.21
372.736	315.63
373.117	285.57
373.498	308.62
373.879	310.88
374.26	319.47
374.641	298
375.021	321.28
375.402	293.71
375.783	338.45
376.163	311.79
376.544	314.05
376.925	336.19
377.305	308.17
377.686	316.53
378.066	323.99
378.447	318.34
378.827	328.06
379.208	334.38
379.588	329.19
379.968	316.98
380.349	343.2
380.729	338
381.109	328.06
381.489	332.8
381.87	343.2
382.25	318.57
382.63	331.45
383.01	336.19
383.39	356.3
383.77	327.38
384.15	337.55
384.53	334.16
384.91	337.77
385.29	336.87
385.67	338.23
386.049	353.82
386.429	334.16
386.809	336.64
387.189	346.13
387.568	350.88
387.948	338.23
388.328	361.5
388.707	347.49
389.087	361.05
389.466	377.77
389.846	343.2
390.225	356.53
390.605	342.75
390.984	361.73
391.363	367.83
391.743	375.96
392.122	371.67
392.501	361.73
392.881	363.08
393.26	368.51
393.639	359.69
394.018	369.41
394.397	384.1
394.776	373.93
395.155	366.02
395.534	373.93
395.913	387.49
396.292	373.25
396.671	387.94
397.05	402.18
397.429	403.53
397.808	397.89
398.186	402.63
398.565	396.08
398.944	372.35
399.323	378
399.701	391.11
400.08	403.08
400.458	398.34
400.837	419.35
401.215	404.89
401.594	434.49
401.972	407.6
402.351	421.39
402.729	436.08
403.107	422.07
403.486	422.07
403.864	422.07
404.242	427.71
404.62	434.04
404.999	431.78
405.377	441.05
405.755	434.04
406.133	439.47
406.511	453.02
406.889	464.1
407.267	468.62
407.645	458.67
408.023	454.38
408.401	470.65
408.779	503.19
409.156	469.97
409.534	478.79
409.912	483.76
410.29	501.39
410.667	506.58
411.045	504.32
411.422	514.04
411.8	523.76
412.178	532.57
412.555	526.47
412.933	542.74
413.31	526.02
413.687	567.6
414.065	573.25
414.442	565.56
414.819	577.54
415.197	571.67
415.574	586.13
415.951	603.76
416.328	631.33
416.705	610.99
417.082	619.57
417.46	653.02
417.837	642.85
418.214	665.45
418.591	665.22
418.967	688.72
419.344	676.97
419.721	706.58
420.098	691.21
420.475	693.24
420.852	718.1
421.228	728.27
421.605	752.9
421.982	747.71
422.358	747.03
422.735	773.69
423.111	752.23
423.488	757.88
423.864	789.06
424.241	787.03
424.617	824.54
424.994	782.96
425.37	796.52
425.746	797.42
426.123	836.07
426.499	839.68
426.875	854.37
427.251	865.9
427.627	877.65
428.003	877.65
428.379	883.52
428.756	890.08
429.132	913.35
429.507	942.5
429.883	932.11
430.259	946.8
430.635	935.5
431.011	945.67
431.387	981.37
431.763	1006.23
432.138	1023.41
432.514	999.45
432.89	1017.3
433.265	1040.81
433.641	1056.85
434.016	1043.29
434.392	1067.47
434.767	1100.92
435.143	1091.2
435.518	1111.99
435.894	1100.69
436.269	1131.2
436.644	1123.29
437.02	1141.14
437.395	1153.57
437.77	1151.54
438.145	1177.53
438.52	1205.1
438.895	1191.76
439.271	1197.86
439.646	1227.92
440.021	1261.82
440.395	1236.73
440.77	1237.18
441.145	1244.19
441.52	1255.49
441.895	1269.27
442.27	1280.8
442.645	1260.24
443.019	1250.07
443.394	1279.22
443.769	1329.16
444.143	1251.87
444.518	1328.71
444.892	1302.72
445.267	1325.54
445.641	1294.36
446.016	1312.44
446.39	1351.31
446.764	1353.34
447.139	1329.84
447.513	1359.22
447.887	1354.47
448.262	1342.49
448.636	1355.15
449.01	1361.25
449.384	1385.88
449.758	1362.61
450.132	1386.79
450.506	1382.72
450.88	1391.08
451.254	1407.35
451.628	1399.67
452.002	1408.25
452.376	1422.04
452.75	1428.59
453.123	1465.2
453.497	1455.48
453.871	1468.59
454.244	1508.59
454.618	1486.22
454.992	1485.09
455.365	1499.55
455.739	1547.46
456.112	1510.4
456.486	1524.64
456.859	1525.54
457.232	1567.12
457.606	1563.5
457.979	1565.99
458.352	1576.39
458.725	1604.63
459.099	1605.99
459.472	1617.97
459.845	1629.27
460.218	1643.5
460.591	1661.81
460.964	1653.9
461.337	1667.46
461.71	1675.14
462.083	1733.67
462.456	1720.79
462.829	1728.47
463.201	1731.86
463.574	1732.09
463.947	1783.84
464.32	1801.24
464.692	1787.9
465.065	1815.47
465.438	1801.01
465.81	1820.22
466.183	1826.32
466.555	1886.43
466.928	1864.97
467.3	1843.95
467.672	1874.91
468.045	1964.17
468.417	1925.08
468.789	1939.99
469.161	1956.49
469.534	1975.24
469.906	1997.62
470.278	1983.61
470.65	2014.11
471.022	2039.42
471.394	2087.33
471.766	2074.68
472.138	2093.43
472.51	2104.73
472.882	2140.44
473.253	2165.07
473.625	2168.46
473.997	2226.31
474.369	2188.12
474.74	2233.77
475.112	2236.03
475.484	2312.41
475.855	2343.82
476.227	2330.72
476.598	2391.28
476.97	2364.39
477.341	2419.07
477.713	2425.85
478.084	2448.68
478.455	2474.67
478.827	2481.9
479.198	2521.9
479.569	2556.7
479.94	2570.48
480.311	2605.51
480.682	2623.14
481.053	2690.03
481.424	2752.85
481.795	2712.85
482.166	2744.49
482.537	2801.89
482.908	2814.32
483.279	2863.58
483.65	2847.54
484.021	2859.06
484.391	2879.85
484.762	2936.35
485.133	2944.03
485.503	2986.07
485.874	3018.61
486.244	3039.4
486.615	3095.22
486.985	3113.75
487.356	3134.54
487.726	3137.93
488.097	3182.9
488.467	3209.56
488.837	3292.27
489.207	3255.44
489.578	3277.81
489.948	3318.71
490.318	3329.56
490.688	3321.42
491.058	3363
491.428	3386.51
491.798	3436.9
492.168	3549.44
492.538	3523.23
492.908	3536.11
493.278	3555.77
493.648	3611.36
494.017	3622.21
494.387	3617.24
494.757	3645.94
495.126	3646.39
495.496	3694.3
495.866	3687.06
496.235	3723.9
496.605	3737.01
496.974	3788.3
497.344	3777.46
497.713	3799.83
498.082	3814.07
498.452	3891.13
498.821	3862.88
499.19	3868.98
499.559	3863.56
499.928	3885.93
500.298	3913.5
500.667	3867.85
501.036	3902.65
501.405	3940.39
501.774	3936.78
502.143	3942.42
502.512	3952.59
502.88	4027.39
503.249	4031.46
503.618	4047.73
503.987	4037.11
504.356	4028.3
504.724	4049.54
505.093	4073.27
505.462	4080.73
505.83	4104.91
506.199	4107.62
506.567	4162.98
506.936	4158.46
507.304	4181.06
507.672	4172.7
508.041	4179.93
508.409	4233.49
508.777	4272.81
509.145	4263.09
509.514	4222.19
509.882	4270.55
510.25	4299.7
510.618	4344
510.986	4258.35
511.354	4311
511.722	4297.67
512.09	4390.32
512.458	4308.74
512.826	4344.45
513.193	4394.16
513.561	4405.46
513.929	4435.97
514.297	4440.72
514.664	4465.12
515.032	4416.54
515.4	4452.69
515.767	4495.63
516.135	4486.59
516.502	4466.48
516.869	4515.52
517.237	4541.05
517.604	4467.38
517.972	4566.36
518.339	4569.98
518.706	4540.37
519.073	4577.21
519.44	4587.61
519.808	4608.62
520.175	4617.89
520.542	4660.37
520.909	4735.62
521.276	4609.53
521.643	4685.68
522.009	4690.43
522.376	4709.64
522.743	4738.11
523.11	4790.54
523.477	4814.27
523.843	4839.58
524.21	4823.08
524.577	4879.8
524.943	4879.58
525.31	4931.78
525.676	4894.04
526.043	4929.52
526.409	4937.43
526.776	5001.83
527.142	4992.57
527.508	4972.23
527.874	5036.41
528.241	5106.01
528.607	5068.95
528.973	5133.58
529.339	5103.07
529.705	5133.58
530.071	5186.46
530.437	5167.7
530.803	5271.88
531.169	5306.46
531.535	5236.85
531.901	5287.93
532.267	5301.71
532.632	5356.85
532.998	5338.55
533.364	5356.17
533.73	5366.12
534.095	5475.49
534.461	5437.07
534.826	5458.77
535.192	5458.77
535.557	5540.8
535.923	5477.3
536.288	5583.74
536.653	5581.93
537.019	5572.44
537.384	5625.09
537.749	5613.12
538.114	5624.87
538.479	5645.66
538.845	5686.33
539.21	5642.27
539.575	5656.96
539.94	5734.47
540.305	5790.06
540.67	5737.63
541.034	5765.88
541.399	5795.03
541.764	5837.06
542.129	5853.56
542.494	5876.16
542.858	5891.98
543.223	5938.53
543.587	5999.77
543.952	5941.69
544.316	6029.15
544.681	5988.7
545.045	6038.19
545.41	6073.44
545.774	6043.84
546.138	6080.9
546.503	6159.77
546.867	6137.4
547.231	6175.59
547.595	6174
547.959	6253.78
548.324	6224.17
548.688	6248.35
549.052	6256.49
549.416	6363.83
549.779	6320.44
550.143	6297.84
550.507	6345.53
550.871	6359.08
551.235	6388.69
551.599	6472.08
551.962	6454.67
552.326	6419.2
552.689	6532.64
553.053	6478.86
553.417	6504.39
553.78	6579.87
554.143	6551.17
554.507	6553.66
554.87	6617.38
555.234	6629.81
555.597	6591.85
555.96	6570.6
556.323	6656.93
556.686	6655.12
557.05	6682.92
557.413	6782.8
557.776	6766.31
558.139	6778.51
558.502	6766.76
558.865	6783.48
559.228	6804.04
559.59	6848.34
559.953	6849.92
560.316	6871.16
560.679	6849.69
561.041	6927.2
561.404	6902.8
561.767	6967.43
562.129	6974.44
562.492	6991.16
562.854	6966.3
563.217	6972.18
563.579	7025.73
563.941	7062.79
564.304	7070.7
564.666	7164.26
565.028	7146.41
565.39	7164.49
565.753	7216.69
566.115	7241.32
566.477	7255.33
566.839	7268.21
567.201	7315.44
567.563	7264.82
567.925	7378.04
568.287	7343.47
568.648	7357.7
569.01	7447.64
569.372	7473.41
569.734	7500.3
570.095	7533.29
570.457	7614.19
570.819	7555.44
571.18	7654.64
571.542	7664.81
571.903	7678.37
572.265	7753.62
572.626	7773.74
572.987	7834.07
573.349	7945.03
573.71	7894.19
574.071	7949.32
574.432	8019.83
574.794	8065.48
575.155	8129.21
575.516	8123.78
575.877	8197
576.238	8258.02
576.599	8347.28
576.96	8409.88
577.32	8467.05
577.681	8615.75
578.042	8596.77
578.403	8682.64
578.763	8767.38
579.124	8898.68
579.485	9042.18
579.845	9052.12
580.206	9224.32
580.566	9349.06
580.927	9457.31
581.287	9577.08
581.648	9658.43
582.008	9764.87
582.368	9934.58
582.728	10146.78
583.089	10249.38
583.449	10422.93
583.809	10502.93
584.169	10755.58
584.529	10855.24
584.889	11149.24
585.249	11325.28
585.609	11427.2
585.969	11733.86
586.329	11922.55
586.688	12127.97
587.048	12360.06
587.408	12494.52
587.768	12788.07
588.127	12968.63
588.487	13195.29
588.846	13585.11
589.206	13724.31
589.565	13954.82
589.925	14258.09
590.284	14475.25
590.643	14781.01
591.003	15123.83
591.362	15428.22
591.721	15587.09
592.08	15900.3
592.44	16277.92
592.799	16466.16
593.158	16731.24
593.517	17057.11
593.876	17392.01
594.235	17642.4
594.593	17940.7
594.952	18314.48
595.311	18560.8
595.67	18801.69
596.029	19248.24
596.387	19548.34
596.746	19780.65
597.104	20071.49
597.463	20322.56
597.822	20705.6
598.18	20897.46
598.538	21257.9
598.897	21675.29
599.255	21898.11
599.613	22357.76
599.972	22423.52
600.33	22917.97
600.688	22991.64
601.046	23424.85
601.404	23762.69
601.762	24034.55
602.12	24381.89
602.478	24701.43
602.836	24912.04
603.194	25001.98
603.552	25413.72
603.91	25578.69
604.268	25876.54
604.625	26101.62
604.983	26361.27
605.341	26612.34
605.698	27005.32
606.056	27162.61
606.413	27447.34
606.771	27772.31
607.128	27944.28
607.485	27993.77
607.843	28245.51
608.2	28669.01
608.557	28969.11
608.914	29039.17
609.272	29308.31
609.629	29656.55
609.986	29847.28
610.343	30014.28
610.7	30343.99
611.057	30437.32
611.414	30594.15
611.771	30817.42
612.127	31000.02
612.484	31196.62
612.841	31538.99
613.198	31665.76
613.554	31891.52
613.911	32068.46
614.267	32304.16
614.624	32378.06
614.98	32509.81
615.337	32864.38
615.693	32885.17
616.05	32954.09
616.406	33348.88
616.762	33383.68
617.118	33658.71
617.475	33578.93
617.831	33838.36
618.187	34044.91
618.543	34098.69
618.899	34430.21
619.255	34392.02
619.611	34582.07
619.967	34675.85
620.323	34830.43
620.678	34866.36
621.034	34989.97
621.39	34974.38
621.746	35158.33
622.101	35547.02
622.457	35438.55
622.812	35584.98
623.168	35816.84
623.523	35771.42
623.879	36005.08
624.234	35812.55
624.589	36016.38
624.945	36205.76
625.3	36334.12
625.655	36438.07
626.01	36444.62
626.365	36561
626.72	36426.99
627.075	36673.09
627.43	36591.96
627.785	36624.96
628.14	36727.33
628.495	36880.09
628.85	36848.9
629.205	36737.04
629.559	37049.58
629.914	36954.89
630.269	36988.11
630.623	36999.41
630.978	36877.83
631.332	37140.2
631.687	37137.03
632.041	37157.82
632.396	37237.14
632.75	37210.93
633.104	37241.21
633.459	37083.93
633.813	37092.74
634.167	37223.13
634.521	37156.47
634.875	37370.7
635.229	37332.73
635.583	37177.93
635.937	37133.19
636.291	37259.51
636.645	37253.64
636.999	37202.57
637.352	37446.4
637.706	37212.96
638.06	37335.44
638.413	37187.88
638.767	37235.11
639.121	37170.03
639.474	37039.86
639.828	37177.71
640.181	37128.9
640.534	37154.66
640.888	37106.75
641.241	37046.86
641.594	37190.82
641.947	37232.17
642.301	37229.68
642.654	37173.87
643.007	37169.12
643.36	37248.67
643.713	37212.51
644.066	37284.15
644.419	37154.66
644.771	36896.59
645.124	36529.59
645.477	36462.02
645.83	36212.08
646.182	36191.29
646.535	36078.75
646.888	36067.46
647.24	36031.52
647.593	36202.14
647.945	36189.49
648.298	35862.26
648.65	36022.26
649.002	35912.66
649.355	35999.21
649.707	35992.2
650.059	36267
650.411	36690.94
650.763	36599.65
651.115	36975
651.467	36874.44
651.819	36797.15
652.171	36756.7
652.523	36774.33
652.875	36834.22
653.227	36578.4
653.578	36926.87
653.93	36704.05
654.282	36742.69
654.633	36608.46
654.985	36745.63
655.337	36645.07
655.688	36701.56
656.039	36841.45
656.391	36532.98
656.742	36605.97
657.094	36612.53
657.445	36708.57
657.796	36732.75
658.147	36631.73
658.498	36502.25
658.849	36630.83
659.2	36571.4
659.551	36668.57
659.902	36703.37
660.253	36613.2
660.604	36730.94
660.955	36445.07
661.306	36624.05
661.656	36567.78
662.007	36545.86
662.358	36505.64
662.708	36581.34
663.059	36626.99
663.409	36415.92
663.76	36622.47
664.11	36559.65
664.461	36656.14
664.811	36610.04
665.161	36563.94
665.511	36436.03
665.862	36425.19
666.212	36631.28
666.562	36577.5
666.912	36544.51
667.262	36510.38
667.612	36413.44
667.962	36478.07
668.312	36453.89
668.662	36764.61
669.011	36497.27
669.361	36467.9
669.711	36350.84
670.06	36390.16
670.41	36370.27
670.76	36265.64
671.109	36428.35
671.459	36344.96
671.808	36288.92
672.157	36379.99
672.507	36166.21
672.856	36280.11
673.205	36298.41
673.554	36375.7
673.904	36102.71
674.253	36473.77
674.602	36134.8
674.951	35782.94
675.3	35601.48
675.649	36156.04
675.998	36174.12
676.346	36174.12
676.695	36218.64
677.044	36062.03
677.393	36105.65
677.741	36092.31
678.09	36007.34
678.438	35917.63
678.787	35942.49
679.135	35950.85
679.484	35780.68
679.832	35843.28
680.181	35690.74
680.529	35750.4
680.877	35592.67
681.225	35601.25
681.573	35847.57
681.922	35421.6
682.27	35469.05
682.618	35511.76
682.966	35331.66
683.314	35595.15
683.661	35309.28
684.009	35074.04
684.357	35252.79
684.705	35103.41
685.053	35283.07
685.4	35211.21
685.748	34911.33
686.095	35070.87
686.443	34817.09
686.79	34805.12
687.138	34842.63
687.485	34859.58
687.832	34714.95
688.18	34762.63
688.527	34559.47
688.874	34496.88
689.221	34510.89
689.568	34375.07
689.915	34150.9
690.262	34284
690.609	34122.65
690.956	34097.79
691.303	33999.71
691.65	33963.1
691.997	33880.17
692.344	33611.25
692.69	33787.06
693.037	33697.8
693.383	33429.78
693.73	33644.24
694.077	33357.02
694.423	33291.03
694.769	33241.77
695.116	33096.23
695.462	33209.9
695.808	32982.34
696.155	33013.98
696.501	32809.46
696.847	32791.61
697.193	32628
697.539	32661.67
697.885	32434.56
698.231	32277.95
698.577	32515.23
698.923	32308.91
699.269	32320.21
699.614	32035.7
699.96	31985.98
700.306	31911.86
700.651	31862.14
700.997	31806.1
701.342	31710.96
701.688	31780.11
702.033	31612.88
702.379	31696.72
702.724	31499.89
703.069	31555.71
703.415	31155.49
703.76	31221.48
704.105	31215.61
704.45	31248.6
704.795	31011.77
705.14	30819.23
705.485	30781.27
705.83	30712.79
706.175	30743.3
706.52	30744.66
706.865	30557.77
707.209	30529.07
707.554	30355.74
707.899	30511.22
708.243	30208.63
708.588	30361.39
708.932	30072.81
709.277	30131.57
709.621	30154.16
709.966	29899.26
710.31	29857.9
710.654	29736.1
710.998	29830.56
711.342	29790.56
711.687	29615.87
712.031	29505.37
712.375	29374.75
712.719	29451.58
713.063	29387.86
713.407	29433.73
713.75	29283.45
714.094	29292.04
714.438	29230.57
714.782	29256.79
715.125	29055.89
715.469	29090.46
715.812	28914.2
716.156	28703.36
716.499	28729.8
716.843	28843.46
717.186	28568.67
717.53	28755.11
717.873	28748.1
718.216	28687.76
718.559	28495.68
718.902	28314.44
719.246	28420.65
719.589	28353.99
719.932	28298.17
720.275	28232.86
720.617	28241.22
720.96	28140.21
721.303	28128.23
721.646	28137.72
721.989	27864.06
722.331	28150.38
722.674	27916.94
723.016	27980.44
723.359	27864.73
723.701	27940.66
724.044	27843.04
724.386	27597.85
724.729	27611.18
725.071	27604.85
725.413	27548.81
725.755	27722.14
726.097	27509.49
726.439	27462.71
726.782	27368.02
727.124	27511.52
727.465	27293.45
727.807	27300.45
728.149	27283.28
728.491	27171.64
728.833	27268.82
729.175	27149.27
729.516	27229.27
729.858	27025.89
730.199	27106.11
730.541	27116.05
730.882	26978.88
731.224	27160.8
731.565	26852.78
731.906	26829.51
732.248	26838.32
732.589	26762.84
732.93	26771.65
733.271	26643.75
733.612	26784.54
733.953	26818.21
734.294	26675.84
734.635	26656.4
734.976	26622.05
735.317	26509.51
735.658	26469.06
735.999	26449.86
736.339	26427.48
736.68	26429.06
737.021	26345.45
737.361	26212.57
737.702	26398.78
738.042	26338.22
738.383	26167.6
738.723	26355.62
739.063	26149.3
739.404	26233.82
739.744	26177.32
740.084	26165.34
740.424	26147.26
740.764	26000.6
741.104	26029.75
741.444	25987.72
741.784	25855.75
742.124	25969.87
742.464	25907.27
742.804	25792.02
743.143	25779.59
743.483	25620.27
743.823	25624.11
744.162	25705.47
744.502	25734.17
744.841	25544.57
745.181	25674.51
745.52	25531.69
745.86	25626.37
746.199	25477.23
746.538	25396.55
746.877	25568.97
747.216	25406.27
747.556	25585.25
747.895	25414.4
748.234	25450.33
748.573	25262.77
748.911	25335.53
749.25	25263.45
749.589	25285.14
749.928	25283.56
750.267	25288.08
750.605	25226.16
750.944	25095.54
751.283	25078.14
751.621	25070.68
751.96	24957.69
752.298	24958.6
752.636	25074.52
752.975	24895.32
753.313	24774.65
753.651	24922.21
753.989	24805.38
754.327	24772.84
754.666	24720.41
755.004	24711.14
755.342	24813.97
755.679	24792.5
756.017	24556.12
756.355	24561.09
756.693	24591.37
757.031	24661.43
757.368	24489
757.706	24424.15
758.044	24376.69
758.381	24462.34
758.719	24299.4
759.056	24288.33
759.394	24156.36
759.731	24044.49
