Data from hue_180_FLMS001491_00070.txt Node
Date: Tue Feb 07 16:47:20 GMT 2017
User: dcchb
Spectrometer: FLMS00149
Trigger mode: 0
Integration Time (sec): 2.000000E-2
Scans to average: 10
Electric dark correction enabled: true
Nonlinearity correction enabled: false
Boxcar width: 0
XAxis mode: Wavelengths
Number of Pixels in Spectrum: 2048
>>>>>Begin Spectral Data<<<<<
341.393	-24.87
341.776	-24.87
342.16	-24.87
342.543	-62.61
342.927	-65.55
343.31	-74.36
343.693	-70.75
344.077	-60.8
344.46	-62.61
344.843	-37.98
345.226	-44.53
345.61	-33.23
345.993	-4.76
346.376	-9.96
346.759	2.7
347.142	21
347.525	39.53
347.908	61.91
348.291	61.23
348.674	98.51
349.057	114.11
349.44	114.56
349.823	141
350.206	164.95
350.588	167.44
350.971	225.74
351.354	223.03
351.737	221
352.119	238.62
352.502	250.15
352.884	272.97
353.267	277.27
353.65	309.13
354.032	287.89
354.414	298.06
354.797	302.12
355.179	307.1
355.562	316.36
355.944	340.99
356.326	322.69
356.709	324.05
357.091	330.6
357.473	345.51
357.855	336.25
358.238	328.11
358.62	340.54
359.002	337.15
359.384	320.2
359.766	317.94
360.148	354.1
360.53	323.37
360.912	324.05
361.294	321.33
361.676	332.86
362.057	336.93
362.439	314.55
362.821	319.53
363.203	307.55
363.584	312.97
363.966	316.59
364.348	323.14
364.729	341.45
365.111	332.63
365.493	310.94
365.874	334.21
366.256	320.88
366.637	322.46
367.019	311.84
367.4	310.03
367.781	283.59
368.163	310.03
368.544	303.93
368.925	286.53
369.306	314.78
369.688	320.2
370.069	326.3
370.45	297.61
370.831	310.03
371.212	282.24
371.593	298.74
371.974	301.67
372.355	304.38
372.736	294.44
373.117	303.71
373.498	313.88
373.879	315.46
374.26	285.63
374.641	297.38
375.021	306.64
375.402	324.27
375.783	323.14
376.163	316.36
376.544	317.27
376.925	301.67
377.305	319.75
377.686	320.2
378.066	331.28
378.447	317.72
378.827	309.13
379.208	316.14
379.588	331.5
379.968	307.1
380.349	306.64
380.729	320.88
381.109	330.6
381.489	314.33
381.87	330.37
382.25	326.08
382.63	325.85
383.01	331.5
383.39	312.52
383.77	308.9
384.15	322.24
384.53	333.76
384.91	351.39
385.29	336.47
385.67	345.51
386.049	336.93
386.429	340.54
386.809	334.67
387.189	335.57
387.568	336.93
387.948	326.98
388.328	348.23
388.707	358.39
389.087	333.31
389.466	360.2
389.846	367.89
390.225	352.97
390.605	342.58
390.984	358.62
391.363	349.13
391.743	360.65
392.122	357.26
392.501	358.62
392.881	363.82
393.26	362.46
393.639	391.16
394.018	353.87
394.397	366.53
394.776	357.94
395.155	366.53
395.534	369.24
395.913	388.22
396.292	385.51
396.671	376.02
397.05	375.8
397.429	393.2
397.808	375.34
398.186	370.6
398.565	371.73
398.944	363.37
399.323	392.97
399.701	414.66
400.08	380.09
400.458	392.29
400.837	412.63
401.215	398.62
401.594	394.33
401.972	394.55
402.351	430.71
402.729	413.08
403.107	410.14
403.486	424.83
403.864	416.25
404.242	411.27
404.62	423.48
404.999	417.15
405.377	430.48
405.755	412.18
406.133	440.88
406.511	435.91
406.889	453.53
407.267	435.91
407.645	466.64
408.023	464.61
408.401	451.05
408.779	458.96
409.156	463.93
409.534	479.07
409.912	496.47
410.29	497.6
410.667	491.27
411.045	486.53
411.422	533.53
411.8	530.59
412.178	507.09
412.555	521.33
412.933	502.12
413.31	547.32
413.687	571.5
414.065	554.55
414.442	551.16
414.819	558.16
415.197	574.21
415.574	567.2
415.951	586.64
416.328	604.04
416.705	589.57
417.082	598.39
417.46	617.14
417.837	602.91
418.214	626.86
418.591	641.55
418.967	642.23
419.344	639.07
419.721	659.18
420.098	655.79
420.475	679.97
420.852	703.7
421.228	691.04
421.605	680.19
421.982	731.72
422.358	716.35
422.735	741.44
423.111	731.94
423.488	754.54
423.864	765.39
424.241	789.12
424.617	793.64
424.994	798.38
425.37	773.75
425.746	811.72
426.123	829.57
426.499	837.93
426.875	847.42
427.251	851.49
427.627	889
428.003	879.51
428.379	901.21
428.756	906.85
429.132	925.84
429.507	905.27
429.883	920.87
430.259	941.43
430.635	914.31
431.011	929.45
431.387	997.7
431.763	979.62
432.138	983.01
432.514	999.06
432.89	1023.91
433.265	1043.57
433.641	1050.81
434.016	1069.34
434.392	1053.52
434.767	1090.58
435.143	1105.04
435.518	1119.73
435.894	1147.07
436.269	1168.77
436.644	1173.29
437.02	1192.95
437.395	1217.81
437.77	1208.99
438.145	1243.79
438.52	1263.91
438.895	1298.93
439.271	1302.1
439.646	1364.24
440.021	1333.96
440.395	1359.72
440.77	1366.73
441.145	1363.11
441.52	1400.18
441.895	1382.77
442.27	1422.55
442.645	1404.69
443.019	1451.25
443.394	1451.25
443.769	1504.81
444.143	1474.75
444.518	1519.04
444.892	1507.52
445.267	1541.41
445.641	1539.61
446.016	1541.64
446.39	1597.01
446.764	1574.63
447.139	1613.05
447.513	1604.92
447.887	1640.62
448.262	1618.25
448.636	1634.52
449.01	1653.95
449.384	1668.42
449.758	1703.22
450.132	1708.19
450.506	1742.54
450.88	1730.11
451.254	1732.6
451.628	1745.25
452.002	1766.04
452.376	1781.63
452.75	1803.78
453.123	1827.28
453.497	1845.59
453.871	1865.02
454.244	1911.12
454.618	1928.07
454.992	1942.31
455.365	1944.34
455.739	2019.14
456.112	2011.68
456.486	2026.37
456.859	2039.48
457.232	2084.22
457.606	2066.82
457.979	2093.49
458.352	2174.39
458.725	2180.72
459.099	2183.66
459.472	2240.38
459.845	2264.79
460.218	2253.26
460.591	2287.61
460.964	2312.02
461.337	2359.47
461.71	2401.5
462.083	2414.61
462.456	2471.11
462.829	2472.01
463.201	2498
463.574	2507.26
463.947	2581.84
464.32	2600.37
464.692	2631.1
465.065	2643.53
465.438	2696.19
465.81	2761.72
466.183	2781.61
466.555	2849.4
466.928	2814.38
467.3	2844.43
467.672	2895.73
468.045	2991.09
468.417	2986.57
468.789	3028.38
469.161	3080.81
469.534	3142.05
469.906	3225.21
470.278	3221.14
470.65	3265.89
471.022	3332.33
471.394	3409.39
471.766	3423.17
472.138	3465.21
472.51	3540.46
472.882	3602.15
473.253	3614.13
473.625	3710.62
473.997	3788.36
474.369	3806.21
474.74	3915.36
475.112	3930.96
475.484	4027.9
475.855	4097.73
476.227	4149.48
476.598	4246.43
476.97	4323.71
477.341	4413.2
477.713	4474.44
478.084	4517.16
478.455	4641.45
478.827	4663.82
479.198	4821.55
479.569	4862.46
479.94	4990.59
480.311	5060.19
480.682	5150.13
481.053	5354.42
481.424	5420.63
481.795	5480.29
482.166	5549.67
482.537	5669.44
482.908	5777.01
483.279	5857.68
483.65	6019.49
484.021	6108.53
484.391	6207.96
484.762	6231.91
485.133	6332.93
485.503	6450.66
485.874	6593.48
486.244	6663.77
486.615	6804.33
486.985	6829.64
487.356	7002.06
487.726	7113.92
488.097	7237.31
488.467	7297.42
488.837	7384.88
489.207	7475.95
489.578	7717.52
489.948	7751.42
490.318	7882.26
490.688	7866.67
491.058	8080.9
491.428	8094.46
491.798	8271.18
492.168	8435.24
492.538	8486.09
492.908	8491.06
493.278	8612.87
493.648	8654.67
494.017	8777.61
494.387	8877.49
494.757	8989.81
495.126	9082.46
495.496	9052.18
495.866	9121.55
496.235	9251.27
496.605	9355.45
496.974	9391.6
497.344	9460.53
497.713	9517.7
498.082	9592.5
498.452	9688.77
498.821	9696.45
499.19	9704.14
499.559	9831.82
499.928	9861.87
500.298	9869.1
500.667	10007.63
501.036	10018.03
501.405	10134.41
501.774	10098.7
502.143	10199.94
502.512	10150
502.88	10258.93
503.249	10273.84
503.618	10310
503.987	10347.51
504.356	10373.72
504.724	10442.2
505.093	10498.92
505.462	10506.38
505.83	10566.94
506.199	10555.41
506.567	10711.57
506.936	10662.98
507.304	10745.01
507.672	10813.94
508.041	10814.62
508.409	10858.46
508.777	10928.06
509.145	10901.17
509.514	10942.97
509.882	11020.49
510.25	10978
510.618	11024.1
510.986	11095.06
511.354	11115.85
511.722	11081.28
512.09	11243.53
512.458	11194.27
512.826	11258.22
513.193	11309.07
513.561	11281.27
513.929	11380.93
514.297	11406.24
514.664	11486.69
515.032	11405.56
515.4	11435.39
515.767	11513.13
516.135	11453.02
516.502	11489.85
516.869	11552
517.237	11527.14
517.604	11387.71
517.972	11599
518.339	11528.72
518.706	11597.2
519.073	11591.55
519.44	11579.79
519.808	11704.31
520.175	11658.66
520.542	11687.14
520.909	11789.73
521.276	11737.98
521.643	11707.02
522.009	11791.09
522.376	11788.15
522.743	11800.58
523.11	11783.86
523.477	11868.83
523.843	11823.63
524.21	11952.67
524.577	11901.37
524.943	11999.22
525.31	11881.26
525.676	12049.84
526.043	11952.21
526.409	11916.73
526.776	12016.17
527.142	12023.85
527.508	11997.86
527.874	12063.85
528.241	12036.96
528.607	11947.02
528.973	12025.88
529.339	12001.7
529.705	12028.14
530.071	12054.36
530.437	12039.44
530.803	12018.2
531.169	12002.38
531.535	11913.57
531.901	11934.14
532.267	11931.2
532.632	11908.37
532.998	11942.5
533.364	11918.32
533.73	11871.09
534.095	11831.54
534.461	11823.18
534.826	11787.02
535.192	11745.89
535.557	11813.23
535.923	11737.76
536.288	11649.4
536.653	11654.14
537.019	11588.83
537.384	11605.1
537.749	11553.81
538.114	11552.68
538.479	11458.44
538.845	11521.94
539.21	11364.21
539.575	11387.48
539.94	11376.41
540.305	11421.83
540.67	11284.89
541.034	11254.15
541.399	11326.47
541.764	11138.9
542.129	11153.36
542.494	11094.16
542.858	11111.11
543.223	11077.43
543.587	11015.74
543.952	10943.88
544.316	10977.1
544.681	10933.48
545.045	10843.32
545.41	10884.22
545.774	10822.3
546.138	10772.13
546.503	10758.35
546.867	10657.56
547.231	10599.03
547.595	10610.33
547.959	10569.65
548.324	10548.18
548.688	10501.4
549.052	10506.6
549.416	10438.13
549.779	10373.5
550.143	10331.01
550.507	10359.94
550.871	10335.76
551.235	10206.72
551.599	10216.89
551.962	10149.78
552.326	10132.6
552.689	10136.67
553.053	10011.25
553.417	10042.89
553.78	10040.4
554.143	9932.15
554.507	10023.45
554.87	9887.86
555.234	9946.39
555.597	9902.78
555.96	9896.9
556.323	9834.53
556.686	9820.29
557.05	9830.91
557.413	9763.57
557.776	9734.87
558.139	9800.18
558.502	9728.09
558.865	9735.1
559.228	9688.32
559.59	9705.72
559.953	9684.48
560.316	9747.07
560.679	9718.37
561.041	9714.31
561.404	9640.64
561.767	9663.46
562.129	9654.87
562.492	9677.02
562.854	9623.46
563.217	9590.47
563.579	9603.35
563.941	9591.6
564.304	9638.38
564.666	9690.8
565.028	9620.52
565.39	9654.87
565.753	9648.09
566.115	9637.7
566.477	9623.46
566.839	9663.69
567.201	9699.39
567.563	9664.59
567.925	9696
568.287	9671.14
568.648	9646.74
569.01	9669.34
569.372	9712.95
569.734	9644.25
570.095	9705.72
570.457	9700.75
570.819	9697.13
571.18	9591.82
571.542	9705.04
571.903	9668.66
572.265	9752.05
572.626	9709.34
572.987	9723.12
573.349	9716.57
573.71	9735.55
574.071	9742.1
574.432	9742.78
574.794	9782.55
575.155	9749.11
575.516	9731.26
575.877	9715.21
576.238	9678.15
576.599	9737.36
576.96	9702.78
577.32	9701.2
577.681	9764.93
578.042	9642.9
578.403	9701.43
578.763	9687.87
579.124	9691.93
579.485	9703.91
579.845	9708.66
580.206	9728.32
580.566	9679.51
580.927	9764.02
581.287	9736
581.648	9677.92
582.008	9730.8
582.368	9710.47
582.728	9675.21
583.089	9667.3
583.449	9630.69
583.809	9653.07
584.169	9669.79
584.529	9628.43
584.889	9731.93
585.249	9645.83
585.609	9587.53
585.969	9593.63
586.329	9599.96
586.688	9651.03
587.048	9578.72
587.408	9575.55
587.768	9562.22
588.127	9508.66
588.487	9528.77
588.846	9651.48
589.206	9429.79
589.565	9501.88
589.925	9521.32
590.284	9523.58
590.643	9496.69
591.003	9508.66
591.362	9523.13
591.721	9450.13
592.08	9522.22
592.44	9530.58
592.799	9533.07
593.158	9463.69
593.517	9397.48
593.876	9460.08
594.235	9429.57
594.593	9485.16
594.952	9463.24
595.311	9382.79
595.67	9417.37
596.029	9448.78
596.387	9445.39
596.746	9413.75
597.104	9346.41
597.463	9391.6
597.822	9351.6
598.18	9395.67
598.538	9389.34
598.897	9377.82
599.255	9317.71
599.613	9377.82
599.972	9338.5
600.33	9431.83
600.688	9369.01
601.046	9330.14
601.404	9425.5
601.762	9361.32
602.12	9335.56
602.478	9360.64
602.836	9394.09
603.194	9289.01
603.552	9425.27
603.91	9221.89
604.268	9321.1
604.625	9310.02
604.983	9345.95
605.341	9269.35
605.698	9318.84
606.056	9324.03
606.413	9347.54
606.771	9364.71
607.128	9364.94
607.485	9318.38
607.843	9284.71
608.2	9355.9
608.557	9349.57
608.914	9334.66
609.272	9347.54
609.629	9334.43
609.986	9436.57
610.343	9379.4
610.7	9476.57
611.057	9389.57
611.414	9369.68
611.771	9376.46
612.127	9433.86
612.484	9442.45
612.841	9486.06
613.198	9420.53
613.554	9418.27
613.911	9464.37
614.267	9453.3
614.624	9439.51
614.98	9443.13
615.337	9444.48
615.693	9395.9
616.05	9395.45
616.406	9488.55
616.762	9427.76
617.118	9441.77
617.475	9468.44
617.831	9457.59
618.187	9453.97
618.543	9458.49
618.899	9566.74
619.255	9520.41
619.611	9493.3
619.967	9559.51
620.323	9557.7
620.678	9531.71
621.034	9531.26
621.39	9477.02
621.746	9494.43
622.101	9561.09
622.457	9501.66
622.812	9540.98
623.168	9497.82
623.523	9498.27
623.879	9570.58
624.234	9467.99
624.589	9570.58
624.945	9503.69
625.3	9543.01
625.655	9540.53
626.01	9593.86
626.365	9585.27
626.72	9482
627.075	9505.27
627.43	9488.55
627.785	9488.55
628.14	9501.88
628.495	9508.89
628.85	9508.66
629.205	9529.45
629.559	9471.15
629.914	9435.22
630.269	9467.99
630.623	9432.96
630.978	9420.3
631.332	9456.23
631.687	9424.14
632.041	9444.26
632.396	9463.69
632.75	9324.94
633.104	9381.43
633.459	9352.73
633.813	9336.46
634.167	9334.66
634.521	9293.98
634.875	9287.88
635.229	9285.17
635.583	9213.98
635.937	9302.11
636.291	9197.03
636.645	9275
636.999	9239.97
637.352	9270.02
637.706	9227.09
638.06	9233.64
638.413	9223.47
638.767	9159.97
639.121	9173.98
639.474	9137.15
639.828	9161.78
640.181	9129.92
640.534	9159.75
640.888	9171.72
641.241	9100.54
641.594	9124.04
641.947	9119.97
642.301	9041.56
642.654	9111.84
643.007	9171.5
643.36	9065.96
643.713	9089.24
644.066	9117.03
644.419	9063.7
644.771	9009.24
645.124	8936.47
645.477	8896.02
645.83	8877.49
646.182	8776.7
646.535	8845.18
646.888	8754.56
647.24	8789.36
647.593	8821.45
647.945	8763.82
648.298	8761.34
648.65	8765.86
649.002	8766.76
649.355	8734.67
649.707	8789.13
650.059	8815.8
650.411	8894.67
650.763	8960.2
651.115	8995
651.467	8961.11
651.819	8996.13
652.171	9014.44
652.523	8990.48
652.875	8932.86
653.227	8915.91
653.578	9066.19
653.93	8910.71
654.282	8984.83
654.633	8939.41
654.985	8938.96
655.337	8991.61
655.688	8926.98
656.039	9009.01
656.391	8870.71
656.742	8962.69
657.094	8961.56
657.445	8937.38
657.796	8988.9
658.147	8875.68
658.498	8986.64
658.849	8962.24
659.2	8909.58
659.551	8969.02
659.902	8993.65
660.253	9017.15
660.604	9014.89
660.955	8961.11
661.306	8997.94
661.656	9056.47
662.007	8992.52
662.358	8992.97
662.708	9039.07
663.059	9093.98
663.409	9029.13
663.76	9058.28
664.11	9025.96
664.461	9067.32
664.811	9056.92
665.161	9038.62
665.511	9023.03
665.862	9086.75
666.212	9050.14
666.562	9056.47
666.912	9034.32
667.262	9048.34
667.612	9036.81
667.962	9026.64
668.312	8998.85
668.662	9072.74
669.011	9011.5
669.361	9051.5
669.711	9023.25
670.06	8961.56
670.41	8963.59
670.76	8938.73
671.109	8970.15
671.459	8976.7
671.808	9062.57
672.157	8979.41
672.507	8969.24
672.856	9018.96
673.205	9006.3
673.554	9001.78
673.904	8964.5
674.253	9018.96
674.602	8943.93
674.951	8850.37
675.3	8797.72
675.649	8904.16
675.998	8926.53
676.346	8924.72
676.695	8915.68
677.044	8870.04
677.393	8871.84
677.741	8925.63
678.09	8810.83
678.438	8817.38
678.787	8846.76
679.135	8798.85
679.484	8776.7
679.832	8754.78
680.181	8854.22
680.529	8817.16
680.877	8773.31
681.225	8661
681.573	8761.11
681.922	8750.94
682.27	8729.25
682.618	8717.27
682.966	8675.24
683.314	8674.11
683.661	8677.5
684.009	8562.02
684.357	8561.79
684.705	8586.43
685.053	8561.12
685.4	8557.95
685.748	8473.89
686.095	8495.36
686.443	8427.11
686.79	8485.41
687.138	8457.62
687.485	8469.14
687.832	8444.74
688.18	8396.38
688.527	8390.27
688.874	8332.65
689.221	8394.79
689.568	8268.47
689.915	8282.71
690.262	8277.28
690.609	8248.58
690.956	8184.18
691.303	8207.68
691.65	8127.91
691.997	8106.21
692.344	8097.17
692.69	8061.69
693.037	8069.6
693.383	7954.58
693.73	8018.08
694.077	7958.42
694.423	7970.17
694.769	7859.89
695.116	7955.03
695.462	7852.89
695.808	7810.63
696.155	7771.31
696.501	7735.83
696.847	7724.3
697.193	7653.34
697.539	7626.68
697.885	7649.05
698.231	7638.66
698.577	7570.86
698.923	7601.59
699.269	7525.66
699.614	7498.77
699.96	7443.63
700.306	7433.69
700.651	7430.75
700.997	7357.76
701.342	7410.19
701.688	7357.53
702.033	7275.95
702.379	7300.58
702.724	7261.49
703.069	7257.87
703.415	7178.1
703.76	7217.65
704.105	7238.67
704.45	7141.94
704.795	7137.43
705.14	7145.33
705.485	7094.71
705.83	7017.88
706.175	7109.63
706.52	7033.47
706.865	6953.93
707.209	6995.73
707.554	7015.17
707.899	6956.87
708.243	6913.02
708.588	6956.19
708.932	6811.11
709.277	6837.77
709.621	6825.12
709.966	6789.19
710.31	6793.25
710.654	6694.5
710.998	6720.26
711.342	6736.53
711.687	6763.88
712.031	6685.91
712.375	6677.1
712.719	6698.34
713.063	6683.43
713.407	6720.04
713.75	6659.25
714.094	6604.33
714.438	6620.6
714.782	6597.78
715.125	6573.15
715.469	6607.5
715.812	6578.34
716.156	6500.38
716.499	6554.16
716.843	6555.07
717.186	6482.08
717.53	6522.98
717.873	6547.38
718.216	6513.26
718.559	6514.84
718.902	6486.37
719.246	6433.94
719.589	6457.67
719.932	6450.21
720.275	6426.03
720.617	6396.43
720.96	6435.07
721.303	6381.06
721.646	6448.18
721.989	6344.23
722.331	6360.04
722.674	6348.29
723.016	6369.54
723.359	6348.75
723.701	6324.34
724.044	6332.47
724.386	6316.43
724.729	6350.33
725.071	6299.48
725.413	6282.31
725.755	6292.25
726.097	6298.13
726.439	6275.53
726.782	6264.91
727.124	6275.75
727.465	6295.87
727.807	6325.02
728.149	6288.86
728.491	6241.86
728.833	6269.88
729.175	6230.56
729.516	6313.49
729.858	6240.95
730.199	6280.5
730.541	6218.13
730.882	6262.87
731.224	6261.06
731.565	6176.55
731.906	6209.31
732.248	6257.67
732.589	6226.71
732.93	6238.24
733.271	6264.45
733.612	6226.26
733.953	6227.17
734.294	6247.73
734.635	6231.91
734.976	6274.62
735.317	6268.3
735.658	6293.61
735.999	6221.97
736.339	6319.37
736.68	6234.4
737.021	6237.34
737.361	6247.05
737.702	6337.22
738.042	6326.15
738.383	6235.98
738.723	6277.33
739.063	6350.1
739.404	6376.99
739.744	6334.06
740.084	6331.12
740.424	6328.86
740.764	6317.56
741.104	6414.73
741.444	6369.31
741.784	6402.08
742.124	6408.18
742.464	6432.36
742.804	6447.95
743.143	6411.79
743.483	6499.93
743.823	6479.36
744.162	6501.06
744.502	6547.61
744.841	6563.88
745.181	6603.43
745.52	6588.97
745.86	6663.09
746.199	6672.58
746.538	6700.37
746.877	6798.45
747.216	6832.57
747.556	6811.11
747.895	6854.72
748.234	6906.7
748.573	6934.49
748.911	7035.06
749.25	7075.51
749.589	7123.19
749.928	7156.18
750.267	7249.74
750.605	7292.45
750.944	7351.88
751.283	7496.96
751.621	7511.43
751.96	7608.15
752.298	7713.23
752.636	7793.45
752.975	7797.97
753.313	7904.18
753.651	8006.1
753.989	8110.28
754.327	8168.13
754.666	8310.73
755.004	8421.91
755.342	8609.7
755.679	8722.47
756.017	8773.99
756.355	8943.48
756.693	9001.56
757.031	9223.47
757.368	9293.75
757.706	9408.78
758.044	9540.75
758.381	9787.3
758.719	9914.75
759.056	10023
759.394	10218.93
759.731	10305.93
760.068	10451.69
760.405	10599.03
760.743	10748.86
761.08	10894.84
761.417	11049.64
761.754	11251.22
762.091	11375.05
762.428	11534.82
762.765	11683.29
763.102	11891.2
763.438	12013.23
763.775	12169.38
764.112	12380.45
764.449	12508.36
764.785	12600.33
765.122	12818.63
765.458	12970.04
765.795	13043.26
766.131	13217.04
766.467	13388.56
