Data from hue_160_FLMS001491_00038.txt Node
Date: Tue Feb 07 16:51:07 GMT 2017
User: dcchb
Spectrometer: FLMS00149
Trigger mode: 0
Integration Time (sec): 2.000000E-2
Scans to average: 10
Electric dark correction enabled: true
Nonlinearity correction enabled: false
Boxcar width: 0
XAxis mode: Wavelengths
Number of Pixels in Spectrum: 2048
>>>>>Begin Spectral Data<<<<<
341.393	-21.54
341.776	-21.54
342.16	-21.54
342.543	-52.72
342.927	-81.65
343.31	-78.71
343.693	-69.22
344.077	-72.61
344.46	-61.76
344.843	-57.02
345.226	-54.98
345.61	-37.81
345.993	-5.04
346.376	-4.14
346.759	19.36
347.142	33.83
347.525	47.61
347.908	64.33
348.291	68.4
348.674	91.45
349.057	116.31
349.44	120.38
349.823	128.51
350.206	160.38
350.588	204.22
350.971	177.55
351.354	231.11
351.737	242.63
352.119	230.21
352.502	265.23
352.884	269.53
353.267	255.29
353.65	281.05
354.032	280.15
354.414	313.14
354.797	317.89
355.179	307.94
355.562	321.28
355.944	316.53
356.326	334.16
356.709	334.16
357.091	325.34
357.473	338.9
357.855	336.64
358.238	337.1
358.62	347.26
359.002	322.41
359.384	343.2
359.766	325.57
360.148	337.55
360.53	345.91
360.912	308.85
361.294	326.93
361.676	330.54
362.057	342.07
362.439	330.99
362.821	327.15
363.203	299.81
363.584	333.71
363.966	327.6
364.348	322.18
364.729	314.95
365.111	312.46
365.493	312.92
365.874	332.8
366.256	293.93
366.637	293.71
367.019	323.31
367.4	296.64
367.781	313.37
368.163	304.55
368.544	300.71
368.925	286.02
369.306	305.01
369.688	323.76
370.069	305.01
370.45	291.22
370.831	298.68
371.212	283.99
371.593	311.56
371.974	297.32
372.355	304.55
372.736	313.82
373.117	312.46
373.498	304.78
373.879	315.18
374.26	323.76
374.641	305.01
375.021	297.55
375.402	325.8
375.783	310.88
376.163	309.3
376.544	321.5
376.925	308.17
377.305	326.02
377.686	296.42
378.066	295.06
378.447	306.36
378.827	316.08
379.208	329.64
379.588	313.82
379.968	313.14
380.349	324.89
380.729	354.04
381.109	316.31
381.489	325.57
381.87	312.46
382.25	325.34
382.63	330.32
383.01	335.06
383.39	316.31
383.77	327.38
384.15	332.58
384.53	335.29
384.91	343.2
385.29	342.52
385.67	328.51
386.049	346.81
386.429	347.94
386.809	340.03
387.189	345.91
387.568	368.06
387.948	346.36
388.328	344.1
388.707	344.55
389.087	334.84
389.466	347.94
389.846	369.86
390.225	352.91
390.605	347.49
390.984	340.94
391.363	353.37
391.743	351.11
392.122	359.92
392.501	349.98
392.881	363.76
393.26	379.58
393.639	363.76
394.018	367.83
394.397	350.65
394.776	366.93
395.155	385.68
395.534	372.8
395.913	374.38
396.292	367.83
396.671	362.86
397.05	373.7
397.429	382.07
397.808	373.93
398.186	389.52
398.565	387.26
398.944	384.1
399.323	381.39
399.701	388.62
400.08	376.42
400.458	380.03
400.837	403.76
401.215	394.95
401.594	385.23
401.972	401.95
402.351	382.29
402.729	403.99
403.107	397.66
403.486	390.2
403.864	404.89
404.242	395.63
404.62	393.82
404.999	400.82
405.377	388.39
405.755	404.21
406.133	440.82
406.511	408.05
406.889	430.88
407.267	437.66
407.645	429.3
408.023	413.93
408.401	434.72
408.779	415.29
409.156	443.53
409.534	441.5
409.912	411.9
410.29	441.95
410.667	444.66
411.045	465.68
411.422	451.67
411.8	467.49
412.178	441.5
412.555	455.74
412.933	446.47
413.31	448.73
413.687	475.4
414.065	459.13
414.442	470.2
414.819	464.32
415.197	469.52
415.574	492.57
415.951	467.26
416.328	482.85
416.705	497.32
417.082	483.53
417.46	490.99
417.837	508.84
418.214	509.97
418.591	478.33
418.967	497.09
419.344	494.83
419.721	496.87
420.098	506.81
420.475	507.26
420.852	516.98
421.228	514.04
421.605	532.8
421.982	532.12
422.358	527.37
422.735	527.15
423.111	530.76
423.488	513.36
423.864	530.31
424.241	540.71
424.617	556.98
424.994	535.28
425.37	531.89
425.746	546.36
426.123	556.52
426.499	543.87
426.875	565.34
427.251	576.64
427.627	589.52
428.003	593.36
428.379	582.74
428.756	593.13
429.132	593.13
429.507	595.17
429.883	618.9
430.259	601.72
430.635	618.44
431.011	628.39
431.387	643.08
431.763	658.44
432.138	637.2
432.514	637.2
432.89	646.01
433.265	657.54
433.641	644.66
434.016	673.13
434.392	685.56
434.767	682.62
435.143	689.63
435.518	690.76
435.894	693.24
436.269	720.36
436.644	705.22
437.02	712.23
437.395	711.55
437.77	714.26
438.145	718.1
438.52	756.97
438.895	742.28
439.271	770.98
439.646	776.63
440.021	770.76
440.395	754.49
440.77	760.14
441.145	774.82
441.52	780.02
441.895	779.8
442.27	809.85
442.645	796.74
443.019	807.14
443.394	784.77
443.769	822.28
444.143	817.31
444.518	804.43
444.892	846.91
445.267	837.42
445.641	853.92
446.016	847.36
446.39	846.46
446.764	832.68
447.139	843.3
447.513	877.65
447.887	870.64
448.262	856.86
448.636	889.62
449.01	885.56
449.384	915.16
449.758	886.91
450.132	888.72
450.506	920.36
450.88	931.43
451.254	920.81
451.628	935.72
452.002	959.23
452.376	932.11
452.75	940.24
453.123	953.8
453.497	953.8
453.871	980.47
454.244	1007.81
454.618	977.08
454.992	1000.13
455.365	1012.78
455.739	1022.28
456.112	1038.55
456.486	1048.49
456.859	1044.65
457.232	1058.43
457.606	1063.86
457.979	1082.84
458.352	1113.12
458.725	1135.04
459.099	1119.67
459.472	1146.57
459.845	1171.88
460.218	1178.88
460.591	1209.39
460.964	1191.31
461.337	1228.37
461.71	1261.37
462.083	1231.99
462.456	1276.51
462.829	1278.31
463.201	1229.5
463.574	1307.92
463.947	1288.03
464.32	1352.66
464.692	1364.87
465.065	1392.21
465.438	1387.01
465.81	1405.99
466.183	1437.86
466.555	1453.45
466.928	1465.43
467.3	1473.11
467.672	1515.82
468.045	1556.27
468.417	1560.57
468.789	1544.3
469.161	1576.39
469.534	1612.32
469.906	1669.94
470.278	1695.7
470.65	1717.17
471.022	1713.56
471.394	1808.02
471.766	1790.39
472.138	1838.3
472.51	1887.56
472.882	1923.49
473.253	1951.74
473.625	2008.01
473.997	2043.27
474.369	2065.86
474.74	2137.27
475.112	2172.3
475.484	2210.94
475.855	2250.72
476.227	2287.78
476.598	2399.64
476.97	2421.11
477.341	2511.28
477.713	2583.14
478.084	2598.73
478.455	2683.7
478.827	2724.83
479.198	2839.4
479.569	2844.83
479.94	2967.99
480.311	3012.73
480.682	3120.75
481.053	3190.13
481.424	3299.73
481.795	3347.41
482.166	3461.53
482.537	3499.27
482.908	3657.23
483.279	3700.4
483.65	3835.31
484.021	3927.51
484.391	4033.95
484.762	4068.75
485.133	4163.44
485.503	4292.92
485.874	4410.21
486.244	4520.94
486.615	4649.07
486.985	4687.04
487.356	4864.66
487.726	4945.56
488.097	5007.71
488.467	5120.92
488.837	5319.79
489.207	5416.51
489.578	5496.28
489.948	5657.41
490.318	5769.04
490.688	5812.43
491.058	6004.07
491.428	6125.64
491.798	6258.07
492.168	6402.92
492.538	6542.13
492.908	6564.5
493.278	6743.71
493.648	6789.36
494.017	6950.03
494.387	7037.94
494.757	7193.86
495.126	7314.77
495.496	7384.82
495.866	7438.38
496.235	7591.37
496.605	7760.18
496.974	7794.53
497.344	7917.69
497.713	7986.84
498.082	8066.61
498.452	8205.36
498.821	8252.14
499.19	8308.86
499.559	8445.36
499.928	8613.94
500.298	8628.63
500.667	8801.28
501.036	8776.65
501.405	8888.28
501.774	8898.23
502.143	9039.69
502.512	9084.44
502.88	9208.73
503.249	9292.34
503.618	9310.65
503.987	9345.22
504.356	9475.84
504.724	9526.68
505.093	9624.54
505.462	9623.18
505.83	9701.6
506.199	9821.59
506.567	9973.68
506.936	9901.14
507.304	10007.8
507.672	10060.23
508.041	10092.55
508.409	10267.91
508.777	10278.76
509.145	10264.97
509.514	10345.65
509.882	10384.06
510.25	10418.64
510.618	10462.48
510.986	10487.79
511.354	10636.03
511.722	10616.37
512.09	10760.32
512.458	10751.29
512.826	10703.38
513.193	10781.11
513.561	10854.33
513.929	10854.33
514.297	10942.92
514.664	10973.43
515.032	10990.6
515.4	11022.46
515.767	11109.02
516.135	11086.42
516.502	11031.73
516.869	11172.74
517.237	11173.65
517.604	11117.83
517.972	11235.34
518.339	11312.63
518.706	11273.98
519.073	11300.65
519.44	11304.04
519.808	11398.73
520.175	11354.21
520.542	11542.22
520.909	11486.86
521.276	11500.19
521.643	11533.19
522.009	11535.45
522.376	11655.67
522.743	11661.32
523.11	11694.76
523.477	11685.95
523.843	11725.27
524.21	11798.94
524.577	11823.57
524.943	11816.12
525.31	11788.09
525.676	11856.57
526.043	11872.84
526.409	11867.41
526.776	11981.31
527.142	11925.72
527.508	11953.06
527.874	11955.32
528.241	11942.89
528.607	11893.85
528.973	11955.77
529.339	11944.47
529.705	11952.61
530.071	12017.47
530.437	11987.41
530.803	11993.06
531.169	12044.13
531.535	11939.05
531.901	11910.8
532.267	11988.54
532.632	11987.64
532.998	11962.55
533.364	12011.36
533.73	11953.51
534.095	12007.07
534.461	11908.09
534.826	11924.59
535.192	11874.87
535.557	11924.36
535.923	11773.86
536.288	11794.87
536.653	11802.1
537.019	11756
537.384	11730.47
537.749	11685.05
538.114	11751.71
538.479	11644.37
538.845	11626.52
539.21	11608.66
539.575	11594.65
539.94	11498.84
540.305	11637.14
540.67	11454.77
541.034	11468.33
541.399	11473.3
541.764	11440.76
542.129	11476.01
542.494	11385.17
542.858	11353.76
543.223	11347.65
543.587	11295.45
543.952	11255.45
544.316	11252.97
544.681	11135.23
545.045	11149.24
545.41	11180.43
545.774	11120.99
546.138	11063.37
546.503	11001
546.867	10947.21
547.231	11056.14
547.595	11036.93
547.959	11000.54
548.324	10850.27
548.688	10926.87
549.052	10930.49
549.416	10813.88
549.779	10678.97
550.143	10746.77
550.507	10693.89
550.871	10734.34
551.235	10651.85
551.599	10651.63
551.962	10630.84
552.326	10623.15
552.689	10625.41
553.053	10535.7
553.417	10574.79
553.78	10707.22
554.143	10542.93
554.507	10516.26
554.87	10486.21
555.234	10567.34
555.597	10411.63
555.96	10479.65
556.323	10412.08
556.686	10432.88
557.05	10453.44
557.413	10434.23
557.776	10399.88
558.139	10436.94
558.502	10381.35
558.865	10271.98
559.228	10383.84
559.59	10363.27
559.953	10322.82
560.316	10396.72
560.679	10429.49
561.041	10370.96
561.404	10398.3
561.767	10368.92
562.129	10385.19
562.492	10429.26
562.854	10460.67
563.217	10391.97
563.579	10387.23
563.941	10427.45
564.304	10407.11
564.666	10481.01
565.028	10452.08
565.39	10349.49
565.753	10386.1
566.115	10476.26
566.477	10376.15
566.839	10432.2
567.201	10478.52
567.563	10457.51
567.925	10488.02
568.287	10471.74
568.648	10473.55
569.01	10499.31
569.372	10474.91
569.734	10497.28
570.095	10552.65
570.457	10560.78
570.819	10591.29
571.18	10531.18
571.542	10544.28
571.903	10526.43
572.265	10539.54
572.626	10642.59
572.987	10612.76
573.349	10563.04
573.71	10657.73
574.071	10590.61
574.432	10700.21
574.794	10608.01
575.155	10663.6
575.516	10598.07
575.877	10711.29
576.238	10653.21
576.599	10725.75
576.96	10622.93
577.32	10661.34
577.681	10664.28
578.042	10728.23
578.403	10612.98
578.763	10724.62
579.124	10765.97
579.485	10668.8
579.845	10741.12
580.206	10671.51
580.566	10764.17
580.927	10652.3
581.287	10785.18
581.648	10659.31
582.008	10664.51
582.368	10691.4
582.728	10685.75
583.089	10663.38
583.449	10642.81
583.809	10590.61
584.169	10721.91
584.529	10628.12
584.889	10727.1
585.249	10666.32
585.609	10530.27
585.969	10611.63
586.329	10590.84
586.688	10612.31
587.048	10607.33
587.408	10544.06
587.768	10607.79
588.127	10544.28
588.487	10580.89
588.846	10598.29
589.206	10522.36
589.565	10511.29
589.925	10608.01
590.284	10554
590.643	10555.36
591.003	10526.88
591.362	10515.13
591.721	10445.53
592.08	10442.37
592.44	10516.04
592.799	10508.58
593.158	10503.16
593.517	10510.16
593.876	10460.45
594.235	10403.27
594.593	10471.29
594.952	10474.46
595.311	10457.28
595.67	10386.1
596.029	10507.45
596.387	10491.18
596.746	10468.35
597.104	10487.11
597.463	10471.97
597.822	10521.01
598.18	10389.71
598.538	10458.64
598.897	10436.49
599.255	10427.23
599.613	10457.96
599.972	10448.02
600.33	10472.42
600.688	10407.11
601.046	10509.26
601.404	10493.66
601.762	10450.5
602.12	10537.05
602.478	10492.31
602.836	10479.2
603.194	10435.59
603.552	10386.77
603.91	10415.93
604.268	10458.41
604.625	10405.98
604.983	10511.74
605.341	10417.06
605.698	10480.78
606.056	10434.68
606.413	10487.11
606.771	10518.97
607.128	10448.92
607.485	10398.07
607.843	10387.68
608.2	10512.2
608.557	10544.06
608.914	10508.35
609.272	10539.77
609.629	10537.96
609.986	10575.24
610.343	10502.7
610.7	10577.05
611.057	10489.82
611.414	10545.87
611.771	10518.07
612.127	10597.84
612.484	10629.93
612.841	10566.88
613.198	10554.45
613.554	10525.53
613.911	10536.38
614.267	10636.49
614.624	10589.71
614.98	10605.53
615.337	10627.9
615.693	10656.15
616.05	10617.96
616.406	10674.45
616.762	10592.65
617.118	10626.54
617.475	10655.24
617.831	10780.66
618.187	10655.02
618.543	10735.69
618.899	10808.68
619.255	10768.69
619.611	10728.91
619.967	10733.66
620.323	10747.67
620.678	10659.08
621.034	10681.68
621.39	10692.98
621.746	10681
622.101	10795.35
622.457	10749.48
622.812	10712.87
623.168	10721.91
623.523	10736.37
623.879	10756.48
624.234	10714.22
624.589	10761.45
624.945	10760.78
625.3	10770.04
625.655	10712.87
626.01	10745.86
626.365	10750.83
626.72	10708.35
627.075	10731.17
627.43	10664.96
627.785	10598.52
628.14	10678.29
628.495	10721.23
628.85	10717.84
629.205	10665.41
629.559	10744.73
629.914	10638.52
630.269	10606.2
630.623	10629.93
630.978	10662.93
631.332	10610.27
631.687	10664.28
632.041	10670.84
632.396	10626.32
632.75	10554.45
633.104	10579.76
633.459	10546.32
633.813	10554.23
634.167	10488.92
634.521	10525.3
634.875	10605.53
635.229	10531.18
635.583	10497.73
635.937	10509.48
636.291	10549.03
636.645	10496.38
636.999	10483.95
637.352	10421.8
637.706	10405.76
638.06	10398.75
638.413	10417.28
638.767	10381.58
639.121	10428.13
639.474	10387
639.828	10351.97
640.181	10346.1
640.534	10380.67
640.888	10316.72
641.241	10251.41
641.594	10339.77
641.947	10232.88
642.301	10295.03
642.654	10271.07
643.007	10303.61
643.36	10321.47
643.713	10293.67
644.066	10289.6
644.419	10234.69
644.771	10152.66
645.124	10128.7
645.477	10093.45
645.83	10041.02
646.182	10056.16
646.535	10009.38
646.888	9973.45
647.24	9909.27
647.593	9985.43
647.945	9934.81
648.298	9883.06
648.65	9905.21
649.002	9923.06
649.355	9975.49
649.707	9966
650.059	9974.58
650.411	10093.22
650.763	10058.2
651.115	10210.51
651.467	10144.75
651.819	10237.4
652.171	10128.02
652.523	10109.04
652.875	10134.35
653.227	10091.64
653.578	10145.2
653.93	10150.85
654.282	10067.91
654.633	10059.1
654.985	10092.77
655.337	10114.01
655.688	10135.48
656.039	10187.23
656.391	10135.93
656.742	10166.44
657.094	10090.74
657.445	10062.26
657.796	10131.64
658.147	10144.97
658.498	10109.04
658.849	10145.2
659.2	10127.12
659.551	10161.7
659.902	10168.02
660.253	10102.26
660.604	10211.19
660.955	10178.42
661.306	10187.23
661.656	10116.05
662.007	10182.94
662.358	10176.16
662.708	10156.72
663.059	10172.32
663.409	10060.23
663.76	10236.95
664.11	10144.97
664.461	10173.45
664.811	10149.94
665.161	10167.8
665.511	10143.84
665.862	10173.22
666.212	10250.73
666.562	10205.76
666.912	10221.81
667.262	10192.88
667.612	10173
667.962	10209.38
668.312	10158.08
668.662	10209.38
669.011	10227.91
669.361	10140.45
669.711	10159.66
670.06	10198.76
670.41	10142.49
670.76	10071.3
671.109	10214.58
671.459	10136.39
671.808	10181.58
672.157	10127.35
672.507	10111.98
672.856	10107.46
673.205	10130.06
673.554	10214.12
673.904	10088.93
674.253	10162.37
674.602	10089.83
674.951	9921.02
675.3	9930.74
675.649	9974.58
675.998	10039.89
676.346	10018.87
676.695	10073.34
677.044	10006.9
677.393	10034.47
677.741	10010.29
678.09	9995.37
678.438	9960.57
678.787	10005.99
679.135	9942.04
679.484	9914.24
679.832	9929.61
680.181	9937.75
680.529	9883.96
680.877	9916.05
681.225	9831.08
681.573	9881.7
681.922	9869.27
682.27	9827.02
682.618	9791.54
682.966	9829.5
683.314	9812.1
683.661	9812.55
684.009	9683.74
684.357	9763.06
684.705	9699.56
685.053	9707.02
685.4	9666.34
685.748	9585.44
686.095	9589.51
686.443	9574.14
686.79	9584.76
687.138	9594.03
687.485	9585.21
687.832	9508.15
688.18	9538.66
688.527	9488.95
688.874	9481.71
689.221	9474.93
689.568	9414.15
689.915	9412.56
690.262	9384.77
690.609	9298.67
690.956	9289.18
691.303	9293.02
691.65	9215.73
691.997	9277.2
692.344	9151.33
692.69	9169.63
693.037	9149.07
693.383	9067.04
693.73	9053.25
694.077	9024.78
694.423	9052.57
694.769	8984.55
695.116	9054.38
695.462	8992.91
695.808	8839.7
696.155	8889.64
696.501	8817.1
696.847	8818.23
697.193	8772.35
697.539	8786.14
697.885	8709.98
698.231	8670.66
698.577	8683.54
698.923	8675.41
699.269	8675.18
699.614	8529.65
699.96	8521.97
700.306	8569.2
700.651	8505.24
700.997	8405.36
701.342	8441.52
701.688	8387.96
702.033	8392.48
702.379	8369.88
702.724	8292.37
703.069	8325.13
703.415	8187.51
703.76	8272.03
704.105	8212.14
704.45	8189.77
704.795	8161.3
705.14	8107.51
705.485	8116.1
705.83	8094.18
706.175	8098.7
706.52	8073.16
706.865	7999.72
707.209	7995.88
707.554	7950.68
707.899	7994.52
708.243	8004.24
708.588	7931.47
708.932	7916.33
709.277	7835.88
709.621	7860.29
709.966	7857.58
710.31	7802.89
710.654	7706.85
710.998	7758.14
711.342	7759.73
711.687	7782.78
712.031	7704.13
712.375	7684.7
712.719	7693.06
713.063	7705.04
713.407	7667.3
713.75	7735.09
714.094	7615.55
714.438	7588.43
714.782	7526.29
715.125	7562.22
715.469	7594.08
715.812	7528.54
716.156	7514.08
716.499	7487.64
716.843	7457.59
717.186	7470.69
717.53	7478.6
717.873	7489
718.216	7493.74
718.559	7427.08
718.902	7387.08
719.246	7398.15
719.589	7416.91
719.932	7382.79
720.275	7317.48
720.617	7404.48
720.96	7353.63
721.303	7392.73
721.646	7340.3
721.989	7256.91
722.331	7344.37
722.674	7291.49
723.016	7291.26
723.359	7300.98
723.701	7303.47
724.044	7191.38
724.386	7243.13
724.729	7243.13
725.071	7241.32
725.413	7261.89
725.755	7245.84
726.097	7172.62
726.439	7254.65
726.782	7180.08
727.124	7210.81
727.465	7167.88
727.807	7214.43
728.149	7213.98
728.491	7229.8
728.833	7209.01
729.175	7170.36
729.516	7158.61
729.858	7168.1
730.199	7113.41
730.541	7171.27
730.882	7145.05
731.224	7133.98
731.565	7191.6
731.906	7189.8
732.248	7128.56
732.589	7179.18
732.93	7065.28
733.271	7142.79
733.612	7158.16
733.953	7186.63
734.294	7114.09
734.635	7105.96
734.976	7170.36
735.317	7100.31
735.658	7083.13
735.999	7118.84
736.339	7130.14
736.68	7163.36
737.021	7090.14
737.361	7152.06
737.702	7171.27
738.042	7166.75
738.383	7192.96
738.723	7190.93
739.063	7198.38
739.404	7176.24
739.744	7220.53
740.084	7204.49
740.424	7181.44
740.764	7251.49
741.104	7245.16
741.444	7271.38
741.784	7331.94
742.124	7331.94
742.464	7252.17
742.804	7307.99
743.143	7322
743.483	7332.62
743.823	7264.82
744.162	7323.8
744.502	7430.92
744.841	7446.29
745.181	7471.6
745.52	7400.64
745.86	7492.84
746.199	7548.88
746.538	7540.52
746.877	7659.84
747.216	7626.17
747.556	7658.26
747.895	7736.9
748.234	7762.66
748.573	7793.62
748.911	7879.5
749.25	7938.7
749.589	7978.02
749.928	7982.32
750.267	8092.37
750.605	8072.94
750.944	8141.18
751.283	8234.52
751.621	8343.21
751.96	8390.9
752.298	8451.91
752.636	8554.28
752.975	8611.23
753.313	8666.37
753.651	8822.3
753.989	8839.7
754.327	8963.08
754.666	9046.02
755.004	9276.75
755.342	9320.59
755.679	9469.51
756.017	9542.96
756.355	9654.59
756.693	9749.05
757.031	9904.3
757.368	9976.84
757.706	10138.42
758.044	10234.24
758.381	10424.74
758.719	10524.62
759.056	10691.63
759.394	10874.9
759.731	10935.24
760.068	11076.25
760.405	11185.4
760.743	11380.2
761.08	11572.96
