Data from hue_190_FLMS001491_00049.txt Node
Date: Tue Feb 07 16:45:21 GMT 2017
User: dcchb
Spectrometer: FLMS00149
Trigger mode: 0
Integration Time (sec): 2.000000E-2
Scans to average: 10
Electric dark correction enabled: true
Nonlinearity correction enabled: false
Boxcar width: 0
XAxis mode: Wavelengths
Number of Pixels in Spectrum: 2048
>>>>>Begin Spectral Data<<<<<
341.393	-23.45
341.776	-23.45
342.16	-23.45
342.543	-70.22
342.927	-85.14
343.31	-77.23
343.693	-65.03
344.077	-67.51
344.46	-64.35
344.843	-51.24
345.226	-34.97
345.61	-40.17
345.993	3.9
346.376	-21.41
346.759	22.43
347.142	24.24
347.525	25.59
347.908	48.42
348.291	86.61
348.674	101.75
349.057	108.98
349.44	125.48
349.823	149.21
350.206	149.88
350.588	184.23
350.971	233.27
351.354	222.65
351.737	231.46
352.119	255.87
352.502	256.55
352.884	256.77
353.267	265.81
353.65	273.72
354.032	290.22
354.414	316.21
354.797	324.79
355.179	340.39
355.562	310.33
355.944	306.72
356.326	333.61
356.709	300.39
357.091	336.32
357.473	336.09
357.855	341.06
358.238	333.83
358.62	348.97
359.002	337.45
359.384	349.65
359.766	337.9
360.148	320.95
360.53	329.31
360.912	329.77
361.294	326.15
361.676	317.56
362.057	317.56
362.439	325.7
362.821	338.13
363.203	322.99
363.584	315.3
363.966	297.22
364.348	321.63
364.729	293.16
365.111	322.53
365.493	305.13
365.874	323.66
366.256	317.11
366.637	311.01
367.019	328.64
367.4	319.82
367.781	304.91
368.163	307.39
368.544	324.57
368.925	305.36
369.306	326.15
369.688	303.33
370.069	310.33
370.45	300.84
370.831	307.62
371.212	302.42
371.593	313.04
371.974	295.42
372.355	305.59
372.736	320.73
373.117	310.33
373.498	320.73
373.879	325.02
374.26	311.46
374.641	306.26
375.021	320.73
375.402	310.33
375.783	315.75
376.163	314.62
376.544	313.04
376.925	305.59
377.305	341.97
377.686	321.4
378.066	317.56
378.447	302.2
378.827	320.27
379.208	315.53
379.588	327.73
379.968	327.05
380.349	327.05
380.729	358.69
381.109	324.79
381.489	326.15
381.87	323.66
382.25	355.3
382.63	333.61
383.01	360.05
383.39	315.98
383.77	317.79
384.15	355.08
384.53	345.36
384.91	346.49
385.29	338.58
385.67	346.26
386.049	324.57
386.429	321.86
386.809	319.82
387.189	362.08
387.568	355.3
387.948	336.77
388.328	361.4
388.707	335.41
389.087	336.77
389.466	358.24
389.846	357.79
390.225	353.04
390.605	375.64
390.984	364.79
391.363	367.05
391.743	358.69
392.122	357.79
392.501	382.19
392.881	369.99
393.26	373.38
393.639	365.7
394.018	363.66
394.397	361.18
394.776	383.1
395.155	367.96
395.534	352.36
395.913	369.09
396.292	392.36
396.671	386.94
397.05	382.19
397.429	383.55
397.808	394.85
398.186	383.32
398.565	376.32
398.944	403.21
399.323	396.43
399.701	389.88
400.08	399.14
400.458	420.38
400.837	404.11
401.215	407.96
401.594	411.8
401.972	427.62
402.351	399.82
402.729	414.73
403.107	420.38
403.486	424.45
403.864	416.32
404.242	431.46
404.62	419.71
404.999	441.63
405.377	435.07
405.755	439.82
406.133	433.94
406.511	469.65
406.889	439.14
407.267	465.58
407.645	440.5
408.023	468.97
408.401	486.6
408.779	493.83
409.156	472.36
409.534	502.64
409.912	497.44
410.29	504.68
410.667	514.62
411.045	542.42
411.422	528.63
411.8	524.34
412.178	533.83
412.555	532.47
412.933	544.67
413.31	559.36
413.687	553.49
414.065	561.85
414.442	587.39
414.819	570.89
415.197	598.01
415.574	604.11
415.951	607.05
416.328	623.99
416.705	625.58
417.082	596.42
417.46	639.59
417.837	646.82
418.214	658.8
418.591	668.06
418.967	675.29
419.344	663.54
419.721	696.31
420.098	695.63
420.475	716.2
420.852	701.06
421.228	727.04
421.605	733.6
421.982	748.96
422.358	754.61
422.735	775.4
423.111	777.89
423.488	792.58
423.864	809.75
424.241	794.39
424.617	816.76
424.994	864.67
425.37	866.47
425.746	890.43
426.123	883.42
426.499	888.39
426.875	917.32
427.251	910.09
427.627	922.97
428.003	928.39
428.379	961.61
428.756	962.29
429.132	968.62
429.507	981.27
429.883	957.77
430.259	1026.24
430.635	1038.45
431.011	1022.85
431.387	1040.26
431.763	1061.95
432.138	1085.45
432.514	1092.01
432.89	1095.17
433.265	1146.24
433.641	1164.32
434.016	1168.61
434.392	1197.31
434.767	1189.18
435.143	1245.67
435.518	1240.48
435.894	1256.07
436.269	1296.29
436.644	1300.14
437.02	1335.39
437.395	1328.16
437.77	1368.16
438.145	1395.95
438.52	1395.73
438.895	1434.6
439.271	1463.29
439.646	1468.72
440.021	1509.85
440.395	1506.91
440.77	1540.81
441.145	1568.83
441.52	1550.3
441.895	1576.74
442.27	1630.75
442.645	1610.18
443.019	1642.73
443.394	1646.57
443.769	1683.18
444.143	1669.84
444.518	1704.19
444.892	1706.9
445.267	1749.16
445.641	1743.29
446.016	1783.51
446.39	1771.54
446.764	1796.17
447.139	1813.12
447.513	1813.12
447.887	1833.23
448.262	1816.96
448.636	1877.97
449.01	1870.74
449.384	1899.67
449.758	1895.83
450.132	1927.69
450.506	1954.13
450.88	1964.75
451.254	1967.24
451.628	2021.02
452.002	2018.99
452.376	2004.75
452.75	2059.21
453.123	2092.2
453.497	2137.85
453.871	2134.24
454.244	2209.72
454.618	2178.53
454.992	2210.39
455.365	2201.13
455.739	2289.94
456.112	2305.76
456.486	2344.4
456.859	2309.6
457.232	2365.87
457.606	2388.02
457.979	2396.83
458.352	2458.52
458.725	2483.61
459.099	2508.92
459.472	2554.57
459.845	2578.29
460.218	2584.62
460.591	2650.16
460.964	2652.19
461.337	2688.12
461.71	2727.67
462.083	2745.52
462.456	2761.79
462.829	2757.27
463.201	2819.42
463.574	2881.11
463.947	2872.75
464.32	2956.59
464.692	2986.42
465.065	3032.75
465.438	3103.03
465.81	3107.77
466.183	3133.76
466.555	3223.25
466.928	3222.57
467.3	3228.67
467.672	3272.29
468.045	3354.54
468.417	3400.19
468.789	3414.66
469.161	3487.42
469.534	3512.51
469.906	3578.72
470.278	3607.19
470.65	3631.37
471.022	3709.34
471.394	3836.34
471.766	3849.67
472.138	3868.43
472.51	3987.75
472.882	4021.42
473.253	4088.31
473.625	4134.86
473.997	4168.08
474.369	4241.3
474.74	4294.41
475.112	4350.45
475.484	4437.23
475.855	4463.67
476.227	4530.78
476.598	4685.58
476.97	4712.47
477.341	4834.05
477.713	4914.73
478.084	4938.01
478.455	5070.43
478.827	5148.62
479.198	5291.44
479.569	5288.73
479.94	5457.31
480.311	5437.43
480.682	5610.98
481.053	5719.91
481.424	5835.38
481.795	5876.06
482.166	5923.52
482.537	6033.34
482.908	6161.48
483.279	6232.66
483.65	6300
484.021	6465.42
484.391	6514.91
484.762	6604.63
485.133	6684.63
485.503	6763.95
485.874	6879.65
486.244	6965.52
486.615	7077.16
486.985	7163.71
487.356	7293.65
487.726	7329.81
488.097	7506.07
488.467	7547.65
488.837	7717.59
489.207	7798.5
489.578	7926.18
489.948	7918.04
490.318	8061.77
490.688	8118.94
491.058	8223.57
491.428	8322.32
491.798	8399.61
492.168	8549.89
492.538	8555.76
492.908	8642.32
493.278	8713.27
493.648	8752.14
494.017	8878.47
494.387	8945.36
494.757	8978.58
495.126	9147.84
495.496	9137.22
495.866	9120.04
496.235	9285.24
496.605	9364.1
496.974	9342.41
497.344	9462.18
497.713	9509.41
498.082	9594.38
498.452	9593.93
498.821	9577.66
499.19	9684.1
499.559	9720.93
499.928	9835.05
500.298	9800.7
500.667	9904.43
501.036	9876.63
501.405	9900.81
501.774	9984.43
502.143	9968.16
502.512	9967.7
502.88	10074.14
503.249	10111.2
503.618	10126.34
503.987	10168.6
504.356	10193.46
504.724	10271.2
505.093	10290.63
505.462	10293.12
505.83	10260.13
506.199	10374.02
506.567	10402.95
506.936	10452.89
507.304	10512.32
507.672	10536.05
508.041	10601.36
508.409	10574.47
508.777	10619.66
509.145	10685.2
509.514	10646.1
509.882	10702.37
510.25	10673.22
510.618	10757.51
510.986	10746.89
511.354	10770.39
511.722	10829.38
512.09	10886.78
512.458	10826.21
512.826	10873.89
513.193	10879.09
513.561	10862.14
513.929	10929.94
514.297	10990.05
514.664	10985.3
515.032	11050.61
515.4	11036.38
515.767	11032.08
516.135	11058.75
516.502	11019.88
516.869	11087.9
517.237	11053.78
517.604	10955.7
517.972	11058.97
518.339	11129.26
518.706	11129.71
519.073	11046.55
519.44	11071.63
519.808	11149.37
520.175	11083.61
520.542	11209.71
520.909	11152.76
521.276	11115.02
521.643	11221.91
522.009	11153.44
522.376	11253.55
522.743	11208.8
523.11	11276.37
523.477	11423.03
523.843	11325.86
524.21	11324.73
524.577	11328.12
524.943	11342.58
525.31	11368.12
525.676	11359.08
526.043	11362.7
526.409	11281.79
526.776	11407.44
527.142	11365.63
527.508	11368.8
527.874	11402.69
528.241	11286.77
528.607	11355.69
528.973	11322.24
529.339	11257.61
529.705	11338.74
530.071	11377.38
530.437	11361.11
530.803	11275.92
531.169	11367.67
531.535	11215.35
531.901	11166.09
532.267	11130.84
532.632	11164.28
532.998	11174.68
533.364	11126.77
533.73	11020.33
534.095	11060.1
534.461	11036.38
534.826	10999.32
535.192	11061.01
535.557	10937.62
535.923	10893.33
536.288	10874.35
536.653	10868.25
537.019	10740.79
537.384	10744.63
537.749	10703.5
538.114	10592.55
538.479	10597.97
538.845	10548.71
539.21	10444.53
539.575	10498.31
539.94	10457.86
540.305	10448.82
540.67	10423.96
541.034	10378.31
541.399	10314.14
541.764	10279.56
542.129	10259.22
542.494	10125.21
542.858	10127.25
543.223	10122.95
543.587	10010.19
543.952	9951.89
544.316	9881.6
544.681	9840.7
545.045	9931.55
545.41	9834.15
545.774	9726.81
546.138	9702.17
546.503	9654.94
546.867	9595.28
547.231	9537.43
547.595	9519.35
547.959	9571.1
548.324	9462.41
548.688	9482.75
549.052	9424.67
549.416	9393.48
549.779	9271.68
550.143	9236.88
550.507	9246.59
550.871	9205.01
551.235	9147.84
551.599	9127.05
551.962	9072.59
552.326	9052.7
552.689	9045.47
553.053	8948.75
553.417	8896.77
553.78	8939.26
554.143	8862.65
554.507	8912.82
554.87	8828.07
555.234	8765.93
555.597	8715.99
555.96	8699.94
556.323	8690.22
556.686	8580.4
557.05	8608.87
557.413	8574.29
557.776	8591.69
558.139	8621.3
558.502	8587.63
558.865	8469.89
559.228	8510.34
559.59	8511.02
559.953	8457.46
560.316	8455.43
560.679	8439.61
561.041	8411.36
561.404	8346.73
561.767	8372.94
562.129	8304.02
562.492	8346.96
562.854	8282.55
563.217	8329.55
563.579	8323.91
563.941	8307.63
564.304	8318.48
564.666	8321.87
565.028	8314.87
565.39	8282.78
565.753	8315.09
566.115	8292.72
566.477	8306.28
566.839	8349.22
567.201	8295.43
567.563	8286.84
567.925	8353.28
568.287	8295.88
568.648	8273.51
569.01	8350.8
569.372	8242.1
569.734	8270.12
570.095	8287.75
570.457	8329.33
570.819	8287.07
571.18	8286.84
571.542	8236.9
571.903	8260.18
572.265	8337.01
572.626	8256.56
572.987	8253.17
573.349	8283.91
573.71	8259.95
574.071	8259.95
574.432	8266.28
574.794	8331.59
575.155	8333.17
575.516	8190.8
575.877	8258.14
576.238	8280.74
576.599	8303.12
576.96	8267.41
577.32	8207.07
577.681	8267.41
578.042	8276.45
578.403	8217.02
578.763	8222.67
579.124	8283.91
579.485	8222.21
579.845	8239.84
580.206	8207.98
580.566	8208.65
580.927	8222.67
581.287	8231.7
581.648	8248.88
582.008	8207.52
582.368	8243.68
582.728	8198.71
583.089	8219.73
583.449	8135.21
583.809	8173.85
584.169	8187.64
584.529	8111.93
584.889	8162.55
585.249	8145.15
585.609	8089.11
585.969	8141.99
586.329	8170.92
586.688	8123.91
587.048	8079.84
587.408	8069
587.768	8009.56
588.127	8058.38
588.487	7959.85
588.846	8089.11
589.206	8005.27
589.565	7968.89
589.925	8056.79
590.284	8002.11
590.643	8043.91
591.003	8023.12
591.362	8023.57
591.721	7952.16
592.08	7950.36
592.44	7958.72
592.799	7982.45
593.158	7959.85
593.517	7999.39
593.876	7919.85
594.235	7865.84
594.593	7938.6
594.952	7932.05
595.311	7880.53
595.67	7947.19
596.029	7915.78
596.387	7900.41
596.746	7891.6
597.104	7884.59
597.463	7900.19
597.822	7848.89
598.18	7847.31
598.538	7783.58
598.897	7891.83
599.255	7838.49
599.613	7829.68
599.972	7836.91
600.33	7838.95
600.688	7831.04
601.046	7828.78
601.404	7842.34
601.762	7797.37
602.12	7785.84
602.478	7856.12
602.836	7850.47
603.194	7819.96
603.552	7803.92
603.91	7820.64
604.268	7801.66
604.625	7849.57
604.983	7865.84
605.341	7845.27
605.698	7855.22
606.056	7768.44
606.413	7783.58
606.771	7766.41
607.128	7833.07
607.485	7795.78
607.843	7792.85
608.2	7833.3
608.557	7845.5
608.914	7865.39
609.272	7879.17
609.629	7848.44
609.986	7909.23
610.343	7795.56
610.7	7806.86
611.057	7865.16
611.414	7831.26
611.771	7883.47
612.127	7875.56
612.484	7889.79
612.841	7910.58
613.198	7909.91
613.554	7894.54
613.911	7867.87
614.267	7884.59
614.624	7857.48
614.98	7928.21
615.337	7925.05
615.693	7889.11
616.05	7890.92
616.406	7906.52
616.762	7923.01
617.118	7897.7
617.475	7870.58
617.831	7915.55
618.187	7890.24
618.543	7967.08
618.899	7941.99
619.255	7919.17
619.611	7946.06
619.967	7918.27
620.323	7941.54
620.678	7908.32
621.034	7943.12
621.39	7984.03
621.746	7909.91
622.101	8011.37
622.457	7857.7
622.812	7951.03
623.168	7996.68
623.523	7936.8
623.879	7965.5
624.234	7939.51
624.589	7947.64
624.945	7959.85
625.3	7955.55
625.655	7961.88
626.01	7956.91
626.365	7932.05
626.72	7921.66
627.075	7922.33
627.43	7880.53
627.785	7918.94
628.14	7965.04
628.495	7918.49
628.85	7920.07
629.205	7862.67
629.559	7896.35
629.914	7789
630.269	7892.73
630.623	7860.87
630.978	7838.04
631.332	7863.13
631.687	7903.8
632.041	7851.15
632.396	7863.13
632.75	7781.09
633.104	7839.85
633.459	7769.8
633.813	7804.15
634.167	7831.04
634.521	7789.91
634.875	7763.02
635.229	7739.74
635.583	7727.54
635.937	7734.54
636.291	7669.69
636.645	7720.98
636.999	7731.83
637.352	7765.05
637.706	7637.6
638.06	7655.9
638.413	7707.42
638.767	7670.36
639.121	7631.04
639.474	7586.52
639.828	7600.08
640.181	7638.05
640.534	7596.69
640.888	7615.45
641.241	7558.28
641.594	7552.17
641.947	7636.92
642.301	7589.46
642.654	7565.28
643.007	7558.5
643.36	7553.53
643.713	7510.14
644.066	7582.91
644.419	7466.53
644.771	7426.98
645.124	7440.09
645.477	7405.96
645.83	7438.73
646.182	7323.25
646.535	7289.81
646.888	7356.02
647.24	7304.72
647.593	7314.21
647.945	7278.06
648.298	7259.98
648.65	7290.49
649.002	7258.62
649.355	7289.81
649.707	7296.14
650.059	7319.86
650.411	7446.87
650.763	7420.88
651.115	7475.57
651.467	7453.65
651.819	7512.4
652.171	7504.04
652.523	7437.38
652.875	7418.84
653.227	7440.99
653.578	7469.92
653.93	7472.85
654.282	7438.28
654.633	7461.33
654.985	7469.92
655.337	7459.52
655.688	7471.05
656.039	7500.65
656.391	7448.45
656.742	7492.51
657.094	7468.56
657.445	7531.61
657.796	7464.72
658.147	7443.93
658.498	7451.39
658.849	7509.46
659.2	7448.22
659.551	7475.57
659.902	7558.95
660.253	7528.22
660.604	7510.14
660.955	7538.39
661.306	7523.7
661.656	7530.71
662.007	7526.86
662.358	7503.36
662.708	7545.62
663.059	7549.91
663.409	7460.65
663.76	7582.91
664.11	7529.35
664.461	7577.26
664.811	7551.72
665.161	7526.86
665.511	7546.52
665.862	7595.34
666.212	7617.94
666.562	7633.08
666.912	7584.49
667.262	7593.53
667.612	7527.54
667.962	7580.2
668.312	7581.78
668.662	7562.34
669.011	7560.31
669.361	7537.03
669.711	7579.97
670.06	7540.88
670.41	7508.79
670.76	7524.15
671.109	7599.4
671.459	7560.99
671.808	7528.45
672.157	7540.42
672.507	7496.13
672.856	7480.54
673.205	7527.77
673.554	7492.29
673.904	7477.37
674.253	7543.81
674.602	7540.88
674.951	7405.29
675.3	7358.06
675.649	7455.68
675.998	7515.57
676.346	7390.37
676.695	7492.97
677.044	7426.08
677.393	7405.29
677.741	7414.78
678.09	7412.74
678.438	7392.86
678.787	7436.7
679.135	7378.39
679.484	7382.91
679.832	7364.83
680.181	7298.4
680.529	7339.75
680.877	7355.12
681.225	7343.59
681.573	7330.26
681.922	7250.04
682.27	7231.05
682.618	7268.57
682.966	7252.07
683.314	7217.49
683.661	7201.45
684.009	7189.47
684.357	7188.12
684.705	7086.65
685.053	7163.03
685.4	7132.3
685.748	7092.3
686.095	7128.91
686.443	7033.54
686.79	7082.13
687.138	7048.68
687.485	7032.41
687.832	7033.77
688.18	6990.61
688.527	6958.07
688.874	6925.3
689.221	6941.57
689.568	6908.8
689.915	6908.58
690.262	6904.28
690.609	6870.84
690.956	6883.72
691.303	6816.15
691.65	6782.7
691.997	6733.66
692.344	6754
692.69	6698.64
693.037	6747
693.383	6713.55
693.73	6660.22
694.077	6657.96
694.423	6648.92
694.769	6602.82
695.116	6564.4
695.462	6580.45
695.808	6512.43
696.155	6565.31
696.501	6465.2
696.847	6429.27
697.193	6446.67
697.539	6406.44
697.885	6388.59
698.231	6379.78
698.577	6350.85
698.923	6278.54
699.269	6301.13
699.614	6193.57
699.96	6169.84
700.306	6260
700.651	6126
700.997	6167.58
701.342	6179.1
701.688	6174.13
702.033	6130.29
702.379	6090.52
702.724	6061.59
703.069	6063.17
703.415	5973.01
703.76	6060.24
704.105	6018.66
704.45	5989.28
704.795	5971.88
705.14	5893.46
705.485	5904.76
705.83	5871.77
706.175	5885.33
706.52	5922.16
706.865	5858.66
707.209	5817.53
707.554	5775.27
707.899	5811.66
708.243	5797.87
708.588	5747.93
708.932	5717.65
709.277	5728.27
709.621	5751.77
709.966	5689.17
710.31	5677.42
710.654	5656.4
710.998	5614.6
711.342	5657.53
711.687	5614.37
712.031	5628.61
712.375	5578.21
712.719	5621.38
713.063	5573.92
713.407	5606.69
713.75	5557.2
714.094	5575.96
714.438	5540.02
714.782	5556.29
715.125	5487.14
715.469	5512.91
715.812	5469.74
716.156	5448.95
716.499	5444.66
716.843	5475.84
717.186	5418.22
717.53	5467.26
717.873	5502.28
718.216	5439.69
718.559	5450.08
718.902	5370.54
719.246	5380.03
719.589	5432.91
719.932	5375.28
720.275	5413.25
720.617	5371.44
720.96	5400.82
721.303	5353.36
721.646	5336.41
721.989	5349.07
722.331	5395.85
722.674	5363.53
723.016	5335.74
723.359	5351.78
723.701	5326.02
724.044	5354.27
724.386	5283.99
724.729	5328.5
725.071	5343.87
725.413	5280.82
725.755	5329.18
726.097	5244.89
726.439	5323.31
726.782	5285.12
727.124	5361.05
727.465	5276.75
727.807	5298.45
728.149	5290.99
728.491	5246.92
728.833	5249.18
729.175	5253.25
729.516	5242.86
729.858	5222.29
730.199	5258.9
730.541	5294.83
730.882	5276.75
731.224	5295.06
731.565	5259.35
731.906	5286.02
732.248	5230.2
732.589	5234.04
732.93	5246.7
733.271	5316.98
733.612	5267.49
733.953	5260.26
734.294	5272.69
734.635	5234.5
734.976	5251.67
735.317	5257.32
735.658	5269.75
735.999	5272.91
736.339	5330.31
736.68	5336.41
737.021	5298.67
737.361	5317.88
737.702	5359.46
738.042	5340.71
738.383	5378.45
738.723	5350.65
739.063	5321.05
739.404	5372.57
739.744	5335.96
740.084	5403.98
740.424	5380.48
740.764	5391.33
741.104	5383.19
741.444	5418.9
741.784	5422.06
742.124	5466.35
742.464	5469.97
742.804	5486.69
743.143	5480.36
743.483	5515.17
743.823	5526.24
744.162	5533.02
744.502	5560.81
744.841	5613.92
745.181	5688.72
745.52	5648.95
745.86	5638.55
746.199	5664.99
746.538	5697.08
746.877	5760.13
747.216	5828.15
747.556	5841.26
747.895	5853.91
748.234	5967.36
748.573	5997.86
748.911	6001.48
749.25	6078.31
749.589	6135.71
749.928	6195.83
750.267	6269.04
750.605	6324.64
750.944	6375.71
751.283	6395.37
751.621	6519.21
751.96	6602.59
752.298	6712.42
752.636	6790.39
752.975	6885.53
753.313	6954.9
753.651	7099.98
753.989	7151.51
754.327	7211.39
754.666	7294.1
755.004	7487.54
755.342	7593.98
755.679	7737.93
756.017	7785.61
756.355	7948.77
756.693	8126.85
757.031	8232.38
757.368	8390.12
757.706	8508.53
758.044	8612.03
758.381	8805.02
758.719	8934.51
759.056	9143.32
759.394	9228.97
759.731	9329.98
760.068	9609.07
760.405	9684.1
760.743	9852
761.08	10084.99
761.417	10139.45
761.754	10302.61
762.091	10474.81
762.428	10711.64
762.765	10805.65
763.102	11020.11
763.438	11152.76
763.775	11328.8
764.112	11505.74
764.449	11725.85
764.785	11897.14
765.122	11968.56
765.458	12152.73
765.795	12264.37
766.131	12398.83
766.467	12664.58
