Data from hue_310_FLMS001491_92.txt Node
Date: Mon Feb 06 15:50:28 GMT 2017
User: dcchb
Spectrometer: FLMS00149
Trigger mode: 0
Integration Time (sec): 2.000000E-2
Scans to average: 10
Electric dark correction enabled: true
Nonlinearity correction enabled: false
Boxcar width: 0
XAxis mode: Wavelengths
Number of Pixels in Spectrum: 2048
>>>>>Begin Spectral Data<<<<<
341.393	-6.16
341.776	-6.16
342.16	-6.16
342.543	-68.76
342.927	-70.11
343.31	-68.53
343.693	-64.91
344.077	-72.37
344.46	-60.39
344.843	-54.52
345.226	-33.5
345.61	-32.37
345.993	-3.22
346.376	-14.07
346.759	7.4
347.142	16.89
347.525	36.33
347.908	45.82
348.291	92.6
348.674	83.78
349.057	121.07
349.44	125.59
349.823	142.99
350.206	159.71
350.588	203.1
350.971	211.69
351.354	237.9
351.737	252.59
352.119	259.6
352.502	262.54
352.884	273.38
353.267	295.08
353.65	310.44
354.032	307.28
354.414	316.09
354.797	326.26
355.179	327.62
355.562	322.87
355.944	340.5
356.326	332.59
356.709	337.34
357.091	341.18
357.473	349.99
357.855	341.18
358.238	345.7
358.62	330.56
359.002	330.56
359.384	356.54
359.766	361.97
360.148	343.21
360.53	330.78
360.912	353.61
361.294	325.36
361.676	321.52
362.057	340.73
362.439	329.43
362.821	345.92
363.203	330.33
363.584	341.18
363.966	305.47
364.348	318.35
364.729	323.55
365.111	323.1
365.493	320.61
365.874	321.52
366.256	309.31
366.637	309.54
367.019	296.88
367.4	340.5
367.781	325.36
368.163	311.57
368.544	289.65
368.925	309.54
369.306	312.93
369.688	307.05
370.069	312.03
370.45	311.12
370.831	308.18
371.212	297.34
371.593	324.91
371.974	309.99
372.355	304.79
372.736	326.94
373.117	324.45
373.498	302.76
373.879	299.6
374.26	309.77
374.641	317.45
375.021	318.35
375.402	323.32
375.783	335.75
376.163	322.19
376.544	322.42
376.925	331.01
377.305	343.44
377.686	338.47
378.066	327.39
378.447	335.53
378.827	353.83
379.208	328.75
379.588	340.5
379.968	349.09
380.349	339.37
380.729	320.16
381.109	359.48
381.489	328.52
381.87	344.12
382.25	344.57
382.63	341.4
383.01	336.88
383.39	336.43
383.77	324.91
384.15	356.32
384.53	350.44
384.91	333.95
385.29	331.91
385.67	319.03
386.049	356.32
386.429	361.52
386.809	348.18
387.189	367.39
387.568	328.52
387.948	360.61
388.328	353.61
388.707	372.14
389.087	352.93
389.466	361.06
389.846	343.44
390.225	376.43
390.605	370.56
390.984	357.67
391.363	364.23
391.743	388.63
392.122	376.2
392.501	377.33
392.881	361.52
393.26	370.56
393.639	407.62
394.018	388.41
394.397	399.71
394.776	390.67
395.155	388.86
395.534	382.98
395.913	394.51
396.292	382.08
396.671	379.37
397.05	400.61
397.429	394.06
397.808	398.8
398.186	408.75
398.565	408.52
398.944	414.4
399.323	405.13
399.701	401.29
400.08	417.11
400.458	394.51
400.837	412.14
401.215	425.24
401.594	427.73
401.972	403.1
402.351	409.2
402.729	448.07
403.107	447.62
403.486	431.57
403.864	432.47
404.242	437.67
404.62	463.66
404.999	452.81
405.377	446.26
405.755	445.36
406.133	445.13
406.511	451.01
406.889	446.49
407.267	473.38
407.645	477.67
408.023	474.96
408.401	472.7
408.779	484.68
409.156	501.17
409.534	501.17
409.912	498.24
410.29	495.3
410.667	505.47
411.045	530.1
411.422	529.87
411.8	530.78
412.178	534.84
412.555	548.63
412.933	537.33
413.31	536.88
413.687	554.96
414.065	578.69
414.442	603.32
414.819	595.41
415.197	612.13
415.574	615.75
415.951	605.13
416.328	603.32
416.705	612.58
417.082	640.6
417.46	644.9
417.837	646.71
418.214	641.28
418.591	655.75
418.967	686.25
419.344	666.82
419.721	682.64
420.098	668.4
420.475	726.93
420.852	683.54
421.228	713.37
421.605	715.18
421.982	720.38
422.358	748.62
422.735	756.53
423.111	741.39
423.488	765.12
423.864	786.14
424.241	768.06
424.617	761.28
424.994	794.95
425.37	782.52
425.746	802.18
426.123	817.32
426.499	824.1
426.875	825.23
427.251	854.84
427.627	867.04
428.003	873.82
428.379	868.4
428.756	870.43
429.132	891.67
429.507	899.58
429.883	904.78
430.259	909.98
430.635	930.54
431.011	913.14
431.387	952.01
431.763	947.04
432.138	969.18
432.514	1006.02
432.89	998.56
433.265	997.21
433.641	1003.76
434.016	1008.05
434.392	1038.79
434.767	1034.49
435.143	1050.76
435.518	1064.32
435.894	1087.82
436.269	1064.55
436.644	1111.78
437.02	1130.08
437.395	1115.17
437.77	1136.64
438.145	1133.92
438.52	1178.9
438.895	1179.8
439.271	1174.83
439.646	1185.9
440.021	1215.05
440.395	1161.49
440.77	1206.92
441.145	1180.93
441.52	1223.41
441.895	1224.32
442.27	1230.65
442.645	1231.1
443.019	1254.15
443.394	1259.8
443.769	1258.44
444.143	1271.32
444.518	1270.19
444.892	1268.16
445.267	1285.11
445.641	1284.43
446.016	1309.29
446.39	1292.79
446.764	1299.34
447.139	1282.4
447.513	1298.67
447.887	1324.88
448.262	1297.54
448.636	1290.08
449.01	1323.52
449.384	1332.11
449.758	1360.81
450.132	1339.34
450.506	1354.03
450.88	1350.87
451.254	1372.56
451.628	1398.55
452.002	1379.57
452.376	1387.03
452.75	1382.96
453.123	1374.6
453.497	1426.57
453.871	1417.99
454.244	1418.21
454.618	1457.98
454.992	1434.48
455.365	1470.41
455.739	1492.79
456.112	1472.22
456.486	1488.04
456.859	1509.96
457.232	1550.64
457.606	1500.7
457.979	1520.13
458.352	1532.56
458.725	1554.03
459.099	1519.45
459.472	1558.09
459.845	1591.09
460.218	1597.87
460.591	1604.87
460.964	1607.36
461.337	1629.28
461.71	1662.95
462.083	1671.54
462.456	1681.93
462.829	1695.04
463.201	1704.98
463.574	1679.67
463.947	1731.88
464.32	1736.17
464.692	1733.23
465.065	1755.83
465.438	1777.3
465.81	1770.29
466.183	1811.65
466.555	1860.23
466.928	1841.25
467.3	1820.69
467.672	1827.01
468.045	1853
468.417	1887.58
468.789	1890.29
469.161	1920.8
469.534	1937.75
469.906	1965.32
470.278	1947.01
470.65	1995.15
471.022	2008.48
471.394	2058.19
471.766	2050.06
472.138	2057.06
472.51	2099.32
472.882	2087.8
473.253	2116.05
473.625	2141.81
473.997	2164.86
474.369	2158.76
474.74	2169.15
475.112	2176.61
475.484	2262.48
475.855	2259.55
476.227	2280.11
476.598	2323.95
476.97	2337.06
477.341	2388.13
477.713	2407.56
478.084	2379.99
478.455	2447.34
478.827	2471.74
479.198	2498.18
479.569	2507.45
479.94	2568.24
480.311	2584.06
480.682	2630.83
481.053	2664.05
481.424	2668.12
481.795	2673.32
482.166	2697.5
482.537	2759.42
482.908	2788.34
483.279	2815.69
483.65	2848.91
484.021	2887.1
484.391	2865.86
484.762	2941.34
485.133	2911.73
485.503	2930.94
485.874	3000.54
486.244	3012.29
486.615	3053.42
486.985	3088.68
487.356	3131.84
487.726	3161.44
488.097	3190.59
488.467	3176.81
488.837	3243.25
489.207	3263.59
489.578	3334.55
489.948	3337.71
490.318	3353.98
490.688	3353.98
491.058	3400.31
491.428	3422
491.798	3430.36
492.168	3514.65
492.538	3510.81
492.908	3531.38
493.278	3566.63
493.648	3578.61
494.017	3611.15
494.387	3652.95
494.757	3598.04
495.126	3679.39
495.496	3676.91
495.866	3687.53
496.235	3750.13
496.605	3768.66
496.974	3796.45
497.344	3775.44
497.713	3815.44
498.082	3824.48
498.452	3849.33
498.821	3880.07
499.19	3838.26
499.559	3890.24
499.928	3896.79
500.298	3896.34
500.667	3959.39
501.036	3925.49
501.405	3969.1
501.774	3930.69
502.143	3980.18
502.512	4034.19
502.88	4043.23
503.249	4040.52
503.618	4040.06
503.987	4103.79
504.356	4118.03
504.724	4097.46
505.093	4111.93
505.462	4125.94
505.83	4177.69
506.199	4199.16
506.567	4193.51
506.936	4214.07
507.304	4282.09
507.672	4269.89
508.041	4261.53
508.409	4255.88
508.777	4287.74
509.145	4331.81
509.514	4320.28
509.882	4308.76
510.25	4321.19
510.618	4361.86
510.986	4335.65
511.354	4376.55
511.722	4351.47
512.09	4421.52
512.458	4428.53
512.826	4436.89
513.193	4452.26
513.561	4483.22
513.929	4428.53
514.297	4504.23
514.664	4508.07
515.032	4530.22
515.4	4531.58
515.767	4547.62
516.135	4591.46
516.502	4534.97
516.869	4615.64
517.237	4611.57
517.604	4593.5
517.972	4630.56
518.339	4654.96
518.706	4653.83
519.073	4631.91
519.44	4618.81
519.808	4714.4
520.175	4724.34
520.542	4725.24
520.909	4750.1
521.276	4734.73
521.643	4734.73
522.009	4789.65
522.376	4785.35
522.743	4817.44
523.11	4853.6
523.477	4880.04
523.843	4885.46
524.21	4981.28
524.577	4952.36
524.943	4932.47
525.31	4954.62
525.676	4988.96
526.043	4998.23
526.409	5056.08
526.776	5069.87
527.142	5071.9
527.508	5088.17
527.874	5107.61
528.241	5185.12
528.607	5162.07
528.973	5265.79
529.339	5194.38
529.705	5292.01
530.071	5332.91
530.437	5322.29
530.803	5346.24
531.169	5357.77
531.535	5371.33
531.901	5401.16
532.267	5379.01
532.632	5362.97
532.998	5484.09
533.364	5448.84
533.73	5488.16
534.095	5517.76
534.461	5515.05
534.826	5546.92
535.192	5562.74
535.557	5618.78
535.923	5594.15
536.288	5661.04
536.653	5694.48
537.019	5697.87
537.384	5665.11
537.749	5701.71
538.114	5771.32
538.479	5750.75
538.845	5797.31
539.21	5784.2
539.575	5845.89
539.94	5849.96
540.305	5898.09
540.67	5868.04
541.034	5900.58
541.399	5963.4
541.764	5936.06
542.129	5989.16
542.494	6065.55
542.858	6055.38
543.223	6046.11
543.587	6109.84
543.952	6115.26
544.316	6127.01
544.681	6106.68
545.045	6148.71
545.41	6213.57
545.774	6221.25
546.138	6251.76
546.503	6284.3
546.867	6284.75
547.231	6342.15
547.595	6334.01
547.959	6419.44
548.324	6389.38
548.688	6409.72
549.052	6402.49
549.416	6460.56
549.779	6536.04
550.143	6495.59
550.507	6567
550.871	6598.64
551.235	6568.81
551.599	6631.18
551.962	6608.36
552.326	6575.14
552.689	6655.59
553.053	6634.8
553.417	6698.75
553.78	6747.56
554.143	6764.06
554.507	6746.21
554.87	6806.32
555.234	6795.25
555.597	6744.17
555.96	6825.07
556.323	6769.71
556.686	6883.15
557.05	6937.39
557.413	6876.37
557.776	6925.19
558.139	6934
558.502	6889.03
558.865	7032.3
559.228	7015.8
559.59	7039.76
559.953	7043.15
560.316	7128.34
560.679	7119.3
561.041	7143.94
561.404	7217.61
561.767	7239.75
562.129	7214.22
562.492	7249.92
562.854	7264.84
563.217	7225.97
563.579	7299.41
563.941	7234.78
564.304	7321.56
564.666	7380.77
565.028	7381.67
565.39	7441.1
565.753	7432.06
566.115	7479.75
566.477	7541.89
566.839	7472.74
567.201	7556.81
567.563	7549.8
567.925	7580.31
568.287	7647.2
568.648	7620.53
569.01	7696.46
569.372	7746.41
569.734	7659.63
570.095	7731.49
570.457	7828.21
570.819	7820.98
571.18	7772.85
571.542	7910.47
571.903	7988.21
572.265	7978.26
572.626	7952.28
572.987	8015.1
573.349	8112.95
573.71	8130.13
574.071	8176.9
574.432	8267.75
574.794	8331.02
575.155	8450.12
575.516	8357.01
575.877	8473.84
576.238	8526.72
576.599	8622.77
576.96	8716.55
577.32	8706.38
577.681	8865.02
578.042	8969.43
578.403	8980.95
578.763	9052.36
579.124	9138.91
579.485	9324.9
579.845	9409.87
580.206	9444.44
580.566	9578.22
580.927	9701.16
581.287	9862.74
581.648	9968.27
582.008	10085.55
582.368	10249.39
582.728	10435.15
583.089	10566.22
583.449	10711.75
583.809	10836.72
584.169	11065.19
584.529	11266.54
584.889	11542.69
585.249	11673.53
585.609	11896.13
585.969	12176.12
586.329	12266.97
586.688	12565.26
587.048	12749.89
587.408	13001.64
587.768	13211.8
588.127	13454.5
588.487	13667.15
588.846	14040.48
589.206	14136.75
589.565	14453.8
589.925	14800.68
590.284	14998.65
590.643	15274.12
591.003	15639.08
591.362	15925.4
591.721	16179.63
592.08	16464.14
592.44	16826.85
592.799	17123.11
593.158	17339.15
593.517	17693.94
593.876	17996.98
594.235	18260.25
594.593	18646.91
594.952	18971.42
595.311	19164.86
595.67	19625.87
596.029	19939.76
596.387	20169.13
596.746	20562.34
597.104	20826.74
597.463	21106.96
597.822	21389.21
598.18	21729.09
598.538	22018.35
598.897	22395.29
599.255	22560.48
599.613	23235.26
599.972	23321.14
600.33	23578.31
600.688	23912.31
601.046	24247.44
601.404	24646.75
601.762	24803.13
602.12	25192.5
602.478	25428.2
602.836	25770.57
603.194	25881.52
603.552	26304.34
603.91	26417.1
604.268	26937.99
604.625	26964.66
604.983	27433.12
605.341	27362.84
605.698	27867.01
606.056	28192.42
606.413	28414.34
606.771	28746.76
607.128	28896.13
607.485	29062.46
607.843	29329.12
608.2	29827.86
608.557	30000.06
608.914	30094.75
609.272	30467.39
609.629	30788.29
609.986	31052.69
610.343	31112.8
610.7	31565.44
611.057	31545.1
611.414	31872.78
611.771	32077.07
612.127	32230.73
612.484	32385.53
612.841	32690.61
613.198	32721.34
613.554	32953.88
613.911	33390.7
614.267	33426.64
614.624	33521.55
614.98	33787.53
615.337	34023.91
615.693	34224.81
616.05	34327.85
616.406	34626.6
616.762	34556.77
617.118	34685.59
617.475	34846.48
617.831	35057.33
618.187	35244.21
618.543	35342.07
618.899	35699.57
619.255	35771.43
619.611	35829.96
619.967	36043.74
620.323	36285.77
620.678	36147.92
621.034	36308.82
621.39	36369.83
621.746	36519.21
622.101	37041
622.457	36727.57
622.812	36895.24
623.168	37164.84
623.523	37243.71
623.879	37388.11
624.234	37262.92
624.589	37409.81
624.945	37622.68
625.3	37634.89
625.655	37742
626.01	37876.01
626.365	37939.06
626.72	38074.42
627.075	38149.22
627.43	38038.49
627.785	38198.04
628.14	38156.68
628.495	38335.43
628.85	38388.31
629.205	38186.96
629.559	38535.65
629.914	38373.17
630.269	38443
630.623	38542.21
630.978	38404.36
631.332	38637.57
631.687	38641.41
632.041	38548.08
632.396	38694.29
632.75	38554.86
633.104	38643.9
633.459	38651.13
633.813	38672.15
634.167	38661.07
634.521	38725.93
634.875	38727.29
635.229	38715.31
635.583	38547.4
635.937	38570.45
636.291	38691.81
636.645	38767.29
636.999	38606.39
637.352	38727.96
637.706	38525.71
638.06	38711.47
638.413	38567.29
638.767	38567.07
639.121	38718.25
639.474	38464.69
639.828	38570.68
640.181	38729.55
640.534	38539.27
640.888	38568.42
641.241	38575.43
641.594	38548.31
641.947	38734.29
642.301	38609.32
642.654	38632.6
643.007	38677.8
643.36	38675.54
643.713	38451.36
644.066	38644.8
644.419	38555.54
644.771	38176.79
645.124	37899.51
645.477	37747.43
645.83	37693.64
646.182	37619.97
646.535	37310.83
646.888	37537.49
647.24	37260.88
647.593	37523.93
647.945	37404.16
648.298	37273.54
648.65	37277.16
649.002	37187.21
649.355	37384.27
649.707	37228.8
650.059	37379.75
650.411	37892.51
650.763	37945.61
651.115	38223.8
651.467	38074.42
651.819	38119.17
652.171	38099.96
652.523	37977.48
652.875	38165.27
653.227	37976.8
653.578	38147.64
653.93	38189
654.282	37901.32
654.633	37812.96
654.985	37946.74
655.337	37942.22
655.688	37913.07
656.039	38237.13
656.391	37769.35
656.742	37755.79
657.094	37888.21
657.445	38034.65
657.796	37898.61
658.147	37798.5
658.498	37807.31
658.849	37932.73
659.2	37742.45
659.551	37838.5
659.902	37918.04
660.253	37779.06
660.604	37878.27
660.955	37730.25
661.306	37810.7
661.656	37756.01
662.007	37766.63
662.358	37800.31
662.708	37712.85
663.059	37717.14
663.409	37649.35
663.76	37859.96
664.11	37858.61
664.461	37862
664.811	37815.9
665.161	37735
665.511	37739.52
665.862	37703.58
666.212	37768.44
666.562	37836.01
666.912	37656.35
667.262	37645.96
667.612	37723.92
667.962	37505.4
668.312	37615.68
668.662	37613.64
669.011	37603.93
669.361	37483.93
669.711	37558.05
670.06	37561.44
670.41	37434.21
670.76	37502.91
671.109	37661.33
671.459	37574.32
671.808	37434.89
672.157	37577.03
672.507	37359.64
672.856	37269.25
673.205	37482.35
673.554	37593.76
673.904	37386.08
674.253	37519.63
674.602	37392.18
674.951	37015.02
675.3	36681.01
675.649	37376.14
675.998	37273.09
676.346	37292.07
676.695	37399.19
677.044	37052.3
677.393	37328.23
677.741	37382.46
678.09	37288.45
678.438	37077.84
678.787	37200.77
679.135	37162.81
679.484	36970.04
679.832	37075.8
680.181	36852.31
680.529	36909.93
680.877	36916.26
681.225	36843.72
681.573	37038.74
681.922	36850.27
682.27	36810.28
682.618	36748.81
682.966	36622.03
683.314	36732.76
683.661	36546.78
684.009	36287.35
684.357	36298.65
684.705	36359.89
685.053	36352.43
685.4	36250.74
685.748	36137.52
686.095	36133.68
686.443	35997.64
686.79	35883.75
687.138	36061.59
687.485	35996.96
687.832	35864.76
688.18	35882.39
688.527	35768.95
688.874	35696.18
689.221	35667.71
689.568	35561.04
689.915	35404.66
690.262	35457.32
690.609	35388.84
690.956	35356.08
691.303	35213.93
691.65	35118.79
691.997	35022.07
692.344	34911.79
692.69	34797.22
693.037	34894.39
693.383	34625.93
693.73	34745.7
694.077	34618.24
694.423	34511.8
694.769	34433.61
695.116	34438.13
695.462	34226.84
695.808	34248.31
696.155	34244.69
696.501	33877.02
696.847	33996.34
697.193	33750.92
697.539	33850.8
697.885	33645.84
698.231	33576.01
698.577	33503.02
698.923	33576.24
699.269	33329.01
699.614	33263.25
699.96	33126.53
700.306	33184.83
700.651	32986.87
700.997	32818.29
701.342	32896.25
701.688	32903.03
702.033	32694
702.379	32716.6
702.724	32611.74
703.069	32627.11
703.415	32373.33
703.76	32362.93
704.105	32245.42
704.45	32249.72
704.795	32011.98
705.14	31982.83
705.485	32030.06
705.83	31837.75
706.175	31918.88
706.52	31848.6
706.865	31679.79
707.209	31583.97
707.554	31570.19
707.899	31545.33
708.243	31438.89
708.588	31431.43
708.932	31230.08
709.277	31231.44
709.621	31244.32
709.966	31022.18
710.31	31014.5
710.654	30803.2
710.998	30938.57
711.342	30913.25
711.687	30804.78
712.031	30541.29
712.375	30538.58
712.719	30478.24
713.063	30572.25
713.407	30587.84
713.75	30402.08
714.094	30408.86
714.438	30325.25
714.782	30302.88
715.125	30136.1
715.469	30111.02
715.812	29992.38
716.156	29886.16
716.499	29871.02
716.843	29940.4
717.186	29687.3
717.53	29819.72
717.873	29908.31
718.216	29767.75
718.559	29565.72
718.902	29424.25
719.246	29525.72
719.589	29429.68
719.932	29199.63
720.275	29204.83
720.617	29251.38
720.96	29221.77
721.303	29214.32
721.646	29160.98
721.989	29056.35
722.331	29014.1
722.674	29038.5
723.016	29012.06
723.359	29000.31
723.701	28893.65
724.044	28748.57
724.386	28635.57
724.729	28732.75
725.071	28647.1
725.413	28688.91
725.755	28642.35
726.097	28532.98
726.439	28299.31
726.782	28428.8
727.124	28537.05
727.465	28357.16
727.807	28360.33
728.149	28311.74
728.491	28266.77
728.833	28294.79
729.175	27993.78
729.516	28283.95
729.858	28159.66
730.199	28125.76
730.541	27967.57
730.882	28003.5
731.224	28043.73
731.565	27822.94
731.906	27893.9
732.248	27843.73
732.589	27714.7
732.93	27664.75
733.271	27601.48
733.612	27666.33
733.953	27607.35
734.294	27512.21
734.635	27543.63
734.976	27549.05
735.317	27495.49
735.658	27387.02
735.999	27436.06
736.339	27304.08
736.68	27385.21
737.021	27089.4
737.361	27156.74
737.702	27159.91
738.042	26984.09
738.383	27029.06
738.723	27156.97
739.063	26936.18
739.404	27099.57
739.744	26897.09
740.084	26781.84
740.424	26913.59
740.764	26834.04
741.104	26901.84
741.444	26670.43
741.784	26541.39
742.124	26794.04
742.464	26674.95
742.804	26660.94
743.143	26474.95
743.483	26641.05
743.823	26306.82
744.162	26392.02
744.502	26461.62
744.841	26187.28
745.181	26327.61
745.52	26321.96
745.86	26265.69
746.199	26192.48
746.538	26169.2
746.877	26197.67
747.216	26272.7
747.556	26048.3
747.895	25955.19
748.234	25944.8
748.573	25855.76
748.911	25915.65
749.25	25926.72
749.589	25683.11
749.928	25745.71
750.267	25807.85
750.605	25606.05
750.944	25642.21
751.283	25566.95
751.621	25655.54
751.96	25408.09
752.298	25421.87
752.636	25425.49
752.975	25261.65
753.313	25161.99
753.651	25321.76
753.989	25156.34
754.327	25102.79
754.666	24978.5
755.004	24997.48
755.342	25039.06
755.679	24855.11
756.017	24818.27
756.355	24846.97
756.693	24677.26
757.031	24725.17
757.368	24626.19
757.706	24545.74
758.044	24531.95
758.381	24521.78
758.719	24405.18
759.056	24410.83
759.394	24305.29
759.731	24183.26
