Data from hue_90_FLMS001491_80.txt Node
Date: Mon Feb 06 15:25:39 GMT 2017
User: dcchb
Spectrometer: FLMS00149
Trigger mode: 0
Integration Time (sec): 2.000000E-2
Scans to average: 10
Electric dark correction enabled: true
Nonlinearity correction enabled: false
Boxcar width: 0
XAxis mode: Wavelengths
Number of Pixels in Spectrum: 2048
>>>>>Begin Spectral Data<<<<<
341.393	-11.47
341.776	-11.47
342.16	-11.47
342.543	-60.96
342.927	-53.5
343.31	-63.9
343.693	-73.61
344.077	-58.02
344.46	-65.93
344.843	-45.59
345.226	-46.95
345.61	-9.89
345.993	-20.96
346.376	5.93
346.759	-9.43
347.142	15.65
347.525	41.41
347.908	54.74
348.291	65.37
348.674	106.27
349.057	104.91
349.44	130.45
349.823	148.53
350.206	181.52
350.588	195.08
350.971	200.5
351.354	234.17
351.737	231.91
352.119	259.94
352.502	244.12
352.884	281.41
353.267	281.63
353.65	304
354.032	279.82
354.414	324.79
354.797	297
355.179	310.56
355.562	320.05
355.944	316.21
356.326	338.58
356.709	323.66
357.091	376.77
357.473	321.4
357.855	339.48
358.238	337.9
358.62	336.09
359.002	332.25
359.384	300.16
359.766	337.9
360.148	334.74
360.53	320.27
360.912	309.65
361.294	363.66
361.676	320.95
362.057	339.71
362.439	325.7
362.821	328.86
363.203	343.78
363.584	347.17
363.966	357.79
364.348	320.27
364.729	302.87
365.111	321.86
365.493	312.36
365.874	312.36
366.256	315.53
366.637	311.46
367.019	286.38
367.4	325.47
367.781	301.74
368.163	299.71
368.544	310.33
368.925	313.95
369.306	319.82
369.688	312.36
370.069	304.46
370.45	331.57
370.831	284.34
371.212	308.52
371.593	322.76
371.974	322.53
372.355	327.73
372.736	329.54
373.117	312.36
373.498	309.88
373.879	319.82
374.26	308.75
374.641	322.76
375.021	302.87
375.402	302.2
375.783	320.5
376.163	324.34
376.544	325.7
376.925	305.81
377.305	326.83
377.686	345.13
378.066	321.63
378.447	299.71
378.827	318.69
379.208	316.43
379.588	327.28
379.968	310.33
380.349	349.65
380.729	316.66
381.109	320.95
381.489	342.87
381.87	338.35
382.25	341.06
382.63	344
383.01	310.33
383.39	333.38
383.77	335.64
384.15	339.48
384.53	338.8
384.91	340.84
385.29	348.3
385.67	354.17
386.049	367.96
386.429	340.39
386.809	359.37
387.189	345.58
387.568	365.02
387.948	344.91
388.328	356.88
388.707	358.24
389.087	356.88
389.466	366.83
389.846	334.06
390.225	359.82
390.605	362.31
390.984	377.22
391.363	362.98
391.743	347.62
392.122	376.77
392.501	382.19
392.881	377.9
393.26	371.35
393.639	377.67
394.018	355.3
394.397	366.15
394.776	364.11
395.155	367.73
395.534	367.73
395.913	358.24
396.292	367.96
396.671	382.42
397.05	385.13
397.429	379.03
397.808	382.87
398.186	384.91
398.565	393.04
398.944	381.97
399.323	378.13
399.701	395.98
400.08	377.67
400.458	395.53
400.837	397.11
401.215	395.07
401.594	404.11
401.972	414.51
402.351	405.47
402.729	411.12
403.107	397.33
403.486	402.53
403.864	398.92
404.242	396.43
404.62	402.08
404.999	412.48
405.377	426.03
405.755	427.39
406.133	421.29
406.511	421.97
406.889	423.55
407.267	405.02
407.645	426.71
408.023	448.18
408.401	431.01
408.779	445.92
409.156	460.84
409.534	449.08
409.912	429.88
410.29	440.5
410.667	451.57
411.045	453.6
411.422	471.91
411.8	459.93
412.178	459.25
412.555	468.74
412.933	466.94
413.31	474.17
413.687	473.49
414.065	471
414.442	450.89
414.819	474.17
415.197	483.89
415.574	486.37
415.951	499.7
416.328	496.09
416.705	485.69
417.082	513.72
417.46	492.25
417.837	500.83
418.214	488.86
418.591	489.08
418.967	503.32
419.344	522.3
419.721	520.49
420.098	515.52
420.475	526.82
420.852	517.11
421.228	529.53
421.605	514.39
421.982	522.3
422.358	546.03
422.735	551.23
423.111	533.15
423.488	558.46
423.864	563.88
424.241	567.5
424.617	549.65
424.994	584.67
425.37	573.15
425.746	560.27
426.123	564.79
426.499	570.89
426.875	574.96
427.251	594.62
427.627	592.13
428.003	604.56
428.379	595.3
428.756	620.61
429.132	605.46
429.507	604.33
429.883	608.63
430.259	640.27
430.635	642.07
431.011	624.9
431.387	616.54
431.763	646.14
432.138	631.9
432.514	661.28
432.89	644.33
433.265	689.3
433.641	663.77
434.016	658.8
434.392	681.62
434.767	683.43
435.143	684.11
435.518	703.31
435.894	710.55
436.269	699.93
436.644	709.42
437.02	724.56
437.395	706.03
437.77	746.25
438.145	751
438.52	725.01
438.895	736.99
439.271	741.28
439.646	756.87
440.021	769.75
440.395	757.78
440.77	770.21
441.145	783.31
441.52	786.48
441.895	774.5
442.27	777.44
442.645	753.93
443.019	792.13
443.394	795.97
443.769	797.78
444.143	807.72
444.518	819.92
444.892	814.27
445.267	823.99
445.641	829.19
446.016	817.89
446.39	814.72
446.764	866.47
447.139	843.65
447.513	836.87
447.887	856.31
448.262	869.41
448.636	882.52
449.01	890.65
449.384	879.13
449.758	882.97
450.132	873.48
450.506	914.38
450.88	894.5
451.254	907.6
451.628	898.11
452.002	935.63
452.376	924.1
452.75	941.05
453.123	952.12
453.497	987.15
453.871	993.7
454.244	1000.26
454.618	991.44
454.992	966.58
455.365	1010.65
455.739	1008.39
456.112	1031.22
456.486	1034.61
456.859	1046.81
457.232	1074.83
457.606	1051.55
457.979	1095.62
458.352	1098.33
458.725	1103.76
459.099	1134.26
459.472	1156.86
459.845	1143.98
460.218	1183.75
460.591	1169.07
460.964	1141.72
461.337	1203.87
461.71	1220.59
462.083	1232.79
462.456	1239.12
462.829	1268.5
463.201	1256.52
463.574	1263.3
463.947	1335.39
464.32	1325.22
464.692	1314.37
465.065	1319.34
465.438	1357.08
465.81	1369.74
466.183	1407.03
466.555	1436.4
466.928	1422.62
467.3	1444.31
467.672	1458.32
468.045	1527.25
468.417	1514.82
468.789	1570.64
469.161	1555.72
469.534	1601.14
469.906	1633.01
470.278	1643.63
470.65	1671.88
471.022	1684.08
471.394	1742.16
471.766	1749.39
472.138	1797.52
472.51	1831.87
472.882	1888.82
473.253	1907.12
473.625	1941.47
473.997	1977.63
474.369	2038.87
474.74	2037.29
475.112	2078.19
475.484	2140.79
475.855	2212.2
476.227	2235.7
476.598	2340.33
476.97	2393.89
477.341	2427.56
477.713	2475.02
478.084	2474.12
478.455	2602.7
478.827	2648.8
479.198	2724.5
479.569	2752.98
479.94	2857.61
480.311	2973.09
480.682	3004.05
481.053	3110.26
481.424	3164.04
481.795	3283.36
482.166	3334.43
482.537	3406.29
482.908	3507.76
483.279	3570.36
483.65	3685.16
484.021	3815.1
484.391	3888.99
484.762	3995.66
485.133	4032.49
485.503	4136.67
485.874	4256.22
486.244	4351.35
486.615	4473.84
486.985	4595.87
487.356	4679.71
487.726	4799.7
488.097	4941.4
488.467	4984.33
488.837	5175.29
489.207	5306.13
489.578	5394.49
489.948	5448.5
490.318	5650.53
490.688	5705.22
491.058	5864.08
491.428	6013.91
491.798	6080.8
492.168	6282.83
492.538	6312.66
492.908	6462.71
493.278	6605.53
493.648	6707.68
494.017	6781.57
494.387	6958.74
494.757	7014.11
495.126	7119.64
495.496	7205.52
495.866	7361.67
496.235	7496.58
496.605	7598.95
496.974	7716.01
497.344	7823.13
497.713	7897.93
498.082	8044.82
498.452	8083.01
498.821	8262.66
499.19	8272.61
499.559	8377.69
499.928	8484.35
500.298	8625.59
500.667	8765.48
501.036	8725.7
501.405	8870.33
501.774	8907.84
502.143	9015.64
502.512	9090.21
502.88	9203.43
503.249	9302.41
503.618	9425.8
503.987	9459.24
504.356	9511.22
504.724	9626.7
505.093	9598
505.462	9661.95
505.83	9751.89
506.199	9872.57
506.567	9952.34
506.936	9923.41
507.304	10165.66
507.672	10153.46
508.041	10220.58
508.409	10341.48
508.777	10372.21
509.145	10448.14
509.514	10461.48
509.882	10551.19
510.25	10619.21
510.618	10728.59
510.986	10753.67
511.354	10827.57
511.722	10854.69
512.09	10944.85
512.458	10984.17
512.826	11052.2
513.193	11036.6
513.561	11046.32
513.929	11128.8
514.297	11229.82
514.664	11273.66
515.032	11278.63
515.4	11402.02
515.767	11358.4
516.135	11480.66
516.502	11415.8
516.869	11541
517.237	11549.36
517.604	11557.49
517.972	11589.36
518.339	11651.95
518.706	11688.79
519.073	11771.5
519.44	11791.38
519.808	11761.1
520.175	11839.29
520.542	11961.55
520.909	11983.47
521.276	11942.79
521.643	12042
522.009	11961.55
522.376	12078.61
522.743	12175.56
523.11	12206.52
523.477	12231.15
523.843	12308.66
524.21	12336.91
524.577	12371.48
524.943	12439.5
525.31	12463.01
525.676	12457.36
526.043	12482.44
526.409	12472.95
526.776	12645.83
527.142	12641.08
527.508	12600.63
527.874	12732.83
528.241	12680.85
528.607	12696.9
528.973	12737.8
529.339	12703.45
529.705	12833.17
530.071	12840.62
530.437	12863.22
530.803	12780.96
531.169	12909.1
531.535	12791.36
531.901	12809.89
532.267	12824.8
532.632	12821.64
532.998	12888.08
533.364	12910.9
533.73	12847.63
534.095	12898.7
534.461	12823.22
534.826	12936.67
535.192	12815.99
535.557	12909.77
535.923	12801.3
536.288	12845.82
536.653	12908.19
537.019	12835.88
537.384	12784.35
537.749	12787.29
538.114	12782.32
538.479	12774.18
538.845	12845.14
539.21	12638.59
539.575	12765.37
539.94	12631.14
540.305	12711.36
540.67	12640.18
541.034	12656.9
541.399	12706.84
541.764	12693.28
542.129	12623.68
542.494	12599.95
542.858	12671.81
543.223	12511.37
543.587	12601.08
543.952	12519.28
544.316	12496.45
544.681	12430.24
545.045	12461.88
545.41	12425.49
545.774	12474.53
546.138	12445.6
546.503	12399.96
546.867	12346.85
547.231	12319.28
547.595	12319.96
547.959	12251.26
548.324	12299.39
548.688	12194.09
549.052	12242.9
549.416	12265.95
549.779	12164.93
550.143	12228.66
550.507	12151.38
550.871	12158.61
551.235	12025.73
551.599	12065.95
551.962	12084.03
552.326	12105.05
552.689	12105.05
553.053	12041.32
553.417	11972.17
553.78	12068.89
554.143	12040.42
554.507	12026.63
554.87	11966.97
555.234	12037.48
555.597	11864.15
555.96	11933.08
556.323	11981.21
556.686	11932.17
557.05	11940.76
557.413	11975.33
557.776	11909.57
558.139	11933.98
558.502	11860.76
558.865	11823.02
559.228	11952.28
559.59	11971.27
559.953	11954.09
560.316	11958.84
560.679	12013.07
561.041	11990.48
561.404	11942.34
561.767	11972.62
562.129	12008.33
562.492	12077.71
562.854	12067.76
563.217	12014.88
563.579	12022.11
563.941	12018.27
564.304	12112.51
564.666	12107.08
565.028	12062.11
565.39	12083.35
565.753	12103.24
566.115	12108.21
566.477	12037.93
566.839	12181.66
567.201	12232.28
567.563	12169.45
567.925	12259.17
568.287	12230.47
568.648	12232.73
569.01	12253.52
569.372	12245.38
569.734	12253.97
570.095	12295.55
570.457	12296
570.819	12365.61
571.18	12412.16
571.542	12328.77
571.903	12407.19
572.265	12390.24
572.626	12402.89
572.987	12471.59
573.349	12468.2
573.71	12347.53
574.071	12411.93
574.432	12531.48
574.794	12515.66
575.155	12554.98
575.516	12461.2
575.877	12491.25
576.238	12457.13
576.599	12548.88
576.96	12516.11
577.32	12541.2
577.681	12631.59
578.042	12559.27
578.403	12552.49
578.763	12495.1
579.124	12571.03
579.485	12566.73
579.845	12670.01
580.206	12530.57
580.566	12531.7
580.927	12507.07
581.287	12574.87
581.648	12518.37
582.008	12590.46
582.368	12436.34
582.728	12562.44
583.089	12550.46
583.449	12552.72
583.809	12479.73
584.169	12593.85
584.529	12423.23
584.889	12622.55
585.249	12552.95
585.609	12477.92
585.969	12588.43
586.329	12538.03
586.688	12505.04
587.048	12511.37
587.408	12523.79
587.768	12424.59
588.127	12478.6
588.487	12425.27
588.846	12589.78
589.206	12431.82
589.565	12507.52
589.925	12489.45
590.284	12401.31
590.643	12472.27
591.003	12448.77
591.362	12448.77
591.721	12375.32
592.08	12407.87
592.44	12414.42
592.799	12399.28
593.158	12383.23
593.517	12412.84
593.876	12416.23
594.235	12337.36
594.593	12316.57
594.952	12443.35
595.311	12321.31
595.67	12331.94
596.029	12456.45
596.387	12362.67
596.746	12440.18
597.104	12405.38
597.463	12312.05
597.822	12390.69
598.18	12341.65
598.538	12241.54
598.897	12297.13
599.255	12238.38
599.613	12446.51
599.972	12376.45
600.33	12363.12
600.688	12374.87
601.046	12357.02
601.404	12456
601.762	12325.83
602.12	12374.65
602.478	12384.36
602.836	12402.89
603.194	12314.08
603.552	12279.51
603.91	12338.72
604.268	12272.95
604.625	12281.99
604.983	12378.94
605.341	12299.85
605.698	12338.49
606.056	12337.81
606.413	12382.1
606.771	12309.34
607.128	12396.79
607.485	12346.62
607.843	12430.69
608.2	12458.49
608.557	12427.07
608.914	12393.85
609.272	12469.56
609.629	12460.52
609.986	12472.5
610.343	12390.47
610.7	12570.8
611.057	12487.41
611.414	12448.54
611.771	12532.16
612.127	12546.17
612.484	12523.34
612.841	12586.84
613.198	12554.08
613.554	12536.22
613.911	12602.21
614.267	12521.31
614.624	12562.66
614.98	12613.28
615.337	12615.54
615.693	12619.16
616.05	12526.05
616.406	12649.67
616.762	12613.74
617.118	12637.24
617.475	12635.66
617.831	12737.35
618.187	12617.13
618.543	12722.43
618.899	12710.23
619.255	12672.49
619.611	12712.72
619.967	12758.59
620.323	12775.09
620.678	12745.48
621.034	12643.57
621.39	12674.75
621.746	12687.63
622.101	12741.64
622.457	12742.55
622.812	12753.39
623.168	12724.47
623.523	12664.58
623.879	12841.3
624.234	12700.06
624.589	12771.7
624.945	12764.92
625.3	12823.67
625.655	12763.79
626.01	12764.24
626.365	12733.28
626.72	12678.14
627.075	12675.66
627.43	12682.89
627.785	12653.74
628.14	12755.88
628.495	12639.05
628.85	12647.63
629.205	12736.44
629.559	12715.65
629.914	12719.27
630.269	12687.18
630.623	12641.76
630.978	12598.6
631.332	12626.39
631.687	12656.67
632.041	12639.27
632.396	12617.58
632.75	12576.45
633.104	12630.01
633.459	12524.7
633.813	12464.14
634.167	12511.82
634.521	12581.19
634.875	12500.97
635.229	12413.97
635.583	12401.09
635.937	12375.1
636.291	12440.86
636.645	12426.62
636.999	12391.14
637.352	12444.7
637.706	12267.98
638.06	12364.03
638.413	12396.34
638.767	12316.12
639.121	12416.23
639.474	12262.78
639.828	12289
640.181	12236.8
640.534	12260.3
640.888	12227.31
641.241	12200.19
641.594	12280.19
641.947	12206.97
642.301	12228.44
642.654	12176.69
643.007	12204.26
643.36	12175.78
643.713	12181.21
644.066	12198.38
644.419	12136.46
644.771	12049.23
645.124	12003.13
645.477	11843.36
645.83	11868.67
646.182	11773.31
646.535	11768.56
646.888	11794.77
647.24	11776.7
647.593	11829.8
647.945	11729.01
648.298	11715.23
648.65	11680.88
649.002	11668.9
649.355	11744.38
649.707	11734.44
650.059	11814.21
650.411	11851.95
650.763	11908.9
651.115	12028.44
651.467	11994.77
651.819	12009.68
652.171	11970.36
652.523	12006.07
652.875	11983.47
653.227	11932.17
653.578	12017.59
653.93	11996.35
654.282	11933.98
654.633	11875.22
654.985	11886.07
655.337	11904.6
655.688	11983.24
656.039	11950.02
656.391	11920.87
656.742	11940.99
657.094	11957.03
657.445	11995.9
657.796	12003.13
658.147	11906.64
658.498	11986.18
658.849	11931.95
659.2	11957.71
659.551	11974.43
659.902	12025.28
660.253	11959.52
660.604	12029.57
660.955	11860.76
661.306	12029.8
661.656	12046.52
662.007	12022.34
662.358	12007.42
662.708	12064.82
663.059	11968.56
663.409	11953.19
663.76	11998.61
664.11	11970.82
664.461	11999.97
664.811	12052.85
665.161	12046.29
665.511	11952.96
665.862	12013.07
666.212	12028.44
666.562	11995
666.912	11991.15
667.262	11977.14
667.612	12005.84
667.962	11992.51
668.312	11983.92
668.662	12033.19
669.011	11982.34
669.361	11949.8
669.711	12017.14
670.06	11950.7
670.41	11902.34
670.76	11864.15
671.109	11995.67
671.459	11921.78
671.808	11997.48
672.157	11946.18
672.507	11827.09
672.856	11931.49
673.205	11924.71
673.554	11944.15
673.904	11867.54
674.253	12026.86
674.602	11893.3
674.951	11799.75
675.3	11654.89
675.649	11899.4
675.998	11810.82
676.346	11813.76
676.695	11831.84
677.044	11755.45
677.393	11748.67
677.741	11763.81
678.09	11773.76
678.438	11844.49
678.787	11760.88
679.135	11743.02
679.484	11701.44
679.832	11704.83
680.181	11656.02
680.529	11715.91
680.877	11612.18
681.225	11636.36
681.573	11667.32
681.922	11568.11
682.27	11517.72
682.618	11511.17
682.966	11464.16
683.314	11487.44
683.661	11513.65
684.009	11397.95
684.357	11361.34
684.705	11399.3
685.053	11429.81
685.4	11392.98
685.748	11365.41
686.095	11311.85
686.443	11284.51
686.79	11326.31
687.138	11279.08
687.485	11218.74
687.832	11198.18
688.18	11230.04
688.527	11154.57
688.874	11165.64
689.221	11042.7
689.568	11028.69
689.915	11025.98
690.262	11010.61
690.609	11009.48
690.956	10905.53
691.303	10923.84
691.65	10870.05
691.997	10900.11
692.344	10850.84
692.69	10768.81
693.037	10812.43
693.383	10739.66
693.73	10653.34
694.077	10710.74
694.423	10670.74
694.769	10676.61
695.116	10518.42
695.462	10556.39
695.808	10579.89
696.155	10568.37
696.501	10462.15
696.847	10465.54
697.193	10352.55
697.539	10343.29
697.885	10186.91
698.231	10216.06
698.577	10217.87
698.923	10196.85
699.269	10197.98
699.614	10035.95
699.96	10026.23
700.306	10126.8
700.651	9974.48
700.997	9898.55
701.342	9994.6
701.688	9917.99
702.033	9845.9
702.379	9848.61
702.724	9755.96
703.069	9808.16
703.415	9661.72
703.76	9715.28
704.105	9702.63
704.45	9720.03
704.795	9583.31
705.14	9574.95
705.485	9587.83
705.83	9559.58
706.175	9522.29
706.52	9479.13
706.865	9489.52
707.209	9409.3
707.554	9350.55
707.899	9439.58
708.243	9356.19
708.588	9438.23
708.932	9308.06
709.277	9270.77
709.621	9308.96
709.966	9172.24
710.31	9210.89
710.654	9161.17
710.998	9139.03
711.342	9084.56
711.687	9147.61
712.031	9045.69
712.375	9025.81
712.719	9024.23
713.063	8998.92
713.407	9102.87
713.75	8936.09
714.094	8998.01
714.438	8929.99
714.782	8944.45
715.125	8878.24
715.469	8951.46
715.812	8872.37
716.156	8854.51
716.499	8882.99
716.843	8839.15
717.186	8799.83
717.53	8865.59
717.873	8792.82
718.216	8793.95
718.559	8777.9
718.902	8699.26
719.246	8689.55
719.589	8660.85
719.932	8657.91
720.275	8618.13
720.617	8587.63
720.96	8640.06
721.303	8671.47
721.646	8627.63
721.989	8607.51
722.331	8647.29
722.674	8599.15
723.016	8614.75
723.359	8604.8
723.701	8598.47
724.044	8518.48
724.386	8518.48
724.729	8508.31
725.071	8461.53
725.413	8550.11
725.755	8533.62
726.097	8449.55
726.439	8465.82
726.782	8393.51
727.124	8551.24
727.465	8495.88
727.807	8480.29
728.149	8391.25
728.491	8395.09
728.833	8431.93
729.175	8381.08
729.516	8406.62
729.858	8414.07
730.199	8421.08
730.541	8426.5
730.882	8434.19
731.224	8492.26
731.565	8386.73
731.906	8399.84
732.248	8440.74
732.589	8387.18
732.93	8365.94
733.271	8353.28
733.612	8413.17
733.953	8446.61
734.294	8353.28
734.635	8378.14
734.976	8401.42
735.317	8272.38
735.658	8337.92
735.999	8371.36
736.339	8321.65
736.68	8412.72
737.021	8425.37
737.361	8316.45
737.702	8417.24
738.042	8336.56
738.383	8381.53
738.723	8416.33
739.063	8367.29
739.404	8412.49
739.744	8451.36
740.084	8400.74
740.424	8424.24
740.764	8394.64
741.104	8480.96
741.444	8398.71
741.784	8422.43
742.124	8482.32
742.464	8494.75
742.804	8478.48
743.143	8466.27
743.483	8512.15
743.823	8515.99
744.162	8499.04
744.502	8647.29
744.841	8527.97
745.181	8609.1
745.52	8570.9
745.86	8614.07
746.199	8686.83
746.538	8693.61
746.877	8727.74
747.216	8734.52
747.556	8781.75
747.895	8812.48
748.234	8819.03
748.573	8921.63
748.911	8968.18
749.25	9038.69
749.589	9119.36
749.928	9102.87
750.267	9157.78
750.605	9224.9
750.944	9286.82
751.283	9371.56
751.621	9437.77
751.96	9452.01
752.298	9588.28
752.636	9627.15
752.975	9666.69
753.313	9777.2
753.651	9893.13
753.989	9972.9
754.327	10013.13
754.666	10081.37
755.004	10160.69
755.342	10383.74
755.679	10441.36
756.017	10469.61
756.355	10605.2
756.693	10665.09
757.031	10806.78
757.368	10922.71
757.706	11066.66
758.044	11179.2
758.381	11306.43
758.719	11380.55
759.056	11557.72
759.394	11684.5
759.731	11746.87
760.068	11902.57
