Data from hue_36_FLMS001491_00051.txt Node
Date: Tue Feb 07 17:29:59 GMT 2017
User: dcchb
Spectrometer: FLMS00149
Trigger mode: 0
Integration Time (sec): 2.000000E-2
Scans to average: 10
Electric dark correction enabled: true
Nonlinearity correction enabled: false
Boxcar width: 0
XAxis mode: Wavelengths
Number of Pixels in Spectrum: 2048
>>>>>Begin Spectral Data<<<<<
341.393	-26.58
341.776	-26.58
342.16	-26.58
342.543	-41.95
342.927	-79.01
343.31	-75.39
343.693	-79.24
344.077	-62.29
344.46	-52.57
344.843	-58.9
345.226	-34.49
345.61	-31.55
345.993	-1.72
346.376	-7.15
346.759	13.64
347.142	36.02
347.525	35.34
347.908	59.29
348.291	72.17
348.674	87.54
349.057	99.29
349.44	127.54
349.823	154.66
350.206	162.79
350.588	202.34
350.971	191.94
351.354	240.08
351.737	225.84
352.119	246.41
352.502	249.34
352.884	287.53
353.267	281.89
353.65	296.57
354.032	288.89
354.414	303.81
354.797	298.83
355.179	325.73
355.562	326.4
355.944	354.65
356.326	309
356.709	346.06
357.091	312.84
357.473	359.4
357.855	349.91
358.238	334.54
358.62	340.87
359.002	347.19
359.384	325.95
359.766	342
360.148	341.54
360.53	343.58
360.912	353.07
361.294	328.21
361.676	314.65
362.057	335.44
362.439	327.53
362.821	339.96
363.203	332.96
363.584	326.4
363.966	318.49
364.348	325.05
364.729	323.92
365.111	307.87
365.493	306.07
365.874	338.15
366.256	312.39
366.637	318.04
367.019	307.65
367.4	326.18
367.781	292.28
368.163	321.43
368.544	314.65
368.925	318.49
369.306	305.61
369.688	302.9
370.069	328.44
370.45	300.42
370.831	316.01
371.212	314.88
371.593	345.84
371.974	326.4
372.355	320.53
372.736	308.33
373.117	311.04
373.498	313.3
373.879	314.88
374.26	303.81
374.641	333.41
375.021	305.16
375.402	320.08
375.783	316.91
376.163	336.12
376.544	340.87
376.925	320.98
377.305	327.08
377.686	324.37
378.066	318.95
378.447	342.9
378.827	342.67
379.208	325.27
379.588	349.68
379.968	333.64
380.349	335.22
380.729	345.39
381.109	333.86
381.489	360.08
381.87	342
382.25	333.64
382.63	351.04
383.01	344.48
383.39	348.55
383.77	313.07
384.15	325.5
384.53	325.5
384.91	332.51
385.29	357.82
385.67	348.78
386.049	363.92
386.429	316.91
386.809	365.5
387.189	351.26
387.568	320.3
387.948	344.26
388.328	368.21
388.707	349.68
389.087	349.91
389.466	356.23
389.846	351.49
390.225	349.45
390.605	362.11
390.984	359.62
391.363	355.78
391.743	355.1
392.122	360.98
392.501	374.99
392.881	370.47
393.26	370.47
393.639	372.5
394.018	379.28
394.397	392.39
394.776	373.86
395.155	357.82
395.534	385.39
395.913	367.08
396.292	372.73
396.671	382
397.05	375.44
397.429	395.1
397.808	372.96
398.186	393.52
398.565	383.58
398.944	373.18
399.323	375.44
399.701	390.36
400.08	383.35
400.458	370.02
400.837	393.29
401.215	390.36
401.594	406.63
401.972	373.86
402.351	418.15
402.729	381.54
403.107	404.82
403.486	400.53
403.864	389.23
404.242	421.09
404.62	426.51
404.999	390.13
405.377	405.95
405.755	402.33
406.133	413.86
406.511	409.79
406.889	428.1
407.267	403.24
407.645	411.15
408.023	417.47
408.401	410.47
408.779	422.9
409.156	438.04
409.534	450.24
409.912	428.32
410.29	425.61
410.667	441.2
411.045	447.08
411.422	445.27
411.8	443.69
412.178	428.77
412.555	452.28
412.933	452.5
413.31	464.03
413.687	448.43
414.065	465.16
414.442	459.28
414.819	448.89
415.197	466.29
415.574	473.74
415.951	486.63
416.328	468.77
416.705	479.39
417.082	472.16
417.46	491.82
417.837	481.2
418.214	499.28
418.591	470.58
418.967	505.16
419.344	484.59
419.721	488.66
420.098	480.07
420.475	502.67
420.852	507.64
421.228	488.21
421.605	533.18
421.982	494.99
422.358	531.82
422.735	518.94
423.111	529.56
423.488	538.38
423.864	535.44
424.241	519.39
424.617	534.31
424.994	539.73
425.37	525.49
425.746	540.41
426.123	542.67
426.499	550.8
426.875	545.38
427.251	540.41
427.627	551.48
428.003	557.13
428.379	560.97
428.756	584.7
429.132	560.3
429.507	586.51
429.883	577.7
430.259	577.92
430.635	574.08
431.011	582.22
431.387	593.97
431.763	602.55
432.138	594.87
432.514	613.85
432.89	614.08
433.265	604.81
433.641	602.55
434.016	631.03
434.392	629.22
434.767	635.32
435.143	646.62
435.518	638.49
435.894	638.71
436.269	653.85
436.644	663.57
437.02	657.24
437.395	661.99
437.77	672.61
438.145	673.97
438.52	691.82
438.895	684.36
439.271	656.56
439.646	696.11
440.021	703.57
440.395	695.89
440.77	708.54
441.145	705.6
441.52	710.35
441.895	700.86
442.27	715.55
442.645	703.57
443.019	718.71
443.394	709.67
443.769	710.12
444.143	739.5
444.518	744.25
444.892	726.39
445.267	727.07
445.641	744.7
446.016	742.89
446.39	746.05
446.764	733.85
447.139	767.3
447.513	778.37
447.887	748.09
448.262	752.16
448.636	777.69
449.01	768.88
449.384	781.99
449.758	797.13
450.132	800.74
450.506	797.13
450.88	811.14
451.254	797.8
451.628	824.24
452.002	828.54
452.376	817.46
452.75	811.81
453.123	829.67
453.497	832.15
453.871	838.71
454.244	871.47
454.618	855.88
454.992	843.23
455.365	873.96
455.739	898.14
456.112	908.54
456.486	931.59
456.859	913.06
457.232	909.21
457.606	925.48
457.979	938.59
458.352	956.9
458.725	984.47
459.099	982.43
459.472	986.27
459.845	963.45
460.218	971.81
460.591	1014.75
460.964	1010.23
461.337	998.02
461.71	1021.07
462.083	1054.07
462.456	1058.59
462.829	1070.34
463.201	1062.43
463.574	1072.6
463.947	1083.45
464.32	1105.14
464.692	1135.42
465.065	1136.1
465.438	1131.81
465.81	1135.87
466.183	1176.1
466.555	1188.75
466.928	1191.92
467.3	1217.45
467.672	1245.93
468.045	1262.42
468.417	1275.53
468.789	1285.25
469.161	1321.18
469.534	1315.98
469.906	1327.28
470.278	1352.59
470.65	1393.72
471.022	1385.13
471.394	1445.47
471.766	1431.69
472.138	1481.4
472.51	1526.37
472.882	1543.32
473.253	1550.78
473.625	1594.85
473.997	1611.57
474.369	1643.43
474.74	1691.57
475.112	1721.4
475.484	1765.46
475.855	1799.36
476.227	1827.16
476.598	1888.85
476.97	1932.46
477.341	1916.19
477.713	2020.82
478.084	2029.64
478.455	2098.11
478.827	2138.56
479.198	2204.09
479.569	2254.94
479.94	2288.61
480.311	2345.11
480.682	2415.16
481.053	2492.45
481.424	2581.26
481.795	2594.82
482.166	2708.04
482.537	2744.65
482.908	2793.01
483.279	2892.89
483.65	2959.33
484.021	3061.25
484.391	3150.96
484.762	3196.61
485.133	3233.9
485.503	3336.72
485.874	3395.93
486.244	3494
486.615	3607.67
486.985	3701.68
487.356	3787.78
487.726	3832.98
488.097	3963.14
488.467	4041.33
488.837	4139.18
489.207	4249.69
489.578	4324.49
489.948	4435.22
490.318	4519.97
490.688	4591.15
491.058	4668.89
491.428	4833.18
491.798	4930.35
492.168	5028.65
492.538	5117.01
492.908	5246.73
493.278	5324.92
493.648	5392.71
494.017	5493.05
494.387	5546.15
494.757	5599.49
495.126	5759.93
495.496	5865.92
495.866	5956.99
496.235	6022.07
496.605	6144.33
496.974	6187.94
497.344	6277.21
497.713	6370.99
498.082	6488.73
498.452	6605.33
498.821	6649.18
499.19	6701.15
499.559	6807.82
499.928	6893.46
500.298	6954.25
500.667	7057.75
501.036	7145.43
501.405	7246
501.774	7247.58
502.143	7368.25
502.512	7355.82
502.88	7521.24
503.249	7595.82
503.618	7603.5
503.987	7703.61
504.356	7774.57
504.724	7849.6
505.093	7902.48
505.462	7976.37
505.83	8052.75
506.199	8145.41
506.567	8238.74
506.936	8296.36
507.304	8391.5
507.672	8377.04
508.041	8534.1
508.409	8646.41
508.777	8628.78
509.145	8770.48
509.514	8800.31
509.882	8826.29
510.25	8819.06
510.618	8924.37
510.986	8951.71
511.354	9081.88
511.722	9154.87
512.09	9300.63
512.458	9197.58
512.826	9332.27
513.193	9448.65
513.561	9415.43
513.929	9502.66
514.297	9647.74
514.664	9681.64
515.032	9735.65
515.4	9826.27
515.767	9765.03
516.135	9952.59
516.502	9842.31
516.869	10080.5
517.237	10046.6
517.604	10104.68
517.972	10185.81
518.339	10254.73
518.706	10306.25
519.073	10360.94
519.44	10390.77
519.808	10467.83
520.175	10418.57
520.542	10658.56
520.909	10684.55
521.276	10706.24
521.643	10829.86
522.009	10851.1
522.376	10920.48
522.743	11012.9
523.11	11031.66
523.477	11250.64
523.843	11190.75
524.21	11337.87
524.577	11435.26
524.943	11496.51
525.31	11599.1
525.676	11610.63
526.043	11695.37
526.409	11762.49
526.776	11860.79
527.142	11881.81
527.508	11993.22
527.874	12080.22
528.241	12141.69
528.607	12155.7
528.973	12318.4
529.339	12318.4
529.705	12348.46
530.071	12509.59
530.437	12468.23
530.803	12578.96
531.169	12719.3
531.535	12657.38
531.901	12710.26
532.267	12688.11
532.632	12873.87
532.998	12985.05
533.364	13061.21
533.73	13052.17
534.095	13153.41
534.461	13197.03
534.826	13318.6
535.192	13347.98
535.557	13384.14
535.923	13446.51
536.288	13432.27
536.653	13505.27
537.019	13510.01
537.384	13599.5
537.749	13611.93
538.114	13652.83
538.479	13681.53
538.845	13828.2
539.21	13698.93
539.575	13872.26
539.94	13897.57
540.305	14088.53
540.67	14039.72
541.034	14079.49
541.399	14161.97
541.764	14188.19
542.129	14223.89
542.494	14342.76
542.858	14388.41
543.223	14403.77
543.587	14536.43
543.952	14511.57
544.316	14550.66
544.681	14625.01
545.045	14683.54
545.41	14659.81
545.774	14774.16
546.138	14827.94
546.503	14888.73
546.867	14887.38
547.231	14973.02
547.595	15045.79
547.959	15090.76
548.324	15181.83
548.688	15108.84
549.052	15251.21
549.416	15302.28
549.779	15193.36
550.143	15340.7
550.507	15416.4
550.871	15500.92
551.235	15528.04
551.599	15606.91
551.962	15616.4
552.326	15656.4
552.689	15911.76
553.053	15777.3
553.417	15793.57
553.78	16100.68
554.143	15966.67
554.507	16064.75
554.87	16074.24
555.234	16236.27
555.597	16024.52
555.96	16294.57
556.323	16340.67
556.686	16356.26
557.05	16423.38
557.413	16393.78
557.776	16532.31
558.139	16582.93
558.502	16635.58
558.865	16693.88
559.228	16769.36
559.59	16816.82
559.953	16955.12
560.316	17080.09
560.679	17111.05
561.041	17223.36
561.404	17172.51
561.767	17341.32
562.129	17283.02
562.492	17419.06
562.854	17342.45
563.217	17395.33
563.579	17537.02
563.941	17556.23
564.304	17739.96
564.666	17738.15
565.028	17722.33
565.39	17801.2
565.753	17935.88
566.115	18018.37
566.477	18084.36
566.839	18114.41
567.201	18110.79
567.563	18294.07
567.925	18440.05
568.287	18475.53
568.648	18490.22
569.01	18568.64
569.372	18691.12
569.734	18636.88
570.095	18793.04
570.457	18864.22
570.819	18930.66
571.18	18918.46
571.542	19066.02
571.903	19039.36
572.265	19202.74
572.626	19282.52
572.987	19284.1
573.349	19433.25
573.71	19551.66
574.071	19532
574.432	19645.22
574.794	19987.13
575.155	19901.48
575.516	19880.92
575.877	20033
576.238	20140.8
576.599	20363.62
576.96	20401.81
577.32	20471.18
577.681	20576.72
578.042	20650.84
578.403	20755.02
578.763	20854.45
579.124	21084.73
579.485	21166.99
579.845	21409.24
580.206	21438.39
580.566	21651.72
580.927	21668.67
581.287	21852.84
581.648	21995.44
582.008	22146.4
582.368	22340.97
582.728	22537.8
583.089	22620.51
583.449	22771.46
583.809	22935.98
584.169	23185.01
584.529	23314.95
584.889	23676.98
585.249	23621.38
585.609	23825.9
585.969	24114.03
586.329	24339.11
586.688	24541.81
587.048	24636.95
587.408	24870.84
587.768	25144.73
588.127	25204.39
588.487	25337.27
588.846	25741.1
589.206	25752.85
589.565	26059.06
589.925	26306.96
590.284	26338.6
590.643	26777.91
591.003	27054.51
591.362	27172.25
591.721	27319.37
592.08	27604.1
592.44	27871.44
592.799	28027.37
593.158	28186.01
593.517	28418.77
593.876	28619.22
594.235	28713.68
594.593	29112.31
594.952	29324.29
595.311	29560.89
595.67	29727.44
596.029	30039.07
596.387	30270.25
596.746	30418.27
597.104	30559.28
597.463	30796.79
597.822	31067.06
598.18	31199.49
598.538	31370.56
598.897	31824.56
599.255	31611.46
599.613	32305.9
599.972	32204.21
600.33	32347.03
600.688	32488.72
601.046	32873.8
601.404	32973.46
601.762	32984.98
602.12	33318.08
602.478	33635.36
602.836	33798.74
603.194	33745.64
603.552	33913.09
603.91	34101.79
604.268	34344.94
604.625	34369.35
604.983	34714.88
605.341	34654.31
605.698	34833.97
606.056	35139.95
606.413	35203.23
606.771	35497.68
607.128	35652.03
607.485	35630.33
607.843	35493.16
608.2	36052.92
608.557	36212.01
608.914	36145.12
609.272	36507.37
609.629	36584.21
609.986	36873.92
610.343	36777.87
610.7	37207.69
611.057	37214.7
611.414	37256.96
611.771	37405.2
612.127	37612.43
612.484	37641.58
612.841	37756.38
613.198	37861.24
613.554	37935.13
613.911	38355.23
614.267	38249.02
614.624	38487.66
614.98	38618.05
615.337	38707.09
615.693	38801.1
616.05	38878.38
616.406	39157.7
616.762	39136.68
617.118	39106.85
617.475	39239.28
617.831	39358.15
618.187	39404.25
618.543	39507.29
618.899	39645.82
619.255	39810.34
619.611	39751.58
619.967	39973.05
620.323	40020.95
620.678	40058.01
621.034	39989.09
621.39	39959.26
621.746	40036.32
622.101	40631.56
622.457	40225.92
622.812	40336.2
623.168	40556.31
623.523	40542.3
623.879	40719.69
624.234	40515.86
624.589	40678.79
624.945	40805.34
625.3	40794.94
625.655	40975.5
626.01	40884.66
626.365	41064.99
626.72	40977.99
627.075	41005.11
627.43	41033.13
627.785	41048.27
628.14	41108.38
628.495	41112
628.85	40975.28
629.205	41128.49
629.559	41349.73
629.914	41107.7
630.269	41256.18
630.623	41156.06
630.978	41113.58
631.332	41368.71
631.687	41290.75
632.041	41279.9
632.396	41357.42
632.75	41190.87
633.104	41333.24
633.459	41228.38
633.813	41218.44
634.167	41200.36
634.521	41096.86
634.875	41355.83
635.229	41344.53
635.583	41209.85
635.937	41166.01
636.291	41277.19
636.645	41261.82
636.999	41246.91
637.352	41336.62
637.706	41161.26
638.06	41166.01
638.413	41250.98
638.767	41054.15
639.121	41092.56
639.474	40899.12
639.828	40999.46
640.181	41079
640.534	41054.6
640.888	40808.73
641.241	40714.04
641.594	40741.39
641.947	40935.28
642.301	40948.84
642.654	41050.08
643.007	40905
643.36	40873.81
643.713	40841.27
644.066	41053.69
644.419	40822.29
644.771	40397.44
645.124	40117.9
645.477	39953.84
645.83	39890.79
646.182	39783.45
646.535	39665.71
646.888	39819.6
647.24	39623
647.593	39692.37
647.945	39702.32
648.298	39602.89
648.65	39521.53
649.002	39408.31
649.355	39614.18
649.707	39494.87
650.059	39498.26
650.411	40113.15
650.763	40084.68
651.115	40596.76
651.467	40406.93
651.819	40310.21
652.171	40329.19
652.523	40265.92
652.875	40105.24
653.227	40187.5
653.578	40351.79
653.93	40254.62
654.282	40196.09
654.633	40064.12
654.985	40067.96
655.337	40123.55
655.688	40112.93
656.039	40338.46
656.391	39981.63
656.742	40066.83
657.094	39999.26
657.445	40274.96
657.796	40089.65
658.147	40082.87
658.498	39881.75
658.849	40234.51
659.2	40138.01
659.551	39924.23
659.902	40088.75
660.253	39982.54
660.604	40193.38
660.955	39872.93
661.306	40081.06
661.656	39969.2
662.007	39952.25
662.358	39923.1
662.708	39881.75
663.059	39869.77
663.409	39671.58
663.76	40086.71
664.11	39824.35
664.461	39872.26
664.811	39928.53
665.161	39996.55
665.511	39841.3
665.862	39992.93
666.212	39884.46
666.562	39931.69
666.912	39776.89
667.262	39733.5
667.612	39815.99
667.962	39826.16
668.312	39788.87
668.662	40035.19
669.011	39813.95
669.361	39944.57
669.711	39786.61
670.06	39853.95
670.41	39614.86
670.76	39551.14
671.109	39716.1
671.459	39704.8
671.808	39572.38
672.157	39603.79
672.507	39537.8
672.856	39401.76
673.205	39638.82
673.554	39694.41
673.904	39517.46
674.253	39718.59
674.602	39530.12
674.951	39149.56
675.3	38901.43
675.649	39534.64
675.998	39382.55
676.346	39429.78
676.695	39684.24
677.044	39343.23
677.393	39309.56
677.741	39437.24
678.09	39402.44
678.438	39320.86
678.787	39337.58
679.135	39251.26
679.484	39060.53
679.832	39351.82
680.181	39110.92
680.529	39189.56
680.877	38953.64
681.225	38973.52
681.573	39165.83
681.922	38895.79
682.27	38772.85
682.618	38910.93
682.966	38649.69
683.314	38875.22
683.661	38630.93
684.009	38548.9
684.357	38439.98
684.705	38325.63
685.053	38494.67
685.4	38357.04
685.748	38195.01
686.095	38232.53
686.443	38127.9
686.79	38244.95
687.138	38124.96
687.485	38079.99
687.832	38040.67
688.18	38115.24
688.527	37832.54
688.874	37899.43
689.221	37729.71
689.568	37680.68
689.915	37583.96
690.262	37638.64
690.609	37379.89
690.956	37393.9
691.303	37470.29
691.65	37109.84
691.997	37157.3
692.344	36925.22
692.69	37032.11
693.037	36911.2
693.383	36655.17
693.73	36869.85
694.077	36509.18
694.423	36594.38
694.769	36383.53
695.116	36344.21
695.462	36348.28
695.808	36325.91
696.155	36324.1
696.501	35910.55
696.847	36180.15
697.193	35707.39
697.539	35933.83
697.885	35680.5
698.231	35478.93
698.577	35645.25
698.923	35653.84
699.269	35360.96
699.614	35061.31
699.96	35064.25
700.306	35226.96
700.651	34963.69
700.997	34828.1
701.342	34880.3
701.688	34788.32
702.033	34676.69
702.379	34680.08
702.724	34540.87
703.069	34657.7
703.415	34182.69
703.76	34348.56
704.105	34252.29
704.45	34168.68
704.795	34082.8
705.14	33919.19
705.485	33960.77
705.83	33753.32
706.175	33843.26
706.52	33779.76
706.865	33609.82
707.209	33547.9
707.554	33491.63
707.899	33517.85
708.243	33407.34
708.588	33338.42
708.932	33124.86
709.277	33073.34
709.621	33052.55
709.966	32770.07
710.31	32867.47
710.654	32690.98
710.998	32727.81
711.342	32704.76
711.687	32620.47
712.031	32474.03
712.375	32441.04
712.719	32503.41
713.063	32306.35
713.407	32440.14
713.75	32207.83
714.094	32237.88
714.438	32014.61
714.782	32143.87
715.125	31905.69
715.469	32035.85
715.812	31827.27
716.156	31714.28
716.499	31620.95
716.843	31766.71
717.186	31588.86
717.53	31738.23
717.873	31652.13
718.216	31567.84
718.559	31444.23
718.902	31293.95
719.246	31339.6
719.589	31188.87
719.932	31124.69
720.275	31136.67
720.617	31055.31
720.96	30970.34
721.303	30921.98
721.646	31017.57
721.989	30793.85
722.331	30851.25
722.674	30797.24
723.016	30845.6
723.359	30749.56
723.701	30818.71
724.044	30655.78
724.386	30417.14
724.729	30575.1
725.071	30589.11
725.413	30419.17
725.755	30393.86
726.097	30287.65
726.439	30101.89
726.782	30148.67
727.124	30227.76
727.465	30182.79
727.807	30053.76
728.149	30061.22
728.491	29936.92
728.833	29970.6
729.175	29823.93
729.516	29729.92
729.858	29779.64
730.199	29817.61
730.541	29696.03
730.882	29605.41
731.224	29741.22
731.565	29480.21
731.906	29653.54
732.248	29542.13
732.589	29353.44
732.93	29384.17
733.271	29316.15
733.612	29442.25
733.953	29406.09
734.294	29192.99
734.635	29221.01
734.976	29253.33
735.317	29054.01
735.658	29044.74
735.999	28988.48
736.339	28980.79
736.68	29170.62
737.021	29024.63
737.361	28737.41
737.702	29006.1
738.042	28848.37
738.383	28713
738.723	28788.71
739.063	28698.99
739.404	28776.73
739.744	28686.79
740.084	28489.28
740.424	28729.5
740.764	28559.11
741.104	28592.33
741.444	28467.58
741.784	28302.62
742.124	28408.38
742.464	28303.3
742.804	28338.77
743.143	28263.07
743.483	28227.82
743.823	28117.54
744.162	28171.55
744.502	28009.52
744.841	28008.39
745.181	28141.49
745.52	28009.97
745.86	27978.78
746.199	28006.81
746.538	27881.84
746.877	27953.93
747.216	27867.83
747.556	27787.6
747.895	27735.85
748.234	27598.46
748.573	27628.96
748.911	27579.92
749.25	27628.28
749.589	27356.88
749.928	27531.11
750.267	27444.11
750.605	27405.47
750.944	27321.63
751.283	27293.83
751.621	27297.45
751.96	27086.6
752.298	27163.21
752.636	27141.52
752.975	27062.65
753.313	26984.23
753.651	26974.06
753.989	26927.29
754.327	26787.85
754.666	26639.38
755.004	26873.05
755.342	26761.41
755.679	26763.9
756.017	26474.19
756.355	26573.17
756.693	26465.6
757.031	26569.1
757.368	26452.5
757.706	26339.28
