Data from hue_350_FLMS001491_9.txt Node
Date: Mon Feb 06 15:37:29 GMT 2017
User: dcchb
Spectrometer: FLMS00149
Trigger mode: 0
Integration Time (sec): 2.000000E-2
Scans to average: 10
Electric dark correction enabled: true
Nonlinearity correction enabled: false
Boxcar width: 0
XAxis mode: Wavelengths
Number of Pixels in Spectrum: 2048
>>>>>Begin Spectral Data<<<<<
341.393	5
341.776	5
342.16	5
342.543	-75.22
342.927	-65.73
343.31	-60.54
343.693	-58.05
344.077	-58.73
344.46	-38.61
344.843	-75
345.226	-51.04
345.61	-45.39
345.993	-23.25
346.376	-4.49
346.759	8.62
347.142	26.02
347.525	43.19
347.908	66.69
348.291	69.4
348.674	97.43
349.057	103.75
349.44	121.16
349.823	141.27
350.206	160.02
350.588	179.91
350.971	207.71
351.354	221.72
351.737	263.07
352.119	249.06
352.502	270.53
352.884	266.46
353.267	273.24
353.65	285.67
354.032	292
354.414	317.08
354.797	305.56
355.179	320.25
355.562	320.02
355.944	317.08
356.326	320.25
356.709	338.1
357.091	348.04
357.473	340.81
357.855	317.99
358.238	344.88
358.62	332.9
359.002	350.3
359.384	359.79
359.766	324.77
360.148	348.49
360.53	333.8
360.912	343.97
361.294	325.22
361.676	349.17
362.057	322.51
362.439	336.97
362.821	327.25
363.203	319.57
363.584	341.94
363.966	348.27
364.348	314.37
364.729	325.9
365.111	318.21
365.493	300.81
365.874	322.51
366.256	335.16
366.637	323.64
367.019	307.14
367.4	327.93
367.781	313.24
368.163	317.76
368.544	323.18
368.925	310.3
369.306	316.63
369.688	307.14
370.069	311.88
370.45	292.22
370.831	299.23
371.212	305.33
371.593	312.11
371.974	292.45
372.355	313.47
372.736	315.27
373.117	307.59
373.498	307.59
373.879	300.13
374.26	332
374.641	320.7
375.021	323.86
375.402	324.99
375.783	328.61
376.163	324.54
376.544	337.87
376.925	310.3
377.305	317.99
377.686	314.82
378.066	327.03
378.447	314.82
378.827	351.21
379.208	335.61
379.588	328.38
379.968	312.34
380.349	315.95
380.729	334.03
381.109	319.57
381.489	346.46
381.87	321.38
382.25	318.44
382.63	342.17
383.01	333.13
383.39	345.1
383.77	351.88
384.15	336.06
384.53	327.93
384.91	350.53
385.29	341.49
385.67	371.32
386.049	348.49
386.429	343.07
386.809	351.66
387.189	370.41
387.568	371.54
387.948	339.91
388.328	349.4
388.707	359.11
389.087	355.5
389.466	346.69
389.846	357.31
390.225	333.58
390.605	364.99
390.984	356.4
391.363	365.67
391.743	367.93
392.122	365.89
392.501	370.87
392.881	362.96
393.26	369.28
393.639	382.39
394.018	362.5
394.397	378.55
394.776	368.15
395.155	361.83
395.534	379
395.913	360.7
396.292	375.16
396.671	388.49
397.05	392.56
397.429	384.42
397.808	379.68
398.186	395.5
398.565	402.05
398.944	398.89
399.323	378.78
399.701	376.52
400.08	421.03
400.458	400.92
400.837	378.1
401.215	389.17
401.594	384.88
401.972	387.14
402.351	408.15
402.729	402.05
403.107	405.67
403.486	393.92
403.864	406.35
404.242	403.86
404.62	396.63
404.999	398.66
405.377	411.99
405.755	397.98
406.133	420.13
406.511	434.59
406.889	445.67
407.267	426.46
407.645	446.12
408.023	428.27
408.401	426.68
408.779	421.71
409.156	449.51
409.534	450.86
409.912	450.41
410.29	465.1
410.667	450.19
411.045	453.8
411.422	479.56
411.8	463.07
412.178	462.61
412.555	477.76
412.933	455.61
413.31	492.22
413.687	482.28
414.065	505.33
414.442	472.56
414.819	502.16
415.197	488.83
415.574	483.18
415.951	507.36
416.328	529.51
416.705	511.43
417.082	520.24
417.46	503.97
417.837	523.18
418.214	523.63
418.591	522.73
418.967	547.13
419.344	517.75
419.721	536.51
420.098	516.85
420.475	535.38
420.852	564.99
421.228	539.9
421.605	544.87
421.982	550.07
422.358	572.67
422.735	567.47
423.111	558.21
423.488	563.86
423.864	595.04
424.241	575.61
424.617	583.06
424.994	567.02
425.37	557.53
425.746	587.36
426.123	606.11
426.499	607.7
426.875	603.18
427.251	619.67
427.627	626.45
428.003	615.83
428.379	608.37
428.756	613.35
429.132	637.3
429.507	617.87
429.883	629.16
430.259	652.21
430.635	645.66
431.011	653.12
431.387	676.62
431.763	672.33
432.138	649.95
432.514	671.87
432.89	682.27
433.265	672.55
433.641	705.55
434.016	708.48
434.392	702.16
434.767	708.71
435.143	712.33
435.518	711.42
435.894	714.81
436.269	718.65
436.644	731.31
437.02	753.91
437.395	730.18
437.77	757.97
438.145	757.52
438.52	747.13
438.895	786.67
439.271	795.49
439.646	787.8
440.021	779.22
440.395	814.92
440.77	792.55
441.145	795.04
441.52	796.39
441.895	799.33
442.27	819.89
442.645	808.82
443.019	834.81
443.394	812.44
443.769	811.08
444.143	835.03
444.518	849.72
444.892	843.85
445.267	838.65
445.641	863.06
446.016	853.34
446.39	850.63
446.764	869.38
447.139	870.74
447.513	874.13
447.887	874.13
448.262	873
448.636	871.87
449.01	882.04
449.384	898.54
449.758	915.71
450.132	916.61
450.506	903.06
450.88	875.71
451.254	935.37
451.628	934.92
452.002	959.55
452.376	941.25
452.75	953.45
453.123	951.64
453.497	939.66
453.871	957.97
454.244	994.35
454.618	1005.43
454.992	1024.63
455.365	978.31
455.739	1048.59
456.112	1049.27
456.486	1035.93
456.859	1030.06
457.232	1025.31
457.606	1048.36
457.979	1044.52
458.352	1087.68
458.725	1052.66
459.099	1073.22
459.472	1089.94
459.845	1135.14
460.218	1120.68
460.591	1124.52
460.964	1137.63
461.337	1159.55
461.71	1174.01
462.083	1174.69
462.456	1205.19
462.829	1180.79
463.201	1213.78
463.574	1203.84
463.947	1212.88
464.32	1229.6
464.692	1262.14
465.065	1227.11
465.438	1281.35
465.81	1308.24
466.183	1317.51
466.555	1335.59
466.928	1307.79
467.3	1324.06
467.672	1342.82
468.045	1390.05
468.417	1397.51
468.789	1383.72
469.161	1397.73
469.534	1431.4
469.906	1462.81
470.278	1494.23
470.65	1501.46
471.022	1470.27
471.394	1531.06
471.766	1547.56
472.138	1571.51
472.51	1592.75
472.882	1604.51
473.253	1621
473.625	1617.39
473.997	1656.93
474.369	1703.03
474.74	1708.01
475.112	1730.15
475.484	1754.78
475.855	1798.4
476.227	1810.15
476.598	1840.66
476.97	1881.79
477.341	1938.96
477.713	1931.28
478.084	1950.71
478.455	2011.05
478.827	2025.74
479.198	2086.08
479.569	2063.93
479.94	2112.06
480.311	2154.55
480.682	2227.54
481.053	2263.02
481.424	2279.52
481.795	2298.5
482.166	2329.91
482.537	2335.56
482.908	2406.97
483.279	2456.01
483.65	2518.61
484.021	2527.42
484.391	2581.2
484.762	2576.68
485.133	2623.46
485.503	2646.74
485.874	2728.77
486.244	2746.4
486.615	2837.24
486.985	2841.99
487.356	2872.95
487.726	2870.01
488.097	2967.63
488.467	2941.19
488.837	3039.95
489.207	3080.63
489.578	3154.97
489.948	3152.94
490.318	3171.47
490.688	3195.88
491.058	3250.11
491.428	3334.18
491.798	3357.23
492.168	3411.24
492.538	3429.09
492.908	3465.47
493.278	3495.76
493.648	3544.79
494.017	3559.93
494.387	3634.73
494.757	3634.96
495.126	3673.83
495.496	3663.66
495.866	3719.48
496.235	3710.67
496.605	3818.68
496.974	3808.29
497.344	3866.14
497.713	3908.17
498.082	3889.19
498.452	3932.58
498.821	3961.28
499.19	4001.28
499.559	4026.14
499.928	4084.44
500.298	4086.02
500.667	4098.45
501.036	4094.61
501.405	4159.92
501.774	4168.96
502.143	4229.52
502.512	4251.44
502.88	4223.87
503.249	4241.72
503.618	4288.73
503.987	4305.45
504.356	4323.76
504.724	4352.91
505.093	4340.93
505.462	4404.88
505.83	4425.67
506.199	4405.34
506.567	4483.98
506.936	4444.43
507.304	4518.33
507.672	4481.72
508.041	4543.86
508.409	4562.85
508.777	4642.62
509.145	4600.81
509.514	4600.36
509.882	4667.02
510.25	4658.21
510.618	4708.38
510.986	4717.87
511.354	4771.88
511.722	4853.91
512.09	4813.69
512.458	4816.4
512.826	4843.29
513.193	4890.97
513.561	4867.47
513.929	4883.06
514.297	4941.59
514.664	4935.94
515.032	4935.27
515.4	5007.35
515.767	4988.37
516.135	5026.79
516.502	4962.84
516.869	5126.22
517.237	5084.64
517.604	5109.95
517.972	5111.76
518.339	5182.72
518.706	5163.28
519.073	5154.92
519.44	5208.25
519.808	5234.69
520.175	5224.3
520.542	5302.71
520.909	5295.03
521.276	5314.24
521.643	5378.42
522.009	5400.11
522.376	5391.52
522.743	5428.36
523.11	5496.15
523.477	5514.69
523.843	5521.69
524.21	5557.17
524.577	5566.21
524.943	5572.76
525.31	5620.22
525.676	5683.72
526.043	5667.68
526.409	5758.97
526.776	5808.69
527.142	5765.07
527.508	5797.16
527.874	5851.63
528.241	5865.41
528.607	5879.65
528.973	5909.7
529.339	5937.95
529.705	6041.68
530.071	5991.51
530.437	6050.94
530.803	6062.92
531.169	6101.79
531.535	6130.26
531.901	6183.14
532.267	6158.96
532.632	6168
532.998	6268.34
533.364	6245.51
533.73	6286.87
534.095	6285.51
534.461	6328.9
534.826	6390.14
535.192	6388.33
535.557	6456.58
535.923	6469.46
536.288	6477.6
536.653	6484.6
537.019	6529.8
537.384	6458.39
537.749	6558.27
538.114	6564.38
538.479	6580.65
538.845	6634.43
539.21	6677.37
539.575	6763.47
539.94	6697.25
540.305	6724.6
540.67	6722.34
541.034	6794.65
541.399	6778.38
541.764	6775.9
542.129	6843.24
542.494	6897.25
542.858	6869.68
543.223	6927.53
543.587	6972.73
543.952	7005.27
544.316	7035.55
544.681	7062.44
545.045	7075.77
545.41	7091.14
545.774	7136.11
546.138	7153.51
546.503	7168.43
546.867	7187.86
547.231	7264.02
547.595	7251.59
547.959	7301.08
548.324	7348.76
548.688	7316.9
549.052	7337.91
549.416	7402.77
549.779	7428.31
550.143	7432.38
550.507	7438.02
550.871	7541.3
551.235	7472.6
551.599	7522.54
551.962	7541.07
552.326	7591.69
552.689	7625.82
553.053	7598.92
553.417	7640.05
553.78	7760.73
554.143	7697.45
554.507	7772.03
554.87	7721.18
555.234	7876.21
555.597	7821.74
555.96	7799.37
556.323	7806.6
556.686	7836.88
557.05	7906.49
557.413	7976.54
557.776	7926.83
558.139	7998.91
558.502	8008.86
558.865	8027.39
559.228	8106.03
559.59	8092.02
559.953	8083.21
560.316	8243.2
560.679	8197.1
561.041	8223.54
561.404	8271
561.767	8298.34
562.129	8250.21
562.492	8329.75
562.854	8363.42
563.217	8314.61
563.579	8428.73
563.941	8449.07
564.304	8418.34
564.666	8523.42
565.028	8537.2
565.39	8585.11
565.753	8628.95
566.115	8604.32
566.477	8701.04
566.839	8628.28
567.201	8743.75
567.563	8719.35
567.925	8776.07
568.287	8791.44
568.648	8815.84
569.01	8845.67
569.372	8914.82
569.734	8953.92
570.095	8974.71
570.457	8990.98
570.819	9078.21
571.18	9065.78
571.542	9210.18
571.903	9229.39
572.265	9198.2
572.626	9284.98
572.987	9290.18
573.349	9376.5
573.71	9382.15
574.071	9469.38
574.432	9519.55
574.794	9576.5
575.155	9604.07
575.516	9599.1
575.877	9759.32
576.238	9816.49
576.599	9803.39
576.96	9874.57
577.32	10002.93
577.681	10021.23
578.042	10116.15
578.403	10220.1
578.763	10218.06
579.124	10379.64
579.485	10474.33
579.845	10595.23
580.206	10661.89
580.566	10745.28
580.927	10839.74
581.287	10998.38
581.648	11125.16
582.008	11247.87
582.368	11350.92
582.728	11507.52
583.089	11602.89
583.449	11824.35
583.809	11930.34
584.169	12095.08
584.529	12199.93
584.889	12458.46
585.249	12613.26
585.609	12799.24
585.969	12980.7
586.329	13180.92
586.688	13363.97
587.048	13517.41
587.408	13710.63
587.768	14008.02
588.127	14202.82
588.487	14408.91
588.846	14622.92
589.206	14749.24
589.565	14983.36
589.925	15342
590.284	15544.93
590.643	15800.74
591.003	16050
591.362	16409.77
591.721	16529.99
592.08	16817.67
592.44	17177.43
592.799	17446.58
593.158	17674.37
593.517	17910.07
593.876	18195.93
594.235	18510.28
594.593	18765.86
594.952	19020.77
595.311	19239.3
595.67	19547.99
596.029	20033.17
596.387	20226.39
596.746	20495.53
597.104	20632.71
597.463	21056.2
597.822	21368.96
598.18	21540.93
598.538	21782.28
598.897	22289.84
599.255	22262.27
599.613	22824.96
599.972	22940.22
600.33	23299.98
600.688	23494.1
601.046	23742
601.404	24172.5
601.762	24368.2
602.12	24683.9
602.478	24929.77
602.836	25221.06
603.194	25361.17
603.552	25646.59
603.91	25742.18
604.268	26237.53
604.625	26380.58
604.983	26641.36
605.341	26713.9
605.698	27037.74
606.056	27430.04
606.413	27631.62
606.771	27899.63
607.128	28163.36
607.485	28276.35
607.843	28470.24
608.2	28919.95
608.557	29184.57
608.914	29113.84
609.272	29589.08
609.629	29813.03
609.986	30069.75
610.343	30118.78
610.7	30616.62
611.057	30717.64
611.414	30741.82
611.771	30974.13
612.127	31234.46
612.484	31338.41
612.841	31739.08
613.198	31651.17
613.554	31872.64
613.911	32235.11
614.267	32295
614.624	32461.55
614.98	32647.98
615.337	32939.05
615.693	32970.69
616.05	33120.97
616.406	33353.5
616.762	33346.04
617.118	33571.8
617.475	33665.81
617.831	33886.59
618.187	34009.53
618.543	34153.25
618.899	34426.92
619.255	34516.41
619.611	34676.18
619.967	34866.68
620.323	34953.69
620.678	34980.13
621.034	35031.42
621.39	35082.95
621.746	35213.79
622.101	35507.57
622.457	35374.92
622.812	35570.84
623.168	35849.93
623.523	35777.84
623.879	36022.81
624.234	35845.41
624.589	36025.07
624.945	36213.54
625.3	36186.2
625.655	36258.51
626.01	36424.61
626.365	36383.03
626.72	36516.36
627.075	36519.07
627.43	36542.34
627.785	36476.36
628.14	36706.18
628.495	36793.86
628.85	36878.83
629.205	36833.86
629.559	37027.76
629.914	36919.06
630.269	36906.63
630.623	36875.44
630.978	36839.96
631.332	37170.8
631.687	37265.49
632.041	37100.97
632.396	37117.7
632.75	37094.19
633.104	37188.65
633.459	37138.71
633.813	37152.05
634.167	37101.65
634.521	37180.75
634.875	37144.81
635.229	37213.74
635.583	37119.73
635.937	37186.85
636.291	37186.17
636.645	37251.25
636.999	37195.21
637.352	37226.39
637.706	37073.4
638.06	37312.95
638.413	37096.45
638.767	37133.52
639.121	37187.98
639.474	37022.78
639.828	37140.97
640.181	37132.84
640.534	37107.3
640.888	37061.65
641.241	36907.76
641.594	37110.92
641.947	37086.28
642.301	37075.21
642.654	37024.14
643.007	37029.11
643.36	37150.69
643.713	36964.48
644.066	37087.87
644.419	36861.88
644.771	36775.78
645.124	36338.06
645.477	36427.32
645.83	36117.27
646.182	36046.76
646.535	35830.05
646.888	36067.55
647.24	35805.64
647.593	36061.68
647.945	35949.37
648.298	35826.88
648.65	35748.01
649.002	35759.99
649.355	35830.5
649.707	35808.58
650.059	35917.95
650.411	36268.45
650.763	36353.2
651.115	36765.16
651.467	36620.08
651.819	36720.87
652.171	36562.68
652.523	36494.21
652.875	36682.91
653.227	36496.47
653.578	36627.77
653.93	36558.84
654.282	36527.2
654.633	36403.59
654.985	36427.32
655.337	36459.41
655.688	36526.75
656.039	36623.25
656.391	36279.3
656.742	36364.27
657.094	36350.71
657.445	36648.1
657.796	36390.71
658.147	36486.75
658.498	36350.71
658.849	36504.61
659.2	36375.12
659.551	36391.61
659.902	36491.72
660.253	36365.85
660.604	36387.32
660.955	36243.37
661.306	36370.37
661.656	36265.06
662.007	36356.59
662.358	36332.18
662.708	36258.96
663.059	36162.69
663.409	36020.1
663.76	36421.9
664.11	36271.84
664.461	36325.17
664.811	36287.44
665.161	36260.32
665.511	36059.42
665.862	36228.68
666.212	36232.3
666.562	36252.18
666.912	36094.45
667.262	36091.96
667.612	36313.42
667.962	36237.49
668.312	36065.29
668.662	36275.01
669.011	36059.65
669.361	36099.19
669.711	36078.4
670.06	35831.63
670.41	35944.62
670.76	35869.37
671.109	36078.4
671.459	36113.2
671.808	35946.43
672.157	36017.16
672.507	35797.73
672.856	35795.92
673.205	35887.9
673.554	35983.71
673.904	35957.5
674.253	35997.95
674.602	35951.17
674.951	35236.39
675.3	35299.67
675.649	35847.9
675.998	35863.94
676.346	35885.19
676.695	35839.76
677.044	35646.55
677.393	35795.7
677.741	35726.32
678.09	35759.09
678.438	35651.75
678.787	35708.47
679.135	35769.94
679.484	35496.27
679.832	35577.17
680.181	35379.44
680.529	35558.42
680.877	35367.69
681.225	35295.15
681.573	35541.01
681.922	35268.03
682.27	35132.21
682.618	35170.85
682.966	35055.38
683.314	35140.12
683.661	35072.78
684.009	34885.21
684.357	34826.23
684.705	34922.5
685.053	34778.77
685.4	34823.52
685.748	34581.27
686.095	34655.61
686.443	34549.85
686.79	34535.62
687.138	34612
687.485	34595.05
687.832	34493.58
688.18	34388.95
688.527	34297.66
688.874	34252.91
689.221	34101.5
689.568	34113.26
689.915	34075.74
690.262	33976.99
690.609	33852.02
690.956	33796.43
691.303	33682.31
691.65	33611.12
691.997	33630.56
692.344	33374.74
692.69	33305.59
693.037	33367.29
693.383	33118.71
693.73	33220.17
694.077	32898.82
694.423	32986.28
694.769	32898.37
695.116	32854.31
695.462	32763.01
695.808	32599.62
696.155	32717.36
696.501	32496.57
696.847	32548.78
697.193	32335.45
697.539	32463.81
697.885	32151.27
698.231	32259.97
698.577	32048.9
698.923	31916.48
699.269	31893.88
699.614	31716.26
699.96	31674.45
700.306	31692.75
700.651	31563.27
700.997	31501.8
701.342	31405.3
701.688	31343.16
702.033	31226.33
702.379	31257.51
702.724	31097.29
703.069	31282.82
703.415	30814.13
703.76	30842.16
704.105	30768.26
704.45	30843.29
704.795	30600.35
705.14	30550.41
705.485	30518.32
705.83	30370.3
706.175	30359.46
706.52	30336.63
706.865	30172.79
707.209	30220.25
707.554	30114.72
707.899	30202.17
708.243	29993.14
708.588	29923.31
708.932	29737.55
709.277	29777.32
709.621	29716.08
709.966	29611
710.31	29720.83
710.654	29396.32
710.998	29455.07
711.342	29496.88
711.687	29224.8
712.031	29277.68
712.375	29205.14
712.719	29324
713.063	29186.61
713.407	29193.84
713.75	29048.98
714.094	29038.36
714.438	28938.02
714.782	28890.57
715.125	28751.81
715.469	28884.24
715.812	28667.52
716.156	28500.3
716.499	28558.83
716.843	28628.2
717.186	28382.78
717.53	28575.55
717.873	28491.93
718.216	28398.15
718.559	28355.89
718.902	28220.08
719.246	28237.7
719.589	28004.04
719.932	28072.28
720.275	27961.1
720.617	27975.56
720.96	27949.12
721.303	27877.94
721.646	27778.73
721.989	27664.39
722.331	27786.19
722.674	27598.85
723.016	27683.37
723.359	27629.81
723.701	27646.08
724.044	27451.96
724.386	27276.15
724.729	27385.52
725.071	27183.49
725.413	27299.88
725.755	27312.3
726.097	27189.82
726.439	27077.06
726.782	27084.51
727.124	27110.5
727.465	27123.83
727.807	26934.46
728.149	26985.99
728.491	26985.31
728.833	26946.66
729.175	26734.92
729.516	26822.83
729.858	26845.42
730.199	26731.53
730.541	26696.28
730.882	26780.34
731.224	26761.13
731.565	26571.08
731.906	26557.3
732.248	26616.96
732.589	26472.1
732.93	26342.61
733.271	26300.35
733.612	26423.29
733.953	26436.85
734.294	26191.88
734.635	26165.44
734.976	26243.63
735.317	26107.36
735.658	26132.45
735.999	26185.33
736.339	25960.02
736.68	26157.76
737.021	26035.28
737.361	25883.64
737.702	26021.26
738.042	25861.04
738.383	25900.36
738.723	25939.91
739.063	25734.94
739.404	25809.75
739.744	25619.24
740.084	25712.35
740.424	25641.84
740.764	25611.33
741.104	25643.65
741.444	25560.26
741.784	25478.68
742.124	25425.57
742.464	25414.28
742.804	25345.35
743.143	25426.7
743.483	25420.83
743.823	25216.99
744.162	25207.05
744.502	25290.21
744.841	25186.71
745.181	25293.37
745.52	25089.76
745.86	25034.85
746.199	25167.73
746.538	24999.6
746.877	25040.05
747.216	25108.75
747.556	24959.37
747.895	24985.81
748.234	24953.72
748.573	24756.89
748.911	24780.62
749.25	24825.36
749.589	24625.6
749.928	24641.64
750.267	24688.19
750.605	24671.24
750.944	24504.47
751.283	24481.64
751.621	24534.52
751.96	24436
752.298	24470.35
752.636	24469.89
752.975	24254.98
753.313	24283.23
753.651	24356
753.989	24232.84
754.327	24138.83
754.666	23994.2
755.004	23967.76
755.342	24110.58
755.679	23956.46
756.017	23830.36
756.355	23862
756.693	23819.06
757.031	23891.6
757.368	23698.16
757.706	23685.06
758.044	23596.7
758.381	23559.41
758.719	23538.39
759.056	23428.34
759.394	23422.01
759.731	23247.33
760.068	23237.38
760.405	23095.69
760.743	23154.22
761.08	23179.53
