Data from hue_26_FLMS001491_00021.txt Node
Date: Tue Feb 07 17:13:45 GMT 2017
User: dcchb
Spectrometer: FLMS00149
Trigger mode: 0
Integration Time (sec): 2.000000E-2
Scans to average: 10
Electric dark correction enabled: true
Nonlinearity correction enabled: false
Boxcar width: 0
XAxis mode: Wavelengths
Number of Pixels in Spectrum: 2048
>>>>>Begin Spectral Data<<<<<
341.393	-14.03
341.776	-14.03
342.16	-14.03
342.543	-56.28
342.927	-45.44
343.31	-67.81
343.693	-65.32
344.077	-61.48
344.46	-63.97
344.843	-58.32
345.226	-51.99
345.61	-36.4
345.993	-33.46
346.376	16.26
346.759	2.92
347.142	19.65
347.525	36.14
347.908	70.04
348.291	89.02
348.674	97.16
349.057	107.55
349.44	112.07
349.823	133.54
350.206	169.92
350.588	201.56
350.971	215.35
351.354	210.6
351.737	228.23
352.119	232.75
352.502	268.68
352.884	244.27
353.267	270.04
353.65	298.74
354.032	295.57
354.414	291.5
354.797	311.39
355.179	298.28
355.562	316.59
355.944	323.14
356.326	331.95
356.709	324.72
357.091	332.18
357.473	330.37
357.855	343.93
358.238	325.63
358.62	336.25
359.002	324.95
359.384	330.37
359.766	343.93
360.148	326.76
360.53	336.93
360.912	329.69
361.294	328.34
361.676	326.53
362.057	342.35
362.439	320.2
362.821	342.8
363.203	330.82
363.584	319.53
363.966	333.76
364.348	314.1
364.729	335.57
365.111	297.83
365.493	313.2
365.874	329.69
366.256	303.48
366.637	325.18
367.019	310.94
367.4	299.19
367.781	318.4
368.163	322.24
368.544	291.96
368.925	302.58
369.306	299.86
369.688	315.68
370.069	323.14
370.45	319.07
370.831	326.3
371.212	306.42
371.593	310.71
371.974	329.24
372.355	310.49
372.736	338.51
373.117	317.94
373.498	298.51
373.879	293.76
374.26	299.64
374.641	330.15
375.021	328.34
375.402	330.6
375.783	317.04
376.163	351.62
376.544	327.21
376.925	314.55
377.305	341.22
377.686	328.79
378.066	307.1
378.447	332.86
378.827	326.08
379.208	323.82
379.588	308.23
379.968	350.94
380.349	329.69
380.729	322.24
381.109	330.15
381.489	324.5
381.87	335.57
382.25	339.86
382.63	359.52
383.01	346.64
383.39	337.38
383.77	350.49
384.15	359.75
384.53	325.63
384.91	366.3
385.29	331.95
385.67	367.43
386.049	344.61
386.429	345.51
386.809	352.74
387.189	359.75
387.568	350.26
387.948	347.77
388.328	360.65
388.707	370.15
389.087	355.23
389.466	366.53
389.846	367.66
390.225	366.76
390.605	381.22
390.984	349.58
391.363	378.96
391.743	374.44
392.122	366.08
392.501	366.08
392.881	359.3
393.26	371.95
393.639	368.11
394.018	377.6
394.397	381.9
394.776	366.53
395.155	384.83
395.534	367.21
395.913	373.99
396.292	395.46
396.671	375.57
397.05	390.03
397.429	380.77
397.808	375.12
398.186	396.13
398.565	386.19
398.944	394.33
399.323	399.07
399.701	413.99
400.08	400.43
400.458	378.96
400.837	401.11
401.215	388.45
401.594	403.59
401.972	396.13
402.351	403.82
402.729	405.4
403.107	402.46
403.486	404.04
403.864	402.91
404.242	425.51
404.62	429.13
404.999	427.77
405.377	419.64
405.755	415.12
406.133	417.15
406.511	402.91
406.889	432.06
407.267	443.59
407.645	436.36
408.023	431.84
408.401	438.17
408.779	425.96
409.156	435.45
409.534	454.44
409.912	443.59
410.29	444.72
410.667	444.72
411.045	459.63
411.422	464.15
411.8	451.73
412.178	464.38
412.555	459.63
412.933	478.84
413.31	456.47
413.687	451.05
414.065	480.88
414.442	476.58
414.819	480.43
415.197	461.22
415.574	482.91
415.951	489.01
416.328	486.53
416.705	488.11
417.082	493.53
417.46	497.15
417.837	505.74
418.214	496.7
418.591	484.72
418.967	488.33
419.344	495.11
419.721	510.25
420.098	507.77
420.475	516.36
420.852	494.44
421.228	511.61
421.605	518.62
421.982	526.98
422.358	554.32
422.735	523.59
423.111	528.33
423.488	546.64
423.864	518.39
424.241	547.77
424.617	530.14
424.994	533.98
425.37	555
425.746	523.14
426.123	563.13
426.499	545.51
426.875	558.84
427.251	588.67
427.627	551.61
428.003	573.3
428.379	575.34
428.756	571.72
429.132	564.49
429.507	586.41
429.883	633.64
430.259	594.32
430.635	617.14
431.011	611.04
431.387	607.88
431.763	625.96
432.138	618.05
432.514	618.73
432.89	629.8
433.265	633.42
433.641	653.53
434.016	657.37
434.392	655.11
434.767	677.93
435.143	642.68
435.518	651.49
435.894	681.78
436.269	702.34
436.644	680.42
437.02	695.33
437.395	694.43
437.77	694.43
438.145	684.26
438.52	699.63
438.895	710.02
439.271	691.95
439.646	706.86
440.021	726.52
440.395	730.59
440.77	739.85
441.145	728.78
441.52	760.64
441.895	740.76
442.27	736.69
442.645	751.6
443.019	754.32
443.394	753.64
443.769	773.3
444.143	765.39
444.518	775.56
444.892	789.12
445.267	767.88
445.641	797.03
446.016	803.13
446.39	800.19
446.764	783.02
447.139	782.11
447.513	802.22
447.887	816.24
448.262	802
448.636	813.75
449.01	799.96
449.384	791.38
449.758	817.82
450.132	801.77
450.506	825.5
450.88	850.13
451.254	871.38
451.628	860.75
452.002	867.76
452.376	886.52
452.75	863.47
453.123	863.69
453.497	883.35
453.871	894.65
454.244	931.49
454.618	910.02
454.992	924.71
455.365	940.75
455.739	946.63
456.112	954.76
456.486	954.99
456.859	951.15
457.232	981.65
457.606	1004.48
457.979	997.47
458.352	984.37
458.725	1015.78
459.099	1011.71
459.472	1043.12
459.845	1046.74
460.218	1027.3
460.591	1073.18
460.964	1052.16
461.337	1081.09
461.71	1085.61
462.083	1103.69
462.456	1103.69
462.829	1117.24
463.201	1126.96
463.574	1105.27
463.947	1142.55
464.32	1178.94
464.692	1173.51
465.065	1160.18
465.438	1195.21
465.81	1244.47
466.183	1227.3
466.555	1221.65
466.928	1235.66
467.3	1252.61
467.672	1288.54
468.045	1306.39
468.417	1271.14
468.789	1313.17
469.161	1310.69
469.534	1325.6
469.906	1375.09
470.278	1391.14
470.65	1386.62
471.022	1413.73
471.394	1469.55
471.766	1470.91
472.138	1479.72
472.51	1519.04
472.882	1534.41
473.253	1531.7
473.625	1572.83
473.997	1621.19
474.369	1664.8
474.74	1667.06
475.112	1679.72
475.484	1728.75
475.855	1723.33
476.227	1744.8
476.598	1813.27
476.97	1832.03
477.341	1851.01
477.713	1913.38
478.084	1931.69
478.455	1953.83
478.827	1985.92
479.198	2043.55
479.569	2063.89
479.94	2130.78
480.311	2167.16
480.682	2222.53
481.053	2251.9
481.424	2269.3
481.795	2314.5
482.166	2369.19
482.537	2397.44
482.908	2450.77
483.279	2506.36
483.65	2517.66
484.021	2594.95
484.391	2582.97
484.762	2647.15
485.133	2695.28
485.503	2781.38
485.874	2829.52
486.244	2876.97
486.615	2893.7
486.985	2962.39
487.356	2970.98
487.726	3008.95
488.097	3099.79
488.467	3161.71
488.837	3201.26
489.207	3222.95
489.578	3323.74
489.948	3335.72
490.318	3422.49
490.688	3429.73
491.058	3483.96
491.428	3551.3
491.798	3585.88
492.168	3642.83
492.538	3698.19
492.908	3753.33
493.278	3790.62
493.648	3824.52
494.017	3864.52
494.387	3909.04
494.757	3960.79
495.126	3998.52
495.496	4010.28
495.866	4052.76
496.235	4118.75
496.605	4102.93
496.974	4170.95
497.344	4239.65
497.713	4248.24
498.082	4261.79
498.452	4320.1
498.821	4358.97
499.19	4362.81
499.559	4432.86
499.928	4449.81
500.298	4486.42
500.667	4480.77
501.036	4523.03
501.405	4560.32
501.774	4616.14
502.143	4675.57
502.512	4650.26
502.88	4709.69
503.249	4715.57
503.618	4765.51
503.987	4749.47
504.356	4816.58
504.724	4859.52
505.093	4846.19
505.462	4831.27
505.83	4946.07
506.199	4930.48
506.567	4967.54
506.936	5002.34
507.304	5008.44
507.672	5060.87
508.041	5027.2
508.409	5123.24
508.777	5149.23
509.145	5180.41
509.514	5155.33
509.882	5154.88
510.25	5163.92
510.618	5245.05
510.986	5283.46
511.354	5325.27
511.722	5330.47
512.09	5351.26
512.458	5371.82
512.826	5396.91
513.193	5407.3
513.561	5452.72
513.929	5468.99
514.297	5496.56
514.664	5541.76
515.032	5559.84
515.4	5614.53
515.767	5602.78
516.135	5616.56
516.502	5627.41
516.869	5632.61
517.237	5696.56
517.604	5675.77
517.972	5735.65
518.339	5781.3
518.706	5760.06
519.073	5794.41
519.44	5795.99
519.808	5812.26
520.175	5899.94
520.542	5948.3
520.909	5946.04
521.276	5939.26
521.643	5994.86
522.009	6056.1
522.376	6014.52
522.743	6084.8
523.11	6157.56
523.477	6186.49
523.843	6161.18
524.21	6309.65
524.577	6307.84
524.943	6263.78
525.31	6355.07
525.676	6360.95
526.043	6421.06
526.409	6406.37
526.776	6453.83
527.142	6501.51
527.508	6522.53
527.874	6585.8
528.241	6579.02
528.607	6619.47
528.973	6725.23
529.339	6664.67
529.705	6730.2
530.071	6770.2
530.437	6817.21
530.803	6813.37
531.169	6888.17
531.535	6846.13
531.901	6892.46
532.267	6938.33
532.632	6982.18
532.998	7052.46
533.364	7045
533.73	7039.57
534.095	7141.49
534.461	7171.1
534.826	7256.97
535.192	7161.38
535.557	7245.45
535.923	7255.39
536.288	7305.78
536.653	7316.18
537.019	7309.4
537.384	7374.03
537.749	7378.32
538.114	7427.36
538.479	7411.99
538.845	7437.98
539.21	7449.73
539.575	7495.38
539.94	7547.81
540.305	7576.74
540.67	7560.01
541.034	7591.2
541.399	7621.93
541.764	7660.8
542.129	7729.05
542.494	7731.31
542.858	7789.61
543.223	7780.12
543.587	7875.26
543.952	7907.35
544.316	7911.87
544.681	7929.49
545.045	8007.68
545.41	7962.26
545.774	8016.27
546.138	8028.25
546.503	8025.54
546.867	8090.62
547.231	8123.39
547.595	8145.08
547.959	8180.11
548.324	8219.43
548.688	8236.61
549.052	8250.16
549.416	8302.14
549.779	8341.46
550.143	8370.39
550.507	8391.63
550.871	8468.92
551.235	8388.47
551.599	8443.83
551.962	8508.01
552.326	8541
552.689	8605.86
553.053	8526.32
553.417	8602.02
553.78	8759.08
554.143	8652.64
554.507	8679.08
554.87	8711.4
555.234	8766.08
555.597	8702.36
555.96	8757.72
556.323	8859.64
556.686	8810.83
557.05	8886.98
557.413	8891.05
557.776	8901.9
558.139	8999.98
558.502	8945.29
558.865	8996.36
559.228	9071.39
559.59	9134.43
559.953	9116.36
560.316	9213.08
560.679	9214.43
561.041	9206.75
561.404	9278.84
561.767	9356.58
562.129	9325.16
562.492	9440.87
562.854	9384.82
563.217	9391.38
563.579	9487.42
563.941	9525.39
564.304	9487.19
564.666	9536.46
565.028	9600.64
565.39	9602.67
565.753	9556.57
566.115	9686.96
566.477	9690.13
566.839	9774.64
567.201	9723.12
567.563	9868.43
567.925	9882.44
568.287	9857.58
568.648	9913.4
569.01	9924.7
569.372	9958.37
569.734	10021.64
570.095	10083.79
570.457	10045.15
570.819	10195.65
571.18	10206.05
571.542	10302.99
571.903	10341.41
572.265	10342.76
572.626	10390
572.987	10443.33
573.349	10452.82
573.71	10516.55
574.071	10557.9
574.432	10667.95
574.794	10700.5
575.155	10733.26
575.516	10801.74
575.877	10852.81
576.238	10966.7
576.599	11033.59
576.96	11160.6
577.32	11235.85
577.681	11335.06
578.042	11335.73
578.403	11462.28
578.763	11557.65
579.124	11681.26
579.485	11753.12
579.845	11933.46
580.206	11928.94
580.566	12064.53
580.927	12165.77
581.287	12374.12
581.648	12454.8
582.008	12576.6
582.368	12787.45
582.728	12878.74
583.089	13077.16
583.449	13178.85
583.809	13313.08
584.169	13521.66
584.529	13660.64
584.889	13951.26
585.249	14037.36
585.609	14245.94
585.969	14488.42
586.329	14668.98
586.688	14961.63
587.048	15081.4
587.408	15332.24
587.768	15508.5
588.127	15722.51
588.487	16025.33
588.846	16301.48
589.206	16395.04
589.565	16643.39
589.925	17009.71
590.284	17270.27
590.643	17587.77
591.003	17807.2
591.362	18196.57
591.721	18336.68
592.08	18613.96
592.44	18946.83
592.799	19241.06
593.158	19415.07
593.517	19802.86
593.876	20108.61
594.235	20271.77
594.593	20597.18
594.952	20927.35
595.311	21232.65
595.67	21532.08
596.029	21859.98
596.387	22223.81
596.746	22455.67
597.104	22666.96
597.463	23097.91
597.822	23431.23
598.18	23706.71
598.538	23904.22
598.897	24306.01
599.255	24493.58
599.613	25137.86
599.972	25171.3
600.33	25433.89
600.688	25715.02
601.046	25960.66
601.404	26412.85
601.762	26527.88
602.12	27057.13
602.478	27360.85
602.836	27554.29
603.194	27661.63
603.552	27960.61
603.91	28234.5
604.268	28674.94
604.625	28712.68
604.983	29182.27
605.341	29178.43
605.698	29611.64
606.056	29899.99
606.413	30133.43
606.771	30482.57
607.128	30755.79
607.485	30789.91
607.843	31030.36
608.2	31555.09
608.557	31668.31
608.914	31691.58
609.272	32184
609.629	32382.19
609.986	32693.82
610.343	32853.59
610.7	33258.32
611.057	33250.86
611.414	33515.49
611.771	33727.91
612.127	33894.24
612.484	34210.61
612.841	34442.47
613.198	34431.62
613.554	34644.5
613.911	35082.45
614.267	35194.09
614.624	35260.98
614.98	35485.83
615.337	35841.08
615.693	35938.93
616.05	35988.42
616.406	36299.37
616.762	36386.83
617.118	36510.44
617.475	36745.91
617.831	36864.33
618.187	36912.69
618.543	37180.7
618.899	37339.8
619.255	37341.6
619.611	37573.69
619.967	37821.14
620.323	38023.84
620.678	37915.83
621.034	37948.82
621.39	38171.19
621.746	38174.35
622.101	38699.53
622.457	38394.46
622.812	38596.71
623.168	38631.06
623.523	38949.92
623.879	39050.26
624.234	38842.35
624.589	39143.82
624.945	39167.77
625.3	39401.89
625.655	39350.14
626.01	39457.93
626.365	39609.34
626.72	39494.99
627.075	39696.12
627.43	39670.13
627.785	39728.21
628.14	39860.41
628.495	40048.65
628.85	39945.38
629.205	39775.21
629.559	40249.32
629.914	40003.91
630.269	39950.57
630.623	39953.06
630.978	40078.71
631.332	40290.45
631.687	40365.25
632.041	40285.25
632.396	40333.84
632.75	40298.14
633.104	40350.11
633.459	40129.33
633.813	40249.32
634.167	40300.85
634.521	40287.06
634.875	40454.97
635.229	40345.37
635.583	40227.18
635.937	40208.87
636.291	40320.06
636.645	40259.49
636.999	40266.72
637.352	40418.36
637.706	40287.97
638.06	40463.55
638.413	40287.97
638.767	40210.68
639.121	40331.13
639.474	40161.64
639.828	40295.42
640.181	40223.11
640.534	40321.86
640.888	40185.37
641.241	40020.85
641.594	40261.07
641.947	40327.97
642.301	40209.1
642.654	40179.27
643.007	40272.15
643.36	40056.11
643.713	40170.46
644.066	40268.76
644.419	40046.16
644.771	39876.9
645.124	39544.03
645.477	39559.17
645.83	39310.36
646.182	39116.02
646.535	39090.48
646.888	39156.02
647.24	39106.08
647.593	39277.82
647.945	39083.25
648.298	38976.36
648.65	38852.52
649.002	38745.86
649.355	38900.43
649.707	39006.64
650.059	39163.93
650.411	39705.16
650.763	39671.94
651.115	40050.23
651.467	39903.8
651.819	39977.01
652.171	39707.87
652.523	39839.62
652.875	39753.74
653.227	39539.51
653.578	39812.05
653.93	39816.34
654.282	39556.01
654.633	39588.78
654.985	39676.23
655.337	39667.87
655.688	39759.39
656.039	39661.32
656.391	39470.59
656.742	39525.05
657.094	39590.36
657.445	39686.17
657.796	39639.17
658.147	39412.06
658.498	39492.73
658.849	39608.44
659.2	39488.44
659.551	39476.01
659.902	39618.61
660.253	39520.75
660.604	39477.37
660.955	39243.02
661.306	39461.55
661.656	39453.19
662.007	39391.72
662.358	39614.76
662.708	39385.16
663.059	39459.06
663.409	39238.5
663.76	39344.49
664.11	39416.12
664.461	39466.29
664.811	39540.19
665.161	39500.87
665.511	39339.29
665.862	39386.29
666.212	39378.84
666.562	39416.35
666.912	39309.23
667.262	39393.3
667.612	39309.46
667.962	39281.44
668.312	39257.26
668.662	39342.23
669.011	39323.7
669.361	39348.78
669.711	39283.92
670.06	39245.96
670.41	39229.91
670.76	39179.07
671.109	39354.21
671.459	39198.96
671.808	39170.03
672.157	39373.41
672.507	38993.76
672.856	38956.93
673.205	39045.74
673.554	39111.05
673.904	39069.24
674.253	39337.48
674.602	39230.82
674.951	38587.45
675.3	38437.62
675.649	39033.31
675.998	38990.15
676.346	38847.1
676.695	39226.75
677.044	38838.96
677.393	38901.11
677.741	38988.79
678.09	38825.63
678.438	38722.13
678.787	38794.22
679.135	38833.09
679.484	38565.75
679.832	38809.13
680.181	38524.62
680.529	38731.4
680.877	38567.56
681.225	38462.93
681.573	38755.8
681.922	38382.48
682.27	38380.9
682.618	38407.56
682.966	38434.23
683.314	38314.91
683.661	38187.46
684.009	38016.16
684.357	37991.3
684.705	38000.12
685.053	38005.99
685.4	37909.72
685.748	37733.91
686.095	37858.43
686.443	37723.97
686.79	37548.6
687.138	37720.58
687.485	37676.28
687.832	37575.72
688.18	37686.9
688.527	37379.57
688.874	37390.87
689.221	37235.62
689.568	37198.78
689.915	37099.35
690.262	36914.5
690.609	36821.84
690.956	36795.4
691.303	36873.14
691.65	36571.68
691.997	36602.41
692.344	36363.1
692.69	36399.71
693.037	36391.57
693.383	36051.92
693.73	36226.15
694.077	35982.32
694.423	36042.88
694.769	35865.71
695.116	35785.94
695.462	35862.09
695.808	35677.47
696.155	35824.81
696.501	35423.69
696.847	35644.47
697.193	35419.62
697.539	35427.3
697.885	35027.54
698.231	35185.5
698.577	35183.02
698.923	35057.37
699.269	34917.71
699.614	34744.84
699.96	34604.5
700.306	34724.27
700.651	34548.91
700.997	34316.15
701.342	34340.33
701.688	34290.84
702.033	34218.75
702.379	34146.21
702.724	34174.23
703.069	34108.02
703.415	33812.2
703.76	33825.09
704.105	33828.25
704.45	33683.17
704.795	33489.5
705.14	33525.88
705.485	33420.12
705.83	33327.92
706.175	33332.67
706.52	33318.88
706.865	33070.08
707.209	33059.68
707.554	32827.6
707.899	33039.12
708.243	32853.59
708.588	32659.92
708.932	32573.82
709.277	32503.09
709.621	32620.82
709.966	32385.35
710.31	32474.16
710.654	32146.03
710.998	32182.64
711.342	32196.43
711.687	32094.96
712.031	31979.03
712.375	31882.31
712.719	31937.23
713.063	31778.13
713.407	32003.44
713.75	31866.94
714.094	31662.43
714.438	31741.75
714.782	31522.32
715.125	31503.79
715.469	31517.12
715.812	31355.09
716.156	31254.31
716.499	31277.58
716.843	31266.28
717.186	31102.22
717.53	31128.21
717.873	31199.17
718.216	31012.73
718.559	30850.02
718.902	30623.14
719.246	30806.41
719.589	30798.95
719.932	30574.55
720.275	30484.16
720.617	30645.28
720.96	30418.62
721.303	30549.01
721.646	30560.54
721.989	30242.81
722.331	30503.36
722.674	30373.42
723.016	30321
723.359	30340.43
723.701	30243.71
724.044	30057.95
724.386	30063.6
724.729	30083.49
725.071	30081.23
725.413	30033.32
725.755	29929.14
726.097	29895.47
726.439	29585.42
726.782	29578.64
727.124	29819.77
727.465	29615.25
727.807	29694.12
728.149	29408.93
728.491	29401.7
728.833	29532.99
729.175	29426.78
729.516	29322.6
729.858	29357.41
730.199	29286.9
730.541	29129.16
730.882	29265.88
731.224	29250.29
731.565	29022.05
731.906	29095.49
732.248	29161.03
732.589	28941.37
732.93	28915.38
733.271	28820.7
733.612	28885.55
733.953	28884.2
734.294	28737.08
734.635	28737.99
734.976	28791.09
735.317	28576.64
735.658	28741.38
735.999	28658.89
736.339	28600.59
736.68	28641.72
737.021	28509.07
737.361	28364.66
737.702	28568.5
738.042	28371.22
738.383	28332.57
738.723	28547.03
739.063	28238.79
739.404	28318.79
739.744	28149.98
740.084	28197.89
740.424	28129.19
740.764	28129.87
741.104	28142.75
741.444	28074.28
741.784	27900.27
742.124	27979.14
742.464	27903.88
742.804	27843.77
743.143	27831.34
743.483	27848.52
743.823	27699.6
744.162	27717.45
744.502	27801.97
744.841	27617.34
745.181	27703.21
745.52	27636.77
745.86	27635.87
746.199	27506.38
746.538	27378.7
746.877	27522.65
747.216	27412.82
747.556	27490.56
747.895	27448.08
748.234	27407.4
748.573	27164.47
748.911	27206.28
749.25	27286.05
749.589	27105.71
749.928	27095.32
750.267	27176.22
750.605	27103.45
750.944	27107.75
751.283	26929.45
751.621	26851.71
751.96	26816.46
752.298	26789.79
752.636	26845.16
752.975	26575.78
753.313	26624.82
753.651	26600.64
753.989	26608.1
754.327	26572.17
754.666	26493.75
755.004	26464.15
755.342	26441.32
755.679	26432.29
756.017	26272.06
756.355	26293.08
756.693	26124.72
757.031	26238.84
757.368	25984.16
757.706	25945.07
758.044	25929.7
758.381	26015.35
758.719	25907.55
759.056	25948.68
759.394	25732.87
759.731	25599.76
