Data from hue_260_FLMS001491_00028.txt Node
Date: Tue Feb 07 15:58:47 GMT 2017
User: dcchb
Spectrometer: FLMS00149
Trigger mode: 0
Integration Time (sec): 2.000000E-2
Scans to average: 10
Electric dark correction enabled: true
Nonlinearity correction enabled: false
Boxcar width: 0
XAxis mode: Wavelengths
Number of Pixels in Spectrum: 2048
>>>>>Begin Spectral Data<<<<<
341.393	-24.39
341.776	-24.39
342.16	-24.39
342.543	-41.11
342.927	-38.85
343.31	-73.66
343.693	-74.79
344.077	-59.65
344.46	-68.68
344.843	-44.96
345.226	-34.56
345.61	-23.26
345.993	-31.62
346.376	-16.26
346.759	22.16
347.142	36.4
347.525	49.28
347.908	52.89
348.291	71.88
348.674	90.63
349.057	104.19
349.44	119.33
349.823	135.38
350.206	133.34
350.588	197.75
350.971	184.19
351.354	227.13
351.737	226.9
352.119	227.35
352.502	252.44
352.884	261.02
353.267	267.8
353.65	289.27
354.032	296.05
354.414	287.01
354.797	339.89
355.179	311.87
355.562	310.51
355.944	315.26
356.326	318.42
356.709	327.24
357.091	334.02
357.473	329.5
357.855	323.4
358.238	328.37
358.62	348.48
359.002	319.55
359.384	323.4
359.766	330.4
360.148	333.11
360.53	338.99
360.912	310.74
361.294	329.05
361.676	324.07
362.057	330.85
362.439	326.79
362.821	315.94
363.203	329.27
363.584	305.77
363.966	337.41
364.348	324.07
364.729	301.48
365.111	295.37
365.493	324.98
365.874	311.42
366.256	297.41
366.637	308.71
367.019	315.71
367.4	313.23
367.781	306.22
368.163	313
368.544	281.81
368.925	327.69
369.306	321.36
369.688	298.99
370.069	323.85
370.45	305.54
370.831	281.81
371.212	308.48
371.593	308.71
371.974	299.22
372.355	320.01
372.736	315.49
373.117	326.33
373.498	284.53
373.879	292.21
374.26	322.04
374.641	295.6
375.021	313.9
375.402	302.83
375.783	312.55
376.163	300.12
376.544	299.89
376.925	310.97
377.305	324.98
377.686	315.94
378.066	328.82
378.447	326.79
378.827	311.64
379.208	326.11
379.588	307.58
379.968	317.52
380.349	339.44
380.729	325.88
381.109	330.63
381.489	325.66
381.87	340.34
382.25	338.08
382.63	348.48
383.01	316.84
383.39	350.51
383.77	319.1
384.15	315.03
384.53	336.73
384.91	348.48
385.29	338.99
385.67	346.9
386.049	367.46
386.429	350.74
386.809	333.79
387.189	334.47
387.568	360.46
387.948	370.63
388.328	339.21
388.707	335.82
389.087	359.33
389.466	362.72
389.846	373.34
390.225	370.4
390.605	353.45
390.984	351.19
391.363	362.26
391.743	367.91
392.122	372.66
392.501	365.43
392.881	371.98
393.26	367.69
393.639	401.59
394.018	366.11
394.397	379.89
394.776	396.16
395.155	389.83
395.534	378.08
395.913	382.83
396.292	385.54
396.671	397.29
397.05	385.99
397.429	393
397.808	375.82
398.186	383.96
398.565	401.36
398.944	388.25
399.323	410.17
399.701	383.51
400.08	403.85
400.458	413.11
400.837	394.81
401.215	417.4
401.594	435.03
401.972	421.92
402.351	426.9
402.729	431.87
403.107	420.12
403.486	438.87
403.864	436.39
404.242	424.86
404.62	434.35
404.999	448.36
405.377	436.39
405.755	434.35
406.133	443.84
406.511	441.13
406.889	468.25
407.267	472.77
407.645	467.12
408.023	468.25
408.401	457.4
408.779	461.02
409.156	515.48
409.534	512.32
409.912	499.44
410.29	509.15
410.667	523.62
411.045	520.9
411.422	530.85
411.8	531.53
412.178	556.16
412.555	549.15
412.933	538.08
413.31	558.64
413.687	577.17
414.065	585.08
414.442	577.85
414.819	585.76
415.197	606.78
415.574	618.08
415.951	613.33
416.328	615.82
416.705	612.65
417.082	611.98
417.46	627.34
417.837	653.1
418.214	653.78
418.591	668.25
418.967	680.9
419.344	676.15
419.721	656.49
420.098	690.62
420.475	703.05
420.852	716.38
421.228	720.45
421.605	710.05
421.982	722.93
422.358	732.42
422.735	768.81
423.111	756.38
423.488	813.33
423.864	784.4
424.241	793.89
424.617	807
424.994	799.32
425.37	824.63
425.746	831.63
426.123	818.07
426.499	856.49
426.875	847.9
427.251	869.14
427.627	917.5
428.003	896.04
428.379	890.84
428.756	892.19
429.132	931.52
429.507	939.88
429.883	950.95
430.259	976.26
430.635	948.69
431.011	978.75
431.387	984.62
431.763	1002.7
432.138	1021.91
432.514	1009.93
432.89	1054.22
433.265	1099.42
433.641	1093.54
434.016	1109.59
434.392	1115.01
434.767	1141.68
435.143	1131.96
435.518	1154.56
435.894	1174.9
436.269	1224.84
436.644	1239.98
437.02	1203.37
437.395	1254.22
437.77	1264.61
438.145	1281.56
438.52	1299.19
438.895	1324.73
439.271	1326.98
439.646	1346.87
440.021	1385.74
440.395	1379.86
440.77	1400.43
441.145	1392.29
441.52	1450.37
441.895	1437.49
442.27	1435.91
442.645	1438.62
443.019	1458.96
443.394	1473.42
443.769	1483.36
444.143	1487.88
444.518	1546.64
444.892	1514.78
445.267	1542.35
445.641	1564.04
446.016	1551.61
446.39	1597.49
446.764	1593.19
447.139	1585.28
447.513	1611.72
447.887	1613.53
448.262	1623.25
448.636	1608.79
449.01	1662.34
449.384	1675.45
449.758	1672.96
450.132	1699.63
450.506	1697.6
450.88	1739.86
451.254	1703.92
451.628	1719.06
452.002	1761.55
452.376	1761.55
452.75	1769.69
453.123	1780.76
453.497	1825.05
453.871	1830.47
454.244	1874.77
454.618	1860.53
454.992	1924.94
455.365	1951.6
455.739	1929.45
456.112	1950.02
456.486	1976.69
456.859	1963.35
457.232	2024.14
457.606	2010.36
457.979	2023.24
458.352	2105.72
458.725	2087.42
459.099	2143.46
459.472	2154.99
459.845	2162.67
460.218	2197.24
460.591	2179.39
460.964	2199.5
461.337	2256.68
461.71	2295.1
462.083	2298.26
462.456	2332.83
462.829	2330.8
463.201	2352.27
463.574	2379.84
463.947	2399.95
464.32	2427.97
464.692	2466.84
465.065	2469.78
465.438	2506.84
465.81	2536.9
466.183	2565.37
466.555	2606.5
466.928	2626.39
467.3	2664.58
467.672	2672.26
468.045	2724.46
468.417	2679.49
468.789	2769.88
469.161	2771.92
469.534	2797.68
469.906	2859.37
470.278	2875.87
470.65	2932.82
471.022	2991.35
471.394	3034.06
471.766	3022.53
472.138	3068.63
472.51	3120.38
472.882	3126.71
473.253	3177.78
473.625	3231.57
473.997	3300.49
474.369	3278.57
474.74	3336.88
475.112	3395.86
475.484	3425.01
475.855	3485.12
476.227	3554.95
476.598	3578.9
476.97	3611.44
477.341	3695.06
477.713	3746.81
478.084	3782.74
478.455	3820.7
478.827	3872.23
479.198	3993.36
479.569	3949.97
479.94	4006.24
480.311	4070.64
480.682	4177.31
481.053	4256.17
481.424	4304.08
481.795	4295.27
482.166	4399.45
482.537	4388.83
482.908	4496.85
483.279	4539.33
483.65	4629.27
484.021	4693.9
484.391	4747.23
484.762	4767.8
485.133	4857.29
485.503	4820.45
485.874	4947.23
486.244	4970.05
486.615	5025.64
486.985	5095.02
487.356	5163.49
487.726	5214.11
488.097	5251.85
488.467	5341.57
488.837	5433.32
489.207	5452.75
489.578	5502.24
489.948	5572.07
490.318	5608.68
490.688	5621.11
491.058	5754.67
491.428	5821.78
491.798	5790.37
492.168	5946.75
492.538	5972.51
492.908	6062.23
493.278	6064.04
493.648	6049.35
494.017	6132.51
494.387	6123.24
494.757	6221.55
495.126	6236.91
495.496	6327.31
495.866	6309.68
496.235	6377.02
496.605	6380.64
496.974	6468.77
497.344	6478.49
497.713	6504.7
498.082	6505.83
498.452	6576.34
498.821	6645.04
499.19	6626.05
499.559	6666.51
499.928	6722.1
500.298	6697.01
500.667	6761.42
501.036	6820.63
501.405	6860.85
501.774	6845.71
502.143	6871.7
502.512	6881.87
502.88	6984.01
503.249	6926.61
503.618	6967.97
503.987	6973.62
504.356	7017
504.724	7062.2
505.093	7067.62
505.462	7076.89
505.83	7155.98
506.199	7166.61
506.567	7213.84
506.936	7189.43
507.304	7264.68
507.672	7277.11
508.041	7300.61
508.409	7307.17
508.777	7388.07
509.145	7378.58
509.514	7364.34
509.882	7412.25
510.25	7420.61
510.618	7503.55
510.986	7437.78
511.354	7491.34
511.722	7519.36
512.09	7640.72
512.458	7579.7
512.826	7631.9
513.193	7572.47
513.561	7638.68
513.929	7630.55
514.297	7662.41
514.664	7716.65
515.032	7709.42
515.4	7763.2
515.767	7816.08
516.135	7766.82
516.502	7692.69
516.869	7824.44
517.237	7786.93
517.604	7828.51
517.972	7863.76
518.339	7882.52
518.706	7847.27
519.073	7857.89
519.44	7905.34
519.808	7899.69
520.175	7983.76
520.542	7982.18
520.909	8108.05
521.276	8017.66
521.643	8071.21
522.009	8087.71
522.376	8143.3
522.743	8129.97
523.11	8198.22
523.477	8194.37
523.843	8181.27
524.21	8279.34
524.577	8328.16
524.943	8304.88
525.31	8266.46
525.676	8302.62
526.043	8362.05
526.409	8367.25
526.776	8408.38
527.142	8390.98
527.508	8375.84
527.874	8419.45
528.241	8468.94
528.607	8437.53
528.973	8463.29
529.339	8458.32
529.705	8541.48
530.071	8563.18
530.437	8565.44
530.803	8539.68
531.169	8558.89
531.535	8533.8
531.901	8529.51
532.267	8574.7
532.632	8640.92
532.998	8640.69
533.364	8621.71
533.73	8583.74
534.095	8630.3
534.461	8630.07
534.826	8672.55
535.192	8640.46
535.557	8644.08
535.923	8694.47
536.288	8628.94
536.653	8697.64
537.019	8569.51
537.384	8646.57
537.749	8698.32
538.114	8585.78
538.479	8595.72
538.845	8586.23
539.21	8581.94
539.575	8584.87
539.94	8619.45
540.305	8629.62
540.67	8574.93
541.034	8559.56
541.399	8640.92
541.764	8587.81
542.129	8625.1
542.494	8656.96
542.858	8572.44
543.223	8555.72
543.587	8565.89
543.952	8618.54
544.316	8641.59
544.681	8553.46
545.045	8605.44
545.41	8575.38
545.774	8604.53
546.138	8562.73
546.503	8563.86
546.867	8496.74
547.231	8622.16
547.595	8588.04
547.959	8534.03
548.324	8552.11
548.688	8548.26
549.052	8553.46
549.416	8505.33
549.779	8498.32
550.143	8542.39
550.507	8549.85
550.871	8525.67
551.235	8476.18
551.599	8545.78
551.962	8514.82
552.326	8469.62
552.689	8502.84
553.053	8469.17
553.417	8475.72
553.78	8563.63
554.143	8459.9
554.507	8450.87
554.87	8509.62
555.234	8598.21
555.597	8493.8
555.96	8534.03
556.323	8503.52
556.686	8453.8
557.05	8497.19
557.413	8512.33
557.776	8512.33
558.139	8568.83
558.502	8550.75
558.865	8508.26
559.228	8517.76
559.59	8551.88
559.953	8568.6
560.316	8575.61
560.679	8617.41
561.041	8677.53
561.404	8630.75
561.767	8664.65
562.129	8673.68
562.492	8704.64
562.854	8684.98
563.217	8653.12
563.579	8786.45
563.941	8762.04
564.304	8744.64
564.666	8821.48
565.028	8786.22
565.39	8785.32
565.753	8881.59
566.115	8854.02
566.477	8823.06
566.839	8869.61
567.201	8945.09
567.563	8920.91
567.925	8990.51
568.287	8991.64
568.648	9011.98
569.01	8999.33
569.372	9090.17
569.734	9041.13
570.095	9035.71
570.457	9131.07
570.819	9110.51
571.18	9155.48
571.542	9114.12
571.903	9144.18
572.265	9215.14
572.626	9172.65
572.987	9268.47
573.349	9200.9
573.71	9305.31
574.071	9248.81
574.432	9399.09
574.794	9429.37
575.155	9286.55
575.516	9349.82
575.877	9409.48
576.238	9415.59
576.599	9447.9
576.96	9462.36
577.32	9476.15
577.681	9433.89
578.042	9527
578.403	9553.66
578.763	9521.12
579.124	9608.12
579.485	9607.9
579.845	9668.91
580.206	9664.62
580.566	9649.03
580.927	9638.4
581.287	9718.18
581.648	9653.09
582.008	9748.01
582.368	9713.66
582.728	9742.58
583.089	9767.89
583.449	9755.92
583.809	9806.54
584.169	9810.83
584.529	9818.74
584.889	9931.73
585.249	9892.41
585.609	9850.83
585.969	9922.69
586.329	9911.62
586.688	9998.17
587.048	9916.59
587.408	9961.11
587.768	9990.49
588.127	9956.59
588.487	9933.09
588.846	10025.97
589.206	9997.49
589.565	10050.15
589.925	10096.92
590.284	10063.25
590.643	10070.48
591.003	10145.06
591.362	10084.72
591.721	10138.5
592.08	10144.15
592.44	10191.61
592.799	10213.3
593.158	10161.55
593.517	10185.74
593.876	10221.89
594.235	10204.49
594.593	10172.63
594.952	10274.09
595.311	10295.79
595.67	10240.87
596.029	10325.62
596.387	10329.91
596.746	10350.48
597.104	10281.78
597.463	10291.95
597.822	10389.12
598.18	10297.6
598.538	10270.25
598.897	10445.39
599.255	10243.81
599.613	10406.52
599.972	10376.46
600.33	10365.39
600.688	10345.5
601.046	10425.5
601.404	10480.87
601.762	10409.91
602.12	10440.64
602.478	10429.34
602.836	10444.94
603.194	10391.38
603.552	10479.96
603.91	10387.31
604.268	10464.37
604.625	10486.97
604.983	10456.46
605.341	10397.25
605.698	10472.96
606.056	10507.99
606.413	10530.13
606.771	10476.57
607.128	10475.44
607.485	10512.73
607.843	10527.19
608.2	10622.79
608.557	10548.21
608.914	10557.48
609.272	10628.44
609.629	10586.4
609.986	10651.49
610.343	10628.21
610.7	10687.19
611.057	10635.44
611.414	10731.26
611.771	10701.2
612.127	10696.68
612.484	10695.33
612.841	10753.4
613.198	10638.38
613.554	10651.26
613.911	10748.43
614.267	10781.88
614.624	10735.33
614.98	10728.55
615.337	10798.83
615.693	10767.87
616.05	10858.26
616.406	10849.9
616.762	10838.37
617.118	10828.2
617.475	10842.67
617.831	10837.02
618.187	10841.76
618.543	10879.95
618.899	10875.66
619.255	10925.15
619.611	10870.46
619.967	10932.61
620.323	10933.51
620.678	10889.67
621.034	10868.2
621.39	10890.12
621.746	10848.32
622.101	10992.72
622.457	10851.03
622.812	10846.51
623.168	10895.09
623.523	10924.25
623.879	10902.55
624.234	10887.64
624.589	10895.77
624.945	10856.68
625.3	11021.87
625.655	10863.68
626.01	10903.46
626.365	10866.62
626.72	10888.77
627.075	10869.78
627.43	10841.99
627.785	10808.09
628.14	10906.85
628.495	10899.16
628.85	10819.16
629.205	10805.83
629.559	10941.2
629.914	10777.58
630.269	10858.03
630.623	10792.72
630.978	10733.07
631.332	10739.84
631.687	10766.96
632.041	10737.81
632.396	10714.08
632.75	10745.95
633.104	10739.84
633.459	10722.67
633.813	10737.36
634.167	10746.85
634.521	10656.46
634.875	10736
635.229	10710.69
635.583	10656.91
635.937	10659.85
636.291	10628.44
636.645	10627.53
636.999	10649.68
637.352	10630.02
637.706	10572.62
638.06	10577.36
638.413	10584.14
638.767	10623.92
639.121	10583.24
639.474	10473.19
639.828	10426.86
640.181	10527.42
640.534	10549.79
640.888	10447.65
641.241	10390.93
641.594	10460.53
641.947	10435.9
642.301	10418.27
642.654	10390.02
643.007	10395.9
643.36	10387.76
643.713	10342.79
644.066	10402.23
644.419	10352.06
644.771	10342.34
645.124	10209.92
645.477	10240.2
645.83	10107.54
646.182	10035
646.535	10073.42
646.888	10068.68
647.24	10012.86
647.593	10058.28
647.945	10049.02
648.298	10000.66
648.65	10031.61
649.002	9952.97
649.355	10043.14
649.707	10035.68
650.059	10037.72
650.411	10202.01
650.763	10198.62
651.115	10270.03
651.467	10264.15
651.819	10305.96
652.171	10215.56
652.523	10245.85
652.875	10180.99
653.227	10193.19
653.578	10251.5
653.93	10270.25
654.282	10226.41
654.633	10178.5
654.985	10194.77
655.337	10213.98
655.688	10297.6
656.039	10333.53
656.391	10170.82
656.742	10205.4
657.094	10227.32
657.445	10265.73
657.796	10192.29
658.147	10210.82
658.498	10288.11
658.849	10196.13
659.2	10264.6
659.551	10151.16
659.902	10232.06
660.253	10208.56
660.604	10210.37
660.955	10135.79
661.306	10167.43
661.656	10172.85
662.007	10201.33
662.358	10266.86
662.708	10195.68
663.059	10277.71
663.409	10246.52
663.76	10219.63
664.11	10192.29
664.461	10258.95
664.811	10257.15
665.161	10296.92
665.511	10259.41
665.862	10230.25
666.212	10334.21
666.562	10222.57
666.912	10254.43
667.262	10246.3
667.612	10229.8
667.962	10306.86
668.312	10253.53
668.662	10277.94
669.011	10277.94
669.361	10251.72
669.711	10197.94
670.06	10205.17
670.41	10099.18
670.76	10138.73
671.109	10146.41
671.459	10139.63
671.808	10169.46
672.157	10182.35
672.507	10100.77
672.856	10173.31
673.205	10164.94
673.554	10151.61
673.904	10153.42
674.253	10167.88
674.602	10063.03
674.951	10008.34
675.3	9925.4
675.649	10088.56
675.998	10067.32
676.346	10109.13
676.695	10048.79
677.044	10016.25
677.393	10065.51
677.741	10045.17
678.09	10088.34
678.438	9984.16
678.787	9999.07
679.135	10013.76
679.484	9932.63
679.832	9992.07
680.181	9938.51
680.529	9912.52
680.877	9946.87
681.225	9910.71
681.573	9948.45
681.922	9863.71
682.27	9886.08
682.618	9792.53
682.966	9823.03
683.314	9859.64
683.661	9756.14
684.009	9709.59
684.357	9647.9
684.705	9733.77
685.053	9743.49
685.4	9702.13
685.748	9620.55
686.095	9612.19
686.443	9519.54
686.79	9530.39
687.138	9569.25
687.485	9607.9
687.832	9500.33
688.18	9476.83
688.527	9461.69
688.874	9450.61
689.221	9498.07
689.568	9380.33
689.915	9360.67
690.262	9391.63
690.609	9317.06
690.956	9291.97
691.303	9284.74
691.65	9172.43
691.997	9226.89
692.344	9127.01
692.69	9121.81
693.037	9126.33
693.383	9096.72
693.73	9121.58
694.077	8990.74
694.423	9000.91
694.769	9032.77
695.116	9015.82
695.462	9007.23
695.808	8885.66
696.155	8923.62
696.501	8835.71
696.847	8862.38
697.193	8748.48
697.539	8816.28
697.885	8727.47
698.231	8767.47
698.577	8672.55
698.923	8698.09
699.269	8626
699.614	8599.34
699.96	8536.06
700.306	8511.2
700.651	8501.94
700.997	8455.16
701.342	8505.1
701.688	8427.14
702.033	8436.18
702.379	8417.42
702.724	8359.57
703.069	8357.53
703.415	8246.58
703.76	8256.29
704.105	8189.18
704.45	8212.23
704.795	8135.39
705.14	8165.9
705.485	8129.97
705.83	8124.77
706.175	8085
706.52	8111.21
706.865	8050.2
707.209	8038.45
707.554	7963.65
707.899	7987.83
708.243	7912.57
708.588	7930.88
708.932	7874.61
709.277	7877.32
709.621	7869.86
709.966	7852.69
710.31	7799.13
710.654	7723.43
710.998	7837.32
711.342	7737.21
711.687	7792.35
712.031	7755.06
712.375	7699.7
712.719	7668.51
713.063	7659.7
713.407	7720.49
713.75	7613.15
714.094	7640.94
714.438	7551.23
714.782	7559.36
715.125	7588.52
715.469	7554.84
715.812	7484.56
716.156	7455.64
716.499	7469.2
716.843	7490.21
717.186	7461.74
717.53	7473.26
717.873	7513.71
718.216	7427.39
718.559	7368.63
718.902	7409.76
719.246	7371.12
719.589	7355.53
719.932	7326.6
720.275	7358.24
720.617	7329.31
720.96	7271.01
721.303	7314.62
721.646	7339.03
721.989	7325.47
722.331	7323.89
722.674	7259.26
723.016	7307.62
723.359	7299.26
723.701	7331.57
724.044	7187.62
724.386	7193.5
724.729	7231.91
725.071	7181.07
725.413	7218.13
725.755	7247.96
726.097	7200.73
726.439	7165.7
726.782	7178.13
727.124	7207.28
727.465	7145.36
727.807	7203.44
728.149	7148.53
728.491	7172.03
728.833	7127.51
729.175	7138.36
729.516	7126.15
729.858	7136.55
730.199	7126.15
730.541	7146.94
730.882	7162.31
731.224	7137.23
731.565	7108.08
731.906	7146.27
732.248	7119.37
732.589	7087.29
732.93	7094.52
733.271	7087.74
733.612	7104.01
733.953	7122.76
734.294	7110.79
734.635	7099.94
734.976	7082.54
735.317	7045.93
735.658	7075.31
735.999	7045.03
736.339	7042.77
736.68	7052.03
737.021	7165.02
737.361	7101.97
737.702	7060.39
738.042	7130.9
738.383	7088.87
738.723	7132.93
739.063	7115.99
739.404	7122.99
739.744	7141.52
740.084	7178.81
740.424	7193.5
740.764	7134.52
741.104	7150.79
741.444	7149.66
741.784	7159.83
742.124	7145.81
742.464	7216.77
742.804	7198.92
743.143	7190.79
743.483	7210.45
743.823	7191.92
744.162	7217.45
744.502	7230.11
744.841	7273.27
745.181	7352.59
745.52	7290.22
745.86	7352.36
746.199	7334.06
746.538	7432.36
746.877	7493.15
747.216	7519.59
747.556	7502.87
747.895	7508.29
748.234	7579.93
748.573	7582.87
748.911	7628.51
749.25	7768.62
749.589	7705.35
749.928	7803.2
750.267	7865.57
750.605	7885
750.944	7980.6
751.283	8005.23
751.621	8079.12
751.96	8108.73
752.298	8219.23
752.636	8315.95
752.975	8330.87
753.313	8405.44
753.651	8506.23
753.989	8559.79
754.327	8645.66
754.666	8720.24
755.004	8880.46
755.342	8933.56
755.679	9016.73
756.017	9049.04
756.355	9252.43
756.693	9242.71
757.031	9459.88
757.368	9523.83
757.706	9649.03
758.044	9740.32
758.381	9940.54
758.719	9913.2
759.056	10107.77
759.394	10242.46
759.731	10298.95
760.068	10404.49
760.405	10535.78
760.743	10683.35
761.08	10887.19
761.417	10897.81
761.754	11095.77
762.091	11140.96
762.428	11345.25
762.765	11348.19
763.102	11606.71
763.438	11633.38
763.775	11800.83
764.112	11909.53
