Data from hue_170_FLMS001491_00065.txt Node
Date: Tue Feb 07 16:49:02 GMT 2017
User: dcchb
Spectrometer: FLMS00149
Trigger mode: 0
Integration Time (sec): 2.000000E-2
Scans to average: 10
Electric dark correction enabled: true
Nonlinearity correction enabled: false
Boxcar width: 0
XAxis mode: Wavelengths
Number of Pixels in Spectrum: 2048
>>>>>Begin Spectral Data<<<<<
341.393	-11.58
341.776	-11.58
342.16	-11.58
342.543	-63.11
342.927	-66.72
343.31	-69.43
343.693	-76.44
344.077	-73.5
344.46	-50.22
344.843	-52.48
345.226	-53.84
345.61	-45.48
345.993	-7.74
346.376	-2.32
346.759	8.08
347.142	31.81
347.525	46.72
347.908	48.98
348.291	76.33
348.674	93.73
349.057	125.82
349.44	117.68
349.823	152.48
350.206	155.87
350.588	189.09
350.971	195.19
351.354	219.15
351.737	234.29
352.119	249.2
352.502	270.22
352.884	258.24
353.267	277.9
353.65	279.03
354.032	302.99
354.414	298.24
354.797	321.74
355.179	321.52
355.562	315.19
355.944	315.64
356.326	327.84
356.709	326.49
357.091	355.19
357.473	339.37
357.855	333.27
358.238	345.25
358.62	345.47
359.002	328.97
359.384	346.83
359.766	331.69
360.148	347.5
360.53	325.58
360.912	347.05
361.294	317.22
361.676	330.1
362.057	316.55
362.439	325.81
362.821	322.19
363.203	319.26
363.584	321.74
363.966	331.91
364.348	325.58
364.729	347.05
365.111	324
365.493	331.91
365.874	317.45
366.256	324.91
366.637	318.58
367.019	330.1
367.4	314.29
367.781	305.25
368.163	325.58
368.544	324.91
368.925	297.34
369.306	310.44
369.688	313.61
370.069	314.51
370.45	323.78
370.831	305.92
371.212	322.42
371.593	309.09
371.974	309.09
372.355	314.74
372.736	313.61
373.117	311.8
373.498	317.9
373.879	319.94
374.26	313.83
374.641	319.03
375.021	310.22
375.402	310.9
375.783	350.89
376.163	355.41
376.544	331.69
376.925	327.84
377.305	328.75
377.686	330.1
378.066	330.33
378.447	339.37
378.827	315.19
379.208	324
379.588	360.39
379.968	321.52
380.349	344.34
380.729	322.65
381.109	323.1
381.489	338.92
381.87	342.08
382.25	322.19
382.63	351.8
383.01	365.81
383.39	339.14
383.77	344.12
384.15	370.78
384.53	356.09
384.91	344.79
385.29	339.82
385.67	345.25
386.049	355.41
386.429	343.66
386.809	346.83
387.189	356.54
387.568	361.97
387.948	353.15
388.328	351.57
388.707	360.61
389.087	390.22
389.466	371.69
389.846	375.07
390.225	347.05
390.605	352.93
390.984	359.03
391.363	394.74
391.743	361.29
392.122	361.97
392.501	372.36
392.881	376.2
393.26	397
393.639	369.43
394.018	380.05
394.397	379.37
394.776	383.89
395.155	377.11
395.534	395.64
395.913	380.72
396.292	402.19
396.671	380.05
397.05	410.33
397.429	404
397.808	396.09
398.186	390.44
398.565	390.22
398.944	382.98
399.323	415.53
399.701	408.75
400.08	409.65
400.458	426.82
400.837	407.84
401.215	411.23
401.594	424.57
401.972	420.05
402.351	429.99
402.729	427.95
403.107	430.67
403.486	429.54
403.864	426.6
404.242	437.45
404.62	433.6
404.999	429.99
405.377	436.77
405.755	455.52
406.133	451.23
406.511	443.77
406.889	462.08
407.267	463.21
407.645	466.15
408.023	452.81
408.401	476.77
408.779	469.08
409.156	477.22
409.534	493.26
409.912	494.85
410.29	481.29
410.667	500.5
411.045	513.6
411.422	505.01
411.8	525.13
412.178	500.72
412.555	550.89
412.933	535.07
413.31	521.29
413.687	533.04
414.065	560.61
414.442	538.69
414.819	541.17
415.197	576.43
415.574	536.2
415.951	553.83
416.328	583.66
416.705	580.27
417.082	571.45
417.46	562.19
417.837	601.74
418.214	602.87
418.591	610.1
418.967	615.97
419.344	619.36
419.721	640.6
420.098	624.33
420.475	637.89
420.852	639.25
421.228	650.32
421.605	652.36
421.982	670.89
422.358	668.17
422.735	698.46
423.111	669.3
423.488	712.24
423.864	722.86
424.241	687.84
424.617	705.46
424.994	712.02
425.37	736.2
425.746	737.33
426.123	759.92
426.499	729.19
426.875	745.69
427.251	738.23
427.627	773.03
428.003	793.37
428.379	790.66
428.756	789.98
429.132	822.52
429.507	795.63
429.883	799.92
430.259	829.75
430.635	842.18
431.011	865.91
431.387	869.3
431.763	872.46
432.138	866.81
432.514	890.77
432.89	875.85
433.265	916.98
433.641	893.48
434.016	910.88
434.392	969.86
434.767	961.95
435.143	970.09
435.518	987.49
435.894	979.8
436.269	987.26
436.644	1001.05
437.02	1036.07
437.395	1041.05
437.77	1046.24
438.145	1041.72
438.52	1067.03
438.895	1089.18
439.271	1099.58
439.646	1124.66
440.021	1108.61
440.395	1123.53
440.77	1104.77
441.145	1151.33
441.52	1154.72
441.895	1136.64
442.27	1183.42
442.645	1182.74
443.019	1198.78
443.394	1202.17
443.769	1209.86
444.143	1202.85
444.518	1238.78
444.892	1197.2
445.267	1262.06
445.641	1265.45
446.016	1269.06
446.39	1290.53
446.764	1277.42
447.139	1275.39
447.513	1320.13
447.887	1295.5
448.262	1304.32
448.636	1326.01
449.01	1358.1
449.384	1344.31
449.758	1353.13
450.132	1373.24
450.506	1386.12
450.88	1410.08
451.254	1426.12
451.628	1417.99
452.002	1457.98
452.376	1444.88
452.75	1476.51
453.123	1481.49
453.497	1519.9
453.871	1506.8
454.244	1561.48
454.618	1574.59
454.992	1569.85
455.365	1575.95
455.739	1650.75
456.112	1631.99
456.486	1666.34
456.859	1676.28
457.232	1681.03
457.606	1703.63
457.979	1732.33
458.352	1753.34
458.725	1770.97
459.099	1787.02
459.472	1820.91
459.845	1831.53
460.218	1823.17
460.591	1851.42
460.964	1900.68
461.337	1952.89
461.71	1986.33
462.083	2005.77
462.456	1988.14
462.829	2017.97
463.201	2036.27
463.574	2078.08
463.947	2113.11
464.32	2131.64
464.692	2153.56
465.065	2173.67
465.438	2238.75
465.81	2233.33
466.183	2292.76
466.555	2327.57
466.928	2379.54
467.3	2382.71
467.672	2429.48
468.045	2480.33
468.417	2522.82
468.789	2556.49
469.161	2594.68
469.534	2604.17
469.906	2719.19
470.278	2718.74
470.65	2769.59
471.022	2826.08
471.394	2842.13
471.766	2918.28
472.138	2954.22
472.51	3037.15
472.882	3086.87
473.253	3112.18
473.625	3215.68
473.997	3280.99
474.369	3316.24
474.74	3419.74
475.112	3422.9
475.484	3564.14
475.855	3619.06
476.227	3644.14
476.598	3792.84
476.97	3830.35
477.341	3917.58
477.713	4017.46
478.084	4041.42
478.455	4224.69
478.827	4259.72
479.198	4393.73
479.569	4414.29
479.94	4572.03
480.311	4661.74
480.682	4773.38
481.053	4938.12
481.424	5019.25
481.795	5096.76
482.166	5212.69
482.537	5302.63
482.908	5444.09
483.279	5503.53
483.65	5640.25
484.021	5784.2
484.391	5910.52
484.762	6007.02
485.133	6089.95
485.503	6245.2
485.874	6379.44
486.244	6544.4
486.615	6690.16
486.985	6768.13
487.356	6939.65
487.726	6970.38
488.097	7226.42
488.467	7264.39
488.837	7507.32
489.207	7563.13
489.578	7774.2
489.948	7882.9
490.318	8004.03
490.688	8049
491.058	8258.48
491.428	8411.25
491.798	8579.15
492.168	8770.56
492.538	8805.81
492.908	8920.16
493.278	9091.91
493.648	9155.18
494.017	9267.95
494.387	9396.08
494.757	9495.51
495.126	9658.45
495.496	9693.02
495.866	9837.88
496.235	9999.23
496.605	10018.89
496.974	10195.83
497.344	10227.02
497.713	10340.46
498.082	10462.49
498.452	10558.08
498.821	10603.96
499.19	10644.64
499.559	10760.34
499.928	10842.14
500.298	10946.1
500.667	11063.61
501.036	11112.19
501.405	11200.1
501.774	11221.34
502.143	11358.06
502.512	11424.73
502.88	11460.43
503.249	11458.63
503.618	11610.03
503.987	11678.05
504.356	11775.91
504.724	11844.15
505.093	11817.03
505.462	11833.3
505.83	11979.52
506.199	12024.94
506.567	12159.4
506.936	12215.22
507.304	12311.48
507.672	12337.92
508.041	12387.41
508.409	12467.86
508.777	12500.41
509.145	12661.53
509.514	12574.98
509.882	12720.96
510.25	12689.33
510.618	12756.67
510.986	12740.4
511.354	12883.45
511.722	12917.12
512.09	13000.51
512.458	13060.39
512.826	13158.47
513.193	13099.03
513.561	13141.29
513.929	13275.75
514.297	13286.83
514.664	13311.01
515.032	13404.11
515.4	13456.31
515.767	13436.43
516.135	13465.35
516.502	13455.41
516.869	13544.67
517.237	13597.1
517.604	13532.24
517.972	13572.92
518.339	13752.12
518.706	13670.09
519.073	13654.73
519.44	13704.67
519.808	13868.05
520.175	13813.14
520.542	13823.99
520.909	13968.84
521.276	13874.38
521.643	14025.79
522.009	14025.11
522.376	14120.93
522.743	14128.16
523.11	14171.77
523.477	14197.08
523.843	14312.56
524.21	14325.22
524.577	14331.32
524.943	14313.01
525.31	14361.37
525.676	14402.73
526.043	14479.79
526.409	14440.24
526.776	14580.8
527.142	14514.82
527.508	14499
527.874	14567.24
528.241	14653.34
528.607	14537.41
528.973	14655.38
529.339	14612.21
529.705	14668.71
530.071	14713
530.437	14713.91
530.803	14678.65
531.169	14762.72
531.535	14640.69
531.901	14657.64
532.267	14642.04
532.632	14670.74
532.998	14587.13
533.364	14641.82
533.73	14640.91
534.095	14747.58
534.461	14631.65
534.826	14621.03
535.192	14586.45
535.557	14673
535.923	14517.53
536.288	14526.79
536.653	14587.13
537.019	14477.3
537.384	14507.13
537.749	14472.11
538.114	14429.17
538.479	14403.18
538.845	14424.87
539.21	14303.3
539.575	14293.35
539.94	14307.59
540.305	14308.72
540.67	14217.2
541.034	14229.17
541.399	14148.95
541.764	14152.34
542.129	14116.63
542.494	14109.63
542.858	14076.86
543.223	13993.47
543.587	13962.29
543.952	13976.98
544.316	13946.7
544.681	13874.38
545.045	13763.65
545.41	13877.77
545.774	13776.98
546.138	13750.32
546.503	13760.49
546.867	13699.24
547.231	13715.52
547.595	13616.76
547.959	13589.87
548.324	13611.34
548.688	13568.63
549.052	13557.33
549.416	13458.35
549.779	13523.88
550.143	13438.69
550.507	13464.9
550.871	13398.46
551.235	13322.76
551.599	13331.12
551.962	13321.18
552.326	13261.74
552.689	13253.15
553.053	13178.35
553.417	13113.95
553.78	13180.84
554.143	13067.85
554.507	13122.08
554.87	13111.46
555.234	13193.72
555.597	13080.73
555.96	13044.57
556.323	13061.07
556.686	13084.12
557.05	13078.47
557.413	13087.73
557.776	13001.18
558.139	13097.23
558.502	12941.3
558.865	12945.82
559.228	12978.36
559.59	12972.71
559.953	12939.72
560.316	13024.23
560.679	12950.79
561.041	12964.12
561.404	12998.92
561.767	13037.79
562.129	12930.9
562.492	13043.67
562.854	12994.18
563.217	12975.65
563.579	12968.42
563.941	12970.9
564.304	13061.97
564.666	13047.51
565.028	12988.08
565.39	13028.75
565.753	13023.1
566.115	13102.2
566.477	13011.58
566.839	13117.11
567.201	13079.83
567.563	13141.07
567.925	13161.41
568.287	13108.98
568.648	13108.98
569.01	13242.08
569.372	13199.14
569.734	13097.23
570.095	13248.18
570.457	13265.13
570.819	13150.56
571.18	13133.16
571.542	13263.1
571.903	13258.58
572.265	13300.38
572.626	13316.2
572.987	13206.38
573.349	13326.37
573.71	13319.37
574.071	13281.63
574.432	13339.71
574.794	13415.64
575.155	13255.41
575.516	13284.79
575.877	13316.2
576.238	13369.31
576.599	13370.44
576.96	13286.6
577.32	13367.05
577.681	13311.23
578.042	13350.33
578.403	13305.81
578.763	13292.25
579.124	13395.98
579.485	13311.46
579.845	13349.65
580.206	13315.75
580.566	13393.26
580.927	13275.75
581.287	13344.45
581.648	13278.24
582.008	13381.06
582.368	13215.64
582.728	13398.91
583.089	13264.68
583.449	13266.26
583.809	13295.87
584.169	13249.31
584.529	13268.07
584.889	13303.77
585.249	13277.79
585.609	13193.27
585.969	13175.64
586.329	13221.06
586.688	13264.68
587.048	13165.25
587.408	13220.16
587.768	13176.09
588.127	13212.48
588.487	13153.95
588.846	13147.85
589.206	13137.45
589.565	13126.6
589.925	13116.89
590.284	13153.95
590.643	13170.22
591.003	13212.93
591.362	13153.04
591.721	13115.53
592.08	13044.12
592.44	13126.38
592.799	13055.19
593.158	13092.03
593.517	12989.66
593.876	13007.29
594.235	13037.11
594.593	13091.58
594.952	13034.18
595.311	12929.77
595.67	13013.84
596.029	13026.72
596.387	13037.57
596.746	13027.17
597.104	13006.61
597.463	12982.43
597.822	13040.73
598.18	12894.29
598.538	12878.93
598.897	13000.51
599.255	12895.42
599.613	13146.72
599.972	12954.41
600.33	13075.31
600.688	12996.89
601.046	12907.63
601.404	13054.29
601.762	12942.88
602.12	13014.97
602.478	12970.68
602.836	12978.36
603.194	12884.35
603.552	12937.91
603.91	12903.33
604.268	12999.15
604.625	12864.46
604.983	12921.86
605.341	12963.22
605.698	12959.15
606.056	12943.11
606.413	12988.53
606.771	12898.59
607.128	13042.09
607.485	12906.95
607.843	12942.43
608.2	13040.05
608.557	13058.81
608.914	13021.3
609.272	13045.7
609.629	13084.57
609.986	13069.66
610.343	13101.52
610.7	13154.17
611.057	13133.61
611.414	13070.56
611.771	13120.95
612.127	13079.83
612.484	13104.46
612.841	13227.17
613.198	13160.5
613.554	13145.13
613.911	13205.92
614.267	13231.23
614.624	13241.63
614.98	13183.78
615.337	13204.34
615.693	13209.99
616.05	13163.67
616.406	13267.84
616.762	13207.05
617.118	13198.01
617.475	13189.65
617.831	13238.01
618.187	13273.49
618.543	13268.75
618.899	13376.54
619.255	13298.8
619.611	13315.07
619.967	13381.29
620.323	13450.89
620.678	13272.81
621.034	13317.33
621.39	13323.89
621.746	13222.19
622.101	13399.59
622.457	13430.32
622.812	13275.53
623.168	13280.27
623.523	13355.52
623.879	13426.26
624.234	13274.4
624.589	13249.09
624.945	13282.76
625.3	13300.84
625.655	13281.63
626.01	13341.06
626.365	13298.58
626.72	13253.61
627.075	13257.45
627.43	13358.91
627.785	13321.4
628.14	13297.45
628.495	13282.53
628.85	13288.86
629.205	13214.06
629.559	13268.75
629.914	13253.83
630.269	13221.06
630.623	13218.13
630.978	13167.96
631.332	13143.33
631.687	13229.65
632.041	13146.72
632.396	13146.94
632.75	13116.21
633.104	13108.98
633.459	13048.64
633.813	13080.28
634.167	13073.05
634.521	13095.64
634.875	13097
635.229	13029.43
635.583	12949.21
635.937	13005.03
636.291	12920.73
636.645	13005.25
636.999	12946.27
637.352	12956.66
637.706	12849.1
638.06	12882.54
638.413	12958.7
638.767	12883.67
639.121	12809.1
639.474	12739.27
639.828	12848.87
640.181	12833.05
640.534	12832.6
640.888	12685.03
641.241	12680.51
641.594	12719.84
641.947	12723
642.301	12669.89
642.654	12744.02
643.007	12701.76
643.36	12829.89
643.713	12705.82
644.066	12766.84
644.419	12674.41
644.771	12588.09
645.124	12529.56
645.477	12430.13
645.83	12337.25
646.182	12284.14
646.535	12244.37
646.888	12266.06
647.24	12236.23
647.593	12264.03
647.945	12255.89
648.298	12200.98
648.65	12223.12
649.002	12144.48
649.355	12204.59
649.707	12209.34
650.059	12295.89
650.411	12436.9
650.763	12476
651.115	12585.83
651.467	12505.15
651.819	12546.96
652.171	12551.03
652.523	12467.19
652.875	12544.7
653.227	12546.73
653.578	12548.31
653.93	12580.86
654.282	12457.02
654.633	12434.64
654.985	12532.5
655.337	12569.78
655.688	12520.07
656.039	12517.13
656.391	12492.5
656.742	12492.04
657.094	12480.07
657.445	12599.16
657.796	12503.12
658.147	12436.23
658.498	12411.82
658.849	12497.47
659.2	12512.61
659.551	12467.86
659.902	12556.9
660.253	12524.81
660.604	12550.12
660.955	12497.47
661.306	12608.2
661.656	12444.36
662.007	12546.73
662.358	12554.42
662.708	12576.34
663.059	12534.53
663.409	12489.11
663.76	12607.97
664.11	12524.36
664.461	12624.7
664.811	12603.45
665.161	12594.87
665.511	12534.53
665.862	12592.61
666.212	12544.47
666.562	12577.01
666.912	12580.86
667.262	12600.29
667.612	12634.41
667.962	12630.12
668.312	12640.52
668.662	12700.85
669.011	12599.16
669.361	12624.7
669.711	12597.13
670.06	12562.78
670.41	12538.82
670.76	12536.56
671.109	12542.21
671.459	12579.95
671.808	12478.94
672.157	12502.67
672.507	12518.48
672.856	12471.48
673.205	12459.5
673.554	12494.08
673.904	12371.37
674.253	12486.39
674.602	12487.75
674.951	12280.98
675.3	12240.98
675.649	12395.55
675.998	12405.94
676.346	12352.16
676.695	12366.4
677.044	12273.52
677.393	12340.64
677.741	12278.26
678.09	12368.88
678.438	12240.53
678.787	12284.14
679.135	12302.44
679.484	12195.1
679.832	12328.88
680.181	12168.21
680.529	12254.31
680.877	12217.25
681.225	12181.32
681.573	12326.63
681.922	12090.7
682.27	12058.38
682.618	12052.06
682.966	12106.74
683.314	12056.12
683.661	12084.37
684.009	11923.7
684.357	11890.93
684.705	11935.45
685.053	11927.09
685.4	11943.58
685.748	11836.92
686.095	11802.8
686.443	11798.05
686.79	11697.72
687.138	11856.13
687.485	11756.92
687.832	11716.25
688.18	11717.6
688.527	11607.77
688.874	11640.77
689.221	11544.05
689.568	11574.33
689.915	11472.64
690.262	11489.13
690.609	11501.34
690.956	11520.09
691.303	11332.75
691.65	11325.3
691.997	11294.34
692.344	11264.05
692.69	11304.28
693.037	11262.7
693.383	11081.69
693.73	11153.1
694.077	11097.96
694.423	11080.78
694.769	11019.77
695.116	10947.9
695.462	10872.88
695.808	10895.7
696.155	10914.46
696.501	10816.38
696.847	10774.35
697.193	10786.55
697.539	10768.02
697.885	10708.59
698.231	10654.35
698.577	10661.36
698.923	10611.64
699.269	10596.95
699.614	10469.5
699.96	10438.09
700.306	10411.2
700.651	10383.85
700.997	10422.49
701.342	10318.99
701.688	10319.45
702.033	10228.38
702.379	10246.45
702.724	10219.34
703.069	10234.25
703.415	10107.47
703.76	9998.32
704.105	10039
704.45	10051.43
704.795	10000.58
705.14	10015.05
705.485	9913.13
705.83	9914.94
706.175	9928.27
706.52	9880.59
706.865	9788.16
707.209	9793.81
707.554	9784.54
707.899	9739.8
708.243	9730.54
708.588	9631.55
708.932	9561.73
709.277	9585
709.621	9603.08
709.966	9542.97
710.31	9511.33
710.654	9363.31
710.998	9425.46
711.342	9421.16
711.687	9380.04
712.031	9366.48
712.375	9302.75
712.719	9357.44
713.063	9332.58
713.407	9335.52
713.75	9298.68
714.094	9304.56
714.438	9242.86
714.782	9222.07
715.125	9198.57
715.469	9205.58
715.812	9183.43
716.156	9124.9
716.499	9109.76
716.843	9087.61
717.186	9083.55
717.53	9109.99
717.873	9084.45
718.216	9095.07
718.559	9035.19
718.902	9004.68
719.246	9068.18
719.589	8984.79
719.932	9022.08
720.275	8991.35
720.617	8943.44
720.96	8953.15
721.303	8938.47
721.646	8952.48
721.989	8864.8
722.331	8906.15
722.674	8951.35
723.016	8910.22
723.359	8887.17
723.701	8921.29
724.044	8872.48
724.386	8798.81
724.729	8912.93
725.071	8866.38
725.413	8805.59
725.755	8761.52
726.097	8762.42
726.439	8798.58
726.782	8759.71
727.124	8856.43
727.465	8789.09
727.807	8685.82
728.149	8700.96
728.491	8746.15
728.833	8766.72
729.175	8773.05
729.516	8696.44
729.858	8729.43
730.199	8731.69
730.541	8716.78
730.882	8716.1
731.224	8734.86
731.565	8720.84
731.906	8671.13
732.248	8739.83
732.589	8714.06
732.93	8684.01
733.271	8693.5
733.612	8733.73
733.953	8674.29
734.294	8696.66
734.635	8669.55
734.976	8661.41
735.317	8645.82
735.658	8725.59
735.999	8734.63
736.339	8742.31
736.68	8750.22
737.021	8728.3
737.361	8702.31
737.702	8753.84
738.042	8701.64
738.383	8701.86
738.723	8795.19
739.063	8710.67
739.404	8767.85
739.744	8766.72
740.084	8740.05
740.424	8799.94
740.764	8770.56
741.104	8871.35
741.444	8807.62
741.784	8784.8
742.124	8893.72
742.464	8817.11
742.804	8865.47
743.143	8847.17
743.483	8985.47
743.823	8957.67
744.162	8939.14
744.502	8970.1
744.841	8995.64
745.181	9074.06
745.52	9063.66
745.86	9108.4
746.199	9196.31
746.538	9257.1
746.877	9221.4
747.216	9307.72
747.556	9335.29
747.895	9411.67
748.234	9418.68
748.573	9454.38
748.911	9429.75
749.25	9680.82
749.589	9620.26
749.928	9757.43
750.267	9827.71
750.605	9868.16
750.944	9957.42
751.283	9931.89
751.621	10118.32
751.96	10115.84
752.298	10239.22
752.636	10378.65
752.975	10383.85
753.313	10508.82
753.651	10732.99
753.989	10727.8
754.327	10810.51
754.666	10921.92
755.004	11065.42
755.342	11262.92
755.679	11292.98
756.017	11416.82
756.355	11605.51
756.693	11702.69
757.031	11866.75
757.368	11979.74
757.706	12117.59
758.044	12203.24
