Data from hue_250_FLMS001491_00084.txt Node
Date: Tue Feb 07 16:01:35 GMT 2017
User: dcchb
Spectrometer: FLMS00149
Trigger mode: 0
Integration Time (sec): 2.000000E-2
Scans to average: 10
Electric dark correction enabled: true
Nonlinearity correction enabled: false
Boxcar width: 0
XAxis mode: Wavelengths
Number of Pixels in Spectrum: 2048
>>>>>Begin Spectral Data<<<<<
341.393	-25.07
341.776	-25.07
342.16	-25.07
342.543	-69.36
342.927	-50.38
343.31	-71.17
343.693	-62.13
344.077	-67.55
344.46	-73.88
344.843	-59.65
345.226	-38.4
345.61	-32.98
345.993	-13.77
346.376	9.05
346.759	-3.83
347.142	27.13
347.525	44.08
347.908	58.77
348.291	68.49
348.674	98.54
349.057	117.3
349.44	126.11
349.823	135.6
350.206	154.13
350.588	174.92
350.971	200.91
351.354	197.52
351.737	215.6
352.119	219.9
352.502	239.78
352.884	250.18
353.267	270.29
353.65	273
354.032	263.51
354.414	280.23
354.797	288.59
355.179	304.19
355.562	302.83
355.944	311.42
356.326	310.97
356.709	297.86
357.091	315.94
357.473	328.14
357.855	333.11
358.238	336.05
358.62	343.96
359.002	329.27
359.384	339.89
359.766	344.64
360.148	321.14
360.53	305.32
360.912	338.08
361.294	308.25
361.676	314.58
362.057	307.8
362.439	314.13
362.821	326.11
363.203	301.02
363.584	301.25
363.966	300.35
364.348	304.64
364.729	332.43
365.111	332.89
365.493	334.24
365.874	297.18
366.256	295.37
366.637	320.91
367.019	293.57
367.4	291.08
367.781	307.8
368.163	276.62
368.544	293.11
368.925	298.76
369.306	282.49
369.688	277.97
370.069	298.76
370.45	289.5
370.831	294.47
371.212	287.46
371.593	295.37
371.974	306.45
372.355	291.76
372.736	298.99
373.117	296.28
373.498	288.14
373.879	302.38
374.26	316.16
374.641	301.25
375.021	301.02
375.402	300.35
375.783	320.91
376.163	317.52
376.544	310.97
376.925	316.39
377.305	305.77
377.686	323.85
378.066	323.62
378.447	317.52
378.827	309.16
379.208	306.45
379.588	316.62
379.968	327.01
380.349	323.17
380.729	307.35
381.109	305.32
381.489	338.54
381.87	323.4
382.25	320.46
382.63	312.1
383.01	327.92
383.39	343.28
383.77	323.4
384.15	353
384.53	358.42
384.91	353
385.29	333.34
385.67	332.43
386.049	339.44
386.429	357.74
386.809	332.43
387.189	343.51
387.568	355.03
387.948	326.56
388.328	355.71
388.707	333.79
389.087	340.8
389.466	362.72
389.846	349.16
390.225	357.52
390.605	341.25
390.984	364.3
391.363	363.17
391.743	350.29
392.122	338.31
392.501	381.47
392.881	370.17
393.26	367.91
393.639	367.01
394.018	364.75
394.397	371.3
394.776	370.4
395.155	365.43
395.534	385.31
395.913	367.69
396.292	374.47
396.671	384.86
397.05	393
397.429	377.86
397.808	395.94
398.186	396.16
398.565	391.64
398.944	402.72
399.323	387.8
399.701	409.04
400.08	373.11
400.458	394.58
400.837	424.41
401.215	395.26
401.594	403.17
401.972	396.16
402.351	432.32
402.729	409.49
403.107	410.4
403.486	413.56
403.864	409.72
404.242	421.92
404.62	426.44
404.999	443.62
405.377	430.51
405.755	440.68
406.133	438.87
406.511	462.6
406.889	464.63
407.267	443.62
407.645	465.09
408.023	469.15
408.401	457.4
408.779	489.27
409.156	453.11
409.534	480.68
409.912	481.13
410.29	502.15
410.667	498.31
411.045	508.7
411.422	517.97
411.8	542.37
412.178	527.46
412.555	531.53
412.933	518.42
413.31	548.47
413.687	555.71
414.065	541.92
414.442	574.46
414.819	554.8
415.197	575.59
415.574	569.49
415.951	595.7
416.328	596.83
416.705	583.95
417.082	579.43
417.46	601.58
417.837	618.3
418.214	616.27
418.591	625.08
418.967	628.02
419.344	629.38
419.721	637.06
420.098	646.32
420.475	671.18
420.852	662.82
421.228	664.18
421.605	696.04
421.982	696.49
422.358	708.02
422.735	706.89
423.111	705.31
423.488	727.23
423.864	733.33
424.241	724.51
424.617	754.57
424.994	774.01
425.37	766.32
425.746	757.96
426.123	787.11
426.499	792.31
426.875	831.86
427.251	827.11
427.627	836.38
428.003	828.92
428.379	855.58
428.756	857.39
429.132	878.86
429.507	867.34
429.883	902.82
430.259	898.52
430.635	865.3
431.011	922.25
431.387	931.06
431.763	931.06
432.138	950.95
432.514	970.38
432.89	987.56
433.265	980.55
433.641	988.91
434.016	1030.95
434.392	1026.65
434.767	1076.6
435.143	1068.01
435.518	1078.86
435.894	1087.44
436.269	1086.09
436.644	1111.17
437.02	1154.79
437.395	1148.46
437.77	1149.59
438.145	1184.16
438.52	1216.71
438.895	1222.13
439.271	1221.45
439.646	1267.1
440.021	1270.49
440.395	1251.51
440.77	1257.61
441.145	1291.96
441.52	1310.71
441.895	1317.72
442.27	1330.37
442.645	1348.45
443.019	1345.74
443.394	1333.54
443.769	1373.54
444.143	1369.7
444.518	1387.32
444.892	1398.4
445.267	1403.59
445.641	1451.5
446.016	1450.15
446.39	1447.43
446.764	1453.31
447.139	1469.35
447.513	1489.69
447.887	1462.12
448.262	1488.56
448.636	1491.5
449.01	1491.27
449.384	1530.82
449.758	1516.58
450.132	1552.74
450.506	1559.52
450.88	1587.77
451.254	1595.23
451.628	1575.34
452.002	1620.31
452.376	1637.71
452.75	1629.12
453.123	1664.83
453.497	1669.8
453.871	1718.16
454.244	1706.18
454.618	1691.95
454.992	1724.49
455.365	1742.79
455.739	1809.23
456.112	1792.51
456.486	1815.11
456.859	1813.07
457.232	1850.81
457.606	1840.42
457.979	1879.29
458.352	1910.25
458.725	1955.67
459.099	1941.21
459.472	1982.56
459.845	1988.44
460.218	2023.24
460.591	1999.28
460.964	2021.88
461.337	2076.8
461.71	2111.37
462.083	2110.47
462.456	2112.95
462.829	2121.31
463.201	2167.87
463.574	2199.5
463.947	2205.15
464.32	2279.73
464.692	2269.56
465.065	2262.55
465.438	2299.84
465.81	2366.73
466.183	2352.95
466.555	2401.76
466.928	2396.56
467.3	2393.4
467.672	2454.86
468.045	2519.27
468.417	2511.59
468.789	2537.57
469.161	2555.65
469.534	2578.03
469.906	2635.65
470.278	2629.32
470.65	2696.21
471.022	2739.6
471.394	2785.7
471.766	2809.88
472.138	2855.08
472.51	2907.06
472.882	2915.42
473.253	2937.56
473.625	2968.07
473.997	3068.18
474.369	3032.02
474.74	3091.01
475.112	3110.21
475.484	3157.45
475.855	3202.64
476.227	3234.73
476.598	3336.42
476.97	3353.37
477.341	3403.31
477.713	3429.3
478.084	3477.21
478.455	3537.32
478.827	3582.29
479.198	3669.75
479.569	3684.21
479.94	3753.14
480.311	3810.99
480.682	3855.73
481.053	3894.15
481.424	3988.16
481.795	4007.37
482.166	4014.15
482.537	4087.82
482.908	4170.07
483.279	4172.33
483.65	4280.58
484.021	4330.52
484.391	4388.6
484.762	4440.8
485.133	4428.37
485.503	4506.79
485.874	4582.49
486.244	4640.12
486.615	4723.51
486.985	4747.91
487.356	4795.14
487.726	4767.12
488.097	4921.69
488.467	4944.52
488.837	5024.51
489.207	5030.16
489.578	5102.93
489.948	5160.1
490.318	5254.57
490.688	5291.17
491.058	5297.28
491.428	5362.36
491.798	5401
492.168	5486.2
492.538	5511.73
492.908	5617.95
493.278	5664.5
493.648	5622.92
494.017	5708.34
494.387	5732.74
494.757	5784.27
495.126	5834.66
495.496	5837.37
495.866	5857.49
496.235	5934.32
496.605	5931.61
496.974	5989.91
497.344	6048.89
497.713	6052.74
498.082	6120.31
498.452	6205.95
498.821	6162.56
499.19	6176.12
499.559	6216.35
499.928	6251.38
500.298	6304.26
500.667	6339.28
501.036	6298.38
501.405	6357.36
501.774	6372.95
502.143	6349
502.512	6471.03
502.88	6482.33
503.249	6469.9
503.618	6516.45
503.987	6506.28
504.356	6538.6
504.724	6579.73
505.093	6572.27
505.462	6632.16
505.83	6673.06
506.199	6669.22
506.567	6774.98
506.936	6712.38
507.304	6795.32
507.672	6808.65
508.041	6844.13
508.409	6868.99
508.777	6857.01
509.145	6890.45
509.514	6925.93
509.882	6935.88
510.25	6941.07
510.618	6995.08
510.986	6905.37
511.354	7063.78
511.722	7061.98
512.09	7109.66
512.458	7107.4
512.826	7177.45
513.193	7152.14
513.561	7179.71
513.929	7226.94
514.297	7241.86
514.664	7217.68
515.032	7268.75
515.4	7289.09
515.767	7251.8
516.135	7381.06
516.502	7266.94
516.869	7403.89
517.237	7366.6
517.604	7317.56
517.972	7377.9
518.339	7377.67
518.706	7427.84
519.073	7440.27
519.44	7472.36
519.808	7547.16
520.175	7490.66
520.542	7558.69
520.909	7565.46
521.276	7595.07
521.643	7562.98
522.009	7663.54
522.376	7637.33
522.743	7668.29
523.11	7732.69
523.477	7702.86
523.843	7804.55
524.21	7811.33
524.577	7860.82
524.943	7885.91
525.31	7848.62
525.676	7928.17
526.043	7889.07
526.409	7960.03
526.776	7959.35
527.142	7961.61
527.508	7919.81
527.874	8049.29
528.241	7962.29
528.607	7953.93
528.973	8047.26
529.339	8000.03
529.705	8064.43
530.071	8109.41
530.437	8096.98
530.803	8108.5
531.169	8128.39
531.535	8020.82
531.901	8115.51
532.267	8160.48
532.632	8204.09
532.998	8127.94
533.364	8188.27
533.73	8169.97
534.095	8212.91
534.461	8243.41
534.826	8181.72
535.192	8193.25
535.557	8233.7
535.923	8194.37
536.288	8238.89
536.653	8266.46
537.019	8185.56
537.384	8159.35
537.749	8166.13
538.114	8193.25
538.479	8177.43
538.845	8240.7
539.21	8170.87
539.575	8190.08
539.94	8148.95
540.305	8221.49
540.67	8224.88
541.034	8162.06
541.399	8199.12
541.764	8208.16
542.129	8173.13
542.494	8132
542.858	8206.13
543.223	8202.28
543.587	8217.65
543.952	8159.12
544.316	8183.08
544.681	8128.61
545.045	8150.76
545.41	8173.13
545.774	8166.35
546.138	8151.44
546.503	8156.86
546.867	8122.96
547.231	8187.82
547.595	8189.4
547.959	8205.22
548.324	8129.29
548.688	8132
549.052	8151.89
549.416	8125
549.779	8079.58
550.143	8109.18
550.507	8115.05
550.871	8189.63
551.235	8102.85
551.599	8166.58
551.962	8118.9
552.326	8128.16
552.689	8055.62
553.053	8086.13
553.417	8112.12
553.78	8145.79
554.143	8140.82
554.507	8136.07
554.87	8176.3
555.234	8186.47
555.597	8168.61
555.96	8081.84
556.323	8192.34
556.686	8162.74
557.05	8216.97
557.413	8197.31
557.776	8222.4
558.139	8244.32
558.502	8218.78
558.865	8187.82
559.228	8235.5
559.59	8242.74
559.953	8231.21
560.316	8288.84
560.679	8330.64
561.041	8314.82
561.404	8381.71
561.767	8426.46
562.129	8412.67
562.492	8450.64
562.854	8383.07
563.217	8421.26
563.579	8379.23
563.941	8475.95
564.304	8497.64
564.666	8558.21
565.028	8504.42
565.39	8529.73
565.753	8655.83
566.115	8609.96
566.477	8594.14
566.839	8568.83
567.201	8679.56
567.563	8618.77
567.925	8698.32
568.287	8703.74
568.648	8707.58
569.01	8713.23
569.372	8755.49
569.734	8810.4
570.095	8793.46
570.457	8827.35
570.819	8849.72
571.18	8883.62
571.542	8902.6
571.903	8910.51
572.265	8865.54
572.626	8962.72
572.987	8936.95
573.349	8993.45
573.71	9038.19
574.071	8969.27
574.432	9045.65
574.794	9147.34
575.155	9134.92
575.516	9146.44
575.877	9213.78
576.238	9122.49
576.599	9168.13
576.96	9188.25
577.32	9234.12
577.681	9188.93
578.042	9276.61
578.403	9218.08
578.763	9227.12
579.124	9310.5
579.485	9355.7
579.845	9377.85
580.206	9269.15
580.566	9361.35
580.927	9346.66
581.287	9475.7
581.648	9411.07
582.008	9423.04
582.368	9442.03
582.728	9478.63
583.089	9458.75
583.449	9436.83
583.809	9464.85
584.169	9519.76
584.529	9544.85
584.889	9567.67
585.249	9510.5
585.609	9519.09
585.969	9606.54
586.329	9548.24
586.688	9580.78
587.048	9586.43
587.408	9588.01
587.768	9570.84
588.127	9608.35
588.487	9564.51
588.846	9722.02
589.206	9600.44
589.565	9602.7
589.925	9745.52
590.284	9641.34
590.643	9649.93
591.003	9670.95
591.362	9766.09
591.721	9711.4
592.08	9726.99
592.44	9816.48
592.799	9781
593.158	9814.9
593.517	9759.08
593.876	9841.34
594.235	9751.62
594.593	9791.85
594.952	9849.7
595.311	9745.52
595.67	9770.38
596.029	9887.66
596.387	9874.78
596.746	9829.36
597.104	9838.85
597.463	9856.93
597.822	9896.03
598.18	9848.34
598.538	9855.12
598.897	9895.57
599.255	9792.07
599.613	9889.7
599.972	9845.4
600.33	9969.02
600.688	9850.83
601.046	9944.61
601.404	10017.15
601.762	9965.4
602.12	9982.35
602.478	9995.68
602.836	9950.94
603.194	9965.4
603.552	9947.78
603.91	9908.68
604.268	10008.56
604.625	9945.06
604.983	10018.06
605.341	9971.28
605.698	9968.11
606.056	9975.57
606.413	9978.28
606.771	10011.28
607.128	10112.29
607.485	9967.21
607.843	9922.24
608.2	10065.74
608.557	10070.48
608.914	10024.61
609.272	10096.02
609.629	10134.89
609.986	10116.81
610.343	10118.17
610.7	10154.1
611.057	10190.48
611.414	10195.23
611.771	10147.09
612.127	10215.79
612.484	10231.84
612.841	10169.46
613.198	10140.76
613.554	10171.27
613.911	10206.98
614.267	10195.45
614.624	10215.79
614.98	10231.61
615.337	10312.51
615.693	10286.98
616.05	10289.24
616.406	10326.97
616.762	10266.86
617.118	10280.65
617.475	10212.17
617.831	10273.87
618.187	10297.37
618.543	10321.55
618.899	10274.77
619.255	10326.07
619.611	10351.38
619.967	10410.81
620.323	10393.64
620.678	10367.65
621.034	10427.99
621.39	10332.17
621.746	10391.83
622.101	10465.95
622.457	10318.39
622.812	10330.59
623.168	10315
623.523	10414.66
623.879	10400.64
624.234	10378.72
624.589	10397.93
624.945	10349.8
625.3	10360.65
625.655	10432.28
626.01	10406.29
626.365	10380.08
626.72	10343.92
627.075	10298.5
627.43	10348.89
627.785	10364.26
628.14	10340.08
628.495	10322.23
628.85	10283.81
629.205	10301.89
629.559	10358.16
629.914	10245.85
630.269	10263.25
630.623	10313.42
630.978	10211.95
631.332	10264.38
631.687	10244.04
632.041	10247.65
632.396	10297.37
632.75	10230.71
633.104	10167.2
633.459	10152.29
633.813	10186.19
634.167	10166.75
634.521	10119.07
634.875	10114.1
635.229	10200.2
635.583	10111.61
635.937	10179.86
636.291	10190.71
636.645	10111.16
636.999	10060.77
637.352	10065.29
637.706	10028
638.06	10012.41
638.413	10069.58
638.767	10049.69
639.121	9993.88
639.474	9984.38
639.828	9962.92
640.181	9894.67
640.534	9977.15
640.888	9932.63
641.241	9869.36
641.594	9884.5
641.947	9960.66
642.301	9890.83
642.654	9936.02
643.007	9889.7
643.36	9858.29
643.713	9854.67
644.066	9882.92
644.419	9783.94
644.771	9815.35
645.124	9664.84
645.477	9740.1
645.83	9671.85
646.182	9657.61
646.535	9576.03
646.888	9634.34
647.24	9517.96
647.593	9544.4
647.945	9580.33
648.298	9543.04
648.65	9510.5
649.002	9457.62
649.355	9544.4
649.707	9519.54
650.059	9581.23
650.411	9623.94
650.763	9713.43
651.115	9712.08
651.467	9785.29
651.819	9677.27
652.171	9691.51
652.523	9623.04
652.875	9697.39
653.227	9651.96
653.578	9674.34
653.93	9669.14
654.282	9634.34
654.633	9614.9
654.985	9620.33
655.337	9753.2
655.688	9675.69
656.039	9732.19
656.391	9628.46
656.742	9600.21
657.094	9640.21
657.445	9740.1
657.796	9704.62
658.147	9622.59
658.498	9677.27
658.849	9608.35
659.2	9658.29
659.551	9614.45
659.902	9662.58
660.253	9640.66
660.604	9633.21
660.955	9571.74
661.306	9604.73
661.656	9629.14
662.007	9696.71
662.358	9564.51
662.708	9592.3
663.059	9591.4
663.409	9551.4
663.76	9598.41
664.11	9696.71
664.461	9603.15
664.811	9615.13
665.161	9608.58
665.511	9514.57
665.862	9625.75
666.212	9608.12
666.562	9687.67
666.912	9650.16
667.262	9614
667.612	9659.65
667.962	9669.14
668.312	9625.07
668.662	9679.53
669.011	9594.79
669.361	9625.3
669.711	9656.71
670.06	9622.59
670.41	9614.22
670.76	9564.28
671.109	9663.71
671.459	9568.12
671.808	9515.47
672.157	9556.82
672.507	9524.06
672.856	9531.29
673.205	9552.53
673.554	9614.22
673.904	9489.26
674.253	9595.92
674.602	9494.68
674.951	9397.51
675.3	9319.77
675.649	9468.92
675.998	9484.96
676.346	9480.67
676.695	9464.62
677.044	9454.68
677.393	9386.89
677.741	9425.3
678.09	9391.41
678.438	9356.15
678.787	9377.62
679.135	9465.75
679.484	9350.95
679.832	9348.02
680.181	9278.87
680.529	9389.37
680.877	9270.28
681.225	9268.47
681.573	9312.99
681.922	9205.87
682.27	9225.53
682.618	9274.12
682.966	9260.11
683.314	9177.4
683.661	9201.58
684.009	9108.25
684.357	9205.65
684.705	9182.82
685.053	9169.94
685.4	9121.36
685.748	9057.63
686.095	9049.95
686.443	8980.57
686.79	9038.42
687.138	9082.71
687.485	9021.7
687.832	8973.79
688.18	8948.71
688.527	8957.74
688.874	8939.21
689.221	8885.43
689.568	8879.33
689.915	8852.44
690.262	8824.41
690.609	8861.02
690.956	8793
691.303	8736.51
691.65	8719.56
691.997	8698.09
692.344	8656.06
692.69	8653.8
693.037	8631.2
693.383	8523.86
693.73	8620.8
694.077	8550.75
694.423	8502.39
694.769	8433.69
695.116	8492.67
695.462	8433.01
695.808	8395.27
696.155	8446.35
696.501	8350.53
696.847	8339.46
697.193	8325.22
697.539	8332.68
697.885	8259.46
698.231	8186.01
698.577	8246.12
698.923	8178.33
699.269	8147.37
699.614	8146.92
699.96	8115.28
700.306	8127.26
700.651	8053.81
700.997	7985.79
701.342	8047.49
701.688	8020.37
702.033	7962.74
702.379	7970.2
702.724	7893.59
703.069	7933.82
703.415	7816.08
703.76	7852.01
704.105	7829.86
704.45	7819.02
704.795	7760.94
705.14	7728.62
705.485	7712.13
705.83	7706.25
706.175	7678.46
706.52	7691.11
706.865	7623.77
707.209	7619.25
707.554	7592.58
707.899	7551.91
708.243	7525.01
708.588	7551.91
708.932	7522.53
709.277	7444.11
709.621	7496.54
709.966	7376.77
710.31	7404.57
710.654	7358.24
710.998	7319.37
711.342	7412.47
711.687	7364.11
712.031	7364.34
712.375	7307.39
712.719	7271.91
713.063	7311.01
713.407	7360.95
713.75	7236.21
714.094	7278.01
714.438	7190.33
714.782	7256.55
715.125	7145.81
715.469	7233.5
715.812	7134.74
716.156	7098.36
716.499	7150.79
716.843	7214.51
717.186	7086.83
717.53	7190.79
717.873	7108.53
718.216	7067.17
718.559	7087.06
718.902	6978.81
719.246	7026.5
719.589	7013.16
719.932	6944.46
720.275	6951.47
720.617	6979.49
720.96	6982.43
721.303	6914.86
721.646	6992.15
721.989	6936.78
722.331	6962.32
722.674	6901.98
723.016	6915.99
723.359	6921.41
723.701	6943.79
724.044	6925.71
724.386	6824.69
724.729	6901.08
725.071	6900.62
725.413	6870.79
725.755	6847.74
726.097	6785.37
726.439	6857.91
726.782	6795.54
727.124	6844.13
727.465	6814.07
727.807	6862.43
728.149	6859.04
728.491	6805.03
728.833	6805.94
729.175	6829.89
729.516	6814.98
729.858	6775.2
730.199	6826.95
730.541	6754.41
730.882	6810.68
731.224	6811.13
731.565	6784.47
731.906	6778.82
732.248	6790.8
732.589	6710.35
732.93	6767.07
733.271	6700.63
733.612	6769.78
733.953	6780.4
734.294	6711.25
734.635	6687.97
734.976	6721.42
735.317	6738.59
735.658	6706.96
735.999	6730.91
736.339	6695.66
736.68	6763.68
737.021	6752.6
737.361	6685.26
737.702	6763.68
738.042	6756.22
738.383	6690.01
738.723	6730.91
739.063	6761.87
739.404	6761.87
739.744	6744.47
740.084	6751.7
740.424	6787.86
740.764	6719.84
741.104	6754.64
741.444	6741.98
741.784	6810.68
742.124	6762.1
742.464	6803.45
742.804	6781.76
743.143	6771.14
743.483	6796.45
743.823	6807.74
744.162	6751.02
744.502	6823.56
744.841	6820.4
745.181	6853.85
745.52	6819.04
745.86	6875.77
746.199	6896.1
746.538	6958.48
746.877	7003.45
747.216	6985.82
747.556	6987.85
747.895	7005.48
748.234	7087.29
748.573	7088.64
748.911	7094.06
749.25	7133.61
749.589	7207.51
749.928	7241.18
750.267	7251.12
750.605	7323.89
750.944	7393.27
751.283	7392.36
751.621	7477.33
751.96	7419.71
752.298	7576.09
752.636	7607.5
752.975	7666.48
753.313	7645.46
753.651	7853.82
753.989	7864.67
754.327	7904.89
754.666	8002.06
755.004	8065.56
755.342	8167.48
755.679	8201.83
756.017	8222.4
756.355	8354.37
756.693	8428.72
757.031	8525.67
757.368	8621.26
757.706	8724.53
758.044	8781.25
758.381	8952.1
758.719	8997.74
759.056	9161.36
759.394	9151.41
759.731	9242.26
760.068	9407.9
760.405	9466.66
760.743	9490.39
761.08	9717.05
761.417	9715.46
761.754	9809.25
762.091	10000.43
762.428	10070.71
762.765	10135.11
763.102	10248.56
763.438	10351.15
763.775	10358.61
764.112	10473.19
764.449	10648.1
764.785	10687.64
765.122	10777.58
765.458	10847.64
765.795	10941.42
766.131	11098.93
766.467	11186.84
766.804	11243.33
767.14	11244.24
767.476	11478.13
767.812	11496.21
