Data from hue_290_FLMS001491_00010.txt Node
Date: Tue Feb 07 15:52:08 GMT 2017
User: dcchb
Spectrometer: FLMS00149
Trigger mode: 0
Integration Time (sec): 2.000000E-2
Scans to average: 10
Electric dark correction enabled: true
Nonlinearity correction enabled: false
Boxcar width: 0
XAxis mode: Wavelengths
Number of Pixels in Spectrum: 2048
>>>>>Begin Spectral Data<<<<<
341.393	-15.08
341.776	-15.08
342.16	-15.08
342.543	-46.95
342.927	-64.57
343.31	-71.81
343.693	-66.61
344.077	-58.25
344.46	-58.7
344.843	-56.67
345.226	-52.15
345.61	-34.74
345.993	-24.58
346.376	-2.66
346.759	25.14
347.142	26.04
347.525	34.63
347.908	69.21
348.291	56.1
348.674	102.2
349.057	112.82
349.44	134.06
349.823	117.57
350.206	173.84
350.588	172.71
350.971	202.54
351.354	220.39
351.737	235.3
352.119	250.9
352.502	248.86
352.884	257.9
353.267	301.74
353.65	285.7
354.032	294.96
354.414	311.23
354.797	317.79
355.179	303.78
355.562	328.41
355.944	315.53
356.326	320.5
356.709	332.25
357.091	315.98
357.473	316.88
357.855	338.58
358.238	327.05
358.62	337.45
359.002	357.56
359.384	360.05
359.766	351.46
360.148	365.7
360.53	324.79
360.912	323.89
361.294	334.28
361.676	339.03
362.057	313.27
362.439	336.09
362.821	325.25
363.203	329.31
363.584	341.29
363.966	344.23
364.348	328.86
364.729	327.51
365.111	321.86
365.493	330.22
365.874	333.38
366.256	308.97
366.637	306.49
367.019	312.36
367.4	296.77
367.781	307.17
368.163	318.01
368.544	321.63
368.925	327.05
369.306	329.77
369.688	303.33
370.069	307.39
370.45	301.52
370.831	323.89
371.212	322.31
371.593	325.47
371.974	327.73
372.355	320.73
372.736	322.08
373.117	327.73
373.498	329.09
373.879	320.73
374.26	304.46
374.641	323.21
375.021	335.87
375.402	325.47
375.783	330.67
376.163	324.12
376.544	337.67
376.925	334.74
377.305	321.63
377.686	329.31
378.066	338.58
378.447	332.25
378.827	335.87
379.208	325.02
379.588	338.35
379.968	321.63
380.349	345.36
380.729	334.06
381.109	339.48
381.489	344.68
381.87	349.88
382.25	351.46
382.63	352.59
383.01	360.5
383.39	340.39
383.77	339.48
384.15	345.81
384.53	338.8
384.91	369.09
385.29	348.75
385.67	360.27
386.049	367.5
386.429	367.5
386.809	363.89
387.189	371.57
387.568	368.18
387.948	382.87
388.328	352.14
388.707	383.1
389.087	367.05
389.466	358.01
389.846	384.68
390.225	372.25
390.605	372.02
390.984	392.36
391.363	390.1
391.743	377.45
392.122	385.36
392.501	384.23
392.881	381.06
393.26	380.16
393.639	393.27
394.018	382.42
394.397	413.15
394.776	390.1
395.155	402.53
395.534	388.97
395.913	383.32
396.292	388.97
396.671	416.09
397.05	413.38
397.429	409.31
397.808	416.54
398.186	393.27
398.565	404.11
398.944	413.38
399.323	421.06
399.701	409.54
400.08	409.31
400.458	434.4
400.837	426.94
401.215	418.8
401.594	428.07
401.972	432.36
402.351	428.29
402.729	440.04
403.107	449.08
403.486	452.02
403.864	456.54
404.242	457.22
404.62	455.41
404.999	449.54
405.377	457.9
405.755	458.12
406.133	489.76
406.511	452.47
406.889	453.38
407.267	487.95
407.645	496.31
408.023	465.81
408.401	495.18
408.779	494.05
409.156	508.52
409.534	507.84
409.912	520.49
410.29	512.36
410.667	526.82
411.045	540.16
411.422	527.27
411.8	536.54
412.178	553.71
412.555	568.86
412.933	591.68
413.31	584.9
413.687	580.83
414.065	614.5
414.442	592.81
414.819	590.1
415.197	614.28
415.574	610.89
415.951	640.27
416.328	645.46
416.705	647.5
417.082	647.95
417.46	660.38
417.837	664.22
418.214	684.33
418.591	704.67
418.967	686.37
419.344	679.81
419.721	692.69
420.098	697.44
420.475	729.3
420.852	727.49
421.228	693.6
421.605	730.66
421.982	765.23
422.358	733.14
422.735	772.47
423.111	791.9
423.488	788.74
423.864	808.85
424.241	810.66
424.617	788.06
424.994	807.49
425.37	829.19
425.746	830.09
426.123	846.36
426.499	836.64
426.875	873.48
427.251	892.91
427.627	889.3
428.003	876.87
428.379	885.91
428.756	915.74
429.132	936.3
429.507	932.91
429.883	944.44
430.259	969.07
430.635	950.99
431.011	952.35
431.387	1003.19
431.763	1002.74
432.138	1002.97
432.514	1019.24
432.89	1048.16
433.265	1042.51
433.641	1076.41
434.016	1083.19
434.392	1080.48
434.767	1104.66
435.143	1131.55
435.518	1142.85
435.894	1134.94
436.269	1164.32
436.644	1194.6
437.02	1196.41
437.395	1191.89
437.77	1198.44
438.145	1211.78
438.52	1230.76
438.895	1246.35
439.271	1265.56
439.646	1270.08
440.021	1272.79
440.395	1268.05
440.77	1286.8
441.145	1293.58
441.52	1317.08
441.895	1311.66
442.27	1336.07
442.645	1305.56
443.019	1362.73
443.394	1354.82
443.769	1341.72
444.143	1325.9
444.518	1375.84
444.892	1362.73
445.267	1381.04
445.641	1374.26
446.016	1410.19
446.39	1395.5
446.764	1395.95
447.139	1415.39
447.513	1430.3
447.887	1398.66
448.262	1432.79
448.636	1423.75
449.01	1438.89
449.384	1459.68
449.758	1468.94
450.132	1471.43
450.506	1504.88
450.88	1504.2
451.254	1482.28
451.628	1499.68
452.002	1528.38
452.376	1554.82
452.75	1536.29
453.123	1554.37
453.497	1545.55
453.871	1568.38
454.244	1613.8
454.618	1611.54
454.992	1586.68
455.365	1614.48
455.739	1663.06
456.112	1644.08
456.486	1660.13
456.859	1670.97
457.232	1704.19
457.606	1698.99
457.979	1719.11
458.352	1749.39
458.725	1753
459.099	1779.67
459.472	1805.88
459.845	1770.41
460.218	1826.9
460.591	1844.53
460.964	1837.07
461.337	1843.62
461.71	1882.94
462.083	1902.61
462.456	1872.55
462.829	1895.37
463.201	1931.76
463.574	1953.9
463.947	1925.2
464.32	1974.02
464.692	1979.44
465.065	2010.85
465.438	2036.39
465.81	2018.76
466.183	2047.46
466.555	2085.2
466.928	2099.89
467.3	2084.75
467.672	2115.03
468.045	2164.07
468.417	2180.34
468.789	2160
469.161	2195.7
469.534	2227.57
469.906	2287.68
470.278	2258.75
470.65	2265.08
471.022	2304.63
471.394	2324.97
471.766	2335.59
472.138	2366.77
472.51	2411.29
472.882	2399.54
473.253	2403.61
473.625	2464.4
473.997	2543.94
474.369	2564.73
474.74	2523.61
475.112	2590.27
475.484	2584.4
475.855	2661
476.227	2677.73
476.598	2734.9
476.97	2722.7
477.341	2788.01
477.713	2783.71
478.084	2816.71
478.455	2847.44
478.827	2901.9
479.198	2954.56
479.569	2905.74
479.94	2985.51
480.311	3012.41
480.682	3082.69
481.053	3134.89
481.424	3165.62
481.795	3170.14
482.166	3229.35
482.537	3275
482.908	3272.96
483.279	3300.76
483.65	3341.44
484.021	3403.58
484.391	3439.97
484.762	3469.12
485.133	3463.02
485.503	3507.53
485.874	3559.96
486.244	3580.75
486.615	3610.81
486.985	3665.5
487.356	3746.62
487.726	3719.05
488.097	3750.69
488.467	3804.48
488.837	3838.6
489.207	3855.32
489.578	3924.7
489.948	3949.33
490.318	4011.93
490.688	4000.18
491.058	4067.75
491.428	4108.65
491.798	4131.7
492.168	4166.95
492.538	4160.63
492.908	4236.33
493.278	4231.36
493.648	4293.73
494.017	4307.06
494.387	4374.63
494.757	4363.33
495.126	4398.58
495.496	4429.09
495.866	4424.35
496.235	4430.67
496.605	4520.84
496.974	4531.91
497.344	4543.67
497.713	4571.91
498.082	4571.46
498.452	4618.24
498.821	4648.3
499.19	4616.66
499.559	4669.54
499.928	4712.47
500.298	4737.56
500.667	4784.34
501.036	4730.33
501.405	4777.78
501.774	4795.86
502.143	4813.49
502.512	4823.21
502.88	4864.34
503.249	4853.71
503.618	4883.09
503.987	4895.97
504.356	4949.3
504.724	4992.69
505.093	4964.67
505.462	4948.4
505.83	5032.01
506.199	5021.39
506.567	5064.56
506.936	5118.79
507.304	5093.48
507.672	5050.32
508.041	5091.22
508.409	5152.01
508.777	5220.48
509.145	5144.33
509.514	5196.53
509.882	5161.5
510.25	5227.26
510.618	5241.5
510.986	5260.94
511.354	5299.58
511.722	5304.78
512.09	5346.13
512.458	5297.54
512.826	5373.47
513.193	5354.27
513.561	5390.88
513.929	5474.94
514.297	5428.16
514.664	5435.62
515.032	5467.26
515.4	5481.04
515.767	5501.83
516.135	5517.43
516.502	5532.57
516.869	5536.18
517.237	5613.92
517.604	5537.09
517.972	5636.07
518.339	5651.43
518.706	5625.22
519.073	5663.41
519.44	5653.92
519.808	5698.21
520.175	5692.11
520.542	5754.48
520.909	5757.87
521.276	5756.06
521.643	5840.35
522.009	5773.46
522.376	5846.68
522.743	5842.84
523.11	5883.52
523.477	5958.09
523.843	5950.63
524.21	5961.71
524.577	5988.37
524.943	6024.98
525.31	6056.85
525.676	6115.83
526.043	6134.81
526.409	6137.97
526.776	6209.84
527.142	6171.65
527.508	6195.6
527.874	6305.88
528.241	6249.84
528.607	6312.21
528.973	6305.65
529.339	6379.1
529.705	6334.58
530.071	6421.58
530.437	6449.6
530.803	6457.29
531.169	6498.87
531.535	6565.31
531.901	6540.9
532.267	6593.56
532.632	6605.76
532.998	6578.41
533.364	6682.37
533.73	6605.76
534.095	6636.04
534.461	6704.51
534.826	6687.11
535.192	6789.93
535.557	6806.66
535.923	6740.22
536.288	6783.83
536.653	6783.83
537.019	6806.21
537.384	6858.86
537.749	6877.62
538.114	6841.46
538.479	6924.85
538.845	6883.04
539.21	6931.17
539.575	6946.99
539.94	6914.9
540.305	7062.47
540.67	7037.61
541.034	7051.85
541.399	7094.56
541.764	7084.39
542.129	7095.92
542.494	7117.38
542.858	7105.18
543.223	7146.99
543.587	7178.4
543.952	7197.61
544.316	7153.77
544.681	7202.13
545.045	7209.13
545.41	7266.53
545.774	7317.38
546.138	7335.23
546.503	7343.82
546.867	7308.11
547.231	7379.3
547.595	7387.66
547.959	7467.43
548.324	7404.61
548.688	7507.2
549.052	7480.31
549.416	7495.68
549.779	7496.81
550.143	7472.4
550.507	7504.49
550.871	7586.07
551.235	7465.4
551.599	7531.84
551.962	7551.5
552.326	7640.76
552.689	7615.22
553.053	7595.79
553.417	7585.39
553.78	7780.42
554.143	7684.6
554.507	7699.97
554.87	7754.43
555.234	7792.85
555.597	7711.27
555.96	7742.23
556.323	7810.7
556.686	7805.05
557.05	7855.67
557.413	7854.31
557.776	7905.16
558.139	7963.24
558.502	7927.53
558.865	7981.77
559.228	8000.3
559.59	8057.25
559.953	8064.93
560.316	8065.16
560.679	8040.07
561.041	8112.61
561.404	8103.8
561.767	8185.6
562.129	8206.85
562.492	8278.71
562.854	8246.62
563.217	8183.34
563.579	8283.45
563.941	8348.99
564.304	8348.76
564.666	8396.67
565.028	8418.59
565.39	8372.72
565.753	8448.65
566.115	8435.31
566.477	8469.66
566.839	8499.27
567.201	8528.42
567.563	8538.36
567.925	8607.06
568.287	8681.41
568.648	8643.67
569.01	8731.58
569.372	8735.19
569.734	8724.12
570.095	8794.85
570.457	8864.23
570.819	8841.63
571.18	8878.69
571.542	8899.71
571.903	8952.59
572.265	9002.98
572.626	9042.53
572.987	9096.99
573.349	9062.64
573.71	9129.53
574.071	9195.97
574.432	9231
574.794	9260.15
575.155	9314.39
575.516	9289.98
575.877	9453.37
576.238	9409.98
576.599	9445.91
576.96	9572.69
577.32	9484.78
577.681	9625.34
578.042	9695.85
578.403	9747.6
578.763	9714.83
579.124	9838.44
579.485	9889.97
579.845	9953.24
580.206	9968.38
580.566	10037.53
580.927	10109.62
581.287	10147.36
581.648	10236.17
582.008	10450.63
582.368	10391.65
582.728	10539.21
583.089	10617.86
583.449	10661.47
583.809	10836.38
584.169	10881.58
584.529	10941.46
584.889	11105.53
585.249	11137.39
585.609	11273.21
585.969	11348.46
586.329	11467.33
586.688	11611.73
587.048	11650.37
587.408	11654.21
587.768	11890.37
588.127	12015.11
588.487	12129.46
588.846	12271.6
589.206	12384.59
589.565	12424.14
589.925	12665.49
590.284	12740.96
590.643	12906.84
591.003	13043.56
591.362	13204.91
591.721	13317.22
592.08	13411.68
592.44	13584.78
592.799	13761.05
593.158	13864.78
593.517	13989.52
593.876	14133.02
594.235	14231.77
594.593	14365.1
594.952	14502.05
595.311	14688.48
595.67	14744.08
596.029	15016.84
596.387	15065.88
596.746	15215.48
597.104	15212.76
597.463	15488.24
597.822	15610.49
598.18	15637.16
598.538	15836.7
598.897	16028.56
599.255	15916.02
599.613	16302.68
599.972	16316.46
600.33	16536.57
600.688	16560.75
601.046	16662.22
601.404	16876
601.762	16968.88
602.12	17175.42
602.478	17151.47
602.836	17268.75
603.194	17360.05
603.552	17389.88
603.91	17443.89
604.268	17685.24
604.625	17751.23
604.983	17765.92
605.341	17877.55
605.698	18073.93
606.056	18185.12
606.413	18267.37
606.771	18389.4
607.128	18501.04
607.485	18344.21
607.843	18483.86
608.2	18737.87
608.557	18802.95
608.914	18832.78
609.272	19053.79
609.629	19110.74
609.986	19215.37
610.343	19133.11
610.7	19386.21
611.057	19320.23
611.414	19446.78
611.771	19616.72
612.127	19647
612.484	19628.92
612.841	19782.59
613.198	19733.77
613.554	19849.25
613.911	20069.59
614.267	20009.02
614.624	20063.48
614.98	20145.29
615.337	20303.93
615.693	20163.82
616.05	20264.61
616.406	20369.92
616.762	20428.22
617.118	20385.28
617.475	20481.55
617.831	20593.87
618.187	20724.94
618.543	20666.18
618.899	20813.29
619.255	20813.75
619.611	20809.68
619.967	20930.81
620.323	20975.1
620.678	20912.27
621.034	20937.13
621.39	21007.87
621.746	20862.11
622.101	21277.46
622.457	21056
622.812	21226.62
623.168	21165.15
623.523	21220.52
623.879	21365.14
624.234	21248.09
624.589	21358.82
624.945	21398.14
625.3	21368.31
625.655	21446.27
626.01	21419.61
626.365	21522.2
626.72	21481.53
627.075	21552.03
627.43	21446.27
627.785	21419.83
628.14	21496.67
628.495	21470.45
628.85	21620.05
629.205	21413.73
629.559	21649.43
629.914	21407.63
630.269	21494.18
630.623	21357.69
630.978	21524.46
631.332	21472.26
631.687	21625.7
632.041	21581.86
632.396	21492.15
632.75	21555.87
633.104	21496.67
633.459	21428.65
633.813	21492.82
634.167	21352.72
634.521	21424.35
634.875	21389.55
635.229	21370.12
635.583	21248.76
635.937	21412.37
636.291	21335.54
636.645	21280.63
636.999	21347.29
637.352	21372.38
637.706	21168.09
638.06	21367.86
638.413	21205.37
638.767	21215.32
639.121	21294.41
639.474	21159.5
639.828	21184.81
640.181	21121.99
640.534	21214.41
640.888	21205.37
641.241	21147.98
641.594	21107.3
641.947	21192.27
642.301	21125.38
642.654	21151.14
643.007	21169.67
643.36	21151.59
643.713	21060.75
644.066	21142.55
644.419	21098.71
644.771	21023.46
645.124	20714.09
645.477	20741.43
645.83	20752.96
646.182	20615.11
646.535	20517.48
646.888	20660.76
647.24	20481.33
647.593	20623.24
647.945	20504.83
648.298	20373.31
648.65	20329.01
649.002	20277.49
649.355	20430.03
649.707	20375.79
650.059	20530.82
650.411	20791.15
650.763	20821.43
651.115	21030.24
651.467	20907.76
651.819	20914.53
652.171	20895.55
652.523	20819.4
652.875	20910.47
653.227	20837.93
653.578	21025.04
653.93	20834.54
654.282	20807.19
654.633	20820.98
654.985	20843.58
655.337	20881.99
655.688	20924.03
656.039	20938.49
656.391	20806.06
656.742	20765.84
657.094	20820.75
657.445	21003.8
657.796	20902.11
658.147	20729.68
658.498	20786.18
658.849	20845.38
659.2	20891.94
659.551	20924.93
659.902	20897.81
660.253	20955.44
660.604	20943.01
660.955	20813.97
661.306	20967.87
661.656	21024.36
662.007	20977.81
662.358	20975.32
662.708	20999.05
663.059	21041.31
663.409	20864.82
663.76	21049.67
664.11	21040.18
664.461	21032.95
664.811	21019.62
665.161	21024.14
665.511	21039.05
665.862	21017.81
666.212	21081.54
666.562	21088.77
666.912	20980.97
667.262	21080.41
667.612	21013.97
667.962	21067.07
668.312	20983.23
668.662	21044.93
669.011	20943.23
669.361	21006.28
669.711	20887.19
670.06	20831.6
670.41	20812.84
670.76	20905.72
671.109	20931.94
671.459	20958.38
671.808	20892.16
672.157	20849.9
672.507	20755.67
672.856	20824.37
673.205	20772.39
673.554	20886.06
673.904	20779.4
674.253	20890.13
674.602	20694.2
674.951	20451.04
675.3	20385.96
675.649	20728.55
675.998	20746.86
676.346	20701.43
676.695	20741.88
677.044	20649.23
677.393	20756.35
677.741	20722
678.09	20651.04
678.438	20555.22
678.787	20547.09
679.135	20605.39
679.484	20512.74
679.832	20446.98
680.181	20420.31
680.529	20486.98
680.877	20266.64
681.225	20380.99
681.573	20493.08
681.922	20315.45
682.27	20226.42
682.618	20233.65
682.966	20260.77
683.314	20263.25
683.661	20166.76
684.009	20105.52
684.357	19993.2
684.705	19992.98
685.053	19987.78
685.4	19940.1
685.748	19864.62
686.095	19815.35
686.443	19765.64
686.79	19767.9
687.138	19898.52
687.485	19771.29
687.832	19680.89
688.18	19702.82
688.527	19724.51
688.874	19589.82
689.221	19624.85
689.568	19454.69
689.915	19498.53
690.262	19372.43
690.609	19338.08
690.956	19243.39
691.303	19233.68
691.65	19200.46
691.997	19141.7
692.344	19074.81
692.69	19000.23
693.037	18933.8
693.383	18844.53
693.73	18960.46
694.077	18751.88
694.423	18692.22
694.769	18646.12
695.116	18715.5
695.462	18696.06
695.808	18511.43
696.155	18604.77
696.501	18435.28
696.847	18385.11
697.193	18255.62
697.539	18311.67
697.885	18118
698.231	18093.37
698.577	18103.54
698.923	18020.6
699.269	17976.53
699.614	17826.71
699.96	17855.86
700.306	17788.74
700.651	17749.87
700.997	17690.44
701.342	17564.11
701.688	17597.33
702.033	17529.77
702.379	17467.62
702.724	17342.43
703.069	17454.06
703.415	17248.64
703.76	17256.78
704.105	17259.94
704.45	17088.87
704.795	17024.24
705.14	17035.54
705.485	16967.97
705.83	16902.44
706.175	16864.7
706.52	16860.18
706.865	16761.65
707.209	16748.99
707.554	16601.65
707.899	16743.57
708.243	16538.6
708.588	16558.49
708.932	16435.56
709.277	16450.7
709.621	16387.87
709.966	16373.86
710.31	16298.16
710.654	16221.55
710.998	16287.09
711.342	16247.76
711.687	16132.06
712.031	16088.67
712.375	16039.41
712.719	16095.9
713.063	16065.17
713.407	16072.85
713.75	15878.74
714.094	16076.02
714.438	15941.78
714.782	15843.48
715.125	15847.1
715.469	15927.55
715.812	15779.08
716.156	15688.68
716.499	15638.06
716.843	15688.68
717.186	15587.44
717.53	15639.87
717.873	15667.44
718.216	15622.92
718.559	15580.44
718.902	15409.82
719.246	15452.08
719.589	15423.15
719.932	15356.26
720.275	15342.7
720.617	15365.3
720.96	15353.1
721.303	15329.82
721.646	15320.56
721.989	15233.78
722.331	15300.67
722.674	15281.91
723.016	15296.38
723.359	15288.69
723.701	15258.41
724.044	15124.18
724.386	15079.66
724.729	15238.75
725.071	15091.41
725.413	15112.2
725.755	15130.96
726.097	15114.69
726.439	14996.5
726.782	15047.12
727.124	14990.17
727.465	15025.2
727.807	14988.36
728.149	14925.54
728.491	14981.58
728.833	14997.18
729.175	14989.72
729.516	14856.84
729.858	14885.99
730.199	14861.13
730.541	14902.26
730.882	14898.2
731.224	14858.65
731.565	14941.81
731.906	14875.15
732.248	14878.76
732.589	14849.84
732.93	14714.47
733.271	14867.91
733.612	14779.78
733.953	14910.62
734.294	14771.19
734.635	14829.05
734.976	14836.73
735.317	14733.91
735.658	14703.62
735.999	14822.27
736.339	14788.37
736.68	14909.27
737.021	14751.08
737.361	14735.26
737.702	14890.51
738.042	14810.97
738.383	14783.62
738.723	14823.62
739.063	14779.78
739.404	14886.22
739.744	14750.4
740.084	14800.12
740.424	14799.22
740.764	14828.82
741.104	14933.68
741.444	14767.8
741.784	14772.32
742.124	14841.93
742.464	14847.58
742.804	14807.35
743.143	14752.21
743.483	14935.48
743.823	14907.69
744.162	14897.97
744.502	14917.18
744.841	14918.53
745.181	15087.12
745.52	14994.01
745.86	15043.95
746.199	15082.37
746.538	15102.71
746.877	15114.01
747.216	15215.25
747.556	15263.16
747.895	15264.29
748.234	15210.96
748.573	15296.83
748.911	15434.23
749.25	15510.38
749.589	15514.45
749.928	15701.79
750.267	15681
750.605	15750.15
750.944	15806.65
751.283	15852.07
751.621	15968.45
751.96	15935.46
752.298	16115.11
752.636	16124.83
752.975	16178.84
753.313	16241.44
753.651	16437.14
753.989	16476.46
754.327	16543.58
754.666	16604.59
755.004	16758.71
755.342	16857.01
755.679	17025.15
756.017	17087.97
756.355	17255.42
756.693	17315.31
757.031	17371.35
757.368	17472.82
757.706	17490.22
758.044	17594.17
758.381	17821.73
758.719	17901.51
759.056	17976.31
759.394	18045.01
