Data from hue_210_FLMS001491_00030.txt Node
Date: Tue Feb 07 16:40:58 GMT 2017
User: dcchb
Spectrometer: FLMS00149
Trigger mode: 0
Integration Time (sec): 2.000000E-2
Scans to average: 10
Electric dark correction enabled: true
Nonlinearity correction enabled: false
Boxcar width: 0
XAxis mode: Wavelengths
Number of Pixels in Spectrum: 2048
>>>>>Begin Spectral Data<<<<<
341.393	-1.4
341.776	-1.4
342.16	-1.4
342.543	-91.34
342.927	-82.53
343.31	-81.17
343.693	-77.1
344.077	-57.22
344.46	-58.8
344.843	-49.76
345.226	-42.98
345.61	-39.82
345.993	-7.73
346.376	-0.27
346.759	16
347.142	40.41
347.525	35.89
347.908	46.74
348.291	86.74
348.674	83.12
349.057	105.94
349.44	133.06
349.823	122.21
350.206	162.21
350.588	174.64
350.971	199.05
351.354	206.28
351.737	216.9
352.119	252.15
352.502	263.68
352.884	243.12
353.267	283.79
353.65	290.57
354.032	304.81
354.414	296.67
354.797	309.1
355.179	311.36
355.562	319.05
355.944	329.21
356.326	307.97
356.709	328.08
357.091	314.53
357.473	353.17
357.855	341.64
358.238	327.18
358.62	332.15
359.002	338.71
359.384	334.64
359.766	322.21
360.148	350.23
360.53	333.06
360.912	333.73
361.294	339.16
361.676	342.77
362.057	302.77
362.439	338.48
362.821	333.96
363.203	326.5
363.584	314.98
363.966	310.91
364.348	321.76
364.729	302.32
365.111	290.8
365.493	299.16
365.874	314.3
366.256	289.89
366.637	295.32
367.019	309.1
367.4	289.22
367.781	304.13
368.163	312.04
368.544	305.49
368.925	312.72
369.306	300.51
369.688	316.33
370.069	303.68
370.45	318.14
370.831	328.54
371.212	300.06
371.593	310.46
371.974	314.3
372.355	309.33
372.736	318.59
373.117	298.93
373.498	317.69
373.879	288.99
374.26	313.62
374.641	306.62
375.021	290.57
375.402	320.85
375.783	298.71
376.163	308.65
376.544	329.89
376.925	324.24
377.305	329.67
377.686	324.47
378.066	335.99
378.447	303
378.827	317.46
379.208	331.93
379.588	326.5
379.968	348.65
380.349	318.59
380.729	319.95
381.109	341.87
381.489	330.12
381.87	335.32
382.25	325.37
382.63	321.76
383.01	336.22
383.39	323.11
383.77	337.8
384.15	347.07
384.53	328.76
384.91	326.5
385.29	333.06
385.67	341.64
386.049	342.32
386.429	347.29
386.809	345.94
387.189	336.22
387.568	344.58
387.948	333.28
388.328	345.49
388.707	331.7
389.087	361.08
389.466	352.26
389.846	366.95
390.225	349.55
390.605	344.81
390.984	358.37
391.363	371.25
391.743	358.59
392.122	361.53
392.501	379.83
392.881	371.93
393.26	362.66
393.639	364.47
394.018	388.2
394.397	386.61
394.776	380.06
395.155	378.7
395.534	357.46
395.913	380.74
396.292	359.04
396.671	380.06
397.05	393.62
397.429	388.2
397.808	401.98
398.186	401.53
398.565	385.94
398.944	383.22
399.323	414.18
399.701	399.27
400.08	418.03
400.458	416.9
400.837	404.24
401.215	404.01
401.594	414.41
401.972	410.12
402.351	414.18
402.729	419.61
403.107	407.63
403.486	419.16
403.864	452.38
404.242	428.42
404.62	430.23
404.999	423.22
405.377	434.3
405.755	450.57
406.133	423
406.511	452.38
406.889	439.95
407.267	455.54
407.645	487.4
408.023	456.89
408.401	458.02
408.779	488.31
409.156	503.22
409.534	493.73
409.912	502.09
410.29	521.3
410.667	518.81
411.045	546.38
411.422	538.7
411.8	547.97
412.178	550
412.555	532.6
412.933	548.19
413.31	575.31
413.687	594.52
414.065	596.78
414.442	582.09
414.819	617.12
415.197	609.66
415.574	646.04
415.951	615.53
416.328	615.99
416.705	652.14
417.082	653.73
417.46	668.87
417.837	661.41
418.214	664.8
418.591	696.21
418.967	701.41
419.344	702.09
419.721	711.8
420.098	710.9
420.475	738.7
420.852	747.96
421.228	757.9
421.605	764.01
421.982	781.18
422.358	787.73
422.735	800.61
423.111	801.97
423.488	837.9
423.864	840.61
424.241	855.08
424.617	894.17
424.994	893.95
425.37	885.81
425.746	932.14
426.123	940.5
426.499	973.49
426.875	950.89
427.251	996.09
427.627	978.46
428.003	994.73
428.379	997.67
428.756	1029.31
429.132	1008.97
429.507	1032.92
429.883	1056.88
430.259	1089.19
430.635	1060.04
431.011	1089.87
431.387	1112.02
431.763	1144.56
432.138	1138.46
432.514	1152.92
432.89	1206.25
433.265	1222.3
433.641	1211.9
434.016	1274.73
434.392	1265.69
434.767	1293.71
435.143	1285.35
435.518	1303.2
435.894	1359.24
436.269	1375.97
436.644	1408.28
437.02	1438.56
437.395	1400.15
437.77	1453.7
438.145	1481.27
438.52	1492.35
438.895	1537.77
439.271	1561.72
439.646	1563.31
440.021	1608.28
440.395	1618.9
440.77	1614.83
441.145	1627.49
441.52	1683.08
441.895	1675.85
442.27	1719.69
442.645	1722.17
443.019	1776.41
443.394	1770.31
443.769	1766.01
444.143	1758.78
444.518	1806.46
444.892	1826.8
445.267	1816.86
445.641	1868.38
446.016	1885.11
446.39	1853.02
446.764	1897.53
447.139	1936.86
447.513	1905.67
447.887	1940.02
448.262	1938.21
448.636	1959.68
449.01	1984.31
449.384	2000.81
449.758	2050.3
450.132	2040.81
450.506	2042.16
450.88	2036.97
451.254	2085.33
451.628	2112.67
452.002	2103.63
452.376	2123.97
452.75	2184.08
453.123	2159.45
453.497	2210.97
453.871	2214.81
454.244	2256.85
454.618	2289.39
454.992	2298.65
455.365	2329.84
455.739	2391.76
456.112	2392.89
456.486	2403.28
456.859	2454.13
457.232	2456.16
457.606	2476.73
457.979	2501.13
458.352	2568.7
458.725	2596.5
459.099	2577.07
459.472	2621.81
459.845	2638.31
460.218	2683.73
460.591	2721.69
460.964	2687.57
461.337	2777.29
461.71	2803.05
462.083	2809.6
462.456	2837.4
462.829	2857.74
463.201	2900.67
463.574	2923.27
463.947	2956.26
464.32	3061.57
464.692	3061.57
465.065	3051.85
465.438	3109.25
465.81	3156.94
466.183	3187.9
466.555	3240.32
466.928	3241.68
467.3	3234.9
467.672	3339.53
468.045	3385.18
468.417	3380.89
468.789	3405.74
469.161	3475.35
469.534	3526.87
469.906	3583.82
470.278	3616.81
470.65	3610.03
471.022	3663.36
471.394	3763.93
471.766	3756.92
472.138	3835.11
472.51	3897.93
472.882	3922.34
473.253	3964.15
473.625	4003.92
473.997	4080.98
474.369	4093.64
474.74	4160.98
475.112	4230.35
475.484	4283.46
475.855	4360.52
476.227	4392.16
476.598	4466.96
476.97	4509.67
477.341	4593.28
477.713	4668.54
478.084	4689.78
478.455	4819.49
478.827	4870.56
479.198	4988.98
479.569	4932.26
479.94	5073.5
480.311	5166.6
480.682	5255.86
481.053	5371.79
481.424	5391
481.795	5431.68
482.166	5526.82
482.537	5555.07
482.908	5718.68
483.279	5734.5
483.65	5837.32
484.021	5921.61
484.391	5995.05
484.762	5983.3
485.133	6070.08
485.503	6111.66
485.874	6234.6
486.244	6323.41
486.615	6337.87
486.985	6430.75
487.356	6566.34
487.726	6642.04
488.097	6699.22
488.467	6755.26
488.837	6871.42
489.207	6898.53
489.578	6965.2
489.948	6967.23
490.318	7135.82
490.688	7133.56
491.058	7236.15
491.428	7263.5
491.798	7370.61
492.168	7460.33
492.538	7502.13
492.908	7583.26
493.278	7670.72
493.648	7605.86
494.017	7739.64
494.387	7829.36
494.757	7903.93
495.126	7913.65
495.496	7943.25
495.866	7942.12
496.235	8059.63
496.605	8075.9
496.974	8108.67
497.344	8184.38
497.713	8190.48
498.082	8251.72
498.452	8321.77
498.821	8407.42
499.19	8372.39
499.559	8367.65
499.928	8418.27
500.298	8470.92
500.667	8556.34
501.036	8565.61
501.405	8573.74
501.774	8557.47
502.143	8592.05
502.512	8591.14
502.88	8740.52
503.249	8681.09
503.618	8758.37
503.987	8735.1
504.356	8742.1
504.724	8818.26
505.093	8871.59
505.462	8842.89
505.83	8895.99
506.199	8915.43
506.567	8991.13
506.936	8986.61
507.304	9046.27
507.672	9117.91
508.041	9108.64
508.409	9118.59
508.777	9139.15
509.145	9205.37
509.514	9142.32
509.882	9242.2
510.25	9215.53
510.618	9272.03
510.986	9229.32
511.354	9312.93
511.722	9303.44
512.09	9383.89
512.458	9424.57
512.826	9390.45
513.193	9423.66
513.561	9365.36
513.929	9459.82
514.297	9461.18
514.664	9447.62
515.032	9492.59
515.4	9513.83
515.767	9522.42
516.135	9538.46
516.502	9441.74
516.869	9573.72
517.237	9637.9
517.604	9521.06
517.972	9577.78
518.339	9612.81
518.706	9581.4
519.073	9652.59
519.44	9642.64
519.808	9655.3
520.175	9620.72
520.542	9751.34
520.909	9719.02
521.276	9661.4
521.643	9659.59
522.009	9748.4
522.376	9710.66
522.743	9763.99
523.11	9797.67
523.477	9839.25
523.843	9813.94
524.21	9853.71
524.577	9857.78
524.943	9871.79
525.31	9853.03
525.676	9857.78
526.043	9911.34
526.409	9915.18
526.776	9953.14
527.142	10010.99
527.508	9964.67
527.874	9968.06
528.241	9953.14
528.607	9963.99
528.973	9985.91
529.339	9934.39
529.705	10041.95
530.071	10020.26
530.437	9939.36
530.803	9989.53
531.169	10012.58
531.535	9946.36
531.901	9957.21
532.267	9898.23
532.632	9928.06
532.998	10000.82
533.364	9949.53
533.73	9874.27
534.095	9919.7
534.461	9871.34
534.826	9881.96
535.192	9915.18
535.557	9867.72
535.923	9831.34
536.288	9790.21
536.653	9742.53
537.019	9691
537.384	9724
537.749	9757.89
538.114	9703.88
538.479	9638.35
538.845	9695.3
539.21	9594.51
539.575	9606.03
539.94	9565.36
540.305	9604
540.67	9545.47
541.034	9463.66
541.399	9514.74
541.764	9458.01
542.129	9424.79
542.494	9448.07
542.858	9436.77
543.223	9354.06
543.587	9429.09
543.952	9313.39
544.316	9362.88
544.681	9281.75
545.045	9284.23
545.41	9206.5
545.774	9255.53
546.138	9174.86
546.503	9170.34
546.867	9115.65
547.231	9099.15
547.595	9098.02
547.959	9122.88
548.324	9026.39
548.688	8978.93
549.052	9028.19
549.416	8990.91
549.779	8911.36
550.143	8970.8
550.507	8868.88
550.871	8869.1
551.235	8870.68
551.599	8790.91
551.962	8793.17
552.326	8812.38
552.689	8755.21
553.053	8755.43
553.417	8672.95
553.78	8742.1
554.143	8696.45
554.507	8639.96
554.87	8662.33
555.234	8685.83
555.597	8580.3
555.96	8636.34
556.323	8543.24
556.686	8646.96
557.05	8646.96
557.413	8597.7
557.776	8545.72
558.139	8535.1
558.502	8489.45
558.865	8496.01
559.228	8508.21
559.59	8543.91
559.953	8479.06
560.316	8574.42
560.679	8510.69
561.041	8544.37
561.404	8561.09
561.767	8536
562.129	8434.54
562.492	8486.29
562.854	8533.52
563.217	8516.8
563.579	8548.21
563.941	8558.38
564.304	8529.45
564.666	8525.84
565.028	8586.4
565.39	8574.2
565.753	8540.07
566.115	8563.35
566.477	8596.79
566.839	8552.73
567.201	8556.57
567.563	8606.29
567.925	8587.3
568.287	8580.07
568.648	8584.14
569.01	8634.31
569.372	8677.7
569.734	8637.7
570.095	8612.84
570.457	8689.45
570.819	8689.9
571.18	8645.38
571.542	8722.21
571.903	8672.95
572.265	8665.72
572.626	8739.61
572.987	8746.62
573.349	8723.57
573.71	8716.11
574.071	8686.06
574.432	8744.81
574.794	8756.11
575.155	8840.18
575.516	8787.75
575.877	8767.64
576.238	8827.97
576.599	8837.47
576.96	8861.87
577.32	8776.9
577.681	8886.05
578.042	8862.55
578.403	8861.87
578.763	8888.31
579.124	8870.46
579.485	8932.6
579.845	8943.9
580.206	8945.49
580.566	8872.49
580.927	8977.57
581.287	8984.81
581.648	9019.61
582.008	9003.79
582.368	9018.25
582.728	9004.01
583.089	8983.45
583.449	9011.02
583.809	9008.08
584.169	8997.01
584.529	9025.48
584.889	9023.9
585.249	9020.51
585.609	8975.99
585.969	9089.89
586.329	9029.1
586.688	9064.35
587.048	9061.87
587.408	9046.95
587.768	8961.3
588.127	9061.19
588.487	9003.34
588.846	9053.28
589.206	9051.7
589.565	9012.6
589.925	9117.68
590.284	9070.68
590.643	9126.95
591.003	9129.44
591.362	9158.81
591.721	9085.14
592.08	9196.78
592.44	9208.53
592.799	9175.08
593.158	9107.74
593.517	9099.83
593.876	9188.19
594.235	9140.28
594.593	9088.53
594.952	9105.48
595.311	9107.06
595.67	9116.33
596.029	9132.37
596.387	9181.64
596.746	9187.51
597.104	9117.23
597.463	9118.81
597.822	9175.31
598.18	9136.67
598.538	9091.47
598.897	9171.92
599.255	9159.72
599.613	9260.73
599.972	9206.72
600.33	9189.09
600.688	9176.89
601.046	9223.44
601.404	9201.07
601.762	9188.19
602.12	9260.05
602.478	9220.28
602.836	9214.86
603.194	9201.07
603.552	9217.79
603.91	9211.92
604.268	9172.82
604.625	9206.95
604.983	9231.81
605.341	9199.04
605.698	9197.68
606.056	9188.19
606.413	9243.1
606.771	9239.04
607.128	9298.02
607.485	9214.63
607.843	9255.08
608.2	9287.62
608.557	9357.45
608.914	9302.99
609.272	9315.87
609.629	9325.14
609.986	9292.14
610.343	9327.62
610.7	9363.1
611.057	9314.97
611.414	9319.03
611.771	9378.24
612.127	9402.2
612.484	9318.36
612.841	9423.21
613.198	9297.11
613.554	9368.3
613.911	9437
614.267	9394.51
614.624	9375.98
614.98	9442.65
615.337	9445.81
615.693	9473.61
616.05	9481.06
616.406	9493.72
616.762	9455.3
617.118	9422.99
617.475	9466.83
617.831	9476.54
618.187	9474.28
618.543	9479.71
618.899	9486.71
619.255	9507.28
619.611	9481.74
619.967	9505.02
620.323	9553.6
620.678	9528.29
621.034	9498.46
621.39	9435.64
621.746	9543.66
622.101	9575.3
622.457	9471.57
622.812	9540.5
623.168	9501.18
623.523	9565.13
623.879	9553.83
624.234	9487.39
624.589	9554.06
624.945	9515.19
625.3	9549.99
625.655	9480.16
626.01	9474.96
626.365	9569.88
626.72	9551.8
627.075	9522.19
627.43	9581.63
627.785	9541.85
628.14	9525.58
628.495	9534.85
628.85	9550.89
629.205	9456.66
629.559	9469.77
629.914	9483.78
630.269	9470.44
630.623	9449.43
630.978	9417.34
631.332	9481.06
631.687	9394.06
632.041	9408.07
632.396	9449.2
632.75	9371.91
633.104	9434.29
633.459	9338.92
633.813	9321.97
634.167	9319.26
634.521	9317.23
634.875	9325.81
635.229	9275.87
635.583	9233.39
635.937	9232.26
636.291	9224.57
636.645	9329.66
636.999	9257.57
637.352	9234.29
637.706	9209.21
638.06	9297.34
638.413	9222.09
638.767	9195.87
639.121	9194.74
639.474	9154.07
639.828	9274.29
640.181	9114.75
640.534	9214.4
640.888	9091.92
641.241	9128.08
641.594	9109.32
641.947	9102.09
642.301	9090.11
642.654	9137.34
643.007	9083.33
643.36	9097.12
643.713	9081.53
644.066	9048.76
644.419	9035.43
644.771	9029.55
645.124	8941.64
645.477	8935.77
645.83	8827.97
646.182	8818.03
646.535	8836.34
646.888	8812.61
647.24	8703.91
647.593	8845.37
647.945	8704.14
648.298	8743.68
648.65	8696.23
649.002	8694.42
649.355	8735.1
649.707	8764.92
650.059	8822.1
650.411	8884.92
650.763	8901.42
651.115	9013.51
651.467	8978.25
651.819	9030.23
652.171	8980.96
652.523	8988.42
652.875	8982.09
653.227	8924.92
653.578	8990.23
653.93	8938.48
654.282	8944.58
654.633	8872.27
654.985	8930.34
655.337	8883.57
655.688	8963.56
656.039	9012.83
656.391	8917.92
656.742	8990.46
657.094	8894.41
657.445	8995.2
657.796	8987.74
658.147	8975.99
658.498	8863.23
658.849	8955.65
659.2	9023.45
659.551	8966.28
659.902	8984.35
660.253	8994.07
660.604	9013.05
660.955	8987.07
661.306	9003.34
661.656	8993.17
662.007	9008.08
662.358	9035.88
662.708	9032.26
663.059	8998.37
663.409	8933.73
663.76	9022.55
664.11	9052.6
664.461	8994.52
664.811	9049.44
665.161	9029.55
665.511	9029.55
665.862	9068.19
666.212	9089.21
666.562	9129.44
666.912	9103.22
667.262	9019.16
667.612	8985.03
667.962	9022.77
668.312	9069.1
668.662	9123.11
669.011	9003.56
669.361	9006.95
669.711	8993.62
670.06	8949.55
670.41	8998.14
670.76	8966.5
671.109	9027.74
671.459	8968.31
671.808	8988.42
672.157	9017.57
672.507	8909.55
672.856	8881.76
673.205	8967.86
673.554	9038.36
673.904	8902.1
674.253	8956.78
674.602	8965.15
674.951	8813.06
675.3	8783.46
675.649	8894.86
675.998	8816.9
676.346	8932.6
676.695	8926.28
677.044	8893.74
677.393	8880.63
677.741	8832.27
678.09	8828.2
678.438	8801.76
678.787	8787.3
679.135	8808.99
679.484	8719.28
679.832	8872.49
680.181	8724.02
680.529	8769.67
680.877	8735.32
681.225	8706.4
681.573	8787.3
681.922	8753.17
682.27	8675.66
682.618	8653.97
682.966	8635.21
683.314	8720.63
683.661	8636.57
684.009	8572.61
684.357	8576.91
684.705	8569
685.053	8543.24
685.4	8535.55
685.748	8501.65
686.095	8502.33
686.443	8428.21
686.79	8417.82
687.138	8478.83
687.485	8423.24
687.832	8429.34
688.18	8405.61
688.527	8376.23
688.874	8425.27
689.221	8336.69
689.568	8238.39
689.915	8284.26
690.262	8253.53
690.609	8229.57
690.956	8186.41
691.303	8135.34
691.65	8099.63
691.997	8107.99
692.344	7975.79
692.69	8039.75
693.037	8072.51
693.383	7978.73
693.73	8023.7
694.077	7918.39
694.423	7969.47
694.769	7910.48
695.116	7854.44
695.462	7898.51
695.808	7830.49
696.155	7886.08
696.501	7793.43
696.847	7768.79
697.193	7676.37
697.539	7763.6
697.885	7674.56
698.231	7599.76
698.577	7587.1
698.923	7590.72
699.269	7598.85
699.614	7492.64
699.96	7452.19
700.306	7443.83
700.651	7420.78
700.997	7376.49
701.342	7389.59
701.688	7371.74
702.033	7375.58
702.379	7307.34
702.724	7300.1
703.069	7316.6
703.415	7190.95
703.76	7209.03
704.105	7177.62
704.45	7183.95
704.795	7106.44
705.14	7080.22
705.485	7076.83
705.83	7063.73
706.175	7055.14
706.52	7025.31
706.865	7025.54
707.209	6997.97
707.554	6962.03
707.899	7011.07
708.243	6927.91
708.588	6880.23
708.932	6868.7
709.277	6864.41
709.621	6846.11
709.966	6805.43
710.31	6838.2
710.654	6737.41
710.998	6774.47
711.342	6751.87
711.687	6768.14
712.031	6695.37
712.375	6666.67
712.719	6677.75
713.063	6700.57
713.407	6634.36
713.75	6633.46
714.094	6601.59
714.438	6598.2
714.782	6589.61
715.125	6517.53
715.469	6615.15
715.812	6572.67
716.156	6495.38
716.499	6541.03
716.843	6555.72
717.186	6466.68
717.53	6460.13
717.873	6531.99
718.216	6521.37
718.559	6483.4
718.902	6473.69
719.246	6493.12
719.589	6476.85
719.932	6473.01
720.275	6465.55
720.617	6397.08
720.96	6425.55
721.303	6434.36
721.646	6370.64
721.989	6430.75
722.331	6367.02
722.674	6351.66
723.016	6408.83
723.359	6384.87
723.701	6410.86
724.044	6372.45
724.386	6371.77
724.729	6404.76
725.071	6383.29
725.413	6377.64
725.755	6303.75
726.097	6324.76
726.439	6310.98
726.782	6273.24
727.124	6337.87
727.465	6372.22
727.807	6293.35
728.149	6280.47
728.491	6295.61
728.833	6349.4
729.175	6326.12
729.516	6324.76
729.858	6281.15
730.199	6327.25
730.541	6256.97
730.882	6277.31
731.224	6289.28
731.565	6265.56
731.906	6243.18
732.248	6348.72
732.589	6243.18
732.93	6285.67
733.271	6252.45
733.612	6254.26
733.953	6309.85
734.294	6242.96
734.635	6212
734.976	6277.76
735.317	6262.39
735.658	6269.4
735.999	6291.77
736.339	6299.23
736.68	6307.81
737.021	6322.5
737.361	6235.95
737.702	6346.91
738.042	6253.58
738.383	6303.97
738.723	6356.63
739.063	6332.67
739.404	6340.58
739.744	6306.23
740.084	6359.56
740.424	6372.9
740.764	6397.3
741.104	6416.06
741.444	6427.36
741.784	6386.46
742.124	6410.18
742.464	6416.29
742.804	6454.7
743.143	6480.92
743.483	6532.89
743.823	6529.5
744.162	6500.8
744.502	6607.92
744.841	6599.33
745.181	6651.08
745.52	6616.73
745.86	6711.19
746.199	6707.13
746.538	6745.77
746.877	6786.9
747.216	6844.07
747.556	6861.7
747.895	6866.67
748.234	6927.69
748.573	6990.28
748.911	6998.19
749.25	7084.74
749.589	7071.18
749.928	7244.51
750.267	7298.97
750.605	7329.48
750.944	7362.25
751.283	7387.79
751.621	7517.73
751.96	7615.8
752.298	7691.05
752.636	7790.94
752.975	7843.37
753.313	7919.75
753.651	8032.97
753.989	8114.55
754.327	8175.11
754.666	8289.68
755.004	8450.81
755.342	8571.48
755.679	8711.82
756.017	8736.45
756.355	8931.47
756.693	8998.14
757.031	9240.17
757.368	9301.18
757.706	9409.65
758.044	9507.05
758.381	9678.35
758.719	9865.46
759.056	10037.21
759.394	10139.13
759.731	10242.63
760.068	10437.65
760.405	10536.18
760.743	10719.9
761.08	10888.71
761.417	10973
761.754	11213.9
762.091	11332.77
762.428	11475.14
762.765	11669.03
763.102	11932.53
763.438	12020.66
763.775	12154.67
764.112	12367.99
764.449	12606.18
764.785	12610.93
765.122	12801.43
765.458	12915.32
765.795	13071.7
766.131	13308.99
766.467	13416.78
766.804	13525.03
767.14	13639.37
767.476	13749.43
767.812	13996.43
768.148	14196.42
768.485	14208.62
768.821	14356.64
769.157	14516.86
769.492	14642.28
