Data from hue_210_FLMS001491_00063.txt Node
Date: Tue Feb 07 16:41:32 GMT 2017
User: dcchb
Spectrometer: FLMS00149
Trigger mode: 0
Integration Time (sec): 2.000000E-2
Scans to average: 10
Electric dark correction enabled: true
Nonlinearity correction enabled: false
Boxcar width: 0
XAxis mode: Wavelengths
Number of Pixels in Spectrum: 2048
>>>>>Begin Spectral Data<<<<<
341.393	10.95
341.776	10.95
342.16	10.95
342.543	-46.91
342.927	-85.55
343.31	-78.54
343.693	-83.06
344.077	-64.31
344.46	-74.93
344.843	-63.4
345.226	-39.22
345.61	-11.65
345.993	-33.35
346.376	-22.5
346.759	22.02
347.142	41.23
347.525	31.51
347.908	58.85
348.291	76.03
348.674	107.21
349.057	134.11
349.44	129.36
349.823	148.8
350.206	159.64
350.588	187.66
350.971	211.62
351.354	213.2
351.737	235.12
352.119	232.41
352.502	271.28
352.884	273.99
353.267	280.54
353.65	289.58
354.032	304.72
354.414	284.16
354.797	316.93
355.179	314.89
355.562	320.54
355.944	303.59
356.326	322.58
356.709	323.25
357.091	328.45
357.473	323.48
357.855	321.9
358.238	332.75
358.62	358.28
359.002	330.03
359.384	336.81
359.766	344.72
360.148	330.94
360.53	336.36
360.912	332.97
361.294	331.84
361.676	337.94
362.057	318.51
362.439	332.29
362.821	306.98
363.203	305.85
363.584	303.14
363.966	313.99
364.348	317.6
364.729	311.05
365.111	317.83
365.493	325.06
365.874	329.58
366.256	323.71
366.637	316.25
367.019	318.28
367.4	314.21
367.781	304.72
368.163	301.56
368.544	299.75
368.925	295.23
369.306	318.73
369.688	300.2
370.069	303.14
370.45	309.7
370.831	317.38
371.212	308.57
371.593	299.75
371.974	327.55
372.355	317.15
372.736	306.53
373.117	310.37
373.498	311.73
373.879	316.25
374.26	326.87
374.641	305.63
375.021	293.2
375.402	308.79
375.783	314.21
376.163	337.49
376.544	327.32
376.925	323.71
377.305	323.25
377.686	321.9
378.066	336.36
378.447	339.3
378.827	320.09
379.208	335.91
379.588	326.42
379.968	331.39
380.349	336.14
380.729	331.84
381.109	345.85
381.489	342.24
381.87	331.84
382.25	336.59
382.63	342.91
383.01	338.4
383.39	342.24
383.77	351.73
384.15	342.69
384.53	333.2
384.91	352.18
385.29	339.52
385.67	364.16
386.049	347.66
386.429	339.52
386.809	347.89
387.189	331.39
387.568	339.98
387.948	353.76
388.328	346.76
388.707	353.31
389.087	350.82
389.466	342.69
389.846	353.31
390.225	361.67
390.605	370.94
390.984	386.76
391.363	372.74
391.743	371.39
392.122	370.03
392.501	380.43
392.881	389.24
393.26	381.11
393.639	354.89
394.018	356.02
394.397	373.87
394.776	396.02
395.155	366.19
395.534	388.79
395.913	384.72
396.292	377.94
396.671	394.21
397.05	408.45
397.429	378.17
397.808	413.2
398.186	389.69
398.565	424.49
398.944	403.48
399.323	418.62
399.701	421.56
400.08	430.37
400.458	425.4
400.837	418.62
401.215	422.91
401.594	405.29
401.972	432.4
402.351	432.86
402.729	422.23
403.107	437.15
403.486	437.38
403.864	450.71
404.242	456.58
404.62	444.38
404.999	443.93
405.377	462.23
405.755	469.92
406.133	475.11
406.511	467.66
406.889	446.87
407.267	493.42
407.645	495
408.023	501.55
408.401	482.57
408.779	487.77
409.156	501.1
409.534	517.37
409.912	530.03
410.29	547.2
410.667	566.86
411.045	544.94
411.422	544.94
411.8	559.63
412.178	572.29
412.555	595.34
412.933	584.26
413.31	617.94
413.687	627.2
414.065	612.29
414.442	624.72
414.819	597.6
415.197	647.77
415.574	657.48
415.951	647.99
416.328	670.82
416.705	657.26
417.082	663.58
417.46	671.27
417.837	694.77
418.214	704.94
418.591	688.89
418.967	730.7
419.344	720.08
419.721	748.55
420.098	778.84
420.475	781.32
420.852	779.06
421.228	774.99
421.605	795.56
421.982	815.67
422.358	797.82
422.735	857.03
423.111	830.13
423.488	853.18
423.864	869.91
424.241	892.5
424.617	899.06
424.994	925.5
425.37	925.95
425.746	952.84
426.123	931.15
426.499	952.16
426.875	974.99
427.251	994.2
427.627	1033.52
428.003	1019.28
428.379	1050.24
428.756	1045.27
429.132	1069.68
429.507	1088.21
429.883	1065.16
430.259	1130.46
430.635	1109.9
431.011	1148.54
431.387	1150.8
431.763	1141.99
432.138	1174.53
432.514	1209.56
432.89	1197.13
433.265	1211.37
433.641	1235.32
434.016	1285.49
434.392	1282.1
434.767	1359.16
435.143	1353.28
435.518	1352.61
435.894	1398.48
436.269	1405.71
436.644	1452.72
437.02	1454.52
437.395	1478.25
437.77	1502.88
438.145	1534.52
438.52	1540.62
438.895	1578.81
439.271	1579.49
439.646	1624.46
440.021	1665.59
440.395	1680.28
440.77	1683.22
441.145	1663.33
441.52	1712.82
441.895	1742.43
442.27	1753.95
442.645	1787.85
443.019	1798.47
443.394	1782.2
443.769	1849.09
444.143	1840.5
444.518	1887.51
444.892	1888.64
445.267	1878.47
445.641	1907.17
446.016	1959.82
446.39	1946.71
446.764	1946.71
447.139	1983.32
447.513	2007.5
447.887	2003.89
448.262	1993.72
448.636	2010.44
449.01	2042.53
449.384	2062.42
449.758	2099.93
450.132	2104.9
450.506	2165.24
450.88	2129.76
451.254	2101.29
451.628	2158.01
452.002	2214.5
452.376	2211.57
452.75	2241.85
453.123	2243.88
453.497	2287.95
453.871	2327.5
454.244	2345.12
454.618	2355.74
454.992	2386.25
455.365	2353.94
455.739	2440.49
456.112	2454.5
456.486	2478.68
456.859	2491.56
457.232	2559.35
457.606	2528.39
457.979	2559.58
458.352	2663.08
458.725	2691.78
459.099	2661.27
459.472	2703.3
459.845	2730.87
460.218	2759.12
460.591	2782.4
460.964	2776.3
461.337	2841.61
461.71	2905.79
462.083	2939.91
462.456	2909.4
462.829	2962.73
463.201	3064.88
463.574	3023.07
463.947	3070.07
464.32	3119.56
464.692	3176.06
465.065	3137.64
465.438	3223.06
465.81	3294.02
466.183	3274.36
466.555	3387.35
466.928	3359.78
467.3	3369.5
467.672	3419.67
468.045	3532.44
468.417	3489.95
468.789	3517.29
469.161	3571.3
469.534	3602.04
469.906	3722.49
470.278	3692.66
470.65	3749.15
471.022	3816.95
471.394	3945.08
471.766	3907.57
472.138	3943.72
472.51	4049.71
472.882	4068.92
473.253	4145.3
473.625	4163.15
473.997	4247.22
474.369	4292.19
474.74	4322.92
475.112	4407.44
475.484	4477.95
475.855	4539.41
476.227	4536.93
476.598	4675.46
476.97	4729.92
477.341	4817.15
477.713	4857.37
478.084	4870.48
478.455	4959.74
478.827	4996.8
479.198	5155.67
479.569	5200.64
479.94	5330.81
480.311	5358.83
480.682	5442.44
481.053	5510.46
481.424	5653.74
481.795	5684.02
482.166	5796.33
482.537	5760.4
482.908	5891.24
483.279	5954.52
483.65	6028.41
484.021	6113.84
484.391	6213.04
484.762	6234.96
485.133	6288.07
485.503	6397.67
485.874	6506.37
486.244	6538.68
486.615	6652.35
486.985	6702.97
487.356	6822.07
487.726	6860.94
488.097	6937.77
488.467	7014.83
488.837	7109.97
489.207	7208.27
489.578	7240.36
489.948	7356.52
490.318	7378.66
490.688	7386.12
491.058	7495.72
491.428	7643.74
491.798	7697.52
492.168	7838.31
492.538	7834.02
492.908	7987.69
493.278	8005.09
493.648	7968.93
494.017	8128.92
494.387	8170.05
494.757	8209.37
495.126	8295.93
495.496	8283.27
495.866	8354
496.235	8407.79
496.605	8474.68
496.974	8455.92
497.344	8523.49
497.713	8558.07
498.082	8550.16
498.452	8678.29
498.821	8669.02
499.19	8685.52
499.559	8790.6
499.928	8892.97
500.298	8833.31
500.667	8942.69
501.036	8869.92
501.405	8989.69
501.774	8946.98
502.143	9003.93
502.512	9022.23
502.88	9155.11
503.249	8993.99
503.618	9185.62
503.987	9143.81
504.356	9258.84
504.724	9236.24
505.093	9279.63
505.462	9251.38
505.83	9321.66
506.199	9367.31
506.567	9451.38
506.936	9450.47
507.304	9516.01
507.672	9544.03
508.041	9559.4
508.409	9508.55
508.777	9586.51
509.145	9621.99
509.514	9634.65
509.882	9621.77
510.25	9605.04
510.618	9675.78
510.986	9770.01
511.354	9789.22
511.722	9816.11
512.09	9866.96
512.458	9842.1
512.826	9918.03
513.193	9928.65
513.561	9873.96
513.929	9956
514.297	9925.26
514.664	9995.99
515.032	9961.87
515.4	10031.47
515.767	10014.3
516.135	10072.6
516.502	9968.42
516.869	10188.76
517.237	10090.46
517.604	10091.58
517.972	10089.33
518.339	10174.07
518.706	10151.7
519.073	10080.74
519.44	10129.32
519.808	10158.25
520.175	10120.74
520.542	10205.03
520.909	10214.29
521.276	10166.84
521.643	10233.28
522.009	10200.51
522.376	10312.82
522.743	10294.97
523.11	10285.48
523.477	10392.59
523.843	10303.33
524.21	10444.57
524.577	10440.73
524.943	10449.09
525.31	10436.66
525.676	10454.29
526.043	10492.93
526.409	10513.72
526.776	10573.83
527.142	10554.85
527.508	10569.76
527.874	10566.83
528.241	10531.12
528.607	10499.03
528.973	10614.96
529.339	10540.84
529.705	10599.37
530.071	10626.03
530.437	10556.66
530.803	10589.42
531.169	10642.08
531.535	10541.97
531.901	10579.93
532.267	10560.73
532.632	10598.46
532.998	10577.67
533.364	10529.77
533.73	10539.93
534.095	10504.23
534.461	10503.1
534.826	10523.89
535.192	10494.74
535.557	10503.78
535.923	10467.85
536.288	10413.16
536.653	10349.43
537.019	10345.36
537.384	10358.47
537.749	10362.31
538.114	10379.71
538.479	10292.71
538.845	10298.59
539.21	10275.76
539.575	10191.7
539.94	10221.3
540.305	10253.84
540.67	10178.81
541.034	10208.19
541.399	10167.29
541.764	10122.54
542.129	10129.32
542.494	10010.23
542.858	10061.53
543.223	10057.24
543.587	10028.54
543.952	9957.8
544.316	9976.11
544.681	9844.59
545.045	9896.34
545.41	9966.84
545.774	9870.8
546.138	9801.88
546.503	9826.06
546.867	9794.64
547.231	9818.6
547.595	9787.64
547.959	9768.43
548.324	9715.78
548.688	9679.62
549.052	9598.04
549.416	9619.96
549.779	9489.79
550.143	9525.95
550.507	9581.99
550.871	9506.74
551.235	9490.24
551.599	9500.64
551.962	9424.26
552.326	9436.91
552.689	9432.62
553.053	9328.67
553.417	9300.87
553.78	9437.14
554.143	9325.5
554.507	9366.86
554.87	9322.11
555.234	9368.44
555.597	9334.99
555.96	9277.14
556.323	9318.95
556.686	9225.17
557.05	9240.08
557.413	9215.22
557.776	9209.35
558.139	9292.28
558.502	9232.4
558.865	9212.74
559.228	9234.21
559.59	9193.98
559.953	9259.29
560.316	9191.27
560.679	9197.82
561.041	9160.31
561.404	9252.74
561.767	9262.23
562.129	9143.81
562.492	9266.75
562.854	9238.95
563.217	9200.31
563.579	9187.88
563.941	9224.49
564.304	9266.07
564.666	9277.6
565.028	9227.43
565.39	9291.83
565.753	9288.89
566.115	9269.23
566.477	9321.44
566.839	9299.97
567.201	9360.53
567.563	9240.99
567.925	9324.15
568.287	9324.6
568.648	9375.9
569.01	9356.69
569.372	9382
569.734	9385.84
570.095	9416.57
570.457	9434.43
570.819	9488.89
571.18	9397.37
571.542	9490.7
571.903	9465.61
572.265	9452.73
572.626	9454.09
572.987	9495.67
573.349	9510.81
573.71	9514.42
574.071	9558.04
574.432	9505.16
574.794	9572.05
575.155	9577.25
575.516	9553.29
575.877	9576.57
576.238	9582.9
576.599	9588.32
576.96	9607.08
577.32	9586.74
577.681	9591.26
578.042	9625.38
578.403	9664.48
578.763	9597.13
579.124	9690.01
579.485	9781.76
579.845	9738.37
580.206	9654.31
580.566	9661.77
580.927	9725.72
581.287	9731.59
581.648	9730.69
582.008	9755.77
582.368	9728.43
582.728	9808.88
583.089	9799.39
583.449	9772.27
583.809	9779.73
584.169	9793.06
584.529	9789.45
584.889	9843.23
585.249	9799.39
585.609	9802.1
585.969	9853.17
586.329	9808.2
586.688	9876.45
587.048	9787.41
587.408	9825.15
587.768	9862.66
588.127	9800.07
588.487	9831.48
588.846	9871.93
589.206	9857.01
589.565	9771.82
589.925	9863.12
590.284	9884.13
590.643	9864.25
591.003	9866.28
591.362	9941.08
591.721	9883.45
592.08	9880.07
592.44	9938.37
592.799	9975.2
593.158	9843.46
593.517	9880.97
593.876	9948.76
594.235	9890.23
594.593	9867.64
594.952	9928.2
595.311	9887.52
595.67	9863.57
596.029	9939.27
596.387	9954.19
596.746	9928.65
597.104	9943.79
597.463	9931.59
597.822	10004.13
598.18	9903.12
598.538	9905.15
598.897	10005.26
599.255	9866.51
599.613	10064.24
599.972	9912.83
600.33	9946.5
600.688	9927.07
601.046	9969.55
601.404	10005.26
601.762	9991.02
602.12	9965.26
602.478	10022.21
602.836	10102.66
603.194	10001.64
603.552	9980.4
603.91	9934.07
604.268	9979.27
604.625	9911.25
604.983	10011.14
605.341	9901.31
605.698	10061.76
606.056	10029.67
606.413	9976.11
606.771	10009.1
607.128	9991.7
607.485	9983.57
607.843	9977.92
608.2	9996.67
608.557	10051.59
608.914	10047.52
609.272	10115.99
609.629	10057.46
609.986	10113.51
610.343	10066.05
610.7	10183.33
611.057	10100.4
611.414	10144.24
611.771	10169.32
612.127	10198.02
612.484	10113.28
612.841	10164.58
613.198	10148.31
613.554	10144.01
613.911	10224.46
614.267	10239.15
614.624	10187.18
614.98	10241.19
615.337	10302.43
615.693	10178.81
616.05	10257.46
616.406	10251.35
616.762	10264.24
617.118	10280.96
617.475	10191.47
617.831	10271.47
618.187	10250.45
618.543	10292.94
618.899	10327.96
619.255	10293.16
619.611	10299.04
619.967	10247.06
620.323	10304.23
620.678	10264.46
621.034	10268.76
621.39	10297.68
621.746	10289.77
622.101	10367.74
622.457	10344.46
622.812	10304.01
623.168	10309.88
623.523	10360.28
623.879	10340.62
624.234	10355.53
624.589	10242.09
624.945	10296.78
625.3	10306.49
625.655	10337.45
626.01	10257.68
626.365	10309.21
626.72	10329.32
627.075	10259.49
627.43	10277.57
627.785	10214.07
628.14	10234.18
628.495	10226.95
628.85	10267.85
629.205	10244.58
629.559	10197.8
629.914	10205.93
630.269	10321.41
630.623	10221.98
630.978	10195.99
631.332	10254.29
631.687	10275.53
632.041	10127.29
632.396	10177.68
632.75	10181.53
633.104	10160.51
633.459	10106.05
633.813	10096.78
634.167	10150.79
634.521	10100.17
634.875	10075.31
635.229	10087.52
635.583	10049.1
635.937	10011.14
636.291	10050.91
636.645	10063.56
636.999	9985.37
637.352	10020.4
637.706	9908.54
638.06	10019.72
638.413	10033.96
638.767	9976.79
639.121	9997.35
639.474	9918.26
639.828	9934.75
640.181	9919.16
640.534	9931.59
640.888	9923.23
641.241	9944.02
641.594	9830.12
641.947	9922.78
642.301	9859.73
642.654	9906.05
643.007	9769.33
643.36	9884.58
643.713	9843.46
644.066	9845.26
644.419	9730.46
644.771	9739.5
645.124	9706.28
645.477	9673.06
645.83	9593.07
646.182	9542.45
646.535	9565.95
646.888	9590.58
647.24	9577.25
647.593	9531.6
647.945	9476.46
648.298	9396.69
648.65	9534.09
649.002	9393.3
649.355	9510.13
649.707	9470.58
650.059	9528.21
650.411	9642.78
650.763	9604.14
651.115	9714.19
651.467	9616.8
651.819	9693.4
652.171	9710.58
652.523	9686.17
652.875	9660.18
653.227	9603.46
653.578	9750.35
653.93	9736.11
654.282	9602.11
654.633	9633.07
654.985	9652.73
655.337	9650.01
655.688	9677.36
656.039	9718.49
656.391	9581.99
656.742	9671.26
657.094	9654.99
657.445	9639.39
657.796	9665.61
658.147	9631.71
658.498	9632.61
658.849	9685.04
659.2	9658.38
659.551	9643.91
659.902	9753.51
660.253	9659.73
660.604	9716.23
660.955	9684.82
661.306	9709.67
661.656	9645.49
662.007	9694.76
662.358	9668.77
662.708	9708.09
663.059	9673.52
663.409	9629.22
663.76	9709.45
664.11	9709.9
664.461	9731.59
664.811	9770.46
665.161	9725.04
665.511	9699.05
665.862	9761.42
666.212	9755.32
666.562	9820.41
666.912	9763.91
667.262	9718.71
667.612	9733.4
667.962	9737.24
668.312	9753.97
668.662	9753.51
669.011	9719.39
669.361	9690.01
669.711	9692.95
670.06	9679.17
670.41	9675.55
670.76	9724.14
671.109	9691.82
671.459	9606.63
671.808	9618.15
672.157	9730.69
672.507	9628.77
672.856	9674.65
673.205	9626.96
673.554	9649.56
673.904	9643.24
674.253	9756.45
674.602	9637.13
674.951	9534.31
675.3	9456.35
675.649	9662.67
675.998	9571.82
676.346	9559.4
676.695	9644.82
677.044	9547.64
677.393	9592.62
677.741	9534.31
678.09	9512.62
678.438	9448.44
678.787	9500.41
679.135	9471.26
679.484	9404.37
679.832	9456.57
680.181	9350.81
680.529	9476.91
680.877	9405.28
681.225	9384.71
681.573	9509.68
681.922	9420.64
682.27	9335.67
682.618	9374.77
682.966	9342.23
683.314	9355.11
683.661	9344.49
684.009	9252.74
684.357	9260.65
684.705	9277.37
685.053	9191.5
685.4	9179.29
685.748	9152.17
686.095	9101.78
686.443	9118.96
686.79	9067.21
687.138	9120.09
687.485	9101.33
687.832	9061.33
688.18	9071.72
688.527	8952.86
688.874	8978.39
689.221	8954.21
689.568	8955.8
689.915	8851.17
690.262	8892.29
690.609	8902.69
690.956	8838.74
691.303	8835.57
691.65	8771.85
691.997	8736.14
692.344	8674
692.69	8641.91
693.037	8699.08
693.383	8612.75
693.73	8564.62
694.077	8536.6
694.423	8581.57
694.769	8569.14
695.116	8535.02
695.462	8497.05
695.808	8449.59
696.155	8463.83
696.501	8442.14
696.847	8412.99
697.193	8328.69
697.539	8360.78
697.885	8262.93
698.231	8227.91
698.577	8324.17
698.923	8231.07
699.269	8112.2
699.614	8124.18
699.96	8089.6
700.306	8085.54
700.651	7982.71
700.997	8065.2
701.342	7966.44
701.688	7933.22
702.033	7982.26
702.379	7909.5
702.724	7872.66
703.069	7907.24
703.415	7764.19
703.76	7833.79
704.105	7741.59
704.45	7776.17
704.795	7693.46
705.14	7666.34
705.485	7648.71
705.83	7615.27
706.175	7591.76
706.52	7609.62
706.865	7596.74
707.209	7614.59
707.554	7512.67
707.899	7465.67
708.243	7490.98
708.588	7446.68
708.932	7359.23
709.277	7376.85
709.621	7411.2
709.966	7356.74
710.31	7391.99
710.654	7316.52
710.998	7312.22
711.342	7313.8
711.687	7302.28
712.031	7277.42
712.375	7256.18
712.719	7232.68
713.063	7238.33
713.407	7178.67
713.75	7180.48
714.094	7174.83
714.438	7196.29
714.782	7224.09
715.125	7122.4
715.469	7139.35
715.812	7087.14
716.156	7051.66
716.499	7047.82
716.843	7091.21
717.186	7050.53
717.53	7088.05
717.873	7035.17
718.216	7043.3
718.559	6975.51
718.902	6962.63
719.246	6980.93
719.589	6946.81
719.932	6941.61
720.275	6992.91
720.617	7061.38
720.96	6956.53
721.303	6922.18
721.646	6914.95
721.989	6883.53
722.331	6934.38
722.674	6888.96
723.016	6912.01
723.359	6976.19
723.701	6884.21
724.044	6893.25
724.386	6830.65
724.729	6864.78
725.071	6895.28
725.413	6867.26
725.755	6823.87
726.097	6836.53
726.439	6840.37
726.782	6780.49
727.124	6841.27
727.465	6858.9
727.807	6819.58
728.149	6788.39
728.491	6812.12
728.833	6773.03
729.175	6766.93
729.516	6764.44
729.858	6808.51
730.199	6803.76
730.541	6753.37
730.882	6773.48
731.224	6786.59
731.565	6761.73
731.906	6764.21
732.248	6780.94
732.589	6727.38
732.93	6756.98
733.271	6732.35
733.612	6753.82
733.953	6786.14
734.294	6775.97
734.635	6718.34
734.976	6770.54
735.317	6729.19
735.658	6735.29
735.999	6789.75
736.339	6766.47
736.68	6789.75
737.021	6746.36
737.361	6862.97
737.702	6855.29
738.042	6743.2
738.383	6725.12
738.723	6790.88
739.063	6785.23
739.404	6789.3
739.744	6796.53
740.084	6799.47
740.424	6851.44
740.764	6829.98
741.104	6871.1
741.444	6854.38
741.784	6857.55
742.124	6859.35
742.464	6941.16
742.804	6910.43
743.143	6951.1
743.483	6990.88
743.823	6942.52
744.162	6929.41
744.502	6959.46
744.841	6969.18
745.181	7044.89
745.52	7095.51
745.86	7106.8
746.199	7179.35
746.538	7236.97
746.877	7235.16
747.216	7253.47
747.556	7245.78
747.895	7357.42
748.234	7353.58
748.573	7349.28
748.911	7507.92
749.25	7551.99
749.589	7519
749.928	7700.69
750.267	7743.17
750.605	7808.26
750.944	7775.26
751.283	7832.66
751.621	7955.14
751.96	8064.75
752.298	8109.26
752.636	8192.2
752.975	8267.9
753.313	8403.72
753.651	8533.89
753.989	8568.46
754.327	8689.59
754.666	8751.96
755.004	8850.26
755.342	9059.52
755.679	9147.65
756.017	9215.68
756.355	9415.44
756.693	9491.37
757.031	9633.52
757.368	9716.23
757.706	9913.06
758.044	10073.51
758.381	10281.86
758.719	10396.66
759.056	10544
759.394	10638.24
759.731	10800.72
760.068	10881.85
760.405	11101.5
760.743	11228.96
761.08	11510.3
761.417	11496.29
761.754	11737.42
762.091	11934.93
762.428	12028.48
762.765	12268.93
763.102	12478.19
763.438	12560.9
763.775	12740.78
764.112	13000.21
764.449	13190.03
764.785	13281.33
765.122	13453.76
