Data from hue_120_FLMS001491_00075.txt Node
Date: Tue Feb 07 16:59:57 GMT 2017
User: dcchb
Spectrometer: FLMS00149
Trigger mode: 0
Integration Time (sec): 2.000000E-2
Scans to average: 10
Electric dark correction enabled: true
Nonlinearity correction enabled: false
Boxcar width: 0
XAxis mode: Wavelengths
Number of Pixels in Spectrum: 2048
>>>>>Begin Spectral Data<<<<<
341.393	-12.29
341.776	-12.29
342.16	-12.29
342.543	-74.21
342.927	-46.41
343.31	-69.69
343.693	-54.55
344.077	-60.87
344.46	-63.36
344.843	-42.12
345.226	-43.93
345.61	-28.33
345.993	-33.53
346.376	-12.74
346.759	6.47
347.142	37.43
347.525	31.55
347.908	67.48
348.291	75.62
348.674	88.5
349.057	102.06
349.44	133.92
349.823	131.44
350.206	166.24
350.588	203.53
350.971	197.2
351.354	239.91
351.737	258.67
352.119	248.04
352.502	273.13
352.884	272.68
353.267	282.85
353.65	289.63
354.032	292.34
354.414	317.42
354.797	301.6
355.179	311.09
355.562	304.31
355.944	318.32
356.326	340.92
356.709	367.36
357.091	340.92
357.473	339.79
357.855	331.43
358.238	338.66
358.62	367.59
359.002	340.92
359.384	354.71
359.766	335.5
360.148	340.92
360.53	356.52
360.912	359.23
361.294	356.74
361.676	363.07
362.057	351.09
362.439	352
362.821	322.62
363.203	322.17
363.584	333.92
363.966	343.18
364.348	336.86
364.729	330.98
365.111	314.94
365.493	328.27
365.874	327.59
366.256	337.08
366.637	307.93
367.019	313.13
367.4	321.49
367.781	300.02
368.163	340.47
368.544	324.65
368.925	309.29
369.306	328.49
369.688	301.6
370.069	322.17
370.45	315.16
370.831	336.63
371.212	319
371.593	326.91
371.974	315.61
372.355	312.68
372.736	345.67
373.117	324.43
373.498	324.88
373.879	332.79
374.26	329.85
374.641	304.31
375.021	332.79
375.402	325.56
375.783	334.37
376.163	353.35
376.544	343.86
376.925	312.9
377.305	328.49
377.686	349.74
378.066	330.08
378.447	332.56
378.827	342.05
379.208	321.71
379.588	348.61
379.968	349.96
380.349	339.34
380.729	355.39
381.109	338.89
381.489	360.58
381.87	336.86
382.25	340.25
382.63	341.83
383.01	349.28
383.39	355.39
383.77	351.54
384.15	367.82
384.53	355.61
384.91	367.36
385.29	366.91
385.67	339.57
386.049	379.79
386.429	354.93
386.809	368.95
387.189	368.04
387.568	375.05
387.948	363.3
388.328	371.43
388.707	369.4
389.087	366.69
389.466	374.14
389.846	375.27
390.225	387.02
390.605	382.5
390.984	389.06
391.363	390.41
391.743	382.73
392.122	375.5
392.501	367.59
392.881	399
393.26	365.33
393.639	377.53
394.018	391.32
394.397	394.93
394.776	395.84
395.155	406.01
395.534	396.51
395.913	424.76
396.292	413.46
396.671	417.98
397.05	408.94
397.429	401.71
397.808	415.05
398.186	413.24
398.565	410.98
398.944	425.21
399.323	395.84
399.701	396.29
400.08	410.3
400.458	406.91
400.837	428.38
401.215	423.18
401.594	436.97
401.972	429.51
402.351	424.54
402.729	428.83
403.107	443.29
403.486	446.46
403.864	452.33
404.242	427.7
404.62	421.6
404.999	443.75
405.377	443.97
405.755	458.89
406.133	460.92
406.511	436.51
406.889	453.69
407.267	448.72
407.645	465.89
408.023	470.41
408.401	470.19
408.779	456.85
409.156	476.06
409.534	472.67
409.912	482.61
410.29	469.96
410.667	490.07
411.045	490.98
411.422	506.57
411.8	494.82
412.178	499.56
412.555	511.54
412.933	509.51
413.31	525.33
413.687	534.36
414.065	523.29
414.442	519.9
414.819	525.55
415.197	522.39
415.574	539.79
415.951	541.6
416.328	541.14
416.705	547.25
417.082	543.86
417.46	549.51
417.837	566.23
418.214	571.43
418.591	544.99
418.967	561.71
419.344	573.46
419.721	573.69
420.098	590.63
420.475	564.65
420.852	579.56
421.228	593.35
421.605	579.11
421.982	572.56
422.358	576.17
422.735	608.94
423.111	602.84
423.488	610.29
423.864	597.64
424.241	610.97
424.617	622.27
424.994	620.01
425.37	639.67
425.746	627.7
426.123	645.55
426.499	636.96
426.875	649.62
427.251	634.7
427.627	661.14
428.003	648.03
428.379	673.57
428.756	648.03
429.132	677.64
429.507	678.99
429.883	712.89
430.259	710.86
430.635	688.03
431.011	702.95
431.387	705.21
431.763	731.65
432.138	750.86
432.514	750.4
432.89	761.48
433.265	750.18
433.641	775.94
434.016	757.18
434.392	751.08
434.767	782.04
435.143	776.39
435.518	806
435.894	832.44
436.269	768.71
436.644	805.09
437.02	811.42
437.395	807.13
437.77	843.51
438.145	850.97
438.52	853.68
438.895	856.62
439.271	837.63
439.646	878.08
440.021	850.51
440.395	856.62
440.77	885.09
441.145	861.14
441.52	875.37
441.895	888.03
442.27	899.78
442.645	886.45
443.019	928.25
443.394	902.04
443.769	916.05
444.143	911.53
444.518	938.87
444.892	938.42
445.267	925.09
445.641	957.86
446.016	953.79
446.39	974.35
446.764	960.57
447.139	966.9
447.513	996.95
447.887	988.14
448.262	1012.32
448.636	1018.42
449.01	1028.59
449.384	996.95
449.758	1031.3
450.132	1038.08
450.506	1076.5
450.88	1046.22
451.254	1045.99
451.628	1054.12
452.002	1088.7
452.376	1080.34
452.75	1090.51
453.123	1113.11
453.497	1120.56
453.871	1101.58
454.244	1156.27
454.618	1163.5
454.992	1170.73
455.365	1140.9
455.739	1202.37
456.112	1213.22
456.486	1207.12
456.859	1237.85
457.232	1254.12
457.606	1250.73
457.979	1260.45
458.352	1297.28
458.725	1304.97
459.099	1331.63
459.472	1324.63
459.845	1359.43
460.218	1360.56
460.591	1400.33
460.964	1386.09
461.337	1410.73
461.71	1417.51
462.083	1438.52
462.456	1475.58
462.829	1459.99
463.201	1497.05
463.574	1535.47
463.947	1530.95
464.32	1556.71
464.692	1544.73
465.065	1569.14
465.438	1606.65
465.81	1631.51
466.183	1662.47
466.555	1694.79
466.928	1721.68
467.3	1740.89
467.672	1735.46
468.045	1792.86
468.417	1822.01
468.789	1848.91
469.161	1853.65
469.534	1887.1
469.906	1949.02
470.278	1976.59
470.65	2017.94
471.022	2049.8
471.394	2078.96
471.766	2094.78
472.138	2129.8
472.51	2198.95
472.882	2236.69
473.253	2285.96
473.625	2337.03
473.997	2378.38
474.369	2433.75
474.74	2466.97
475.112	2509.23
475.484	2606.4
475.855	2637.81
476.227	2737.92
476.598	2808.88
476.97	2814.08
477.341	2933.62
477.713	2927.52
478.084	3033.96
478.455	3127.74
478.827	3234.18
479.198	3333.84
479.569	3344.46
479.94	3484.8
480.311	3547.17
480.682	3616.09
481.053	3755.97
481.424	3861.96
481.795	3928.85
482.166	4023.76
482.537	4098.11
482.908	4305.79
483.279	4335.62
483.65	4503.53
484.021	4607.93
484.391	4704.2
484.762	4772.9
485.133	4943.74
485.503	5033.23
485.874	5203.39
486.244	5294.24
486.615	5465.53
486.985	5562.71
487.356	5732.65
487.726	5857.39
488.097	6038.17
488.467	6124.27
488.837	6281.11
489.207	6441.1
489.578	6572.85
489.948	6702.34
490.318	6841.32
490.688	6972.39
491.058	7082.44
491.428	7337.8
491.798	7391.13
492.168	7587.51
492.538	7737.56
492.908	7898.24
493.278	8070.89
493.648	8172.13
494.017	8340.94
494.387	8424.1
494.757	8636.52
495.126	8787.71
495.496	8795.39
495.866	9019.11
496.235	9122.16
496.605	9284.19
496.974	9351.99
497.344	9539.55
497.713	9681.02
498.082	9799.21
498.452	9913.33
498.821	10027.45
499.19	10152.19
499.559	10295.24
499.928	10343.6
500.298	10475.12
500.667	10634.66
501.036	10592.86
501.405	10799.18
501.774	10868.78
502.143	11078.49
502.512	11097.93
502.88	11231.26
503.249	11216.8
503.618	11278.26
503.987	11437.35
504.356	11607.07
504.724	11599.61
505.093	11754.18
505.462	11766.84
505.83	11937
506.199	12008.64
506.567	12171.57
506.936	12240.5
507.304	12280.95
507.672	12374.05
508.041	12557.33
508.409	12508.51
508.777	12721.16
509.145	12748.96
509.514	12732.91
509.882	12882.51
510.25	12916.64
510.618	13050.65
510.986	13037.09
511.354	13108.5
511.722	13255.39
512.09	13318.21
512.458	13302.16
512.826	13411.31
513.193	13484.53
513.561	13527.24
513.929	13611.31
514.297	13679.33
514.664	13798.42
515.032	13797.97
515.4	13942.15
515.767	13923.84
516.135	13971.75
516.502	13941.24
516.869	14080.67
517.237	14072.54
517.604	14112.54
517.972	14234.8
518.339	14230.73
518.706	14305.3
519.073	14171.52
519.44	14414
519.808	14432.76
520.175	14393.44
520.542	14470.04
520.909	14642.92
521.276	14570.15
521.643	14739.19
522.009	14719.53
522.376	14756.82
522.743	14794.78
523.11	14843.59
523.477	15030.93
523.843	14929.24
524.21	15083.81
524.577	15122
524.943	15222.34
525.31	15204.26
525.676	15282.45
526.043	15371.04
526.409	15275.22
526.776	15403.8
527.142	15386.86
527.508	15420.53
527.874	15515.67
528.241	15506.63
528.607	15531.48
528.973	15625.49
529.339	15401.77
529.705	15641.09
530.071	15701.65
530.437	15605.15
530.803	15663.46
531.169	15665.49
531.535	15727.86
531.901	15710.24
532.267	15702.1
532.632	15721.99
532.998	15721.54
533.364	15699.39
533.73	15641.76
534.095	15707.75
534.461	15794.53
534.826	15732.38
535.192	15681.54
535.557	15798.37
535.923	15737.81
536.288	15699.62
536.653	15759.95
537.019	15585.27
537.384	15595.66
537.749	15643.35
538.114	15560.64
538.479	15561.77
538.845	15551.6
539.21	15526.51
539.575	15521.32
539.94	15504.59
540.305	15532.84
540.67	15443.8
541.034	15406.74
541.399	15424.82
541.764	15347.31
542.129	15357.7
542.494	15410.58
542.858	15356.8
543.223	15267.99
543.587	15338.27
543.952	15222.79
544.316	15212.4
544.681	15193.41
545.045	15160.65
545.41	15226.41
545.774	15139.63
546.138	15149.35
546.503	15068.67
546.867	14984.15
547.231	15158.39
547.595	15093.3
547.959	15074.55
548.324	14962.46
548.688	14876.81
549.052	14895.34
549.416	14963.36
549.779	14846.98
550.143	14950.03
550.507	14933.76
550.871	14901.44
551.235	14740.77
551.599	14849.02
551.962	14727.21
552.326	14841.33
552.689	14823.48
553.053	14672.52
553.417	14589.59
553.78	14817.83
554.143	14715.23
554.507	14608.12
554.87	14612.64
555.234	14782.13
555.597	14656.25
555.96	14703.48
556.323	14700.55
556.686	14619.87
557.05	14738.96
557.413	14607.67
557.776	14598.18
558.139	14650.15
558.502	14560.89
558.865	14633.65
559.228	14684.95
559.59	14591.62
559.953	14707.78
560.316	14803.59
560.679	14650.38
561.041	14729.25
561.404	14747.32
561.767	14705.07
562.129	14613.77
562.492	14746.87
562.854	14696.25
563.217	14731.05
563.579	14724.05
563.941	14816.93
564.304	14776.02
564.666	14861.9
565.028	14903.48
565.39	14776.93
565.753	14927.66
566.115	14904.38
566.477	14895.34
566.839	14943.25
567.201	15086.75
567.563	14930.37
567.925	15048.33
568.287	15077.94
568.648	14982.8
569.01	15004.27
569.372	15106.41
569.734	14978.73
570.095	15204.49
570.457	15287.42
570.819	15143.47
571.18	15184.6
571.542	15199.97
571.903	15215.56
572.265	15274.99
572.626	15281.55
572.987	15236.12
573.349	15296.91
573.71	15308.89
574.071	15352.96
574.432	15293.3
574.794	15379.85
575.155	15363.13
575.516	15337.82
575.877	15396.57
576.238	15417.36
576.599	15431.15
576.96	15380.3
577.32	15423.46
577.681	15477.25
578.042	15551.82
578.403	15421.88
578.763	15466.18
579.124	15424.37
579.485	15570.58
579.845	15540.3
580.206	15426.63
580.566	15327.87
580.927	15468.89
581.287	15493.75
581.648	15426.4
582.008	15464.82
582.368	15511.15
582.728	15447.87
583.089	15533.07
583.449	15480.19
583.809	15438.38
584.169	15467.31
584.529	15365.84
584.889	15476.8
585.249	15404.71
585.609	15394.99
585.969	15508.66
586.329	15439.51
586.688	15446.29
587.048	15409
587.408	15336.24
587.768	15424.37
588.127	15355.22
588.487	15230.48
588.846	15487.64
589.206	15275.45
589.565	15366.97
589.925	15418.94
590.284	15417.36
590.643	15405.61
591.003	15374.2
591.362	15377.59
591.721	15398.61
592.08	15404.26
592.44	15362.45
592.799	15289.68
593.158	15320.19
593.517	15279.97
593.876	15377.59
594.235	15230.93
594.593	15293.98
594.952	15358.16
595.311	15213.98
595.67	15323.35
596.029	15378.72
596.387	15338.49
596.746	15321.77
597.104	15246.97
597.463	15296.91
597.822	15387.31
598.18	15314.99
598.538	15230.25
598.897	15367.87
599.255	15217.37
599.613	15395.22
599.972	15270.93
600.33	15306.63
600.688	15131.04
601.046	15269.34
601.404	15359.06
601.762	15329.68
602.12	15347.31
602.478	15320.87
602.836	15319.96
603.194	15254.66
603.552	15256.24
603.91	15249.23
604.268	15195.9
604.625	15257.37
604.983	15348.66
605.341	15216.92
605.698	15296.91
606.056	15372.17
606.413	15224.83
606.771	15367.87
607.128	15353.41
607.485	15273.41
607.843	15237.03
608.2	15320.19
608.557	15386.18
608.914	15388.89
609.272	15527.42
609.629	15489.68
609.986	15585.49
610.343	15441.32
610.7	15535.33
611.057	15526.96
611.414	15501.65
611.771	15559.73
612.127	15554.53
612.484	15511.37
612.841	15557.7
613.198	15463.92
613.554	15523.12
613.911	15619.62
614.267	15554.76
614.624	15500.3
614.98	15557.92
615.337	15665.04
615.693	15711.14
616.05	15635.21
616.406	15736.45
616.762	15576.68
617.118	15609
617.475	15656.23
617.831	15792.27
618.187	15748.65
618.543	15667.53
618.899	15807.86
619.255	15746.39
619.611	15774.19
619.967	15810.8
620.323	15764.47
620.678	15851.7
621.034	15736
621.39	15724.02
621.746	15705.04
622.101	15879.05
622.457	15806.05
622.812	15850.35
623.168	15783.68
623.523	15824.58
623.879	15797.69
624.234	15790.91
624.589	15866.62
624.945	15727.64
625.3	15832.27
625.655	15813.96
626.01	15713.17
626.365	15811.7
626.72	15853.96
627.075	15831.59
627.43	15834.75
627.785	15759.5
628.14	15806.28
628.495	15745.49
628.85	15769.9
629.205	15666.85
629.559	15789.33
629.914	15753.17
630.269	15703.01
630.623	15748.65
630.978	15736.22
631.332	15745.72
631.687	15775.32
632.041	15701.42
632.396	15609.67
632.75	15663.01
633.104	15637.92
633.459	15612.16
633.813	15564.93
634.167	15524.48
634.521	15593.18
634.875	15515.67
635.229	15512.95
635.583	15481.32
635.937	15485.38
636.291	15371.26
636.645	15370.58
636.999	15424.59
637.352	15486.29
637.706	15370.13
638.06	15318.16
638.413	15354.77
638.767	15326.52
639.121	15279.06
639.474	15178.5
639.828	15318.16
640.181	15282
640.534	15303.47
640.888	15218.95
641.241	15174.66
641.594	15207.88
641.947	15140.53
642.301	15250.81
642.654	15211.49
643.007	15169.69
643.36	15197.71
643.713	15082.68
644.066	15205.39
644.419	15077.71
644.771	15014.66
645.124	14876.36
645.477	14844.04
645.83	14774.67
646.182	14687.66
646.535	14519.31
646.888	14639.53
647.24	14613.09
647.593	14672.07
647.945	14548.23
648.298	14535.58
648.65	14556.37
649.002	14502.58
649.355	14564.05
649.707	14586.2
650.059	14650.83
650.411	14832.29
650.763	14845.63
651.115	14968.56
651.467	14953.87
651.819	14825.06
652.171	14961.78
652.523	14950.93
652.875	14983.7
653.227	14810.15
653.578	14949.35
653.93	14916.13
654.282	14875.46
654.633	14806.08
654.985	14940.77
655.337	14900.54
655.688	14963.36
656.039	14937.83
656.391	14895.12
656.742	14844.5
657.094	14813.31
657.445	14877.94
657.796	14835.01
658.147	14864.16
658.498	14894.66
658.849	14944.38
659.2	14892.86
659.551	14845.63
659.902	14887.89
660.253	14841.11
660.604	14896.02
660.955	14856.93
661.306	14920.2
661.656	14873.2
662.007	14867.32
662.358	14950.26
662.708	14899.41
663.059	14874.1
663.409	14968.79
663.76	14959.07
664.11	15032.97
664.461	14974.66
664.811	14969.92
665.161	14963.36
665.511	14914.1
665.862	14942.8
666.212	14945.74
666.562	14963.82
666.912	14901.22
667.262	14920.65
667.612	14926.75
667.962	14962.69
668.312	14963.59
668.662	14926.08
669.011	14840.43
669.361	14826.64
669.711	14858.51
670.06	14841.56
670.41	14919.07
670.76	14849.02
671.109	14932.18
671.459	14917.26
671.808	14816.7
672.157	14846.76
672.507	14803.82
672.856	14749.58
673.205	14812.86
673.554	14830.03
673.904	14686.31
674.253	14891.05
674.602	14765.85
674.951	14575.35
675.3	14424.62
675.649	14703.03
675.998	14696.25
676.346	14613.32
676.695	14630.49
677.044	14551.17
677.393	14621.9
677.741	14696.93
678.09	14551.4
678.438	14577.84
678.787	14592.07
679.135	14674.11
679.484	14544.17
679.832	14529.02
680.181	14464.85
680.529	14511.17
680.877	14452.64
681.225	14446.77
681.573	14579.64
681.922	14404.73
682.27	14383.04
682.618	14377.39
682.966	14358.63
683.314	14336.49
683.661	14225.08
684.009	14163.16
684.357	14183.95
684.705	14198.19
685.053	14171.52
685.4	14124.06
685.748	14133.33
686.095	14080.45
686.443	14014.24
686.79	14009.49
687.138	13985.08
687.485	14031.64
687.832	13972.2
688.18	13982.15
688.527	13748.03
688.874	13831.19
689.221	13708.93
689.568	13803.62
689.915	13710.97
690.262	13707.13
690.609	13647.69
690.956	13626.45
691.303	13561.37
691.65	13557.52
691.997	13502.39
692.344	13426
692.69	13428.71
693.037	13408.83
693.383	13243.86
693.73	13331.99
694.077	13214.71
694.423	13189.85
694.769	13182.62
695.116	13163.41
695.462	13175.61
695.808	13030.99
696.155	13046.35
696.501	13011.78
696.847	12936.07
697.193	12900.14
697.539	12789.86
697.885	12745.12
698.231	12798.45
698.577	12663.31
698.923	12727.72
699.269	12518
699.614	12561.39
699.96	12506.25
700.306	12445.01
700.651	12476.65
700.997	12360.95
701.342	12415.18
701.688	12351.23
702.033	12255.86
702.379	12286.15
702.724	12176.77
703.069	12233.72
703.415	12085.02
703.76	12025.14
704.105	12055.64
704.45	12019.26
704.795	11952.14
705.14	11859.72
705.485	11920.96
705.83	11797.35
706.175	11795.99
706.52	11797.12
706.865	11754.18
707.209	11710.34
707.554	11582.21
707.899	11679.16
708.243	11610.01
708.588	11561.19
708.932	11523.91
709.277	11509.22
709.621	11466.73
709.966	11421.99
710.31	11495.43
710.654	11379.73
710.998	11370.24
711.342	11388.09
711.687	11338.15
712.031	11233.07
712.375	11282.33
712.719	11213.18
713.063	11264.7
713.407	11311.71
713.75	11194.42
714.094	11146.06
714.438	11116.01
714.782	11168.44
715.125	11012.51
715.469	11145.16
715.812	11025.39
716.156	10957.37
716.499	10965.5
716.843	10989.68
717.186	10866.3
717.53	11014.31
717.873	10942
718.216	10977.71
718.559	10843.47
718.902	10796.02
719.246	10784.49
719.589	10775.68
719.932	10822
720.275	10738.62
720.617	10802.12
720.96	10763.7
721.303	10786.52
721.646	10775.23
721.989	10776.36
722.331	10725.51
722.674	10693.42
723.016	10735.9
723.359	10625.17
723.701	10718.5
724.044	10598.96
724.386	10545.85
724.729	10646.41
725.071	10571.61
725.413	10656.36
725.755	10609.81
726.097	10569.35
726.439	10469.92
726.782	10602.12
727.124	10582.01
727.465	10474.22
727.807	10585.4
728.149	10518.51
728.491	10445.06
728.833	10616.81
729.175	10457.49
729.516	10461.79
729.858	10487.1
730.199	10506.53
730.541	10450.71
730.882	10450.49
731.224	10504.5
731.565	10422.01
731.906	10434.9
732.248	10452.97
732.589	10411.39
732.93	10342.69
733.271	10375.91
733.612	10401.68
733.953	10364.39
734.294	10301.79
734.635	10356.48
734.976	10408.68
735.317	10296.82
735.658	10367.55
735.999	10370.26
736.339	10363.03
736.68	10385.86
737.021	10353.32
737.361	10340.66
737.702	10338.63
738.042	10370.72
738.383	10393.99
738.723	10381.56
739.063	10333.65
739.404	10356.71
739.744	10388.57
740.084	10433.99
740.424	10299.53
740.764	10388.79
741.104	10407.78
741.444	10456.36
741.784	10447.78
742.124	10448.23
742.464	10520.54
742.804	10431.51
743.143	10464.27
743.483	10521.9
743.823	10476.93
744.162	10503.14
744.502	10618.39
744.841	10530.71
745.181	10670.37
745.52	10608.9
745.86	10706.3
746.199	10652.97
746.538	10765.06
746.877	10840.76
747.216	10875.11
747.556	10835.56
747.895	10951.94
748.234	10886.41
748.573	10999.63
748.911	11052.05
749.25	11162.11
749.589	11172.95
749.928	11285.72
750.267	11330.01
750.605	11407.52
750.944	11493.62
751.283	11525.04
751.621	11623.79
751.96	11696.78
752.298	11831.69
752.636	11945.59
752.975	11894.52
753.313	12068.75
753.651	12144.68
753.989	12263.55
754.327	12318.24
754.666	12407.72
755.004	12609.53
755.342	12658.79
755.679	12876.19
756.017	12953.92
