Data from hue_10_FLMS001491_9.txt Node
Date: Mon Feb 06 15:31:20 GMT 2017
User: dcchb
Spectrometer: FLMS00149
Trigger mode: 0
Integration Time (sec): 2.000000E-2
Scans to average: 10
Electric dark correction enabled: true
Nonlinearity correction enabled: false
Boxcar width: 0
XAxis mode: Wavelengths
Number of Pixels in Spectrum: 2048
>>>>>Begin Spectral Data<<<<<
341.393	-1.41
341.776	-1.41
342.16	-1.41
342.543	-62.88
342.927	-64.69
343.31	-63.56
343.693	-61.52
344.077	-64.69
344.46	-85.48
344.843	-42.99
345.226	-54.29
345.61	-19.94
345.993	-23.33
346.376	-4.35
346.759	16.44
347.142	21.41
347.525	52.6
347.908	59.83
348.291	79.26
348.674	81.52
349.057	109.09
349.44	126.49
349.823	142.99
350.206	147.51
350.588	211.46
350.971	207.4
351.354	206.72
351.737	238.13
352.119	259.82
352.502	239.94
352.884	269.99
353.267	278.81
353.65	305.02
354.032	300.5
354.414	303.89
354.797	321.97
355.179	340.95
355.562	337.56
355.944	325.81
356.326	347.5
356.709	331.23
357.091	350.67
357.473	351.12
357.855	349.99
358.238	345.25
358.62	333.49
359.002	344.79
359.384	343.21
359.766	340.27
360.148	343.89
360.53	319.03
360.912	317.9
361.294	342.31
361.676	349.76
362.057	325.81
362.439	349.99
362.821	330.1
363.203	327.84
363.584	344.12
363.966	327.39
364.348	315.64
364.729	329.2
365.111	331.23
365.493	303.21
365.874	324.45
366.256	336.88
366.637	327.62
367.019	324.91
367.4	319.71
367.781	340.95
368.163	329.88
368.544	316.77
368.925	308.86
369.306	331.46
369.688	311.12
370.069	308.64
370.45	332.82
370.831	309.99
371.212	320.61
371.593	303.89
371.974	308.64
372.355	311.8
372.736	328.97
373.117	325.81
373.498	319.26
373.879	298.47
374.26	312.48
374.641	326.49
375.021	302.31
375.402	312.7
375.783	332.59
376.163	317.45
376.544	331.23
376.925	335.98
377.305	327.62
377.686	333.72
378.066	330.56
378.447	323.78
378.827	342.99
379.208	337.34
379.588	317
379.968	330.78
380.349	313.16
380.729	359.48
381.109	336.88
381.489	332.14
381.87	349.09
382.25	332.82
382.63	347.73
383.01	331.69
383.39	329.65
383.77	357.67
384.15	358.58
384.53	351.35
384.91	343.44
385.29	350.44
385.67	342.76
386.049	351.35
386.429	333.95
386.809	358.13
387.189	351.35
387.568	338.01
387.948	337.56
388.328	355.64
388.707	356.32
389.087	362.42
389.466	367.17
389.846	368.75
390.225	376.88
390.605	362.42
390.984	354.51
391.363	352.25
391.743	354.74
392.122	353.38
392.501	375.3
392.881	370.1
393.26	378.46
393.639	385.02
394.018	358.8
394.397	344.57
394.776	373.94
395.155	392.25
395.534	362.42
395.913	357.9
396.292	395.19
396.671	392.48
397.05	386.6
397.429	366.04
397.808	384.34
398.186	381.18
398.565	387.73
398.944	382.53
399.323	389.76
399.701	395.64
400.08	384.57
400.458	379.82
400.837	401.74
401.215	379.14
401.594	402.42
401.972	418.24
402.351	383.66
402.729	409.88
403.107	404.68
403.486	411.68
403.864	405.13
404.242	409.2
404.62	411.46
404.999	392.93
405.377	389.31
405.755	434.51
406.133	415.3
406.511	396.77
406.889	427.95
407.267	438.8
407.645	404.45
408.023	433.6
408.401	412.36
408.779	427.95
409.156	444.9
409.534	422.98
409.912	425.7
410.29	422.31
410.667	442.42
411.045	448.97
411.422	443.77
411.8	428.86
412.178	449.42
412.555	469.54
412.933	445.81
413.31	454.62
413.687	465.02
414.065	473.6
414.442	471.57
414.819	454.39
415.197	472.93
415.574	464.11
415.951	458.24
416.328	476.09
416.705	483.32
417.082	465.92
417.46	467.73
417.837	491.91
418.214	472.7
418.591	490.33
418.967	479.93
419.344	500.5
419.721	500.95
420.098	524.68
420.475	507.95
420.852	506.6
421.228	495.52
421.605	509.53
421.982	510.21
422.358	522.64
422.735	510.44
423.111	488.29
423.488	533.04
423.864	515.86
424.241	550.66
424.617	523.77
424.994	506.82
425.37	515.64
425.746	526.26
426.123	537.33
426.499	534.62
426.875	531.91
427.251	538.91
427.627	561.51
428.003	559.7
428.379	584.79
428.756	567.39
429.132	576.43
429.507	560.15
429.883	578.23
430.259	584.33
430.635	571.68
431.011	577.1
431.387	585.46
431.763	594.28
432.138	609.19
432.514	606.48
432.89	604.45
433.265	589.76
433.641	636.54
434.016	621.17
434.392	618.46
434.767	630.44
435.143	617.55
435.518	655.07
435.894	634.73
436.269	643.77
436.644	648.74
437.02	625.92
437.395	651.68
437.77	661.85
438.145	667.5
438.52	663.65
438.895	684.45
439.271	692.58
439.646	672.69
440.021	685.58
440.395	694.61
440.77	669.08
441.145	689.42
441.52	686.03
441.895	727.38
442.27	721.73
442.645	717.44
443.019	731.45
443.394	727.61
443.769	725.35
444.143	719.7
444.518	703.2
444.892	716.31
445.267	724.67
445.641	749.53
446.016	753.82
446.39	755.63
446.764	743.65
447.139	749.75
447.513	751.34
447.887	728.06
448.262	763.09
448.636	758.57
449.01	771.45
449.384	772.13
449.758	785.46
450.132	785.46
450.506	783.43
450.88	794.72
451.254	776.87
451.628	795.85
452.002	792.92
452.376	811.67
452.75	820.26
453.123	839.7
453.497	843.31
453.871	829.53
454.244	860.03
454.618	829.53
454.992	869.07
455.365	856.42
455.739	896.87
456.112	860.71
456.486	909.98
456.859	910.2
457.232	880.37
457.606	892.12
457.979	918.56
458.352	916.08
458.725	949.98
459.099	944.33
459.472	948.17
459.845	970.99
460.218	977.09
460.591	964.44
460.964	986.58
461.337	969.18
461.71	1021.84
462.083	1047.37
462.456	1019.58
462.829	1036.07
463.201	1038.79
463.574	1034.04
463.947	1043.08
464.32	1041.95
464.692	1095.73
465.065	1112.91
465.438	1104.32
465.81	1079.46
466.183	1095.28
466.555	1149.74
466.928	1174.6
467.3	1155.62
467.672	1170.99
468.045	1186.13
468.417	1225.9
468.789	1197.65
469.161	1223.64
469.534	1215.5
469.906	1252.34
470.278	1276.97
470.65	1271.1
471.022	1290.53
471.394	1306.58
471.766	1344.54
472.138	1337.54
472.51	1319.23
472.882	1370.98
473.253	1405.78
473.625	1453.92
473.997	1462.05
474.369	1461.15
474.74	1493.01
475.112	1515.61
475.484	1535.04
475.855	1523.97
476.227	1578.89
476.598	1584.76
476.97	1605.78
477.341	1652.33
477.713	1705.21
478.084	1696.62
478.455	1737.75
478.827	1773.46
479.198	1808.03
479.569	1838.31
479.94	1864.08
480.311	1878.76
480.682	1954.24
481.053	1958.54
481.424	1992.21
481.795	2038.76
482.166	2029.49
482.537	2073.34
482.908	2121.7
483.279	2173.22
483.65	2173.22
484.021	2224.74
484.391	2232.2
484.762	2284.63
485.133	2312.65
485.503	2341.8
485.874	2377.06
486.244	2447.34
486.615	2478.07
486.985	2524.17
487.356	2559.65
487.726	2618.86
488.097	2650.95
488.467	2674.45
488.837	2701.12
489.207	2742.02
489.578	2771.85
489.948	2824.28
490.318	2849.13
490.688	2903.14
491.058	2948.79
491.428	2976.14
491.798	3016.36
492.168	3067.43
492.538	3116.47
492.908	3130.48
493.278	3170.26
493.648	3220.88
494.017	3221.78
494.387	3283.47
494.757	3305.39
495.126	3317.14
495.496	3359.63
495.866	3369.12
496.235	3436.01
496.605	3479.17
496.974	3453.86
497.344	3503.81
497.713	3528.21
498.082	3555.33
498.452	3598.49
498.821	3616.35
499.19	3624.93
499.559	3667.19
499.928	3688.66
500.298	3713.97
500.667	3766.85
501.036	3770.92
501.405	3799.84
501.774	3799.17
502.143	3796.45
502.512	3839.62
502.88	3911.71
503.249	3876.9
503.618	3950.8
503.987	3923
504.356	3980.4
504.724	4016.79
505.093	3970.69
505.462	4069.89
505.83	4108.54
506.199	4059.72
506.567	4147.41
506.936	4114.64
507.304	4148.53
507.672	4135.43
508.041	4167.07
508.409	4211.36
508.777	4246.84
509.145	4285.93
509.514	4237.12
509.882	4259.94
510.25	4339.49
510.618	4340.17
510.986	4345.14
511.354	4393.05
511.722	4413.84
512.09	4409.32
512.458	4483.44
512.826	4481.18
513.193	4470.56
513.561	4489.32
513.929	4501.07
514.297	4529.54
514.664	4560.95
515.032	4574.51
515.4	4620.16
515.767	4596.21
516.135	4622.65
516.502	4623.1
516.869	4729.54
517.237	4736.09
517.604	4737.45
517.972	4775.41
518.339	4795.98
518.706	4763.66
519.073	4760.27
519.44	4804.56
519.808	4826.48
520.175	4827.84
520.542	4859.48
520.909	4889.31
521.276	4899.02
521.643	4900.61
522.009	4958.46
522.376	4985.35
522.743	4958.68
523.11	5064.9
523.477	5086.59
523.843	5156.87
524.21	5141.28
524.577	5160.71
524.943	5188.06
525.31	5165.91
525.676	5268.96
526.043	5233.48
526.409	5281.84
526.776	5341.72
527.142	5387.6
527.508	5380.14
527.874	5372.46
528.241	5523.64
528.607	5448.16
528.973	5448.84
529.339	5464.43
529.705	5480.93
530.071	5599.8
530.437	5614.71
530.803	5630.76
531.169	5665.11
531.535	5670.75
531.901	5633.92
532.267	5675.27
532.632	5722.28
532.998	5697.87
533.364	5803.41
533.73	5837.3
534.095	5835.04
534.461	5821.94
534.826	5908.49
535.192	5867.81
535.557	6014.47
535.923	5983.06
536.288	6002.95
536.653	6009.5
537.019	5973.12
537.384	6041.82
537.749	6079.11
538.114	6101.93
538.479	6136.51
538.845	6118.88
539.21	6114.36
539.575	6186.9
539.94	6180.57
540.305	6163.17
540.67	6216.73
541.034	6270.74
541.399	6311.87
541.764	6320
542.129	6335.37
542.494	6376.72
542.858	6351.64
543.223	6435.71
543.587	6470.28
543.952	6424.18
544.316	6445.42
544.681	6525.42
545.045	6556.16
545.41	6534.01
545.774	6607.23
546.138	6627.57
546.503	6594.35
546.867	6609.94
547.231	6719.54
547.595	6691.52
547.959	6728.13
548.324	6708.92
548.688	6757.73
549.052	6797.73
549.416	6833.66
549.779	6804.51
550.143	6832.76
550.507	6918.86
550.871	6944.85
551.235	6934.9
551.599	6969.7
551.962	6938.74
552.326	7036.37
552.689	7056.93
553.053	7067.33
553.417	7080.44
553.78	7193.88
554.143	7066.42
554.507	7113.65
554.87	7149.13
555.234	7273.65
555.597	7210.15
555.96	7188.23
556.323	7259.19
556.686	7272.75
557.05	7311.39
557.413	7333.54
557.776	7396.59
558.139	7305.74
558.502	7419.18
558.865	7395.68
559.228	7442.46
559.59	7485.17
559.953	7522.23
560.316	7592.74
560.679	7569.01
561.041	7564.26
561.404	7618.95
561.767	7687.88
562.129	7604.72
562.492	7693.98
562.854	7724.03
563.217	7679.06
563.579	7811.94
563.941	7849.91
564.304	7822.56
564.666	7849.91
565.028	7865.27
565.39	7931.71
565.753	7908.44
566.115	8021.65
566.477	7976
566.839	8079.73
567.201	8033.4
567.563	8047.19
567.925	8109.56
568.287	8154.98
568.648	8196.11
569.01	8241.99
569.372	8241.99
569.734	8209.9
570.095	8337.13
570.457	8374.41
570.819	8421.42
571.18	8413.96
571.542	8467.07
571.903	8487.18
572.265	8568.08
572.626	8593.62
572.987	8621.19
573.349	8665.7
573.71	8707.29
574.071	8760.39
574.432	8773.5
574.794	8906.83
575.155	8914.96
575.516	8877.68
575.877	8995.41
576.238	9027.05
576.599	9111.34
576.96	9125.58
577.32	9213.49
577.681	9294.39
578.042	9402.86
578.403	9427.04
578.763	9513.37
579.124	9586.58
579.485	9695.96
579.845	9808.27
580.206	9875.39
580.566	9976.63
580.927	10086.68
581.287	10230.63
581.648	10281.93
582.008	10398.77
582.368	10516.05
582.728	10669.72
583.089	10781.13
583.449	10889.83
583.809	11036.94
584.169	11251.63
584.529	11359.64
584.889	11596.47
585.249	11693.87
585.609	11794.89
585.969	12059.06
586.329	12194.2
586.688	12444.14
587.048	12607.75
587.408	12778.82
587.768	12997.79
588.127	13161.63
588.487	13358.69
588.846	13708.06
589.206	13874.38
589.565	14120.02
589.925	14266.91
590.284	14576.06
590.643	14855.15
591.003	15156.61
591.362	15431.85
591.721	15578.97
592.08	15849.02
592.44	16121.33
592.799	16383.24
593.158	16572.84
593.517	16960.85
593.876	17161.75
594.235	17448.52
594.593	17723.55
594.952	18043.76
595.311	18298.45
595.67	18574.82
596.029	19041.93
596.387	19191.76
596.746	19442.82
597.104	19768.46
597.463	20012.3
597.822	20407.32
598.18	20581.32
598.538	20866.51
598.897	21261.53
599.255	21281.87
599.613	21960.72
599.972	22123.66
600.33	22466.47
600.688	22661.27
601.046	22946.46
601.404	23213.57
601.762	23572.43
602.12	23919.99
602.478	24108.01
602.836	24484.95
603.194	24487.66
603.552	24848.78
603.91	25034.54
604.268	25472.49
604.625	25541.64
604.983	26056.89
605.341	26123.32
605.698	26547.49
606.056	26746.13
606.413	26991.32
606.771	27293.69
607.128	27495.27
607.485	27658.88
607.843	27937.06
608.2	28226.09
608.557	28575.92
608.914	28580.21
609.272	28984.49
609.629	29148.1
609.986	29516.46
610.343	29570.69
610.7	29887.07
611.057	30205.25
611.414	30338.13
611.771	30588.52
612.127	30762.52
612.484	31033.7
612.841	31342.4
613.198	31344.2
613.554	31609.28
613.911	31942.15
614.267	32053.11
614.624	32227.8
614.98	32425.53
615.337	32601.57
615.693	32745.07
616.05	32844.73
616.406	33102.35
616.762	33082.46
617.118	33400.2
617.475	33440.87
617.831	33755.21
618.187	33899.17
618.543	34103
618.899	34270.68
619.255	34241.3
619.611	34427.51
619.967	34700.5
620.323	34883.55
620.678	34789.09
621.034	34841.51
621.39	35043.77
621.746	35119.92
622.101	35613.24
622.457	35300.03
622.812	35478.56
623.168	35615.96
623.523	35787.25
623.879	35859.57
624.234	35871.99
624.589	36027.7
624.945	36093.01
625.3	36195.15
625.655	36277.63
626.01	36405.77
626.365	36445.54
626.72	36467.91
627.075	36589.26
627.43	36721.24
627.785	36568.93
628.14	36549.94
628.495	36957.16
628.85	36799.88
629.205	36745.42
629.559	36992.42
629.914	36867
630.269	37003.26
630.623	36873.78
630.978	36883.95
631.332	37193.99
631.687	37225.18
632.041	37071.74
632.396	37250.04
632.75	37137.72
633.104	37302.01
633.459	37179.08
633.813	37359.87
634.167	37320.09
634.521	37245.97
634.875	37405.97
635.229	37373.88
635.583	37218.17
635.937	37349.02
636.291	37359.87
636.645	37368.9
636.999	37281.9
637.352	37384.72
637.706	37223.6
638.06	37426.98
638.413	37324.84
638.767	37289.58
639.121	37295.23
639.474	37140.89
639.828	37238.06
640.181	37284.39
640.534	37408
640.888	37212.75
641.241	37103.6
641.594	37182.92
641.947	37288.45
642.301	37161.45
642.654	37211.62
643.007	37292.52
643.36	37244.39
643.713	37208.46
644.066	37407.77
644.419	36992.19
644.771	36831.74
645.124	36596.95
645.477	36523.5
645.83	36327.12
646.182	36094.59
646.535	35990.41
646.888	36098.2
647.24	35996.74
647.593	36260.68
647.945	36139.56
648.298	35993.12
648.65	35886.01
649.002	35763.52
649.355	36043.29
649.707	35913.8
650.059	36133.68
650.411	36537.51
650.763	36558.08
651.115	36987.67
651.467	36941.8
651.819	36791.29
652.171	36854.12
652.523	36679.88
652.875	36696.83
653.227	36561.24
653.578	36907.67
653.93	36770.28
654.282	36436.73
654.633	36462.04
654.985	36737.28
655.337	36665.19
655.688	36634.69
656.039	36796.26
656.391	36398.99
656.742	36486.67
657.094	36597.4
657.445	36673.1
657.796	36511.53
658.147	36570.96
658.498	36361.7
658.849	36631.07
659.2	36459.32
659.551	36366.9
659.902	36621.58
660.253	36438.53
660.604	36516.95
660.955	36327.12
661.306	36470.85
661.656	36411.87
662.007	36444.41
662.358	36391.3
662.708	36378.65
663.059	36255.49
663.409	36139.11
663.76	36411.87
664.11	36419.32
664.461	36298.42
664.811	36446.89
665.161	36408.7
665.511	36275.15
665.862	36321.02
666.212	36506.55
666.562	36596.27
666.912	36255.26
667.262	36292.1
667.612	36289.16
667.962	36288.71
668.312	36275.15
668.662	36528.93
669.011	36305.66
669.361	36205.32
669.711	36249.61
670.06	36215.49
670.41	36238.76
670.76	36162.61
671.109	36219.1
671.459	36152.44
671.808	36094.14
672.157	36239.67
672.507	36042.16
672.856	36114.47
673.205	36243.74
673.554	36196.28
673.904	36079.67
674.253	36217.07
674.602	36112.67
674.951	35599.69
675.3	35401.72
675.649	36026.11
675.998	35957.64
676.346	36030.86
676.695	36190.86
677.044	35687.37
677.393	35944.31
677.741	35961.26
678.09	35840.36
678.438	35724.43
678.787	35856.63
679.135	35715.16
679.484	35450.08
679.832	35769.62
680.181	35539.8
680.529	35715.61
680.877	35445.34
681.225	35520.82
681.573	35730.98
681.922	35432.23
682.27	35269.52
682.618	35415.51
682.966	35208.06
683.314	35300.48
683.661	35200.37
684.009	35109.08
684.357	34964.67
684.705	35000.15
685.053	35012.13
685.4	34908.86
685.748	34812.81
686.095	34712.93
686.443	34781.63
686.79	34709.54
687.138	34923.77
687.485	34698.01
687.832	34545.02
688.18	34578.24
688.527	34397.01
688.874	34481.75
689.221	34351.13
689.568	34253.51
689.915	34164.92
690.262	34136.45
690.609	34011.25
690.956	33906.17
691.303	33918.15
691.65	33746.4
691.997	33757.7
692.344	33585.05
692.69	33628.66
693.037	33540.98
693.383	33366.52
693.73	33344.6
694.077	33052.86
694.423	33291.95
694.769	33021.67
695.116	33091.5
695.462	32921.56
695.808	32941.68
696.155	32932.86
696.501	32692.87
696.847	32723.83
697.193	32427.79
697.539	32538.75
697.885	32362.03
698.231	32309.6
698.577	32359.09
698.923	32196.61
699.269	31936.73
699.614	31861.03
699.96	31864.42
700.306	31838.88
700.651	31784.64
700.997	31616.06
701.342	31519.79
701.688	31505.1
702.033	31489.74
702.379	31422.17
702.724	31353.92
703.069	31364.32
703.415	30931.56
703.76	31082.97
704.105	31116.41
704.45	30940.6
704.795	30823.31
705.14	30743.99
705.485	30696.31
705.83	30664.22
706.175	30620.83
706.52	30539.71
706.865	30447.5
707.209	30447.96
707.554	30207.06
707.899	30246.61
708.243	30211.58
708.588	30311.69
708.932	30013.62
709.277	29904.47
709.621	30057.68
709.966	29744.25
710.31	29969.1
710.654	29645.94
710.998	29611.59
711.342	29551.93
711.687	29596.68
712.031	29375.44
712.375	29381.09
712.719	29394.42
713.063	29320.53
713.407	29420.19
713.75	29126.64
714.094	29099.07
714.438	29212.96
714.782	29106.75
715.125	28886.42
715.469	28942.23
715.812	28857.04
716.156	28723.93
716.499	28748.34
716.843	28701.79
717.186	28547.44
717.53	28871.95
717.873	28653.65
718.216	28538.4
718.559	28488.46
718.902	28340.89
719.246	28294.34
719.589	28296.37
719.932	28108.58
720.275	28013.9
720.617	28057.28
720.96	28013.9
721.303	27963.28
721.646	28016.83
721.989	27817.74
722.331	27968.93
722.674	27969.6
723.016	27896.16
723.359	27749.04
723.701	27711.53
724.044	27482.16
724.386	27439
724.729	27529.84
725.071	27385.66
725.413	27567.81
725.755	27526
726.097	27395.16
726.439	27241.26
726.782	27348.83
727.124	27382.73
727.465	27340.24
727.807	27132.56
728.149	27075.84
728.491	27040.81
728.833	27154.03
729.175	27017.31
729.516	26929.86
729.858	26964.43
730.199	26831.1
730.541	26821.61
730.882	26882.63
731.224	27043.75
731.565	26745
731.906	26732.8
732.248	26739.58
732.589	26582.97
732.93	26503.65
733.271	26443.32
733.612	26528.51
733.953	26538.23
734.294	26412.81
734.635	26431.56
734.976	26401.96
735.317	26283.32
735.658	26340.04
735.999	26284.22
736.339	26178.92
736.68	26262.53
737.021	26134.17
737.361	25965.14
737.702	26281.74
738.042	26171.68
738.383	25969.43
738.723	25934.4
739.063	25919.49
739.404	25972.37
739.744	25893.95
740.084	25753.62
740.424	25748.87
740.764	25924.01
741.104	25922.2
741.444	25700.74
741.784	25650.12
742.124	25644.24
742.464	25607.18
742.804	25626.61
743.143	25547.07
743.483	25648.76
743.823	25432.04
744.162	25475.66
744.502	25434.75
744.841	25312.27
745.181	25446.73
745.52	25369.67
745.86	25270.92
746.199	25190.02
746.538	25315.89
746.877	25162.45
747.216	25122.22
747.556	25099.4
747.895	25067.53
748.234	24898.5
748.573	25022.11
748.911	24946.86
749.25	24914.54
749.589	24801.1
749.928	24801.55
750.267	24811.49
750.605	24806.97
750.944	24591.39
751.283	24653.53
751.621	24707.54
751.96	24459.19
752.298	24556.13
752.636	24569.24
752.975	24375.35
753.313	24485.85
753.651	24473.42
753.989	24398.4
754.327	24365.4
754.666	24241.57
755.004	24248.35
755.342	24339.19
755.679	24248.8
756.017	24130.38
756.355	24008.8
756.693	23983.72
757.031	23982.59
757.368	23814.68
757.706	23858.75
758.044	23730.84
758.381	23865.53
758.719	23531.75
759.056	23677.51
759.394	23524.07
759.731	23523.17
760.068	23401.81
760.405	23319.78
760.743	23242.95
761.08	23348.48
