Data from hue_270_FLMS001491_00022.txt Node
Date: Tue Feb 07 15:56:57 GMT 2017
User: dcchb
Spectrometer: FLMS00149
Trigger mode: 0
Integration Time (sec): 2.000000E-2
Scans to average: 10
Electric dark correction enabled: true
Nonlinearity correction enabled: false
Boxcar width: 0
XAxis mode: Wavelengths
Number of Pixels in Spectrum: 2048
>>>>>Begin Spectral Data<<<<<
341.393	-18.39
341.776	-18.39
342.16	-18.39
342.543	-62
342.927	-71.72
343.31	-61.33
343.693	-68.56
344.077	-85.28
344.46	-62
344.843	-51.38
345.226	-41.21
345.61	-9.12
345.993	-20.42
346.376	-1.89
346.759	13.02
347.142	33.81
347.525	30.2
347.908	83.08
348.291	66.35
348.674	67.48
349.057	107.26
349.44	96.86
349.823	130.76
350.206	155.17
350.588	174.15
350.971	199.46
351.354	223.64
351.737	233.36
352.119	222.51
352.502	255.28
352.884	259.57
353.267	276.07
353.65	286.69
354.032	275.61
354.414	301.15
354.797	309.96
355.179	310.42
355.562	301.38
355.944	296.4
356.326	310.87
356.709	317.2
357.091	343.18
357.473	300.7
357.855	321.04
358.238	324.88
358.62	327.59
359.002	340.25
359.384	316.29
359.766	316.07
360.148	331.66
360.53	347.93
360.912	346.12
361.294	340.25
361.676	317.87
362.057	323.75
362.439	315.16
362.821	336.4
363.203	311.09
363.584	289.63
363.966	309.29
364.348	310.42
364.729	323.52
365.111	323.07
365.493	308.38
365.874	315.16
366.256	317.87
366.637	304.77
367.019	300.7
367.4	312
367.781	307.25
368.163	318.32
368.544	314.03
368.925	319
369.306	317.42
369.688	314.48
370.069	300.7
370.45	313.35
370.831	293.92
371.212	302.73
371.593	310.42
371.974	317.42
372.355	292.79
372.736	302.51
373.117	319.45
373.498	310.19
373.879	318.78
374.26	321.94
374.641	312.9
375.021	321.71
375.402	339.34
375.783	318.1
376.163	318.32
376.544	309.51
376.925	338.66
377.305	302.28
377.686	311.77
378.066	315.39
378.447	321.04
378.827	323.07
379.208	319.68
379.588	327.82
379.968	327.36
380.349	325.78
380.729	323.52
381.109	320.58
381.489	329.17
381.87	318.78
382.25	340.7
382.63	332.79
383.01	341.15
383.39	339.12
383.77	335.5
384.15	345.44
384.53	356.74
384.91	339.34
385.29	352.22
385.67	348.15
386.049	356.97
386.429	340.47
386.809	346.8
387.189	367.36
387.568	351.32
387.948	362.84
388.328	366.23
388.707	358.55
389.087	368.04
389.466	356.52
389.846	346.8
390.225	349.51
390.605	360.36
390.984	370.53
391.363	353.13
391.743	356.74
392.122	374.14
392.501	385.67
392.881	380.92
393.26	399.23
393.639	379.57
394.018	378.66
394.397	391.32
394.776	383.63
395.155	398.1
395.534	402.16
395.913	402.16
396.292	410.07
396.671	394.26
397.05	393.13
397.429	400.13
397.808	392.45
398.186	407.14
398.565	389.96
398.944	402.39
399.323	401.03
399.701	413.01
400.08	409.85
400.458	414.82
400.837	436.06
401.215	424.54
401.594	434.03
401.972	422.73
402.351	435.16
402.729	430.86
403.107	418.44
403.486	423.41
403.864	457.76
404.242	436.97
404.62	437.64
404.999	436.29
405.377	466.34
405.755	461.37
406.133	473.58
406.511	458.21
406.889	471.54
407.267	476.29
407.645	494.14
408.023	481.26
408.401	484.2
408.779	492.33
409.156	494.37
409.534	506.34
409.912	492.78
410.29	494.14
410.667	514.48
411.045	544.08
411.422	547.92
411.8	536.4
412.178	569.17
412.555	566.23
412.933	582.72
413.31	593.12
413.687	574.82
414.065	583.63
414.442	586.79
414.819	600.13
415.197	598.09
415.574	612.33
415.951	600.35
416.328	617.98
416.705	633.8
417.082	625.44
417.46	632.22
417.837	647.58
418.214	652.55
418.591	649.16
418.967	674.7
419.344	684.42
419.721	690.52
420.098	675.38
420.475	700.69
420.852	693.46
421.228	698.43
421.605	724.87
421.982	743.4
422.358	751.99
422.735	747.92
423.111	753.34
423.488	771.42
423.864	801.93
424.241	796.5
424.617	822.94
424.994	796.5
425.37	840.8
425.746	832.21
426.123	846.22
426.499	845.09
426.875	872.89
427.251	860.91
427.627	882.83
428.003	901.36
428.379	918.54
428.756	926.44
429.132	948.36
429.507	963.96
429.883	961.92
430.259	984.07
430.635	947.91
431.011	986.56
431.387	1011.41
431.763	1004.18
432.138	1013.45
432.514	1022.49
432.89	1056.61
433.265	1073.33
433.641	1083.28
434.016	1094.35
434.392	1109.94
434.767	1148.13
435.143	1139.77
435.518	1149.04
435.894	1182.48
436.269	1205.31
436.644	1220.9
437.02	1243.05
437.395	1243.27
437.77	1257.51
438.145	1294.12
438.52	1308.36
438.895	1325.76
439.271	1328.47
439.646	1337.51
440.021	1362.37
440.395	1365.98
440.77	1350.61
441.145	1394.68
441.52	1420.67
441.895	1411.18
442.27	1429.26
442.645	1455.7
443.019	1448.24
443.394	1484.4
443.769	1474
444.143	1488.24
444.518	1505.41
444.892	1487.33
445.267	1501.8
445.641	1542.02
446.016	1542.47
446.39	1539.31
446.764	1572.3
447.139	1567.33
447.513	1588.57
447.887	1586.54
448.262	1592.19
448.636	1593.09
449.01	1605.75
449.384	1641.23
449.758	1612.53
450.132	1646.43
450.506	1667.44
450.88	1680.55
451.254	1687.55
451.628	1702.92
452.002	1716.71
452.376	1727.55
452.75	1716.71
453.123	1747.89
453.497	1781.11
453.871	1784.28
454.244	1804.16
454.618	1840.77
454.992	1808.68
455.365	1832.18
455.739	1875.12
456.112	1901.56
456.486	1923.48
456.859	1942.01
457.232	1953.99
457.606	1970.26
457.979	1985.85
458.352	2019.3
458.725	2036.92
459.099	2040.31
459.472	2074.89
459.845	2079.63
460.218	2123.7
460.591	2123.93
460.964	2138.84
461.337	2169.35
461.71	2201.21
462.083	2251.38
462.456	2250.93
462.829	2223.59
463.201	2240.31
463.574	2263.81
463.947	2294.54
464.32	2379.29
464.692	2353.3
465.065	2363.69
465.438	2372.28
465.81	2406.41
466.183	2479.4
466.555	2504.93
466.928	2485.95
467.3	2472.84
467.672	2531.37
468.045	2603.46
468.417	2596.23
468.789	2617.93
469.161	2632.16
469.534	2679.17
469.906	2712.61
470.278	2729.79
470.65	2753.06
471.022	2834.42
471.394	2843.46
471.766	2874.19
472.138	2904.7
472.51	2936.11
472.882	2995.99
473.253	2992.83
473.625	3031.02
473.997	3087.97
474.369	3096.78
474.74	3148.98
475.112	3178.59
475.484	3241.64
475.855	3236.67
476.227	3270.79
476.598	3347.62
476.97	3402.99
477.341	3402.54
477.713	3441.86
478.084	3530.9
478.455	3566.83
478.827	3571.12
479.198	3672.81
479.569	3720.72
479.94	3745.81
480.311	3794.39
480.682	3870.55
481.053	3948.96
481.424	3946.48
481.795	3988.96
482.166	4039.36
482.537	4054.5
482.908	4132.24
483.279	4161.84
483.65	4216.98
484.021	4293.14
484.391	4381.27
484.762	4398.22
485.133	4443.19
485.503	4439.35
485.874	4542.85
486.244	4525.9
486.615	4610.64
486.985	4692.67
487.356	4763.63
487.726	4729.51
488.097	4866
488.467	4889.73
488.837	4976.28
489.207	4957.3
489.578	5037.3
489.948	5078.65
490.318	5190.29
490.688	5151.87
491.058	5193
491.428	5268.48
491.798	5314.35
492.168	5432.54
492.538	5423.73
492.908	5432.54
493.278	5517.96
493.648	5507.79
494.017	5573.1
494.387	5655.81
494.757	5633.21
495.126	5697.62
495.496	5727.22
495.866	5706.43
496.235	5802.93
496.605	5803.6
496.974	5825.75
497.344	5884.96
497.713	5946.2
498.082	5928.57
498.452	5976.93
498.821	6024.39
499.19	6033.65
499.559	6063.48
499.928	6061
500.298	6148.45
500.667	6131.96
501.036	6182.13
501.405	6178.74
501.774	6226.19
502.143	6179.64
502.512	6283.59
502.88	6286.98
503.249	6333.99
503.618	6349.13
503.987	6350.93
504.356	6430.93
504.724	6435.9
505.093	6438.62
505.462	6426.19
505.83	6442.46
506.199	6456.92
506.567	6532.85
506.936	6557.48
507.304	6634.54
507.672	6590.7
508.041	6652.85
508.409	6646.97
508.777	6712.73
509.145	6750.02
509.514	6680.87
509.882	6751.15
510.25	6756.57
510.618	6819.62
510.986	6823.46
511.354	6852.84
511.722	6873.86
512.09	6919.28
512.458	6887.19
512.826	6958.83
513.193	6945.27
513.561	6955.44
513.929	7009.67
514.297	7058.03
514.664	7030.24
515.032	7041.31
515.4	7115.66
515.767	7103.91
516.135	7092.16
516.502	7085.15
516.869	7098.94
517.237	7173.96
517.604	7155.43
517.972	7211.03
518.339	7239.72
518.706	7223.68
519.073	7274.3
519.44	7290.12
519.808	7330.34
520.175	7288.31
520.542	7389.55
520.909	7399.95
521.276	7388.87
521.643	7379.61
522.009	7448.08
522.376	7477.01
522.743	7463
523.11	7531.02
523.477	7591.81
523.843	7620.05
524.21	7618.92
524.577	7716.55
524.943	7726.27
525.31	7702.31
525.676	7747.73
526.043	7803.55
526.409	7816.43
526.776	7843.32
527.142	7902.08
527.508	7828.18
527.874	7932.81
528.241	7954.96
528.607	7953.6
528.973	7996.99
529.339	7973.26
529.705	8070.66
530.071	8069.08
530.437	8082.41
530.803	8085.8
531.169	8123.77
531.535	8122.64
531.901	8145.92
532.267	8076.31
532.632	8242.41
532.998	8221.17
533.364	8219.59
533.73	8236.99
534.095	8275.4
534.461	8295.52
534.826	8301.84
535.192	8251.9
535.557	8366.25
535.923	8308.85
536.288	8321.96
536.653	8363.31
537.019	8347.72
537.384	8390.88
537.749	8425
538.114	8421.61
538.479	8395.85
538.845	8424.33
539.21	8416.87
539.575	8410.54
539.94	8478.34
540.305	8449.86
540.67	8546.58
541.034	8478.56
541.399	8554.72
541.764	8464.33
542.129	8522.63
542.494	8559.24
542.858	8566.7
543.223	8516.3
543.587	8598.79
543.952	8598.79
544.316	8624.32
544.681	8619.12
545.045	8579.12
545.41	8707.26
545.774	8645.79
546.138	8658.44
546.503	8642.85
546.867	8680.59
547.231	8718.56
547.595	8684.21
547.959	8712.68
548.324	8679.46
548.688	8738.22
549.052	8717.2
549.416	8718.33
549.779	8769.85
550.143	8767.82
550.507	8829.97
550.871	8794.94
551.235	8725.56
551.599	8871.32
551.962	8844.88
552.326	8861.15
552.689	8946.12
553.053	8874.03
553.417	8907.03
553.78	8952
554.143	8945.89
554.507	8993.8
554.87	9004.42
555.234	9015.27
555.597	9000.13
555.96	9063.63
556.323	9026.8
556.686	9069.28
557.05	9084.42
557.413	9118.32
557.776	9114.25
558.139	9173.91
558.502	9164.42
558.865	9184.08
559.228	9268.6
559.59	9284.42
559.953	9314.25
560.316	9326.68
560.679	9358.54
561.041	9382.95
561.404	9391.53
561.767	9522.83
562.129	9437.41
562.492	9494.81
562.854	9478.08
563.217	9522.6
563.579	9552.66
563.941	9601.92
564.304	9584.52
564.666	9731.64
565.028	9675.59
565.39	9689.38
565.753	9729.15
566.115	9730.73
566.477	9836.94
566.839	9856.15
567.201	9861.58
567.563	9900.9
567.925	9979.31
568.287	9938.41
568.648	9989.26
569.01	10063.38
569.372	10094.34
569.734	10086.2
570.095	10122.81
570.457	10114.23
570.819	10178.18
571.18	10168.46
571.542	10214.34
571.903	10322.36
572.265	10335.91
572.626	10334.56
572.987	10318.29
573.349	10438.51
573.71	10492.07
574.071	10452.97
574.432	10485.74
574.794	10634.66
575.155	10581.56
575.516	10676.02
575.877	10635.34
576.238	10677.6
576.599	10696.36
576.96	10692.52
577.32	10747.66
577.681	10826.52
578.042	10820.2
578.403	10819.52
578.763	10892.96
579.124	10926.18
579.485	10999.63
579.845	10973.64
580.206	10918.72
580.566	10960.98
580.927	11026.07
581.287	11110.13
581.648	11058.83
582.008	11105.16
582.368	11163.69
582.728	11189.9
583.089	11176.34
583.449	11220.41
583.809	11297.02
584.169	11301.09
584.529	11281.88
584.889	11345.38
585.249	11340.63
585.609	11309
585.969	11426.28
586.329	11377.24
586.688	11450.46
587.048	11418.6
587.408	11487.3
587.768	11468.77
588.127	11470.57
588.487	11541.98
588.846	11571.14
589.206	11518.03
589.565	11551.93
589.925	11693.62
590.284	11677.57
590.643	11653.85
591.003	11857.91
591.362	11752.15
591.721	11822.43
592.08	11769.55
592.44	11864.01
592.799	11869.89
593.158	11912.6
593.517	11811.58
593.876	11916.44
594.235	11959.37
594.593	11927.74
594.952	12025.36
595.311	11998.92
595.67	12005.25
596.029	12071.01
596.387	12083.67
596.746	12107.39
597.104	12084.57
597.463	12061.52
597.822	12100.39
598.18	12155.08
598.538	12108.75
598.897	12178.35
599.255	12015.87
599.613	12276.2
599.972	12152.14
600.33	12303.55
600.688	12194.85
601.046	12301.74
601.404	12282.53
601.762	12249.08
602.12	12341.06
602.478	12334.51
602.836	12346.71
603.194	12349.2
603.552	12427.39
603.91	12251.34
604.268	12346.03
604.625	12228.75
604.983	12402.3
605.341	12273.94
605.698	12393.49
606.056	12425.35
606.413	12360.49
606.771	12389.42
607.128	12414.5
607.485	12337.44
607.843	12459.25
608.2	12463.54
608.557	12501.73
608.914	12443.43
609.272	12506.48
609.629	12538.34
609.986	12656.31
610.343	12551
610.7	12622.41
611.057	12582.18
611.414	12682.29
611.771	12634.16
612.127	12740.37
612.484	12662.41
612.841	12731.78
613.198	12689.53
613.554	12720.26
613.911	12800.03
614.267	12780.37
614.624	12717.77
614.98	12746.7
615.337	12855.17
615.693	12826.47
616.05	12811.56
616.406	12926.36
616.762	12805.45
617.118	12773.36
617.475	12770.2
617.831	12873.7
618.187	12863.53
618.543	12892.68
618.899	12947.37
619.255	12993.7
619.611	12949.63
619.967	12969.07
620.323	12926.58
620.678	12962.74
621.034	12877.99
621.39	12889.52
621.746	12923.42
622.101	12950.99
622.457	12902.85
622.812	12946.47
623.168	12979.69
623.523	12917.77
623.879	12995.51
624.234	12876.64
624.589	12914.6
624.945	13014.49
625.3	12904.66
625.655	12935.17
626.01	12957.54
626.365	12963.19
626.72	12938.33
627.075	12926.13
627.43	12965.45
627.785	12965.9
628.14	13000.48
628.495	12903.98
628.85	13043.87
629.205	12884.1
629.559	12920.25
629.914	12938.11
630.269	12897.88
630.623	12920.25
630.978	12849.07
631.332	12919.8
631.687	12886.58
632.041	12885.45
632.396	12925.23
632.75	12803.19
633.104	12859.24
633.459	12732.91
633.813	12732.69
634.167	12676.42
634.521	12792.35
634.875	12764.1
635.229	12758.9
635.583	12617.89
635.937	12684.55
636.291	12671.67
636.645	12665.57
636.999	12619.47
637.352	12729.52
637.706	12467.84
638.06	12593.71
638.413	12484.11
638.767	12618.34
639.121	12559.36
639.474	12482.98
639.828	12554.84
640.181	12558.68
640.534	12592.8
640.888	12524.78
641.241	12391.23
641.594	12425.8
641.947	12446.37
642.301	12456.31
642.654	12405.69
643.007	12484.78
643.36	12416.76
643.713	12391.45
644.066	12456.99
644.419	12378.57
644.771	12345.81
645.124	12198.92
645.477	12252.93
645.83	12104.46
646.182	11941.3
646.535	12073.72
646.888	12056.55
647.24	11986.72
647.593	12001.18
647.945	12008.41
648.298	11911.47
648.65	11973.61
649.002	11728.65
649.355	11953.27
649.707	11925.25
650.059	12044.8
650.411	12138.13
650.763	12143.78
651.115	12272.81
651.467	12248.86
651.819	12242.98
652.171	12167.05
652.523	12211.57
652.875	12136.55
653.227	12125.25
653.578	12221.06
653.93	12231.91
654.282	12168.41
654.633	12130.67
654.985	12186.04
655.337	12135.87
655.688	12162.99
656.039	12225.81
656.391	12115.75
656.742	12148.3
657.094	12117.79
657.445	12149.2
657.796	12204.57
658.147	12301.96
658.498	12200.95
658.849	12222.64
659.2	12185.81
659.551	12133.61
659.902	12211.57
660.253	12145.36
660.604	12145.36
660.955	12148.97
661.306	12226.03
661.656	12134.74
662.007	12161.63
662.358	12209.76
662.708	12147.62
663.059	12195.3
663.409	12066.26
663.76	12189.88
664.11	12213.61
664.461	12239.82
664.811	12191.69
665.161	12223.32
665.511	12251.57
665.862	12154.4
666.212	12219.93
666.562	12207.96
666.912	12136.09
667.262	12147.39
667.612	12203.21
667.962	12174.74
668.312	12113.04
668.662	12177
669.011	12148.07
669.361	12153.04
669.711	12119.82
670.06	12117.56
670.41	12107.39
670.76	12123.66
671.109	12187.39
671.459	12131.8
671.808	12181.97
672.157	12116.66
672.507	12036.21
672.856	12035.53
673.205	12079.6
673.554	12101.07
673.904	12081.18
674.253	12038.69
674.602	12048.64
674.951	11880.96
675.3	11835.31
675.649	12044.12
675.998	11964.35
676.346	11898.81
676.695	11992.37
677.044	11930.22
677.393	11845.25
677.741	11990.79
678.09	11975.19
678.438	11802.77
678.787	11935.19
679.135	11863.56
679.484	11759.15
679.832	11862.43
680.181	11788.76
680.529	11769.1
680.877	11779.49
681.225	11766.16
681.573	11831.92
681.922	11722.77
682.27	11699.95
682.618	11695.43
682.966	11573.4
683.314	11653.39
683.661	11637.35
684.009	11574.53
684.357	11484.59
684.705	11581.31
685.053	11614.3
685.4	11573.17
685.748	11466.96
686.095	11457.69
686.443	11450.01
686.79	11365.94
687.138	11445.26
687.485	11377.7
687.832	11333.18
688.18	11365.94
688.527	11330.46
688.874	11273.29
689.221	11189.68
689.568	11220.19
689.915	11151.94
690.262	11142.67
690.609	11064.26
690.956	11116.01
691.303	11075.1
691.65	11052.51
691.997	11056.57
692.344	11011.6
692.69	10911.27
693.037	11007.08
693.383	10825.85
693.73	10879.4
694.077	10760.99
694.423	10764.6
694.769	10778.16
695.116	10690.26
695.462	10683.7
695.808	10657.49
696.155	10674.21
696.501	10571.61
696.847	10520.77
697.193	10507.66
697.539	10489.81
697.885	10419.08
698.231	10390.15
698.577	10396.25
698.923	10380.43
699.269	10301.11
699.614	10303.6
699.96	10237.16
700.306	10167.11
700.651	10150.83
700.997	10147.45
701.342	10072.19
701.688	10118.29
702.033	10020.22
702.379	10007.79
702.724	9965.98
703.069	9996.94
703.415	9902.03
703.76	9897.28
704.105	9803.95
704.45	9739.09
704.795	9832.65
705.14	9743.84
705.485	9718.98
705.83	9713.56
706.175	9634.92
706.52	9652.32
706.865	9598.76
707.209	9643.96
707.554	9618.65
707.899	9614.8
708.243	9491.19
708.588	9488.25
708.932	9494.81
709.277	9437.86
709.621	9421.81
709.966	9401.02
710.31	9385.43
710.654	9260.01
710.998	9293.23
711.342	9244.42
711.687	9307.69
712.031	9183.18
712.375	9205.55
712.719	9160.8
713.063	9199
713.407	9210.29
713.75	9153.57
714.094	9180.46
714.438	9103.86
714.782	9126.91
715.125	9043.97
715.469	9085.1
715.812	9037.87
716.156	9028.6
716.499	9004.2
716.843	9095.27
717.186	8968.72
717.53	9021.37
717.873	9018.44
718.216	8946.57
718.559	8876.74
718.902	8896.86
719.246	8919.23
719.589	8912
719.932	8871.09
720.275	8835.84
720.617	8884.65
720.96	8801.72
721.303	8845.78
721.646	8848.5
721.989	8777.31
722.331	8877.87
722.674	8763.98
723.016	8784.09
723.359	8751.32
723.701	8745.45
724.044	8732.34
724.386	8758.56
724.729	8723.98
725.071	8689.86
725.413	8685.79
725.755	8654.6
726.097	8636.07
726.439	8646.47
726.782	8685.56
727.124	8666.81
727.465	8560.59
727.807	8610.99
728.149	8609.63
728.491	8657.99
728.833	8596.75
729.175	8579.58
729.516	8560.14
729.858	8625.23
730.199	8561.95
730.541	8557.43
730.882	8492.35
731.224	8618.9
731.565	8531.44
731.906	8518.11
732.248	8567.6
732.589	8527.6
732.93	8465.23
733.271	8483.53
733.612	8445.79
733.953	8539.35
734.294	8508.84
734.635	8528.5
734.976	8513.14
735.317	8447.6
735.658	8472.69
735.999	8498.45
736.339	8472.23
736.68	8599.24
737.021	8509.3
737.361	8474.72
737.702	8461.16
738.042	8496.42
738.383	8558.33
738.723	8476.98
739.063	8521.05
739.404	8523.98
739.744	8535.96
740.084	8508.84
740.424	8554.72
740.764	8480.14
741.104	8563.76
741.444	8566.47
741.784	8560.59
742.124	8580.93
742.464	8587.26
742.804	8577.99
743.143	8554.94
743.483	8573.93
743.823	8545.91
744.162	8612.57
744.502	8627.94
744.841	8662.06
745.181	8667.48
745.52	8656.18
745.86	8768.95
746.199	8777.09
746.538	8735.28
746.877	8863.41
747.216	8832.45
747.556	8852.11
747.895	8872.9
748.234	8935.5
748.573	8951.32
748.911	8995.84
749.25	9106.57
749.589	9097.08
749.928	9215.04
750.267	9285.77
750.605	9326
750.944	9329.16
751.283	9400.35
751.621	9482.83
751.96	9515.82
752.298	9654.8
752.636	9734.57
752.975	9777.51
753.313	9815.48
753.651	9969.6
753.989	9928.69
754.327	10099.54
754.666	10159.87
755.004	10291.85
755.342	10480.54
755.679	10513.99
756.017	10583.37
756.355	10678.96
756.693	10767.32
757.031	10992.39
757.368	11016.12
757.706	11178.6
758.044	11346.74
758.381	11428.99
758.719	11588.54
759.056	11720.74
759.394	11852.26
759.731	11874.41
760.068	12079.15
760.405	12293.83
760.743	12425.58
761.08	12654.05
761.417	12678.23
761.754	12875.28
762.091	12976.3
