Data from hue_130_FLMS001491_00027.txt Node
Date: Tue Feb 07 16:57:23 GMT 2017
User: dcchb
Spectrometer: FLMS00149
Trigger mode: 0
Integration Time (sec): 2.000000E-2
Scans to average: 10
Electric dark correction enabled: true
Nonlinearity correction enabled: false
Boxcar width: 0
XAxis mode: Wavelengths
Number of Pixels in Spectrum: 2048
>>>>>Begin Spectral Data<<<<<
341.393	-9.67
341.776	-9.67
342.16	-9.67
342.543	-52.16
342.927	-63.23
343.31	-68.66
343.693	-68.2
344.077	-69.11
344.46	-63.91
344.843	-56.23
345.226	-56.68
345.61	-21.65
345.993	-20.52
346.376	8.4
346.759	0.27
347.142	22.41
347.525	50.66
347.908	59.25
348.291	76.88
348.674	105.8
349.057	101.28
349.44	112.36
349.823	130.43
350.206	163.65
350.588	200.94
350.971	214.73
351.354	231
351.737	225.57
352.119	255.18
352.502	249.98
352.884	294.5
353.267	280.49
353.65	279.13
354.032	297.21
354.414	323.65
354.797	325.91
355.179	331.11
355.562	316.87
355.944	292.69
356.326	343.31
356.709	341.05
357.091	331.33
357.473	335.85
357.855	334.72
358.238	346.93
358.62	359.81
359.002	357.1
359.384	340.15
359.766	346.7
360.148	335.17
360.53	344.21
360.912	345.34
361.294	335.63
361.676	312.35
362.057	332.46
362.439	323.65
362.821	321.62
363.203	316.64
363.584	317.32
363.966	320.03
364.348	315.74
364.729	318.23
365.111	315.74
365.493	280.94
365.874	325.23
366.256	313.71
366.637	309.86
367.019	326.36
367.4	305.35
367.781	313.71
368.163	327.27
368.544	315.29
368.925	325.01
369.306	318.23
369.688	310.54
370.069	296.76
370.45	293.59
370.831	304.89
371.212	324.33
371.593	329.53
371.974	304.22
372.355	303.09
372.736	296.53
373.117	322.75
373.498	324.33
373.879	318.68
374.26	315.74
374.641	297.21
375.021	329.53
375.402	323.42
375.783	329.3
376.163	341.05
376.544	325.01
376.925	307.83
377.305	335.85
377.686	328.62
378.066	326.59
378.447	336.08
378.827	313.93
379.208	325.68
379.588	343.08
379.968	316.19
380.349	340.15
380.729	316.42
381.109	337.66
381.489	351.22
381.87	330.43
382.25	358.9
382.63	333.37
383.01	353.48
383.39	347.15
383.77	341.28
384.15	353.03
384.53	339.24
384.91	365.46
385.29	366.81
385.67	348.73
386.049	361.61
386.429	347.83
386.809	355.06
387.189	356.42
387.568	364.78
387.948	359.58
388.328	345.8
388.707	372.01
389.087	373.37
389.466	351.9
389.846	364.1
390.225	349.41
390.605	381.95
390.984	377.66
391.363	390.54
391.743	397.32
392.122	372.24
392.501	375.17
392.881	375.85
393.26	371.33
393.639	387.15
394.018	386.47
394.397	398.45
394.776	367.49
395.155	379.24
395.534	384.89
395.913	390.31
396.292	387.83
396.671	395.29
397.05	392.8
397.429	407.94
397.808	393.48
398.186	411.11
398.565	388.28
398.944	388.96
399.323	388.28
399.701	406.36
400.08	402.29
400.458	391.44
400.837	399.13
401.215	418.34
401.594	406.81
401.972	408.85
402.351	425.12
402.729	425.34
403.107	417.43
403.486	415.4
403.864	414.04
404.242	421.5
404.62	432.57
404.999	420.82
405.377	419.24
405.755	444.1
406.133	441.61
406.511	438.67
406.889	440.48
407.267	450.65
407.645	463.53
408.023	468.28
408.401	450.88
408.779	464.66
409.156	447.04
409.534	446.36
409.912	456.53
410.29	479.8
410.667	458.34
411.045	462.4
411.422	480.48
411.8	491.55
412.178	490.42
412.555	485
412.933	489.97
413.31	478.67
413.687	485.45
414.065	493.81
414.442	504.44
414.819	497.2
415.197	528.84
415.574	529.29
415.951	533.81
416.328	524.1
416.705	504.66
417.082	534.94
417.46	519.35
417.837	533.81
418.214	531.55
418.591	538.56
418.967	541.72
419.344	551.44
419.721	539.01
420.098	542.18
420.475	567.26
420.852	577.65
421.228	557.54
421.605	574.04
421.982	574.49
422.358	583.76
422.735	586.24
423.111	570.42
423.488	585.56
423.864	593.47
424.241	611.55
424.617	584.21
424.994	608.16
425.37	608.61
425.746	617.65
426.123	609.52
426.499	616.3
426.875	615.39
427.251	619.46
427.627	635.05
428.003	631.44
428.379	637.31
428.756	645.9
429.132	658.33
429.507	676.18
429.883	660.36
430.259	700.59
430.635	685.67
431.011	687.03
431.387	706.92
431.763	680.7
432.138	691.55
432.514	685.22
432.89	721.83
433.265	733.36
433.641	729.74
434.016	734.03
434.392	738.55
434.767	766.12
435.143	753.02
435.518	767.48
435.894	753.69
436.269	790.3
436.644	785.78
437.02	787.37
437.395	777.65
437.77	808.16
438.145	824.88
438.52	804.32
438.895	798.21
439.271	828.5
439.646	837.53
440.021	814.94
440.395	838.89
440.77	837.08
441.145	869.17
441.52	860.36
441.895	859.45
442.27	876.86
442.645	858.55
443.019	885.67
443.394	898.1
443.769	872.79
444.143	900.13
444.518	916.4
444.892	900.58
445.267	900.58
445.641	922.96
446.016	944.42
446.39	916.18
446.764	916.63
447.139	915.27
447.513	941.94
447.887	948.49
448.262	955.95
448.636	954.14
449.01	968.6
449.384	988.04
449.758	967.93
450.132	976.51
450.506	986.23
450.88	1009.73
451.254	1031.43
451.628	1028.26
452.002	1027.13
452.376	1041.37
452.75	1061.03
453.123	1040.24
453.497	1058.55
453.871	1078.21
454.244	1094.7
454.618	1111.65
454.992	1111.88
455.365	1138.32
455.739	1155.27
456.112	1154.14
456.486	1185.55
456.859	1173.8
457.232	1202.95
457.606	1219.9
457.979	1211.99
458.352	1245.43
458.725	1258.77
459.099	1266.22
459.472	1275.26
459.845	1303.51
460.218	1318.2
460.591	1304.41
460.964	1327.24
461.337	1361.36
461.71	1374.02
462.083	1386.22
462.456	1390.97
462.829	1392.32
463.201	1432.55
463.574	1462.83
463.947	1431.64
464.32	1498.53
464.692	1522.04
465.065	1528.59
465.438	1530.4
465.81	1570.62
466.183	1604.29
466.555	1628.02
466.928	1647.46
467.3	1660.11
467.672	1688.13
468.045	1734.23
468.417	1733.33
468.789	1755.25
469.161	1790.5
469.534	1820.79
469.906	1867.11
470.278	1899.88
470.65	1916.15
471.022	1945.08
471.394	1990.72
471.766	2054.68
472.138	2045.64
472.51	2122.02
472.882	2155.01
473.253	2213.09
473.625	2251.06
473.997	2325.63
474.369	2341.45
474.74	2362.01
475.112	2423.48
475.484	2479.75
475.855	2530.15
476.227	2593.42
476.598	2686.53
476.97	2710.71
477.341	2805.62
477.713	2850.36
478.084	2899.18
478.455	3016.46
478.827	3065.72
479.198	3178.94
479.569	3190.01
479.94	3356.11
480.311	3347.52
480.682	3494.41
481.053	3621.19
481.424	3714.97
481.795	3775.54
482.166	3896.21
482.537	3982.31
482.908	4108.63
483.279	4191.34
483.65	4359.7
484.021	4470.89
484.391	4543.65
484.762	4657.32
485.133	4723.76
485.503	4862.51
485.874	5043.75
486.244	5127.14
486.615	5267.02
486.985	5355.61
487.356	5614.36
487.726	5660.01
488.097	5860
488.467	5884.63
488.837	6051.63
489.207	6185.42
489.578	6390.38
489.948	6526.42
490.318	6667.66
490.688	6702.01
491.058	6864.95
491.428	7069.69
491.798	7162.79
492.168	7405.72
492.538	7541.76
492.908	7672.38
493.278	7835.54
493.648	7932.26
494.017	8134.97
494.387	8245.02
494.757	8272.37
495.126	8482.98
495.496	8593.26
495.866	8760.72
496.235	8862.18
496.605	9071.44
496.974	9159.8
497.344	9287.48
497.713	9442.96
498.082	9564.31
498.452	9695.15
498.821	9817.86
499.19	9869.16
499.559	9968.82
499.928	10121.13
500.298	10178.08
500.667	10393.22
501.036	10451.97
501.405	10555.25
501.774	10633.89
502.143	10652.64
502.512	10858.97
502.88	10954.56
503.249	11015.35
503.618	11116.81
503.987	11210.82
504.356	11342.57
504.724	11408.56
505.093	11436.58
505.462	11528.78
505.83	11589.34
506.199	11798.6
506.567	11879.96
506.936	11918.15
507.304	12023.91
507.672	12165.37
508.041	12152.94
508.409	12307.74
508.777	12381.64
509.145	12484.23
509.514	12534.18
509.882	12590.22
510.25	12669.99
510.618	12702.08
510.986	12761.51
511.354	12885.81
511.722	12984.33
512.09	13087.61
512.458	13005.8
512.826	13160.15
513.193	13157.89
513.561	13268.39
513.929	13286.02
514.297	13479.91
514.664	13525.11
515.032	13517.2
515.4	13643.75
515.767	13643.75
516.135	13706.12
516.502	13577.09
516.869	13831.77
517.237	13860.47
517.604	13730.3
517.972	13875.61
518.339	14022.27
518.706	14008.94
519.073	14043.06
519.44	14020.69
519.808	14173
520.175	14172.1
520.542	14304.98
520.909	14302.04
521.276	14295.94
521.643	14310.63
522.009	14407.12
522.376	14467.68
522.743	14547
523.11	14610.51
523.477	14674.23
523.843	14699.99
524.21	14812.76
524.577	14854.57
524.943	14913.55
525.31	14984.73
525.676	14906.32
526.043	15077.61
526.409	15012.53
526.776	15120.77
527.142	15215.69
527.508	15104.96
527.874	15167.1
528.241	15277.15
528.607	15236.7
528.973	15329.58
529.339	15230.38
529.705	15309.24
530.071	15425.85
530.437	15380.88
530.803	15377.72
531.169	15417.04
531.535	15472.63
531.901	15358.06
532.267	15431.28
532.632	15326.65
532.998	15387.43
533.364	15441.22
533.73	15427.66
534.095	15522.8
534.461	15410.48
534.826	15512.18
535.192	15468.34
535.557	15527.09
535.923	15442.12
536.288	15501.1
536.653	15431.28
537.019	15410.48
537.384	15341.79
537.749	15342.24
538.114	15299.08
538.479	15317.15
538.845	15321.45
539.21	15230.6
539.575	15211.85
539.94	15176.82
540.305	15200.32
540.67	15190.6
541.034	15119.19
541.399	15082.58
541.764	15120.32
542.129	15116.26
542.494	15114.67
542.858	15100.66
543.223	15045.75
543.587	14995.35
543.952	14951.97
544.316	14936.37
544.681	14870.61
545.045	15016.14
545.41	14913.77
545.774	14889.14
546.138	14836.49
546.503	14798.98
546.867	14736.83
547.231	14831.06
547.595	14778.86
547.959	14787.45
548.324	14662.26
548.688	14659.09
549.052	14559.89
549.416	14691.86
549.779	14538.64
550.143	14561.69
550.507	14603.95
550.871	14536.38
551.235	14478.76
551.599	14553.78
551.962	14398.76
552.326	14424.97
552.689	14512.2
553.053	14353.11
553.417	14345.88
553.78	14491.86
554.143	14325.32
554.507	14396.05
554.87	14393.34
555.234	14455.71
555.597	14341.59
555.96	14338.65
556.323	14276.5
556.686	14261.81
557.05	14316.73
557.413	14292.77
557.776	14286.9
558.139	14337.29
558.502	14266.11
558.865	14250.52
559.228	14205.09
559.59	14298.42
559.953	14238.09
560.316	14428.59
560.679	14296.16
561.041	14250.06
561.404	14361.25
561.767	14412.32
562.129	14311.76
562.492	14435.37
562.854	14396.5
563.217	14322.6
563.579	14365.09
563.941	14434.01
564.304	14337.97
564.666	14382.26
565.028	14461.36
565.39	14491.86
565.753	14471.3
566.115	14476.27
566.477	14468.81
566.839	14526.44
567.201	14553.56
567.563	14549.94
567.925	14610.51
568.287	14706.32
568.648	14635.59
569.01	14643.05
569.372	14634.69
569.734	14621.58
570.095	14757.39
570.457	14759.43
570.819	14660.45
571.18	14664.52
571.542	14757.85
571.903	14655.93
572.265	14819.54
572.626	14827.68
572.987	14809.37
573.349	14895.7
573.71	14857.96
574.071	14952.42
574.432	14922.59
574.794	14927.56
575.155	14904.96
575.516	14802.59
575.877	14932.08
576.238	14886.43
576.599	15003.26
576.96	14967.78
577.32	14895.24
577.681	14936.15
578.042	14962.36
578.403	15006.65
578.763	14911.29
579.124	15023.6
579.485	15044.84
579.845	15034.68
580.206	15013.43
580.566	14893.44
580.927	14972.08
581.287	15051.62
581.648	14870.61
582.008	15060.21
582.368	14968.91
582.728	15003.04
583.089	15006.65
583.449	14953.1
583.809	14943.38
584.169	14983.6
584.529	14978.18
584.889	15017.95
585.249	14966.65
585.609	14889.82
585.969	15002.13
586.329	14847.34
586.688	15009.37
587.048	14861.8
587.408	14877.17
587.768	14807.79
588.127	14834.23
588.487	14856.6
588.846	14801.69
589.206	14772.76
589.565	14824.74
589.925	14739.09
590.284	14815.02
590.643	14833.1
591.003	14737.06
591.362	14874.68
591.721	14763.95
592.08	14760.78
592.44	14865.87
592.799	14837.62
593.158	14745.19
593.517	14775.47
593.876	14760.78
594.235	14689.83
594.593	14694.12
594.952	14839.65
595.311	14730.95
595.67	14674.46
596.029	14797.39
596.387	14843.27
596.746	14844.62
597.104	14803.27
597.463	14723.05
597.822	14737.96
598.18	14640.34
598.538	14692.31
598.897	14799.43
599.255	14590.39
599.613	14749.94
599.972	14714.01
600.33	14731.18
600.688	14600.79
601.046	14806.66
601.404	14843.04
601.762	14734.12
602.12	14826.09
602.478	14792.42
602.836	14760.11
603.194	14696.61
603.552	14675.59
603.91	14680.56
604.268	14764.17
604.625	14690.05
604.983	14787
605.341	14660.45
605.698	14710.62
606.056	14754.68
606.413	14780.67
606.771	14796.49
607.128	14735.25
607.485	14716.72
607.843	14690.73
608.2	14754.23
608.557	14816.83
608.914	14785.19
609.272	14850.95
609.629	14805.08
609.986	14858.41
610.343	14778.86
610.7	14952.19
611.057	14852.31
611.414	14881.23
611.771	14798.75
612.127	14903.38
612.484	14820.44
612.841	14947.22
613.198	14846.88
613.554	14954.45
613.911	15008.69
614.267	14957.84
614.624	14971.4
614.98	14979.08
615.337	15043.94
615.693	15023.83
616.05	14919.42
616.406	15074.22
616.762	15066.76
617.118	15031.96
617.475	15024.73
617.831	15082.58
618.187	15028.57
618.543	15118.06
618.899	15134.79
619.255	15162.36
619.611	15057.5
619.967	15112.87
620.323	15216.14
620.678	15166.88
621.034	15115.58
621.39	15175.91
621.746	15052.3
622.101	15276.7
622.457	15121.23
622.812	15185.86
623.168	15224.73
623.523	15185.63
623.879	15229.02
624.234	15098.4
624.589	15242.58
624.945	15170.72
625.3	15230.15
625.655	15210.94
626.01	15224.73
626.365	15227.89
626.72	15135.24
627.075	15170.26
627.43	15205.07
627.785	15089.59
628.14	15130.49
628.495	15212.75
628.85	15203.71
629.205	15150.83
629.559	15084.17
629.914	15078.29
630.269	15012.08
630.623	15043.94
630.978	15047.78
631.332	15053.43
631.687	15098.18
632.041	15048.01
632.396	14995.35
632.75	14957.39
633.104	14974.79
633.459	15026.54
633.813	15002.81
634.167	14897.28
634.521	14987.44
634.875	14955.36
635.229	14850.5
635.583	14918.52
635.937	14870.16
636.291	14817.73
636.645	14825.19
636.999	14736.38
637.352	14837.84
637.706	14641.24
638.06	14822.7
638.413	14703.84
638.767	14629.94
639.121	14658.41
639.474	14598.98
639.828	14665.19
640.181	14621.8
640.534	14662.48
640.888	14578.64
641.241	14676.27
641.594	14597.85
641.947	14661.58
642.301	14596.04
642.654	14604.86
643.007	14630.39
643.36	14578.42
643.713	14530.96
644.066	14580.22
644.419	14504.75
644.771	14446.22
645.124	14353.34
645.477	14275.83
645.83	14289.38
646.182	14166.68
646.535	14093.68
646.888	14172.1
647.24	13979.79
647.593	14072.89
647.945	14052.55
648.298	13984.08
648.65	13935.27
649.002	14033.8
649.355	14002.39
649.707	14028.37
650.059	14088.94
650.411	14263.4
650.763	14278.54
651.115	14333.22
651.467	14403.51
651.819	14324.19
652.171	14301.59
652.523	14307.69
652.875	14374.35
653.227	14275.15
653.578	14304.3
653.93	14354.92
654.282	14241.93
654.633	14233.57
654.985	14297.75
655.337	14362.15
655.688	14370.06
656.039	14375.03
656.391	14253.45
656.742	14297.29
657.094	14347.46
657.445	14389.72
657.796	14358.08
658.147	14328.93
658.498	14340.68
658.849	14388.14
659.2	14346.33
659.551	14251.87
659.902	14467.91
660.253	14363.05
660.604	14415.03
660.955	14362.38
661.306	14459.1
661.656	14433.56
662.007	14455.93
662.358	14411.64
662.708	14463.16
663.059	14398.76
663.409	14236.5
663.76	14403.73
664.11	14368.25
664.461	14423.17
664.811	14418.65
665.161	14385.43
665.511	14337.52
665.862	14422.71
666.212	14484.41
666.562	14436.5
666.912	14370.06
667.262	14335.71
667.612	14346.11
667.962	14400.12
668.312	14405.99
668.662	14384.97
669.011	14332.55
669.361	14321.47
669.711	14333.68
670.06	14322.38
670.41	14375.48
670.76	14370.96
671.109	14378.65
671.459	14345.65
671.808	14331.19
672.157	14363.05
672.507	14288.03
672.856	14299.33
673.205	14320.8
673.554	14364.41
673.904	14270.85
674.253	14363.05
674.602	14222.72
674.951	14143.4
675.3	13982.5
675.649	14245.32
675.998	14212.32
676.346	14274.47
676.695	14219.1
677.044	14071.99
677.393	14212.78
677.741	14180.69
678.09	14116.96
678.438	14051.42
678.787	14211.87
679.135	14206.22
679.484	14017.3
679.832	14112.44
680.181	13933.01
680.529	14032.89
680.877	13946.57
681.225	13877.19
681.573	13947.7
681.922	13875.16
682.27	13843.97
682.618	13813.92
682.966	13789.96
683.314	13807.14
683.661	13826.8
684.009	13715.84
684.357	13680.13
684.705	13629.29
685.053	13713.81
685.4	13593.36
685.748	13567.37
686.095	13547.26
686.443	13492.12
686.79	13523.98
687.138	13515.39
687.485	13445.56
687.832	13426.81
688.18	13475.62
688.527	13337.54
688.874	13259.13
689.221	13286.7
689.568	13257.55
689.915	13250.99
690.262	13210.54
690.609	13210.77
690.956	13071.56
691.303	13033.6
691.65	12940.72
691.997	12995.86
692.344	12950.66
692.69	12893.94
693.037	12798.35
693.383	12729.65
693.73	12808.52
694.077	12714.74
694.423	12655.98
694.769	12655.3
695.116	12584.57
695.462	12547.06
695.808	12539.37
696.155	12514.97
696.501	12472.48
696.847	12367.63
697.193	12395.65
697.539	12377.12
697.885	12370.56
698.231	12245.37
698.577	12232.49
698.923	12228.65
699.269	12134.64
699.614	12041.08
699.96	12014.87
700.306	12093.06
700.651	11967.64
700.997	11871.82
701.342	11938.71
701.688	11836.12
702.033	11744.37
702.379	11796.79
702.724	11771.03
703.069	11768.77
703.415	11646.06
703.76	11701.43
704.105	11625.95
704.45	11502.56
704.795	11518.38
705.14	11446.97
705.485	11416.01
705.83	11286.3
706.175	11319.97
706.52	11371.04
706.865	11327.2
707.209	11265.51
707.554	11234.1
707.899	11268.9
708.243	11212.63
708.588	11108.22
708.932	11091.05
709.277	11056.02
709.621	11063.25
709.966	11085.85
710.31	10952.52
710.654	10911.85
710.998	10952.75
711.342	10998.17
711.687	10826.88
712.031	10835.24
712.375	10780.32
712.719	10861.68
713.063	10718.18
713.407	10811.28
713.75	10795.69
714.094	10713.21
714.438	10710.5
714.782	10654.45
715.125	10603.15
715.469	10702.59
715.812	10594.57
716.156	10605.64
716.499	10559.09
716.843	10528.81
717.186	10467.79
717.53	10494.46
717.873	10529.93
718.216	10453.1
718.559	10383.27
718.902	10358.19
719.246	10381.24
719.589	10344.63
719.932	10335.14
720.275	10317.96
720.617	10332.88
720.96	10348.92
721.303	10322.93
721.646	10261.92
721.989	10268.25
722.331	10279.32
722.674	10241.36
723.016	10315.93
723.359	10268.92
723.701	10253.11
724.044	10202.49
724.386	10239.55
724.729	10209.04
725.071	10217.63
725.413	10192.99
725.755	10224.63
726.097	10116.84
726.439	10119.1
726.782	10087.91
727.124	10147.8
727.465	10074.81
727.807	10069.38
728.149	10052.66
728.491	10112.54
728.833	10082.94
729.175	10097.4
729.516	10069.16
729.858	10062.38
730.199	10088.59
730.541	10009.5
730.882	9986.67
731.224	10121.81
731.565	10007.01
731.906	9964.98
732.248	9964.3
732.589	10021.7
732.93	9953.23
733.271	9964.75
733.612	9976.28
733.953	9988.71
734.294	9993.68
734.635	9948.48
734.976	10020.57
735.317	9928.82
735.658	9934.02
735.999	9991.87
736.339	9988.48
736.68	10098.76
737.021	10027.8
737.361	9993.23
737.702	10006.78
738.042	9941.48
738.383	9999.1
738.723	10056.5
739.063	9990.51
739.404	10075.71
739.744	10032.09
740.084	10028.03
740.424	10118.65
740.764	10087.91
741.104	10102.15
741.444	10019.89
741.784	10108.25
742.124	10165.88
742.464	10173.11
742.804	10093.56
743.143	10155.71
743.483	10198.87
743.823	10107.35
744.162	10201.58
744.502	10292.43
744.841	10231.41
745.181	10315.03
745.52	10306.66
745.86	10393.89
746.199	10435.02
746.538	10379.66
746.877	10523.83
747.216	10529.03
747.556	10630.72
747.895	10615.36
748.234	10626.88
748.573	10650.61
748.911	10673.89
749.25	10801.57
749.589	10809.25
749.928	10926.31
750.267	11078.4
750.605	11064.38
750.944	11160.88
751.283	11191.39
751.621	11303.02
751.96	11268.9
752.298	11466.63
752.636	11498.95
752.975	11678.61
753.313	11688.55
753.651	11915.44
753.989	11966.06
754.327	12015.77
754.666	12084.24
755.004	12287.85
755.342	12389.55
755.679	12557.23
756.017	12586.83
756.355	12804.45
