Data from hue_32_FLMS001491_00036.txt Node
Date: Tue Feb 07 17:23:18 GMT 2017
User: dcchb
Spectrometer: FLMS00149
Trigger mode: 0
Integration Time (sec): 2.000000E-2
Scans to average: 10
Electric dark correction enabled: true
Nonlinearity correction enabled: false
Boxcar width: 0
XAxis mode: Wavelengths
Number of Pixels in Spectrum: 2048
>>>>>Begin Spectral Data<<<<<
341.393	1.43
341.776	1.43
342.16	1.43
342.543	-57.78
342.927	-86.25
343.31	-75.86
343.693	-89.19
344.077	-68.85
344.46	-60.72
344.843	-32.24
345.226	-44.45
345.61	-5.35
345.993	-27.73
346.376	-12.58
346.759	6.17
347.142	25.38
347.525	32.61
347.908	54.98
348.291	81.42
348.674	87.75
349.057	128.65
349.44	117.36
349.823	142.21
350.206	164.81
350.588	192.16
350.971	214.98
351.354	223.57
351.737	262.21
352.119	258.59
352.502	263.57
352.884	278.93
353.267	283.68
353.65	290.91
354.032	288.88
354.414	307.63
354.797	328.65
355.179	335.43
355.562	327.29
355.944	322.1
356.326	327.52
356.709	323.45
357.091	347.86
357.473	329.33
357.855	345.37
358.238	334.53
358.62	329.78
359.002	338.59
359.384	354.19
359.766	346.95
360.148	334.75
360.53	346.28
360.912	348.99
361.294	342.43
361.676	339.04
362.057	331.36
362.439	327.07
362.821	332.94
363.203	334.53
363.584	343.34
363.966	347.63
364.348	344.02
364.729	333.17
365.111	335.88
365.493	321.19
365.874	299.5
366.256	323.23
366.637	292.49
367.019	321.64
367.4	316.67
367.781	322.77
368.163	341.53
368.544	315.54
368.925	330.91
369.306	337.69
369.688	314.41
370.069	310.34
370.45	326.16
370.831	332.94
371.212	304.24
371.593	327.97
371.974	315.77
372.355	323.23
372.736	322.1
373.117	320.97
373.498	325.26
373.879	339.95
374.26	337.24
374.641	309.89
375.021	327.29
375.402	309.89
375.783	315.99
376.163	329.78
376.544	319.84
376.925	327.29
377.305	323.9
377.686	325.49
378.066	327.29
378.447	335.43
378.827	331.36
379.208	327.52
379.588	334.98
379.968	341.53
380.349	319.84
380.729	324.81
381.109	368.2
381.489	315.09
381.87	358.48
382.25	360.29
382.63	330.23
383.01	348.76
383.39	345.6
383.77	335.88
384.15	321.42
384.53	345.37
384.91	331.14
385.29	346.5
385.67	334.3
386.049	358.03
386.429	334.3
386.809	348.99
387.189	343.79
387.568	341.76
387.948	355.09
388.328	351.25
388.707	354.64
389.087	347.63
389.466	351.47
389.846	357.58
390.225	338.14
390.605	350.34
390.984	348.08
391.363	353.96
391.743	365.26
392.122	359.38
392.501	364.35
392.881	396.9
393.26	360.74
393.639	375.65
394.018	373.39
394.397	375.2
394.776	384.92
395.155	383.79
395.534	384.24
395.913	386.5
396.292	377.91
396.671	385.15
397.05	403.68
397.429	405.48
397.808	386.05
398.186	385.15
398.565	398.48
398.944	392.83
399.323	387.63
399.701	422.43
400.08	387.18
400.458	402.09
400.837	403.9
401.215	380.4
401.594	399.38
401.972	383.11
402.351	388.99
402.729	413.39
403.107	412.72
403.486	396.67
403.864	408.87
404.242	422.66
404.62	434.64
404.999	417.46
405.377	417.01
405.755	428.31
406.133	421.53
406.511	431.47
406.889	437.12
407.267	445.48
407.645	424.92
408.023	426.5
408.401	449.32
408.779	433.73
409.156	449.55
409.534	448.19
409.912	427.4
410.29	478.02
410.667	450.45
411.045	452.26
411.422	464.24
411.8	461.3
412.178	462.66
412.555	474.41
412.933	483.45
413.31	460.85
413.687	460.17
414.065	483.45
414.442	495.2
414.819	466.27
415.197	493.16
415.574	511.02
415.951	505.37
416.328	503.56
416.705	494.07
417.082	499.04
417.46	511.47
417.837	490.45
418.214	497.01
418.591	508.76
418.967	513.73
419.344	511.92
419.721	521.64
420.098	520.51
420.475	510.11
420.852	540.62
421.228	519.15
421.605	525.93
421.982	532.94
422.358	540.85
422.735	530
423.111	531.58
423.488	541.07
423.864	547.63
424.241	555.08
424.617	534.52
424.994	570
425.37	558.93
425.746	552.82
426.123	546.72
426.499	564.12
426.875	561.19
427.251	582.65
427.627	558.93
428.003	593.95
428.379	585.59
428.756	599.6
429.132	602.31
429.507	600.51
429.883	604.12
430.259	611.81
430.635	631.24
431.011	605.93
431.387	620.85
431.763	634.63
432.138	616.78
432.514	650.22
432.89	633.73
433.265	668.08
433.641	650
434.016	663.56
434.392	656.78
434.767	698.81
435.143	671.69
435.518	673.95
435.894	687.51
436.269	675.31
436.644	708.3
437.02	689.09
437.395	716.44
437.77	722.99
438.145	731.58
438.52	718.47
438.895	734.74
439.271	731.12
439.646	702.65
440.021	747.62
440.395	752.37
440.77	732.93
441.145	766.38
441.52	748.98
441.895	761.18
442.27	753.27
442.645	745.14
443.019	779.49
443.394	768.64
443.769	773.16
444.143	791.24
444.518	787.62
444.892	775.87
445.267	789.65
445.641	802.99
446.016	807.28
446.39	800.73
446.764	829.88
447.139	828.3
447.513	826.49
447.887	828.3
448.262	810.44
448.636	833.72
449.01	850.44
449.384	840.73
449.758	856.09
450.132	836.21
450.506	848.18
450.88	875.08
451.254	852.48
451.628	900.16
452.002	896.54
452.376	883.44
452.75	911.01
453.123	893.38
453.497	913.04
453.871	929.09
454.244	936.09
454.618	929.76
454.992	925.24
455.365	942.87
455.739	947.62
456.112	947.84
456.486	976.32
456.859	958.92
457.232	988.75
457.606	961.18
457.979	1007.05
458.352	1032.36
458.725	1028.74
459.099	1022.19
459.472	1017.22
459.845	1070.55
460.218	1084.79
460.591	1070.78
460.964	1080.95
461.337	1089.99
461.71	1138.12
462.083	1144.67
462.456	1121.85
462.829	1122.98
463.201	1134.05
463.574	1170.44
463.947	1187.38
464.32	1193.49
464.692	1212.02
465.065	1210.66
465.438	1246.14
465.81	1236.2
466.183	1254.27
466.555	1296.31
466.928	1287.27
467.3	1293.6
467.672	1327.04
468.045	1352.35
468.417	1332.46
468.789	1365.01
469.161	1380.15
469.534	1422.86
469.906	1445.23
470.278	1470.54
470.65	1473.93
471.022	1469.86
471.394	1538.11
471.766	1547.6
472.138	1575.17
472.51	1624.89
472.882	1610.65
473.253	1642.97
473.625	1682.74
473.997	1713.92
474.369	1713.92
474.74	1776.97
475.112	1815.39
475.484	1827.59
475.855	1884.54
476.227	1908.95
476.598	1958.21
476.97	2001.15
477.341	2032.11
477.713	2075.72
478.084	2106.23
478.455	2181.03
478.827	2204.53
479.198	2247.7
479.569	2302.83
479.94	2370.4
480.311	2415.15
480.682	2484.75
481.053	2536.5
481.424	2600.91
481.795	2677.29
482.166	2680.23
482.537	2742.37
482.908	2801.8
483.279	2859.2
483.65	2920.22
484.021	3051.97
484.391	3120.21
484.762	3140.55
485.133	3174
485.503	3256.03
485.874	3340.77
486.244	3416.03
486.615	3488.34
486.985	3536.47
487.356	3652.63
487.726	3688.11
488.097	3780.54
488.467	3850.82
488.837	3976.92
489.207	4046.97
489.578	4109.57
489.948	4199.06
490.318	4253.74
490.688	4326.06
491.058	4425.72
491.428	4489.67
491.798	4590.23
492.168	4690.12
492.538	4726.73
492.908	4808.08
493.278	4939.38
493.648	4965.82
494.017	5085.81
494.387	5146.15
494.757	5274.28
495.126	5239.93
495.496	5286.26
495.866	5436.54
496.235	5497.1
496.605	5581.39
496.974	5618.23
497.344	5694.84
497.713	5765.79
498.082	5773.93
498.452	5920.37
498.821	5916.98
499.19	6031.55
499.559	6043.98
499.928	6171.66
500.298	6239.23
500.667	6282.39
501.036	6320.58
501.405	6363.75
501.774	6454.36
502.143	6514.7
502.512	6566.68
502.88	6617.75
503.249	6686.67
503.618	6747.24
503.987	6750.4
504.356	6804.64
504.724	6848.93
505.093	6914.47
505.462	7012.77
505.83	7000.34
506.199	7087.34
506.567	7187.9
506.936	7182.25
507.304	7337.5
507.672	7338.18
508.041	7349.03
508.409	7470.61
508.777	7500.89
509.145	7565.52
509.514	7550.61
509.882	7646.42
510.25	7648.68
510.618	7781.79
510.986	7755.8
511.354	7836.25
511.722	7904.95
512.09	7956.47
512.458	7985.17
512.826	8016.36
513.193	8044.83
513.561	8087.99
513.929	8197.6
514.297	8280.98
514.664	8327.08
515.032	8327.08
515.4	8402.56
515.767	8395.78
516.135	8427.19
516.502	8446.4
516.869	8568.21
517.237	8577.25
517.604	8548.32
517.972	8661.31
518.339	8654.08
518.706	8659.28
519.073	8736.34
519.44	8740.41
519.808	8881.64
520.175	8908.99
520.542	8975.65
520.909	9024.92
521.276	9026.27
521.643	9153.73
522.009	9163.9
522.376	9196.21
522.743	9289.54
523.11	9327.28
523.477	9428.3
523.843	9396.21
524.21	9543.77
524.577	9640.27
524.943	9645.01
525.31	9654.28
525.676	9740.83
526.043	9850.89
526.409	9810.66
526.776	9976.76
527.142	9943.99
527.508	10046.13
527.874	10058.79
528.241	10174.49
528.607	10140.82
528.973	10265.34
529.339	10264.21
529.705	10408.16
530.071	10425.56
530.437	10467.37
530.803	10507.36
531.169	10690.41
531.535	10527.7
531.901	10655.38
532.267	10673.91
532.632	10742.16
532.998	10788.04
533.364	10878.88
533.73	10858.54
534.095	11000.46
534.461	10968.6
534.826	11022.38
535.192	11068.03
535.557	11199.1
535.923	11178.99
536.288	11249.72
536.653	11237.74
537.019	11295.37
537.384	11329.94
537.749	11386.89
538.114	11400
538.479	11442.03
538.845	11548.24
539.21	11499.2
539.575	11513.44
539.94	11613.32
540.305	11697.39
540.67	11729.48
541.034	11693.77
541.399	11757.05
541.764	11876.82
542.129	11998.63
542.494	11955.91
542.858	12039.53
543.223	11949.59
543.587	12124.27
543.952	12082.92
544.316	12162.69
544.681	12130.37
545.045	12251.95
545.41	12385.28
545.774	12404.94
546.138	12307.54
546.503	12504.83
546.867	12447.88
547.231	12636.57
547.595	12587.99
547.959	12711.83
548.324	12714.31
548.688	12679.74
549.052	12756.57
549.416	12754.76
549.779	12793.18
550.143	12833.18
550.507	12956.79
550.871	12971.71
551.235	12943.01
551.599	13090.8
551.962	13100.07
552.326	13136
552.689	13182.55
553.053	13166.96
553.417	13172.15
553.78	13390.9
554.143	13316.1
554.507	13448.76
554.87	13392.94
555.234	13534.4
555.597	13493.28
555.96	13499.6
556.323	13601.75
556.686	13694.85
557.05	13663.21
557.413	13659.82
557.776	13818.69
558.139	13848.29
558.502	13829.09
558.865	13874.28
559.228	14018.46
559.59	13973.04
559.953	14010.78
560.316	14261.16
560.679	14132.35
561.041	14232.24
561.404	14272.46
561.767	14395.85
562.129	14347.04
562.492	14470.42
562.854	14404.21
563.217	14503.42
563.579	14539.8
563.941	14621.38
564.304	14582.96
564.666	14788.16
565.028	14744.32
565.39	14751.77
565.753	14932.33
566.115	14946.12
566.477	15038.77
566.839	15081.03
567.201	15136.85
567.563	15196.51
567.925	15384.75
568.287	15339.55
568.648	15364.64
569.01	15474.24
569.372	15479.21
569.734	15507.23
570.095	15612.54
570.457	15635.14
570.819	15739.77
571.18	15674.46
571.542	15838.3
571.903	15900.67
572.265	15989.03
572.626	16087.33
572.987	16148.12
573.349	16185.86
573.71	16279.64
574.071	16301.11
574.432	16375.46
574.794	16563.02
575.155	16557.15
575.516	16641.21
575.877	16816.13
576.238	16877.82
576.599	17060.19
576.96	17022.67
577.32	17236
577.681	17313.97
578.042	17437.58
578.403	17522.1
578.763	17656.56
579.124	17810
579.485	17909.2
579.845	18124.57
580.206	18233.49
580.566	18305.8
580.927	18495.86
581.287	18689.3
581.648	18818.56
582.008	19009.29
582.368	19105.1
582.728	19329.51
583.089	19470.75
583.449	19726.78
583.809	19901.69
584.169	20137.85
584.529	20231.18
584.889	20601.34
585.249	20728.11
585.609	20903.93
585.969	21107.54
586.329	21311.83
586.688	21533.74
587.048	21896.67
587.408	21936.67
587.768	22158.58
588.127	22456.2
588.487	22601.06
588.846	22996.53
589.206	23150.65
589.565	23453.01
589.925	23755.15
590.284	23964.86
590.643	24210.96
591.003	24570.95
591.362	24807.55
591.721	25079.86
592.08	25390.36
592.44	25675.1
592.799	25961.2
593.158	26147.86
593.517	26412.48
593.876	26812.25
594.235	26962.53
594.593	27165.91
594.952	27613.13
595.311	27833.01
595.67	28019.67
596.029	28376.05
596.387	28720.9
596.746	28959.54
597.104	29174.44
597.463	29431.84
597.822	29773.75
598.18	29862.79
598.538	30075.44
598.897	30547.74
599.255	30605.37
599.613	31121.06
599.972	31089.65
600.33	31491.22
600.688	31665.45
601.046	31949.74
601.404	32342.72
601.762	32452.32
602.12	32833.11
602.478	32958.53
602.836	33334.56
603.194	33318.29
603.552	33500.88
603.91	33658.17
604.268	34170.02
604.625	34225.16
604.983	34532.95
605.341	34496.11
605.698	34886.38
606.056	35039.38
606.413	35241.86
606.771	35591
607.128	35688.85
607.485	35886.13
607.843	35946.02
608.2	36298.1
608.557	36531.09
608.914	36647.92
609.272	36927.24
609.629	37113.9
609.986	37405.64
610.343	37414.68
610.7	37698.74
611.057	37892.86
611.414	37961.78
611.771	38059.41
612.127	38462.34
612.484	38520.64
612.841	38636.34
613.198	38652.61
613.554	38865.26
613.911	39269.55
614.267	39145.93
614.624	39253.05
614.98	39366.49
615.337	39760.83
615.693	39757.22
616.05	39834.28
616.406	40158.34
616.762	40067.04
617.118	40256.41
617.475	40340.25
617.831	40530.08
618.187	40574.82
618.543	40705.67
618.899	41018.43
619.255	40880.35
619.611	41005.32
619.967	41368.7
620.323	41388.81
620.678	41379.77
621.034	41339.77
621.39	41528.92
621.746	41531.86
622.101	42044.16
622.457	41821.12
622.812	41971.4
623.168	42029.25
623.523	42087.55
623.879	42301.11
624.234	41967.78
624.589	42404.83
624.945	42347.66
625.3	42469.91
625.655	42429.69
626.01	42474.43
626.365	42624.03
626.72	42507.43
627.075	42635.56
627.43	42543.81
627.785	42510.82
628.14	42716.91
628.495	42774.99
628.85	42806.85
629.205	42546.97
629.559	42732.51
629.914	42893.41
630.269	42901.54
630.623	42761.43
630.978	42755.33
631.332	42898.38
631.687	43079.16
632.041	42938.38
632.396	42978.15
632.75	42923.46
633.104	42926.17
633.459	42740.42
633.813	42888.43
634.167	42892.73
634.521	42914.42
634.875	43034.42
635.229	42949.45
635.583	42823.8
635.937	42797.82
636.291	42789
636.645	42818.15
636.999	42727.31
637.352	42963.69
637.706	42697.7
638.06	42809.34
638.413	42773.86
638.767	42725.27
639.121	42725.95
639.474	42627.42
639.828	42670.36
640.181	42676.46
640.534	42573.41
640.888	42435.79
641.241	42415
641.594	42719.4
641.947	42739.51
642.301	42552.4
642.654	42555.56
643.007	42507.88
643.36	42559.86
643.713	42417.49
644.066	42582.68
644.419	42451.84
644.771	42149.24
645.124	41843.94
645.477	41766.66
645.83	41528.02
646.182	41290.96
646.535	41322.6
646.888	41482.82
647.24	41151.76
647.593	41456.16
647.945	41357.18
648.298	41231.98
648.65	41193.79
649.002	41050.29
649.355	41155.37
649.707	41139.55
650.059	41298.19
650.411	41857.05
650.763	41754
651.115	42124.61
651.467	41947.89
651.819	42091.62
652.171	41935.01
652.523	41820.89
652.875	41843.04
653.227	41733.89
653.578	42060.43
653.93	41923.94
654.282	41829.03
654.633	41769.59
654.985	41854.11
655.337	41711.97
655.688	41742.02
656.039	41887.78
656.391	41433.11
656.742	41681.91
657.094	41782.93
657.445	41860.89
657.796	41745.41
658.147	41635.59
658.498	41679.43
658.849	41681.23
659.2	41718.97
659.551	41550.84
659.902	41746.32
660.253	41718.07
660.604	41715.81
660.955	41481.24
661.306	41750.61
661.656	41621.35
662.007	41586.77
662.358	41516.27
662.708	41523.05
663.059	41522.37
663.409	41247.57
663.76	41700.67
664.11	41627.22
664.461	41587.9
664.811	41466.32
665.161	41481.01
665.511	41351.75
665.862	41441.01
666.212	41476.49
666.562	41452.77
666.912	41391.98
667.262	41368.93
667.612	41391.75
667.962	41419.77
668.312	41269.72
668.662	41488.25
669.011	41313.56
669.361	41340.23
669.711	41452.09
670.06	41256.39
670.41	41095.94
670.76	41210.29
671.109	41313.79
671.459	41319.89
671.808	41219.1
672.157	41226.33
672.507	41026.34
672.856	41111.76
673.205	41225.65
673.554	41251.19
673.904	41114.24
674.253	41404.18
674.602	41184.98
674.951	40552.45
675.3	40381.16
675.649	41164.19
675.998	41027.69
676.346	41108.14
676.695	41184.75
677.044	40820.01
677.393	40983.63
677.741	41094.58
678.09	40801.71
678.438	40778.43
678.787	40911.31
679.135	40925.55
679.484	40663.86
679.832	40765.1
680.181	40690.98
680.529	40719.45
680.877	40536.86
681.225	40497.54
681.573	40737.53
681.922	40336.41
682.27	40381.38
682.618	40330.08
682.966	40305.9
683.314	40421.38
683.661	40253.93
684.009	40001.28
684.357	39941.17
684.705	40040.15
685.053	39986.82
685.4	39792.47
685.748	39755.41
686.095	39773.26
686.443	39677.67
686.79	39608.29
687.138	39635.19
687.485	39710.21
687.832	39507.05
688.18	39521.97
688.527	39260.28
688.874	39297.34
689.221	39179.83
689.568	39083.79
689.915	39064.58
690.262	38952.27
690.609	38778.71
690.956	38753.85
691.303	38620.98
691.65	38541.66
691.997	38539.62
692.344	38334.66
692.69	38275.9
693.037	38253.75
693.383	37922.46
693.73	38217.37
694.077	38005.17
694.423	37934.89
694.769	37722.02
695.116	37723.6
695.462	37757.04
695.808	37705.75
696.155	37644.73
696.501	37398.18
696.847	37339.43
697.193	37162.94
697.539	37317.28
697.885	36985.31
698.231	36875.71
698.577	37005.2
698.923	36904.64
699.269	36628.26
699.614	36547.13
699.96	36405.44
700.306	36522.27
700.651	36292.9
700.997	36234.82
701.342	36070.99
701.688	36144.43
702.033	36053.36
702.379	35797.32
702.724	35925.23
703.069	35852.69
703.415	35557.33
703.76	35532.24
704.105	35521.17
704.45	35501.96
704.795	35233.27
705.14	35152.82
705.485	35164.34
705.83	34908.08
706.175	35136.32
706.52	34948.3
706.865	34878.25
707.209	34741.3
707.554	34560.52
707.899	34726.84
708.243	34495.89
708.588	34388.32
708.932	34209.34
709.277	34123.92
709.621	34240.98
709.966	34071.49
710.31	34164.37
710.654	33752.18
710.998	33832.18
711.342	33818.84
711.687	33770.93
712.031	33563.93
712.375	33411.62
712.719	33580.88
713.063	33481.45
713.407	33537.27
713.75	33410.27
714.094	33313.77
714.438	33219.76
714.782	33222.93
715.125	33024.51
715.469	33125.3
715.812	32976.15
716.156	32798.98
716.499	32857.29
716.843	32814.35
717.186	32721.24
717.53	32844.18
717.873	32617.97
718.216	32727.8
718.559	32520.35
718.902	32231.09
719.246	32385.66
719.589	32308.37
719.932	32245.78
720.275	32269.05
720.617	32231.09
720.96	32200.13
721.303	32067.48
721.646	32085.78
721.989	31851.89
722.331	31916.07
722.674	31831.32
723.016	31912.23
723.359	32002.62
723.701	31789.29
724.044	31684.89
724.386	31446.7
724.729	31586.81
725.071	31463.42
725.413	31567.6
725.755	31406.25
726.097	31195.63
726.439	31248.74
726.782	31206.71
727.124	31273.15
727.465	31119.7
727.807	31093.72
728.149	30963.1
728.491	31000.61
728.833	31053.49
729.175	30955.19
729.516	30895.98
729.858	30845.59
730.199	30764.69
730.541	30747.74
730.882	30719.26
731.224	30836.1
731.565	30545.48
731.906	30555.88
732.248	30699.6
732.589	30408.99
732.93	30353.62
733.271	30299.39
733.612	30260.97
733.953	30301.19
734.294	30227.52
734.635	30127.64
734.976	30176
735.317	30052.39
735.658	30050.58
735.999	30097.81
736.339	30130.58
736.68	30074.76
737.021	29973.97
737.361	29867.53
737.702	29943.24
738.042	29788.89
738.383	29832.05
738.723	29874.31
739.063	29758.38
739.404	29909.34
739.744	29606.75
740.084	29585.51
740.424	29590.7
740.764	29621.89
741.104	29577.15
741.444	29567.88
741.784	29387.09
742.124	29437.26
742.464	29378.96
742.804	29264.84
743.143	29291.5
743.483	29228.91
743.823	29156.14
744.162	29162.24
744.502	29199.53
744.841	28971.29
745.181	29119.98
745.52	28917.73
745.86	28919.54
746.199	28834.11
746.538	29040.21
746.877	28974.45
747.216	28781.46
747.556	28838.63
747.895	28779.65
748.234	28705.76
748.573	28537.63
748.911	28635.7
749.25	28520
749.589	28441.81
749.928	28486.78
750.267	28539.43
750.605	28469.83
750.944	28366.56
751.283	28236.16
751.621	28265.77
751.96	28106.22
752.298	28160.91
752.636	28119.11
752.975	28029.62
753.313	27947.36
753.651	27990.75
753.989	27870.75
754.327	27875.04
754.666	27771.54
755.004	27751.88
755.342	27780.36
755.679	27769.74
756.017	27502.85
756.355	27678.89
756.693	27397.54
757.031	27518.67
757.368	27386.02
757.706	27322.06
758.044	27341.95
