Data from hue_310_FLMS001491_32.txt Node
Date: Mon Feb 06 15:49:36 GMT 2017
User: dcchb
Spectrometer: FLMS00149
Trigger mode: 0
Integration Time (sec): 2.000000E-2
Scans to average: 10
Electric dark correction enabled: true
Nonlinearity correction enabled: false
Boxcar width: 0
XAxis mode: Wavelengths
Number of Pixels in Spectrum: 2048
>>>>>Begin Spectral Data<<<<<
341.393	-1.88
341.776	-1.88
342.16	-1.88
342.543	-39.62
342.927	-58.15
343.31	-73.29
343.693	-65.38
344.077	-62.67
344.46	-58.6
344.843	-61.09
345.226	-33.29
345.61	-49.11
345.993	-8.88
346.376	0.16
346.759	13.94
347.142	25.69
347.525	25.92
347.908	74.05
348.291	62.75
348.674	90.77
349.057	119.02
349.44	126.93
349.823	137.33
350.206	164.9
350.588	199.92
350.971	195.86
351.354	246.25
351.737	234.5
352.119	228.62
352.502	257.1
352.884	275.4
353.267	267.72
353.65	297.32
354.032	297.32
354.414	300.71
354.797	312.24
355.179	310.66
355.562	326.93
355.944	327.6
356.326	320.82
356.709	337.1
357.091	334.16
357.473	328.73
357.855	330.32
358.238	320.82
358.62	326.93
359.002	338.23
359.384	318.79
359.766	328.51
360.148	332.35
360.53	335.06
360.912	321.28
361.294	319.69
361.676	316.98
362.057	342.07
362.439	329.19
362.821	338
363.203	321.28
363.584	324.21
363.966	323.54
364.348	312.24
364.729	310.66
365.111	290.77
365.493	306.59
365.874	302.52
366.256	322.18
366.637	283.54
367.019	299.58
367.4	301.16
367.781	326.02
368.163	303.88
368.544	297.32
368.925	311.33
369.306	311.33
369.688	308.17
370.069	322.63
370.45	302.75
370.831	295.06
371.212	296.19
371.593	319.02
371.974	289.19
372.355	314.95
372.736	309.98
373.117	310.88
373.498	322.86
373.879	311.11
374.26	314.95
374.641	309.75
375.021	309.07
375.402	318.79
375.783	328.28
376.163	306.81
376.544	325.57
376.925	341.39
377.305	323.31
377.686	302.52
378.066	327.6
378.447	323.54
378.827	317.21
379.208	319.92
379.588	331.9
379.968	303.2
380.349	325.34
380.729	361.28
381.109	337.1
381.489	317.66
381.87	321.05
382.25	333.71
382.63	310.43
383.01	320.37
383.39	323.76
383.77	313.37
384.15	332.58
384.53	332.58
384.91	327.6
385.29	328.51
385.67	346.81
386.049	334.38
386.429	349.98
386.809	349.52
387.189	363.08
387.568	348.39
387.948	320.6
388.328	350.65
388.707	344.78
389.087	334.84
389.466	342.07
389.846	340.71
390.225	376.42
390.605	356.3
390.984	351.11
391.363	358.11
391.743	348.85
392.122	366.7
392.501	360.6
392.881	367.15
393.26	353.14
393.639	385
394.018	374.38
394.397	369.19
394.776	350.43
395.155	352.46
395.534	375.74
395.913	361.73
396.292	372.8
396.671	377.09
397.05	379.13
397.429	369.86
397.808	367.38
398.186	381.39
398.565	388.17
398.944	392.46
399.323	392.24
399.701	405.12
400.08	360.82
400.458	397.89
400.837	408.28
401.215	392.46
401.594	399.01
401.972	385.91
402.351	378.68
402.729	403.76
403.107	408.28
403.486	407.38
403.864	418.22
404.242	410.77
404.62	428.84
404.999	428.39
405.377	413.25
405.755	418.22
406.133	412.35
406.511	436.98
406.889	462.06
407.267	434.95
407.645	429.3
408.023	454.83
408.401	459.58
408.779	445.34
409.156	459.58
409.534	478.56
409.912	465.23
410.29	463.87
410.667	472.01
411.045	479.69
411.422	485.57
411.8	492.35
412.178	498.45
412.555	522.18
412.933	527.15
413.31	514.49
413.687	527.6
414.065	552.01
414.442	525.34
414.819	556.98
415.197	562.63
415.574	579.35
415.951	577.99
416.328	575.28
416.705	591.33
417.082	590.87
417.46	581.38
417.837	591.1
418.214	592.46
418.591	606.69
418.967	616.64
419.344	639.46
419.721	635.84
420.098	639.91
420.475	648.73
420.852	654.38
421.228	655.28
421.605	678.1
421.982	666.58
422.358	695.05
422.735	673.81
423.111	691.89
423.488	733.24
423.864	723.75
424.241	728.72
424.617	731.66
424.994	729.18
425.37	726.01
425.746	725.56
426.123	769.85
426.499	763.98
426.875	774.6
427.251	781.15
427.627	797.65
428.003	785.67
428.379	815.05
428.756	819.12
429.132	840.13
429.507	845.56
429.883	857.31
430.259	855.05
430.635	866.35
431.011	867.48
431.387	890.75
431.763	895.95
432.138	907.25
432.514	907.7
432.89	906.8
433.265	944.54
433.641	945.44
434.016	931.2
434.392	977.98
434.767	981.15
435.143	985.89
435.518	997.42
435.894	1011.65
436.269	991.32
436.644	1009.17
437.02	1026.12
437.395	1028.83
437.77	1041.94
438.145	1077.64
438.52	1082.39
438.895	1074.7
439.271	1075.83
439.646	1098.21
440.021	1114.7
440.395	1099.56
440.77	1080.8
441.145	1112.67
441.52	1126
441.895	1103.4
442.27	1118.09
442.645	1124.42
443.019	1143.4
443.394	1172.33
443.769	1157.41
444.143	1154.02
444.518	1158.32
444.892	1146.57
445.267	1203.51
445.641	1179.11
446.016	1177.98
446.39	1212.1
446.764	1208.26
447.139	1201.03
447.513	1203.51
447.887	1188.15
448.262	1202.38
448.636	1206
449.01	1222.72
449.384	1225.43
449.758	1223.63
450.132	1234.25
450.506	1257.3
450.88	1252.1
451.254	1241.25
451.628	1256.85
452.002	1257.3
452.376	1282.38
452.75	1264.08
453.123	1304.75
453.497	1297.3
453.871	1302.95
454.244	1314.02
454.618	1328.71
454.992	1319.44
455.365	1335.94
455.739	1333.68
456.112	1329.84
456.486	1354.02
456.859	1366
457.232	1373.68
457.606	1340.46
457.979	1399.21
458.352	1427.91
458.725	1424.3
459.099	1442.15
459.472	1450.51
459.845	1423.17
460.218	1468.59
460.591	1467.01
460.964	1445.32
461.337	1494.58
461.71	1484.64
462.083	1527.12
462.456	1519.66
462.829	1521.02
463.201	1512.43
463.574	1507.01
463.947	1533.9
464.32	1592.66
464.692	1568.25
465.065	1595.59
465.438	1582.26
465.81	1626.1
466.183	1622.26
466.555	1641.47
466.928	1636.72
467.3	1657.29
467.672	1650.51
468.045	1695.48
468.417	1676.04
468.789	1708.59
469.161	1742.26
469.534	1729.83
469.906	1737.28
470.278	1772.54
470.65	1773.67
471.022	1802.14
471.394	1822.48
471.766	1801.46
472.138	1803.95
472.51	1835.59
472.882	1900.22
473.253	1901.57
473.625	1936.15
473.997	1932.53
474.369	1920.33
474.74	1918.07
475.112	1942.7
475.484	1987.45
475.855	2033.32
476.227	2028.8
476.598	2098.18
476.97	2071.51
477.341	2101.8
477.713	2093.89
478.084	2118.52
478.455	2147.22
478.827	2171.62
479.198	2234.22
479.569	2235.12
479.94	2283.49
480.311	2272.41
480.682	2307.67
481.053	2358.51
481.424	2364.16
481.795	2377.95
482.166	2418.17
482.537	2412.3
482.908	2434.67
483.279	2446.19
483.65	2505.85
484.021	2523.7
484.391	2531.61
484.762	2550.82
485.133	2499.07
485.503	2593.53
485.874	2656.81
486.244	2657.94
486.615	2693.87
486.985	2681.89
487.356	2751.5
487.726	2754.43
488.097	2816.35
488.467	2791.49
488.837	2848.89
489.207	2841.44
489.578	2866.29
489.948	2874.2
490.318	2944.48
490.688	2943.81
491.058	2934.77
491.428	2981.09
491.798	3016.8
492.168	3043.01
492.538	3026.74
492.908	3066.29
493.278	3092.5
493.648	3129.79
494.017	3147.64
494.387	3194.65
494.757	3174.54
495.126	3190.58
495.496	3187.19
495.866	3205.27
496.235	3269.22
496.605	3259.73
496.974	3269.45
497.344	3282.33
497.713	3327.07
498.082	3311.48
498.452	3342.67
498.821	3353.74
499.19	3345.83
499.559	3385.6
499.928	3383.57
500.298	3376.34
500.667	3385.6
501.036	3434.19
501.405	3435.09
501.774	3456.56
502.143	3472.38
502.512	3470.57
502.88	3464.7
503.249	3483.68
503.618	3493.4
503.987	3547.86
504.356	3547.41
504.724	3535.88
505.093	3529.33
505.462	3534.75
505.83	3570.46
506.199	3619.27
506.567	3619.04
506.936	3565.49
507.304	3611.13
507.672	3666.27
508.041	3613.85
508.409	3650.23
508.777	3651.36
509.145	3709.21
509.514	3703.33
509.882	3738.59
510.25	3728.87
510.618	3739.27
510.986	3785.59
511.354	3740.4
511.722	3737.46
512.09	3782.88
512.458	3769.32
512.826	3800.51
513.193	3811.81
513.561	3804.12
513.929	3818.36
514.297	3904.91
514.664	3843.22
515.032	3885.93
515.4	3860.62
515.767	3885.7
516.135	3899.94
516.502	3851.81
516.869	3930.67
517.237	3956.89
517.604	3888.41
517.972	3909.88
518.339	3958.02
518.706	3923.22
519.073	3950.11
519.44	3977.9
519.808	3986.72
520.175	3995.3
520.542	3977.23
520.909	4007.73
521.276	3995.76
521.643	4001.63
522.009	4066.49
522.376	4085.25
522.743	4065.59
523.11	4146.94
523.477	4106.49
523.843	4105.58
524.21	4123.21
524.577	4238.24
524.943	4168.18
525.31	4183.77
525.676	4209.99
526.043	4224.45
526.409	4264.9
526.776	4302.64
527.142	4302.64
527.508	4341.06
527.874	4328.18
528.241	4379.02
528.607	4387.84
528.973	4390.55
529.339	4386.25
529.705	4425.58
530.071	4463.09
530.437	4459.02
530.803	4449.76
531.169	4549.41
531.535	4529.98
531.901	4528.4
532.267	4544.67
532.632	4569.98
532.998	4561.84
533.364	4614.5
533.73	4614.27
534.095	4664.44
534.461	4623.31
534.826	4707.15
535.192	4712.57
535.557	4684.78
535.923	4707.38
536.288	4743.76
536.653	4774.27
537.019	4716.19
537.384	4800.26
537.749	4815.4
538.114	4792.35
538.479	4837.32
538.845	4838.45
539.21	4889.74
539.575	4899.24
539.94	4893.81
540.305	4961.38
540.67	4975.84
541.034	4979.69
541.399	4945.56
541.764	5025.79
542.129	5056.52
542.494	5073.02
542.858	5050.42
543.223	5101.04
543.587	5077.31
543.952	5160.7
544.316	5108.04
544.681	5189.85
545.045	5163.86
545.41	5237.76
545.774	5250.86
546.138	5215.84
546.503	5249.06
546.867	5281.15
547.231	5290.41
547.595	5346.68
547.959	5355.95
548.324	5356.4
548.688	5383.97
549.052	5441.59
549.416	5415.83
549.779	5428.71
550.143	5424.87
550.507	5514.36
550.871	5467.58
551.235	5490.18
551.599	5581.03
551.962	5548.71
552.326	5555.26
552.689	5551.42
553.053	5563.62
553.417	5591.19
553.78	5611.99
554.143	5652.66
554.507	5677.07
554.87	5652.66
555.234	5689.27
555.597	5686.56
555.96	5713.45
556.323	5723.62
556.686	5739.67
557.05	5754.58
557.413	5750.51
557.776	5810.85
558.139	5814.47
558.502	5800
558.865	5810.4
559.228	5892.43
559.59	5872.09
559.953	5905.99
560.316	5952.32
560.679	5927.23
561.041	5913.45
561.404	5988.25
561.767	6052.65
562.129	5998.87
562.492	6074.8
562.854	6093.33
563.217	6019.21
563.579	6055.36
563.941	6095.36
564.304	6119.09
564.666	6200.67
565.028	6171.07
565.39	6127.45
565.753	6233.66
566.115	6205.19
566.477	6277.05
566.839	6242.03
567.201	6315.02
567.563	6272.98
567.925	6364.73
568.287	6322.7
568.648	6376.71
569.01	6398.18
569.372	6436.6
569.734	6434.34
570.095	6478.86
570.457	6533.77
570.819	6512.75
571.18	6562.47
571.542	6609.93
571.903	6644.95
572.265	6621.22
572.626	6713.2
572.987	6748.9
573.349	6797.72
573.71	6827.32
574.071	6858.28
574.432	6866.19
574.794	6953.19
575.155	6959.75
575.516	7049.24
575.877	7080.65
576.238	7130.14
576.599	7193.19
576.96	7263.92
577.32	7309.12
577.681	7387.08
578.042	7483.35
578.403	7513.86
578.763	7644.7
579.124	7677.92
579.485	7799.72
579.845	7954.75
580.206	7983.9
580.566	8071.36
580.927	8218.02
581.287	8313.16
581.648	8478.58
582.008	8555.64
582.368	8726.71
582.728	8898.45
583.089	8947.72
583.449	9104.32
583.809	9238.56
584.169	9433.35
584.529	9542.96
584.889	9838.09
585.249	9954.92
585.609	10034.02
585.969	10402.14
586.329	10538.86
586.688	10801
587.048	10999.64
587.408	11156.02
587.768	11354.21
588.127	11539.06
588.487	11840.97
588.846	12162.1
589.206	12277.8
589.565	12580.84
589.925	12864.68
590.284	13067.61
590.643	13344.66
591.003	13580.36
591.362	13969.51
591.721	14179.67
592.08	14429.15
592.44	14722.93
592.799	15103.04
593.158	15249.25
593.517	15622.8
593.876	16009.9
594.235	16068.66
594.593	16364.24
594.952	16668.42
595.311	16973.27
595.67	17281.73
596.029	17676.53
596.387	17950.87
596.746	18321.03
597.104	18479.67
597.463	18860
597.822	19111.97
598.18	19286.43
598.538	19684.84
598.897	20021.78
599.255	20136.58
599.613	20758.48
599.972	20873.96
600.33	21310.56
600.688	21469.65
601.046	21770.43
601.404	22156.18
601.762	22407.25
602.12	22823.28
602.478	23011.53
602.836	23328.13
603.194	23363.16
603.552	23829.36
603.91	23909.58
604.268	24366.29
604.625	24499.4
604.983	24819.16
605.341	24969.89
605.698	25354.74
606.056	25567.62
606.413	25722.19
606.771	26092.8
607.128	26341.38
607.485	26448.27
607.843	26783.18
608.2	27064.3
608.557	27274.47
608.914	27452.99
609.272	27724.4
609.629	28038.74
609.986	28300.43
610.343	28360.99
610.7	28737.03
611.057	28897.93
611.414	29049.34
611.771	29198.03
612.127	29527.97
612.484	29660.84
612.841	29869.2
613.198	29904.45
613.554	30234.39
613.911	30461.95
614.267	30591.89
614.624	30755.28
614.98	30900.36
615.337	31277.07
615.693	31375.6
616.05	31395.49
616.406	31696.27
616.762	31629.83
617.118	31892.65
617.475	32103.04
617.831	32302.81
618.187	32399.76
618.543	32711.39
618.899	32772.4
619.255	32937.37
619.611	32953.64
619.967	33162.9
620.323	33340.52
620.678	33211.26
621.034	33497.81
621.39	33486.05
621.746	33564.02
622.101	34114.74
622.457	33889.43
622.812	34022.99
623.168	34156.32
623.523	34274.96
623.879	34510.43
624.234	34276.77
624.589	34582.3
624.945	34526.03
625.3	34705.46
625.655	34717.21
626.01	34804.89
626.365	35033.13
626.72	34861.39
627.075	34980.03
627.43	35099.57
627.785	34992
628.14	35105.45
628.495	35321.94
628.85	35162.39
629.205	35214.37
629.559	35513.8
629.914	35267.7
630.269	35550.41
630.623	35452.33
630.978	35371.65
631.332	35603.96
631.687	35782.27
632.041	35639.9
632.396	35733.68
632.75	35665.21
633.104	35756.05
633.459	35612.33
633.813	35650.52
634.167	35659.1
634.521	35711.08
634.875	35769.16
635.229	35717.41
635.583	35614.36
635.937	35724.41
636.291	35699.33
636.645	35740.91
636.999	35742.27
637.352	35770.06
637.706	35613
638.06	35855.03
638.413	35667.69
638.767	35691.19
639.121	35831.98
639.474	35527.13
639.828	35633.12
640.181	35727.8
640.534	35854.81
640.888	35519.45
641.241	35526.9
641.594	35632.21
641.947	35726.67
642.301	35811.19
642.654	35634.92
643.007	35703.4
643.36	35534.36
643.713	35669.05
644.066	35872.43
644.419	35471.99
644.771	35383.18
645.124	35082.62
645.477	35115.84
645.83	34825
646.182	34679.92
646.535	34596.08
646.888	34698.68
647.24	34590.21
647.593	34720.15
647.945	34608.51
648.298	34446.03
648.65	34535.74
649.002	34348.18
649.355	34491.45
649.707	34542.52
650.059	34595.18
650.411	35098.22
650.763	35015.28
651.115	35398.09
651.467	35408.49
651.819	35314.26
652.171	35323.29
652.523	35193.35
652.875	35214.6
653.227	35008.73
653.578	35354.03
653.93	35250.08
654.282	35036.75
654.633	34976.86
654.985	35044.21
655.337	35157.2
655.688	35079.46
656.039	35268.15
656.391	34994.72
656.742	35016.86
657.094	35009.86
657.445	35199.46
657.796	35009.86
658.147	35054.6
658.498	35105.9
658.849	35079.46
659.2	35201.49
659.551	34978.22
659.902	35016.64
660.253	35029.06
660.604	35065
660.955	34823.42
661.306	35020.25
661.656	34931.67
662.007	34985.22
662.358	34891.44
662.708	34958.78
663.059	34881.5
663.409	34740.71
663.76	35108.84
664.11	34933.47
664.461	34923.53
664.811	34838.56
665.161	34853.7
665.511	34861.16
665.862	34874.94
666.212	34972.57
666.562	35049.86
666.912	34997.43
667.262	34818.67
667.612	34874.94
667.962	34918.11
668.312	34830.65
668.662	35032
669.011	34930.31
669.361	34866.36
669.711	34719.02
670.06	34794.49
670.41	34682.41
670.76	34636.53
671.109	34674.5
671.459	34776.42
671.808	34687.83
672.157	34786.13
672.507	34534.61
672.856	34590.43
673.205	34632.24
673.554	34649.19
673.904	34580.26
674.253	34715.17
674.602	34628.17
674.951	34202.65
675.3	33952.48
675.649	34546.14
675.998	34375.3
676.346	34605.8
676.695	34632.24
677.044	34248.07
677.393	34388.86
677.741	34545.24
678.09	34371
678.438	34343.66
678.787	34406.93
679.135	34410.32
679.484	34269.54
679.832	34378.23
680.181	34153.61
680.529	34141.18
680.877	34085.59
681.225	34101.41
681.573	34425.92
681.922	34090.11
682.27	33960.84
682.618	33999.26
682.966	33927.4
683.314	33970.34
683.661	33935.76
684.009	33679.27
684.357	33627.75
684.705	33521.53
685.053	33645.6
685.4	33489.44
685.748	33327.87
686.095	33373.52
686.443	33391.59
686.79	33315.66
687.138	33341.88
687.485	33382.33
687.832	33120.87
688.18	33216.68
688.527	33044.26
688.874	33035.67
689.221	33016.91
689.568	32958.61
689.915	32732.63
690.262	32791.38
690.609	32846.98
690.956	32667.09
691.303	32648.79
691.65	32438.4
691.997	32378.74
692.344	32277.72
692.69	32289.93
693.037	32213.32
693.383	32001.12
693.73	32130.61
694.077	31889.03
694.423	31890.16
694.769	31877.06
695.116	31804.97
695.462	31634.8
695.808	31468.93
696.155	31586.9
696.501	31360.69
696.847	31418.76
697.193	31083.18
697.539	31353.91
697.885	31094.25
698.231	31071.2
698.577	31032.33
698.923	30940.81
699.269	30804.54
699.614	30676.64
699.96	30583.08
700.306	30681.83
700.651	30451.56
700.997	30360.26
701.342	30324.78
701.688	30306.7
702.033	30218.12
702.379	30158.68
702.724	30166.82
703.069	30131.57
703.415	29835.53
703.76	29911.69
704.105	29858.35
704.45	29701.3
704.795	29606.16
705.14	29529.55
705.485	29470.34
705.83	29402.77
706.175	29446.61
706.52	29389.67
706.865	29285.49
707.209	29432.38
707.554	29191.25
707.899	29077.81
708.243	29035.1
708.588	28943.8
708.932	28801.43
709.277	28796.23
709.621	28794.88
709.966	28694.99
710.31	28778.61
710.654	28528.67
710.998	28531.61
711.342	28550.82
711.687	28370.03
712.031	28361.22
712.375	28274.89
712.719	28229.47
713.063	28212.97
713.407	28253.2
713.75	27997.61
714.094	28039.19
714.438	27866.09
714.782	27873.32
715.125	27921.46
715.469	27876.48
715.812	27752.87
716.156	27486.89
716.499	27534.35
716.843	27581.8
717.186	27532.09
717.53	27560.11
717.873	27571.63
718.216	27552.2
718.559	27417.74
718.902	27238.08
719.246	27189.27
719.589	27209.16
719.932	27141.14
720.275	27079.9
720.617	27137.29
720.96	27006.22
721.303	26980.46
721.646	27031.76
721.989	26815.72
722.331	26953.8
722.674	26698.21
723.016	26820.92
723.359	26845.55
723.701	26813.91
724.044	26507.71
724.386	26429.29
724.729	26621.6
725.071	26528.05
725.413	26374.6
725.755	26472.68
726.097	26445.79
726.439	26359.01
726.782	26327.37
727.124	26342.51
727.465	26210.54
727.807	26153.82
728.149	26063.42
728.491	26123.76
728.833	26087.38
729.175	26034.73
729.516	26055.06
729.858	25935.97
730.199	25834.73
730.541	25946.59
730.882	25921.28
731.224	25907.95
731.565	25652.14
731.906	25672.47
732.248	25766.26
732.589	25597
732.93	25461.86
733.271	25565.13
733.612	25528.75
733.953	25523.55
734.294	25514.96
734.635	25474.29
734.976	25533.95
735.317	25322.65
735.658	25294.41
735.999	25249.43
736.339	25167.63
736.68	25376.66
737.021	25151.81
737.361	25132.83
737.702	25244.69
738.042	25061.87
738.383	25049.44
738.723	25061.42
739.063	24900.29
739.404	24982.1
739.744	24865.94
740.084	24880.18
740.424	24906.85
740.764	24804.25
741.104	24859.84
741.444	24724.03
741.784	24636.12
742.124	24597.02
742.464	24674.53
742.804	24596.57
743.143	24486.97
743.483	24467.76
743.823	24532.62
744.162	24369.46
744.502	24443.13
744.841	24277.26
745.181	24441.32
745.52	24339.18
745.86	24276.58
746.199	24252.17
746.538	24123.81
746.877	24209.91
747.216	24300.08
747.556	24083.14
747.895	24080.88
748.234	23995.46
748.573	23988.45
748.911	23899.19
749.25	23933.31
749.589	23775.8
749.928	23766.76
750.267	23850.83
750.605	23724.73
750.944	23655.58
751.283	23617.61
751.621	23671.17
751.96	23597.73
752.298	23476.83
752.636	23620.55
752.975	23423.49
753.313	23420.1
753.651	23442.7
753.989	23239.77
754.327	23345.53
754.666	23159.09
755.004	23211.52
755.342	23181.92
755.679	23124.75
756.017	22943.73
756.355	23043.39
756.693	22901.25
757.031	22937.41
757.368	22875.26
757.706	22744.87
758.044	22703.06
758.381	22626.68
758.719	22628.94
759.056	22688.37
759.394	22504.65
759.731	22414.48
760.068	22375.39
760.405	22362.05
