Data from hue_300_FLMS001491_00026.txt Node
Date: Tue Feb 07 15:50:31 GMT 2017
User: dcchb
Spectrometer: FLMS00149
Trigger mode: 0
Integration Time (sec): 2.000000E-2
Scans to average: 10
Electric dark correction enabled: true
Nonlinearity correction enabled: false
Boxcar width: 0
XAxis mode: Wavelengths
Number of Pixels in Spectrum: 2048
>>>>>Begin Spectral Data<<<<<
341.393	-7.88
341.776	-7.88
342.16	-7.88
342.543	-59.86
342.927	-79.07
343.31	-74.09
343.693	-82.23
344.077	-44.72
344.46	-66.18
344.843	-60.31
345.226	-48.78
345.61	-36.13
345.993	-18.95
346.376	-0.88
346.759	6.36
347.142	35.73
347.525	54.49
347.908	62.85
348.291	83.42
348.674	80.03
349.057	109.4
349.44	118.67
349.823	123.64
350.206	166.13
350.588	186.01
350.971	221.04
351.354	219.23
351.737	229.17
352.119	239.8
352.502	245.9
352.884	276.86
353.267	283.18
353.65	305.56
354.032	314.37
354.414	294.94
354.797	294.71
355.179	303.75
355.562	311.88
355.944	338.78
356.326	340.81
356.709	320.25
357.091	318.89
357.473	344.43
357.855	320.92
358.238	324.31
358.62	347.82
359.002	335.84
359.384	347.36
359.766	327.03
360.148	329.29
360.53	358.21
360.912	339
361.294	328.83
361.676	335.84
362.057	341.71
362.439	323.18
362.821	310.08
363.203	320.47
363.584	312.56
363.966	318.89
364.348	316.18
364.729	317.76
365.111	326.57
365.493	317.76
365.874	312.79
366.256	325.67
366.637	320.02
367.019	339.68
367.4	315.05
367.781	310.08
368.163	325.44
368.544	320.7
368.925	313.69
369.306	312.11
369.688	316.4
370.069	313.01
370.45	296.97
370.831	290.42
371.212	300.13
371.593	327.7
371.974	327.48
372.355	301.26
372.736	305.33
373.117	328.38
373.498	316.4
373.879	313.92
374.26	321.38
374.641	320.92
375.021	293.81
375.402	311.66
375.783	319.34
376.163	333.13
376.544	331.09
376.925	312.11
377.305	330.42
377.686	341.94
378.066	324.77
378.447	313.47
378.827	341.49
379.208	326.57
379.588	344.2
379.968	343.97
380.349	343.97
380.729	326.57
381.109	330.19
381.489	346.23
381.87	334.26
382.25	328.61
382.63	349.17
383.01	354.82
383.39	336.06
383.77	352.34
384.15	344.2
384.53	339.45
384.91	345.33
385.29	372.9
385.67	332.67
386.049	341.26
386.429	376.06
386.809	360.47
387.189	339
387.568	355.73
387.948	347.59
388.328	342.39
388.707	363.63
389.087	378.32
389.466	357.76
389.846	380.58
390.225	372
390.605	369.51
390.984	374.03
391.363	377.19
391.743	359.11
392.122	376.97
392.501	382.62
392.881	365.89
393.26	365.44
393.639	371.77
394.018	358.44
394.397	396.85
394.776	394.59
395.155	386.68
395.534	375.16
395.913	376.97
396.292	400.24
396.671	382.17
397.05	392.11
397.429	398.21
397.808	399.11
398.186	390.3
398.565	390.98
398.944	392.79
399.323	421.03
399.701	419.23
400.08	411.77
400.458	393.46
400.837	413.58
401.215	399.57
401.594	410.64
401.972	422.62
402.351	419.23
402.729	435.05
403.107	406.12
403.486	421.94
403.864	429.4
404.242	420.36
404.62	430.75
404.999	430.53
405.377	459.45
405.755	444.08
406.133	440.02
406.511	443.41
406.889	482.73
407.267	493.12
407.645	486.8
408.023	491.99
408.401	480.92
408.779	490.41
409.156	504.2
409.534	502.61
409.912	503.52
410.29	532.9
410.667	520.01
411.045	532.9
411.422	541.71
411.8	548.26
412.178	542.61
412.555	568.83
412.933	555.27
413.31	565.66
413.687	573.8
414.065	587.36
414.442	582.16
414.819	605.89
415.197	625.77
415.574	636.17
415.951	627.81
416.328	672.33
416.705	659.45
417.082	660.35
417.46	670.75
417.837	661.25
418.214	669.84
418.591	673.23
418.967	658.77
419.344	700.57
419.721	722.04
420.098	710.29
420.475	738.77
420.852	727.69
421.228	738.31
421.605	746.68
421.982	734.92
422.358	777.86
422.735	783.51
423.111	774.25
423.488	790.06
423.864	806.11
424.241	807.46
424.617	794.13
424.994	826.45
425.37	864.64
425.746	845.43
426.123	854.24
426.499	849.72
426.875	875.71
427.251	885.65
427.627	882.26
428.003	914.35
428.379	909.83
428.756	920.91
429.132	930.4
429.507	934.24
429.883	948.93
430.259	974.47
430.635	963.39
431.011	956.61
431.387	994.8
431.763	1020.11
432.138	990.74
432.514	1029.83
432.89	1056.27
433.265	1066.21
433.641	1077.74
434.016	1063.73
434.392	1069.6
434.767	1136.27
435.143	1111.86
435.518	1129.72
435.894	1143.05
436.269	1183.05
436.644	1186.66
437.02	1182.14
437.395	1165.87
437.77	1198.19
438.145	1228.02
438.52	1187.57
438.895	1253.1
439.271	1228.02
439.646	1275.93
440.021	1269.37
440.395	1276.6
440.77	1248.13
441.145	1268.24
441.52	1303.04
441.895	1298.98
442.27	1308.24
442.645	1307.79
443.019	1296.04
443.394	1292.42
443.769	1344.63
444.143	1335.13
444.518	1339.43
444.892	1348.24
445.267	1334.91
445.641	1382.59
446.016	1350.73
446.39	1347.11
446.764	1374
447.139	1363.83
447.513	1383.95
447.887	1367.45
448.262	1378.52
448.636	1403.16
449.01	1406.32
449.384	1406.77
449.758	1410.39
450.132	1427.56
450.506	1432.98
450.88	1447.9
451.254	1445.19
451.628	1447.22
452.002	1429.37
452.376	1448.35
452.75	1473.44
453.123	1481.12
453.497	1470.5
453.871	1495.36
454.244	1537.39
454.618	1547.11
454.992	1536.71
455.365	1533.55
455.739	1566.31
456.112	1550.5
456.486	1583.49
456.859	1576.26
457.232	1570.61
457.606	1592.08
457.979	1619.42
458.352	1628.01
458.725	1627.1
459.099	1655.13
459.472	1677.27
459.845	1684.73
460.218	1688.12
460.591	1687.67
460.964	1704.84
461.337	1714.56
461.71	1739.19
462.083	1734.9
462.456	1733.54
462.829	1753.88
463.201	1798.17
463.574	1744.84
463.947	1799.08
464.32	1846.53
464.692	1841.56
465.065	1835.46
465.438	1849.7
465.81	1871.62
466.183	1879.07
466.555	1882.01
466.928	1911.16
467.3	1913.2
467.672	1908.68
468.045	1968.56
468.417	1980.54
468.789	1972.41
469.161	2000.2
469.534	1990.71
469.906	2046.53
470.278	2072.06
470.65	2068.22
471.022	2099.63
471.394	2115.68
471.766	2121.1
472.138	2149.58
472.51	2160.88
472.882	2197.48
473.253	2225.73
473.625	2207.88
473.997	2261.44
474.369	2284.94
474.74	2266.86
475.112	2306.63
475.484	2339.18
475.855	2377.37
476.227	2407.2
476.598	2453.3
476.97	2422.56
477.341	2466.86
477.713	2503.24
478.084	2510.24
478.455	2548.21
478.827	2560.64
479.198	2590.47
479.569	2614.42
479.94	2638.6
480.311	2666.4
480.682	2740.3
481.053	2739.84
481.424	2809.67
481.795	2792.27
482.166	2833.63
482.537	2834.3
482.908	2901.42
483.279	2923.34
483.65	2934.19
484.021	2971.02
484.391	2987.29
484.762	3000.4
485.133	3023.68
485.503	3058.93
485.874	3084.47
486.244	3116.78
486.615	3152.49
486.985	3151.13
487.356	3225.48
487.726	3214.18
488.097	3288.3
488.467	3256.44
488.837	3346.61
489.207	3341.41
489.578	3413.72
489.948	3403.33
490.318	3431.12
490.688	3433.84
491.058	3483.55
491.428	3502.99
491.798	3516.77
492.168	3595.41
492.538	3580.27
492.908	3643.55
493.278	3679.25
493.648	3667.05
494.017	3725.13
494.387	3732.36
494.757	3714.73
495.126	3706.82
495.496	3753.38
495.866	3789.53
496.235	3758.8
496.605	3825.24
496.974	3847.61
497.344	3843.77
497.713	3883.32
498.082	3892.58
498.452	3925.12
498.821	3968.96
499.19	3896.2
499.559	3957.89
499.928	3982.52
500.298	3945.91
500.667	4037.89
501.036	3992.01
501.405	4042.63
501.774	4012.13
502.143	4056.19
502.512	4042.18
502.88	4073.37
503.249	4120.37
503.618	4119.47
503.987	4140.71
504.356	4160.82
504.724	4186.13
505.093	4205.79
505.462	4209.18
505.83	4170.99
506.199	4243.76
506.567	4233.14
506.936	4263.19
507.304	4272.91
507.672	4296.19
508.041	4278.33
508.409	4346.13
508.777	4333.47
509.145	4366.92
509.514	4361.04
509.882	4338.45
510.25	4336.64
510.618	4406.24
510.986	4413.25
511.354	4398.1
511.722	4447.82
512.09	4508.84
512.458	4450.76
512.826	4528.5
513.193	4510.19
513.561	4490.31
513.929	4517.65
514.297	4551.77
514.664	4557.65
515.032	4569.4
515.4	4584.99
515.767	4566.01
516.135	4570.53
516.502	4589.29
516.869	4630.64
517.237	4623.18
517.604	4629.06
517.972	4640.81
518.339	4650.75
518.706	4668.83
519.073	4706.12
519.44	4719
519.808	4733.92
520.175	4755.38
520.542	4763.52
520.909	4777.98
521.276	4755.16
521.643	4778.89
522.009	4820.24
522.376	4834.25
522.743	4864.08
523.11	4930.29
523.477	4927.58
523.843	4934.81
524.21	5011.65
524.577	4954.7
524.943	4970.75
525.31	5031.99
525.676	5086.9
526.043	5093.91
526.409	5073.79
526.776	5109.05
527.142	5167.12
527.508	5198.99
527.874	5189.04
528.241	5241.92
528.607	5249.38
528.973	5233.11
529.339	5281.92
529.705	5280.34
530.071	5361.47
530.437	5363.96
530.803	5338.42
531.169	5403.95
531.535	5405.31
531.901	5443.27
532.267	5413.22
532.632	5468.36
532.998	5460
533.364	5549.26
533.73	5557.62
534.095	5559.43
534.461	5585.64
534.826	5640.56
535.192	5660.44
535.557	5626.55
535.923	5627
536.288	5690.95
536.653	5748.35
537.019	5696.38
537.384	5690.95
537.749	5751.52
538.114	5775.24
538.479	5793.55
538.845	5798.97
539.21	5878.74
539.575	5918.29
539.94	5884.62
540.305	5875.35
540.67	5920.1
541.034	5936.14
541.399	5979.53
541.764	5982.47
542.129	5972.75
542.494	6055.24
542.858	6050.72
543.223	6097.27
543.587	6132.52
543.952	6125.97
544.316	6197.15
544.681	6156.02
545.045	6192.63
545.41	6239.86
545.774	6284.61
546.138	6217.04
546.503	6297.72
546.867	6344.27
547.231	6368.67
547.595	6345.17
547.959	6450.71
548.324	6418.16
548.688	6386.3
549.052	6441.44
549.416	6467.43
549.779	6462.68
550.143	6492.96
550.507	6542.91
550.871	6595.56
551.235	6546.97
551.599	6631.27
551.962	6563.7
552.326	6655.67
552.689	6637.14
553.053	6650.47
553.417	6663.58
553.78	6767.08
554.143	6755.56
554.507	6721.66
554.87	6710.36
555.234	6856.57
555.597	6751.04
555.96	6791.49
556.323	6815.89
556.686	6854.09
557.05	6918.49
557.413	6854.99
557.776	6958.04
558.139	6996.45
558.502	6929.56
558.865	6955.78
559.228	7000.75
559.59	7027.41
559.953	7072.16
560.316	7124.13
560.679	7099.05
561.041	7100.86
561.404	7153.06
561.767	7197.35
562.129	7183.34
562.492	7268.31
562.854	7243.45
563.217	7324.36
563.579	7287.07
563.941	7342.89
564.304	7307.41
564.666	7385.14
565.028	7357.57
565.39	7418.82
565.753	7419.49
566.115	7437.8
566.477	7497.23
566.839	7511.24
567.201	7591.02
567.563	7564.35
567.925	7611.35
568.287	7584.01
568.648	7649.77
569.01	7647.06
569.372	7764.34
569.734	7711.24
570.095	7776.77
570.457	7850.67
570.819	7902.65
571.18	7847.51
571.542	7923.66
571.903	7900.39
572.265	8002.3
572.626	8013.83
572.987	8027.61
573.349	8119.81
573.71	8155.29
574.071	8249.98
574.432	8227.83
574.794	8300.37
575.155	8424.21
575.516	8385.57
575.877	8484.55
576.238	8507.6
576.599	8652.46
576.96	8661.95
577.32	8705.34
577.681	8815.16
578.042	8922.28
578.403	8987.36
578.763	9028.27
579.124	9167.02
579.485	9269.16
579.845	9464.64
580.206	9556.16
580.566	9654.24
580.927	9748.7
581.287	9874.12
581.648	10030.05
582.008	10229.82
582.368	10344.62
582.728	10539.86
583.089	10659.41
583.449	10785.73
583.809	10950.47
584.169	11225.27
584.529	11319.28
584.889	11629.33
585.249	11761.75
585.609	11931.92
585.969	12187.73
586.329	12356.77
586.688	12596.08
587.048	12804.89
587.408	13037.65
587.768	13207.59
588.127	13486.23
588.487	13645.77
588.846	14065.87
589.206	14276.04
589.565	14563.04
589.925	14850.94
590.284	15057.71
590.643	15371.83
591.003	15668.54
591.362	16088.19
591.721	16216.33
592.08	16515.3
592.44	16807.95
592.799	17075.74
593.158	17368.61
593.517	17767.92
593.876	18072.55
594.235	18273.22
594.593	18676.83
594.952	18962.47
595.311	19212.86
595.67	19549.34
596.029	19920.63
596.387	20155.2
596.746	20570.79
597.104	20711.57
597.463	21158.57
597.822	21448.96
598.18	21681.94
598.538	22000.58
598.897	22375.03
599.255	22461.36
599.613	23130.04
599.972	23186.09
600.33	23581.56
600.688	23751.04
601.046	24221.31
601.404	24514.64
601.762	24713.73
602.12	25073.04
602.478	25292.02
602.836	25531.11
603.194	25679.81
603.552	25915.05
603.91	26169.74
604.268	26524.98
604.625	26686.33
604.983	27093.55
605.341	27206.09
605.698	27762.46
606.056	27890.82
606.413	28069.35
606.771	28428.21
607.128	28617.35
607.485	28622.1
607.843	29035.42
608.2	29264.12
608.557	29538.69
608.914	29752.24
609.272	30159.46
609.629	30212.57
609.986	30533.69
610.343	30660.47
610.7	31109.94
611.057	31187.23
611.414	31333.22
611.771	31504.28
612.127	31897.04
612.484	31909.92
612.841	32185.4
613.198	32227.88
613.554	32410.02
613.911	32759.39
614.267	32857.92
614.624	33137.69
614.98	33194.41
615.337	33511.46
615.693	33597.56
616.05	33762.76
616.406	34091.34
616.762	34015.86
617.118	34258.11
617.475	34251.33
617.831	34583.07
618.187	34575.16
618.543	34842.73
618.899	35036.4
619.255	35065.55
619.611	35212.89
619.967	35451.53
620.323	35474.35
620.678	35512.77
621.034	35705.76
621.39	35701.01
621.746	35699.88
622.101	36241.34
622.457	36017.16
622.812	36291.73
623.168	36419.86
623.523	36465.28
623.879	36560.65
624.234	36529.24
624.589	36605.85
624.945	36790.02
625.3	36785.5
625.655	36977.14
626.01	36947.98
626.365	37128.77
626.72	37333.74
627.075	37154.76
627.43	37286.73
627.785	37261.65
628.14	37355.66
628.495	37569.89
628.85	37432.94
629.205	37330.8
629.559	37715.19
629.914	37557.01
630.269	37581.64
630.623	37576.22
630.978	37573.28
631.332	37705.03
631.687	37838.13
632.041	37790.67
632.396	37809.66
632.75	37714.06
633.104	37935.3
633.459	37661.18
633.813	37760.62
634.167	37822.54
634.521	37783.44
634.875	37959.48
635.229	37920.61
635.583	37708.64
635.937	37844.23
636.291	37738.47
636.645	37854.85
636.999	37832.71
637.352	38012.36
637.706	37886.26
638.06	37927.17
638.413	37811.24
638.767	37806.04
639.121	37928.07
639.474	37675.2
639.828	37753.61
640.181	37838.36
640.534	37728.53
640.888	37728.75
641.241	37633.16
641.594	37815.08
641.947	37799.49
642.301	37723.56
642.654	37731.01
643.007	37814.18
643.36	37761.97
643.713	37595.88
644.066	37891.91
644.419	37645.37
644.771	37488.99
645.124	37117.24
645.477	37051.03
645.83	36907.53
646.182	36836.57
646.535	36640.19
646.888	36818.5
647.24	36500.31
647.593	36945.5
647.945	36666.41
648.298	36566.3
648.65	36503.93
649.002	36457.37
649.355	36707.54
649.707	36582.34
650.059	36762.45
650.411	37204.02
650.763	37270.23
651.115	37561.53
651.467	37537.12
651.819	37438.14
652.171	37520.4
652.523	37294.19
652.875	37386.16
653.227	37215.32
653.578	37494.86
653.93	37355.88
654.282	37294.87
654.633	37190.01
654.985	37255.55
655.337	37296.45
655.688	37267.52
656.039	37500.96
656.391	37181.88
656.742	37251.7
657.094	37286.96
657.445	37280.18
657.796	37223.91
658.147	37163.12
658.498	37139.84
658.849	37265.49
659.2	37169.67
659.551	37156.79
659.902	37237.47
660.253	37188.43
660.604	37308.88
660.955	37073.86
661.306	37081.99
661.656	37255.09
662.007	37110.46
662.358	37185.72
662.708	37187.75
663.059	37103.46
663.409	36992.73
663.76	37229.78
664.11	37054.2
664.461	37108.66
664.811	37211.93
665.161	37117.92
665.511	36977.36
665.862	37123.57
666.212	37291.03
666.562	37273.17
666.912	37062.33
667.262	37057.36
667.612	37122.67
667.962	37225.94
668.312	37081.77
668.662	37203.12
669.011	37077.25
669.361	36999.73
669.711	37229.78
670.06	37054.2
670.41	37012.84
670.76	36915.89
671.109	37111.82
671.459	37087.87
671.808	36886.29
672.157	36985.04
672.507	36749.12
672.856	36879.96
673.205	36871.6
673.554	37017.59
673.904	36838.38
674.253	37001.77
674.602	36916.8
674.951	36338.96
675.3	36229.58
675.649	36850.58
675.998	36847.42
676.346	36767.88
676.695	36932.84
677.044	36555.68
677.393	36702.79
677.741	36742.11
678.09	36630.03
678.438	36631.16
678.787	36679.06
679.135	36541.89
679.484	36274.55
679.832	36548.45
680.181	36248.79
680.529	36351.16
680.877	36306.42
681.225	36251.73
681.573	36614.66
681.922	36254.89
682.27	36175.35
682.618	36228.68
682.966	36056.71
683.314	36058.06
683.661	35925.41
684.009	35861.23
684.357	35759.54
684.705	35870.5
685.053	35769.03
685.4	35803.38
685.748	35532.88
686.095	35625.98
686.443	35415.82
686.79	35251.08
687.138	35449.94
687.485	35444.52
687.832	35263.96
688.18	35416.72
688.527	35071.87
688.874	34947.58
689.221	35038.2
689.568	34967.7
689.915	34877.3
690.262	34858.77
690.609	34656.52
690.956	34646.57
691.303	34537.43
691.65	34423.76
691.997	34557.54
692.344	34149.86
692.69	34250.43
693.037	34246.36
693.383	33995.97
693.73	34271.44
694.077	33963.2
694.423	33897.22
694.769	33829.42
695.116	33844.34
695.462	33695.19
695.808	33558.24
696.155	33758.46
696.501	33406.61
696.847	33386.95
697.193	33219.72
697.539	33330.45
697.885	32994.41
698.231	32971.14
698.577	32919.16
698.923	32990.35
699.269	32737.25
699.614	32697.02
699.96	32636.68
700.306	32646.63
700.651	32490.25
700.997	32512.39
701.342	32293.64
701.688	32382.23
702.033	32140.43
702.379	32231.5
702.724	32101.33
703.069	32127.09
703.415	31732.98
703.76	31793.54
704.105	31730.95
704.45	31615.92
704.795	31483.04
705.14	31344.51
705.485	31403.72
705.83	31234.01
706.175	31300.45
706.52	31253.9
706.865	31161.02
707.209	30966.67
707.554	30945.88
707.899	31032.21
708.243	30843.29
708.588	30728.26
708.932	30624.76
709.277	30544.76
709.621	30603.52
709.966	30447.82
710.31	30426.57
710.654	30210.08
710.998	30236.07
711.342	30376.63
711.687	30113.36
712.031	29967.15
712.375	29970.31
712.719	30008.28
713.063	29897.32
713.407	29940.48
713.75	29849.41
714.094	29853.93
714.438	29731.9
714.782	29744.56
715.125	29485.58
715.469	29607.39
715.812	29465.02
716.156	29305.7
716.499	29408.75
716.843	29321.97
717.186	29178.47
717.53	29274.96
717.873	29311.12
718.216	29200.84
718.559	29084.69
718.902	28893.05
719.246	28907.74
719.589	28950.68
719.932	28726.5
720.275	28773.73
720.617	28842.43
720.96	28632.04
721.303	28640.41
721.646	28688.99
721.989	28389.56
722.331	28491.03
722.674	28524.02
723.016	28498.49
723.359	28414.42
723.701	28367.19
724.044	28221.43
724.386	28129.23
724.729	28213.3
725.071	28165.16
725.413	28239.29
725.755	28060.08
726.097	28021.89
726.439	27953.64
726.782	27863.93
727.124	28051.04
727.465	27872.52
727.807	27814.21
728.149	27724.27
728.491	27666.19
728.833	27874.55
729.175	27675.46
729.516	27535.35
729.858	27548
730.199	27662.58
730.541	27591.62
730.882	27530.83
731.224	27621.9
731.565	27318.18
731.906	27393.21
732.248	27471.17
732.589	27158.41
732.93	27207.22
733.271	27217.39
733.612	27249.03
733.953	27158.64
734.294	27107.11
734.635	27041.8
734.976	27152.99
735.317	26937.17
735.658	27042.48
735.999	26841.58
736.339	26884.97
736.68	26977.4
737.021	26877.74
737.361	26764.3
737.702	26887.68
738.042	26719.55
738.383	26729.72
738.723	26801.13
739.063	26633
739.404	26576.28
739.744	26513.46
740.084	26408.6
740.424	26476.39
740.764	26464.64
741.104	26551.87
741.444	26410.86
741.784	26335.16
742.124	26453.34
742.464	26349.39
742.804	26318.88
743.143	26271.65
743.483	26168.38
743.823	26073.69
744.162	26201.83
744.502	26042.28
744.841	25973.58
745.181	26177.19
745.52	26029.63
745.86	25938.56
746.199	25879.8
746.538	26001.38
746.877	26023.98
747.216	25911.89
747.556	25873.92
747.895	25889.97
748.234	25821.72
748.573	25739.01
748.911	25643.65
749.25	25819.69
749.589	25728.62
749.928	25657.66
750.267	25775.62
750.605	25584.44
750.944	25523.2
751.283	25527.27
751.621	25510.09
751.96	25394.16
752.298	25381.28
752.636	25382.64
752.975	25323.66
753.313	25264.22
753.651	25333.6
753.989	25265.58
754.327	25259.93
754.666	25016.32
755.004	25196.2
755.342	25129.09
755.679	25056.32
756.017	24985.36
756.355	25021.74
756.693	24842.99
757.031	25013.16
757.368	24746.04
757.706	24798.7
758.044	24660.17
758.381	24827.62
758.719	24592.15
759.056	24713.73
