Data from hue_30_FLMS001491_22.txt Node
Date: Mon Feb 06 15:04:56 GMT 2017
User: dcchb
Spectrometer: FLMS00149
Trigger mode: 0
Integration Time (sec): 2.000000E-2
Scans to average: 10
Electric dark correction enabled: true
Nonlinearity correction enabled: false
Boxcar width: 0
XAxis mode: Wavelengths
Number of Pixels in Spectrum: 2048
>>>>>Begin Spectral Data<<<<<
341.393	-5.55
341.776	-5.55
342.16	-5.55
342.543	-56.85
342.927	-58.88
343.31	-72.89
343.693	-82.38
344.077	-50.75
344.46	-67.24
344.843	-60.92
345.226	-54.36
345.61	-35.61
345.993	-24.31
346.376	11.62
346.759	20.44
347.142	17.05
347.525	50.94
347.908	63.6
348.291	82.58
348.674	101.79
349.057	100.44
349.44	135.69
349.823	133.2
350.206	156.25
350.588	198.06
350.971	229.7
351.354	237.38
351.737	237.15
352.119	245.97
352.502	247.55
352.884	270.37
353.267	289.81
353.65	304.95
354.032	315.8
354.414	310.83
354.797	304.95
355.179	295.01
355.562	330.03
355.944	317.6
356.326	319.64
356.709	312.63
357.091	341.78
357.473	345.85
357.855	328.68
358.238	363.48
358.62	339.52
359.002	356.47
359.384	360.77
359.766	342.69
360.148	331.84
360.53	353.76
360.912	329.58
361.294	320.99
361.676	344.27
362.057	331.16
362.439	328.23
362.821	331.84
363.203	320.32
363.584	329.81
363.966	325.51
364.348	340.2
364.729	327.32
365.111	336.36
365.493	326.42
365.874	324.84
366.256	333.65
366.637	313.08
367.019	306.31
367.4	330.03
367.781	308.57
368.163	323.93
368.544	315.57
368.925	334.55
369.306	338.85
369.688	319.86
370.069	341.11
370.45	310.15
370.831	323.93
371.212	326.87
371.593	323.03
371.974	328.68
372.355	318.96
372.736	322.12
373.117	313.31
373.498	315.34
373.879	310.15
374.26	310.6
374.641	312.18
375.021	292.07
375.402	322.12
375.783	300.43
376.163	319.86
376.544	328
376.925	321.67
377.305	315.57
377.686	346.98
378.066	336.36
378.447	311.5
378.827	321.9
379.208	334.33
379.588	335.46
379.968	354.89
380.349	335.01
380.729	346.3
381.109	325.74
381.489	335.68
381.87	343.37
382.25	363.48
382.63	353.76
383.01	337.94
383.39	334.33
383.77	340.88
384.15	362.35
384.53	339.07
384.91	332.52
385.29	363.71
385.67	362.58
386.049	355.12
386.429	366.19
386.809	348.34
387.189	362.12
387.568	340.88
387.948	350.6
388.328	357.83
388.707	350.82
389.087	366.42
389.466	362.12
389.846	365.74
390.225	374.33
390.605	386.08
390.984	370.48
391.363	353.76
391.743	373.42
392.122	351.73
392.501	391.28
392.881	377.49
393.26	376.59
393.639	374.1
394.018	344.72
394.397	382.24
394.776	374.78
395.155	386.53
395.534	405.96
395.913	386.3
396.292	381.78
396.671	384.27
397.05	407.55
397.429	388.11
397.808	377.04
398.186	373.65
398.565	404.61
398.944	386.3
399.323	404.16
399.701	400.99
400.08	417.49
400.458	395.12
400.837	412.52
401.215	434.66
401.594	408
401.972	416.13
402.351	411.39
402.729	410.03
403.107	420.43
403.486	410.94
403.864	405.51
404.242	413.65
404.62	430.37
404.999	420.65
405.377	407.09
405.755	429.24
406.133	417.49
406.511	435.12
406.889	435.79
407.267	446.64
407.645	445.74
408.023	426.98
408.401	442.8
408.779	437.83
409.156	434.44
409.534	437.38
409.912	458.84
410.29	444.15
410.667	476.47
411.045	453.42
411.422	466.98
411.8	465.4
412.178	459.52
412.555	480.31
412.933	488.45
413.31	488.67
413.687	479.63
414.065	493.19
414.442	482.57
414.819	494.78
415.197	495
415.574	501.78
415.951	487.32
416.328	516.24
416.705	500.42
417.082	501.33
417.46	504.94
417.837	513.31
418.214	502.23
418.591	516.7
418.967	518.96
419.344	530.03
419.721	527.99
420.098	524.83
420.475	527.54
420.852	539.29
421.228	535.45
421.605	532.51
421.982	544.27
422.358	533.42
422.735	546.07
423.111	549.69
423.488	539.52
423.864	551.5
424.241	556.47
424.617	551.27
424.994	548.11
425.37	581.1
425.746	560.76
426.123	571.38
426.499	575.22
426.875	579.29
427.251	571.38
427.627	591.72
428.003	609.57
428.379	596.92
428.756	588.56
429.132	596.02
429.507	601.21
429.883	626.3
430.259	620.42
430.635	619.74
431.011	626.75
431.387	641.21
431.763	655
432.138	659.29
432.514	651.16
432.89	646.64
433.265	670.36
433.641	672.62
434.016	670.14
434.392	695.67
434.767	680.98
435.143	691.83
435.518	691.38
435.894	692.51
436.269	699.06
436.644	708.78
437.02	704.94
437.395	720.31
437.77	723.24
438.145	723.24
438.52	737.48
438.895	762.79
439.271	744.71
439.646	746.97
440.021	760.08
440.395	760.53
440.77	754.66
441.145	769.34
441.52	765.28
441.895	784.26
442.27	775.9
442.645	777.25
443.019	775.22
443.394	814.31
443.769	781.1
444.143	769.8
444.518	799.85
444.892	816.8
445.267	802.34
445.641	814.77
446.016	831.04
446.39	818.61
446.764	829.23
447.139	817.7
447.513	865.61
447.887	833.3
448.262	827.87
448.636	844.14
449.01	853.64
449.384	881.88
449.758	875.1
450.132	882.79
450.506	875.56
450.88	894.99
451.254	869.45
451.628	891.6
452.002	906.29
452.376	922.33
452.75	944.03
453.123	894.31
453.497	961.66
453.871	934.99
454.244	965.5
454.618	943.12
454.992	961.2
455.365	960.98
455.739	986.51
456.112	986.97
456.486	989.9
456.859	991.71
457.232	1025.83
457.606	1015.67
457.979	1013.41
458.352	1064.48
458.725	1061.09
459.099	1069.22
459.472	1079.39
459.845	1084.36
460.218	1108.09
460.591	1116.68
460.964	1120.3
461.337	1152.16
461.71	1138.83
462.083	1173.18
462.456	1172.5
462.829	1161.88
463.201	1184.02
463.574	1201.2
463.947	1200.75
464.32	1236.45
464.692	1255.43
465.065	1258.37
465.438	1272.16
465.81	1299.27
466.183	1292.95
466.555	1314.41
466.928	1337.01
467.3	1349.67
467.672	1364.36
468.045	1404.36
468.417	1403.23
468.789	1403
469.161	1407.07
469.534	1435.54
469.906	1480.06
470.278	1499.49
470.65	1506.27
471.022	1527.06
471.394	1571.36
471.766	1573.84
472.138	1602.54
472.51	1622.88
472.882	1664.01
473.253	1663.78
473.625	1694.74
473.997	1769.32
474.369	1797.57
474.74	1784.46
475.112	1818.81
475.484	1863.55
475.855	1936.32
476.227	1950.1
476.598	1977.45
476.97	2006.37
477.341	2066.71
477.713	2073.72
478.084	2094.96
478.455	2164.11
478.827	2194.39
479.198	2236.65
479.569	2279.13
479.94	2374.27
480.311	2408.4
480.682	2434.61
481.053	2509.86
481.424	2579.47
481.795	2578.79
482.166	2613.59
482.537	2685.45
482.908	2754.83
483.279	2818.1
483.65	2876.63
484.021	2946.24
484.391	2967.25
484.762	3019
485.133	3047.93
485.503	3147.36
485.874	3221.48
486.244	3286.57
486.615	3316.17
486.985	3412.66
487.356	3458.09
487.726	3535.83
488.097	3601.59
488.467	3638.65
488.837	3698.76
489.207	3807.23
489.578	3850.85
489.948	3949.15
490.318	3989.6
490.688	4040.22
491.058	4072.76
491.428	4207.9
491.798	4260.55
492.168	4346.2
492.538	4336.03
492.908	4444.95
493.278	4496.93
493.648	4533.31
494.017	4642.01
494.387	4695.34
494.757	4772.4
495.126	4805.62
495.496	4826.64
495.866	4935.34
496.235	4963.36
496.605	5006.52
496.974	5095.11
497.344	5152.28
497.713	5151.6
498.082	5206.06
498.452	5296.68
498.821	5341.65
499.19	5354.08
499.559	5390.47
499.928	5459.84
500.298	5504.81
500.667	5609.44
501.036	5577.58
501.405	5604.92
501.774	5618.93
502.143	5703.68
502.512	5795.88
502.88	5796.33
503.249	5813.96
503.618	5885.14
503.987	5920.4
504.356	5959.04
504.724	6010.11
505.093	6016.66
505.462	6066.15
505.83	6129.88
506.199	6197.45
506.567	6309.54
506.936	6273.83
507.304	6278.8
507.672	6363.77
508.041	6434.73
508.409	6455.07
508.777	6489.87
509.145	6495.3
509.514	6540.04
509.882	6603.09
510.25	6550.66
510.618	6647.61
510.986	6612.35
511.354	6715.18
511.722	6769.64
512.09	6796.76
512.458	6800.6
512.826	6855.06
513.193	6893.25
513.561	6967.83
513.929	6973.7
514.297	7062.29
514.664	7081.04
515.032	7093.25
515.4	7155.39
515.767	7086.69
516.135	7217.76
516.502	7163.53
516.869	7297.31
517.237	7257.08
517.604	7220.02
517.972	7332.79
518.339	7361.26
518.706	7383.18
519.073	7418.66
519.44	7468.15
519.808	7548.6
520.175	7483.97
520.542	7618.66
520.909	7639.45
521.276	7634.25
521.643	7688.26
522.009	7752.21
522.376	7718.09
522.743	7813.68
523.11	7801.02
523.477	7968.93
523.843	7912.66
524.21	8031.98
524.577	8045.76
524.943	8069.27
525.31	8105.87
525.676	8208.47
526.043	8159.43
526.409	8224.06
526.776	8307
527.142	8331.86
527.508	8356.04
527.874	8456.6
528.241	8514.68
528.607	8573.21
528.973	8552.42
529.339	8619.08
529.705	8676.25
530.071	8713.54
530.437	8763.26
530.803	8813.88
531.169	8835.8
531.535	8838.06
531.901	8941.11
532.267	8993.53
532.632	9016.13
532.998	9026.3
533.364	9005.06
533.73	9035.57
534.095	9179.07
534.461	9123.47
534.826	9271.49
535.192	9243.25
535.557	9335.22
535.923	9342.9
536.288	9362.11
536.653	9400.08
537.019	9365.5
537.384	9486.63
537.749	9538.15
538.114	9515.33
538.479	9528.21
538.845	9671.71
539.21	9556.01
539.575	9677.13
539.94	9720.97
540.305	9767.3
540.67	9764.59
541.034	9814.98
541.399	9912.61
541.764	9929.1
542.129	9944.92
542.494	10038.48
542.858	10047.07
543.223	10089.55
543.587	10131.81
543.952	10152.83
544.316	10206.16
544.681	10199.6
545.045	10300.62
545.41	10349.66
545.774	10377.68
546.138	10387.17
546.503	10462.42
546.867	10437.34
547.231	10455.64
547.595	10602.76
547.959	10598.46
548.324	10599.59
548.688	10660.61
549.052	10675.75
549.416	10761.85
549.779	10768.4
550.143	10807.5
550.507	10877.55
550.871	10864.22
551.235	10860.15
551.599	10921.39
551.962	11018.79
552.326	11024.22
552.689	11087.94
553.053	11081.62
553.417	11055.18
553.78	11220.37
554.143	11136.53
554.507	11222.85
554.87	11323.42
555.234	11395.05
555.597	11259.46
555.96	11340.82
556.323	11443.87
556.686	11458.1
557.05	11516.41
557.413	11528.16
557.776	11535.61
558.139	11638.66
558.502	11662.84
558.865	11619
559.228	11778.77
559.59	11742.84
559.953	11706.68
560.316	11831.43
560.679	11866.45
561.041	11971.54
561.404	11990.29
561.767	12066.9
562.129	12008.37
562.492	12134.24
562.854	12224.18
563.217	12143.73
563.579	12201.13
563.941	12310.74
564.304	12230.06
564.666	12354.58
565.028	12341.92
565.39	12431.41
565.753	12505.08
566.115	12520.9
566.477	12556.83
566.839	12585.08
567.201	12712.76
567.563	12631.86
567.925	12767.9
568.287	12809.25
568.648	12798.41
569.01	12888.12
569.372	12955.69
569.734	12928.57
570.095	13068.68
570.457	13053.77
570.819	13099.64
571.18	13206.98
571.542	13279.52
571.903	13261.22
572.265	13360.43
572.626	13412.63
572.987	13392.06
573.349	13565.84
573.71	13646.52
574.071	13678.61
574.432	13777.82
574.794	13951.6
575.155	13939.17
575.516	13957.47
575.877	14140.74
576.238	14108.2
576.599	14354.07
576.96	14397.69
577.32	14319.04
577.681	14557.68
578.042	14671.35
578.403	14763.78
578.763	14933.04
579.124	15081.96
579.485	15131
579.845	15353.37
580.206	15389.07
580.566	15580.25
580.927	15716.3
581.287	15914.71
581.648	15996.06
582.008	16206.9
582.368	16385.88
582.728	16609.61
583.089	16790.62
583.449	16914.46
583.809	17201.91
584.169	17363.48
584.529	17553.99
584.889	17936.8
585.249	18035.33
585.609	18144.25
585.969	18419.95
586.329	18715.31
586.688	18963.67
587.048	19162.98
587.408	19449.08
587.768	19643.65
588.127	19934.94
588.487	20212.22
588.846	20550.74
589.206	20622.61
589.565	20927.68
589.925	21325.64
590.284	21591.4
590.643	21838.62
591.003	22111.61
591.362	22548.66
591.721	22712.72
592.08	23134.86
592.44	23428.86
592.799	23584.34
593.158	23770.77
593.517	24169.63
593.876	24401.49
594.235	24663.86
594.593	25011.19
594.952	25320.34
595.311	25497.28
595.67	25866.99
596.029	26335
596.387	26544.49
596.746	26976.34
597.104	27107.18
597.463	27343.79
597.822	27778.35
598.18	27957.78
598.538	28175.18
598.897	28709.63
599.255	28716.41
599.613	29348.25
599.972	29465.31
600.33	29862.36
600.688	29899.88
601.046	30324.95
601.404	30667.09
601.762	30702.79
602.12	31214.42
602.478	31351.36
602.836	31787.96
603.194	31722.43
603.552	32063.89
603.91	32175.3
604.268	32522.41
604.625	32619.35
604.983	33101.6
605.341	33209.17
605.698	33532.78
606.056	33818.19
606.413	33885.76
606.771	34232.42
607.128	34402.36
607.485	34487.33
607.843	34789.01
608.2	35257.02
608.557	35380.41
608.914	35551.48
609.272	35806.62
609.629	36131.58
609.986	36305.81
610.343	36299.48
610.7	36729.75
611.057	36744.67
611.414	36946.92
611.771	37030.76
612.127	37245.45
612.484	37432.11
612.841	37754.13
613.198	37614.48
613.554	37823.96
613.911	38272.54
614.267	38224.86
614.624	38300.79
614.98	38512.98
615.337	38917.72
615.693	39071.61
616.05	39032.07
616.406	39314.09
616.762	39267.09
617.118	39353.41
617.475	39560.87
617.831	39798.6
618.187	39835.89
618.543	40150
618.899	40392.48
619.255	40337.57
619.611	40541.63
619.967	40681.29
620.323	40785.92
620.678	40716.77
621.034	40782.3
621.39	40830.44
621.746	40806.48
622.101	41354.04
622.457	41045.12
622.812	41237.66
623.168	41396.75
623.523	41422.29
623.879	41652.79
624.234	41397.65
624.589	41577.76
624.945	41797.19
625.3	41796.74
625.655	41777.31
626.01	41927.13
626.365	41982.27
626.72	41957.64
627.075	42019.11
627.43	42190.63
627.785	42065.21
628.14	42158.76
628.495	42224.98
628.85	42269.27
629.205	42311.3
629.559	42379.55
629.914	42320.12
630.269	42417.29
630.623	42296.16
630.978	42149.95
631.332	42515.14
631.687	42533.67
632.041	42414.12
632.396	42547
632.75	42331.19
633.104	42542.03
633.459	42300.46
633.813	42388.59
634.167	42425.2
634.521	42510.39
634.875	42430.62
635.229	42434.46
635.583	42267.24
635.937	42277.18
636.291	42264.52
636.645	42474.91
636.999	42263.85
637.352	42377.52
637.706	42203.73
638.06	42246.67
638.413	42209.16
638.767	42217.29
639.121	42356.95
639.474	42088.03
639.828	42039.67
640.181	42196.05
640.534	42320.12
640.888	42196.28
641.241	41992.22
641.594	42166.9
641.947	42182.49
642.301	42124.19
642.654	42057.52
643.007	42078.09
643.36	42088.71
643.713	41914.48
644.066	42284.86
644.419	41887.36
644.771	41501.38
645.124	41331.67
645.477	41182.07
645.83	41022.52
646.182	40859.59
646.535	40778.46
646.888	40942.07
647.24	40626.6
647.593	40817.33
647.945	40963.32
648.298	40686.94
648.65	40540.05
649.002	40533.5
649.355	40719.25
649.707	40690.1
650.059	40778.91
650.411	41300.93
650.763	41222.74
651.115	41869.28
651.467	41523.07
651.819	41559.68
652.171	41491.89
652.523	41497.09
652.875	41402.63
653.227	41180.49
653.578	41599.91
653.93	41400.59
654.282	41295.96
654.633	41209.18
654.985	41242.86
655.337	41373.25
655.688	41296.41
656.039	41453.47
656.391	41147.49
656.742	41237.21
657.094	41076.98
657.445	41341.61
657.796	41131.9
658.147	41092.13
658.498	41097.32
658.849	41127.61
659.2	41081.96
659.551	41088.28
659.902	41159.02
660.253	40999.25
660.604	41037.21
660.955	41004.44
661.306	41255.96
661.656	40979.36
662.007	40956.76
662.358	40880.38
662.708	40907.27
663.059	40911.34
663.409	40729.2
663.76	40990.43
664.11	41003.31
664.461	41013.94
664.811	41003.54
665.161	41009.19
665.511	40902.3
665.862	40968.06
666.212	41019.13
666.562	41059.36
666.912	40962.19
667.262	40874.73
667.612	40929.19
667.962	40944.33
668.312	40790.21
668.662	41039.7
669.011	40973.71
669.361	40842.64
669.711	40726.26
670.06	40778.91
670.41	40736.2
670.76	40724
671.109	40850.1
671.459	40626.15
671.808	40710.44
672.157	40824.11
672.507	40414.18
672.856	40493.27
673.205	40576.89
673.554	40728.52
673.904	40550.22
674.253	40723.1
674.602	40605.81
674.951	40059.16
675.3	39719.05
675.649	40525.14
675.998	40478.36
676.346	40383.67
676.695	40580.5
677.044	40210.34
677.393	40377.79
677.741	40355.42
678.09	40349.77
678.438	40258.25
678.787	40134.64
679.135	40333.5
679.484	40045.83
679.832	40230
680.181	39818.03
680.529	40157.69
680.877	39976.67
681.225	39913.17
681.573	40164.24
681.922	39905.49
682.27	39716.12
682.618	39777.13
682.966	39661.88
683.314	39749.11
683.661	39526.29
684.009	39523.58
684.357	39307.54
684.705	39300.53
685.053	39473.64
685.4	39270.25
685.748	39153.42
686.095	39148.45
686.443	39001.11
686.79	38940.77
687.138	38871.62
687.485	38941.67
687.832	38781.45
688.18	38891.73
688.527	38611.96
688.874	38570.84
689.221	38419.88
689.568	38433.89
689.915	38316.15
690.262	38475.47
690.609	38276.83
690.956	38208.59
691.303	38029.16
691.65	37881.81
691.997	37871.87
692.344	37687.7
692.69	37734.25
693.037	37768.15
693.383	37307.59
693.73	37390.75
694.077	37227.59
694.423	37309.4
694.769	37130.87
695.116	37096.98
695.462	37141.72
695.808	36930.2
696.155	37055.4
696.501	36682.75
696.847	36650.21
697.193	36413.83
697.539	36585.8
697.885	36319.82
698.231	36111.24
698.577	36240.73
698.923	36131.13
699.269	35991.24
699.614	35809.55
699.96	35783.56
700.306	35727.97
700.651	35699.95
700.997	35523.46
701.342	35541.99
701.688	35396.46
702.033	35436.68
702.379	35292.05
702.724	35246.86
703.069	35254.99
703.415	34895.68
703.76	34917.37
704.105	34870.14
704.45	34774.78
704.795	34547.89
705.14	34387.9
705.485	34346.99
705.83	34222.02
706.175	34330.5
706.52	34217.05
706.865	34041.69
707.209	34078.52
707.554	34014.35
707.899	34043.05
708.243	33806.22
708.588	33847.8
708.932	33651.64
709.277	33605.54
709.621	33446.23
709.966	33420.92
710.31	33476.05
710.654	33170.98
710.998	33211.65
711.342	33157.87
711.687	33105.22
712.031	33015.73
712.375	32825.9
712.719	32919.23
713.063	32827.71
713.407	32815.73
713.75	32609.18
714.094	32655.06
714.438	32578.9
714.782	32624.78
715.125	32418.68
715.469	32364.67
715.812	32203.55
716.156	32141.63
716.499	32222.75
716.843	32267.95
717.186	32116.77
717.53	32074.28
717.873	32062.98
718.216	32088.52
718.559	31849.43
718.902	31670.45
719.246	31855.98
719.589	31551.36
719.932	31550.91
720.275	31481.31
720.617	31486.5
720.96	31551.36
721.303	31345.49
721.646	31458.93
721.989	31199.5
722.331	31258.03
722.674	31218.49
723.016	31276.34
723.359	31122.22
723.701	31051.71
724.044	30916.12
724.386	30881.09
724.729	30946.4
725.071	30845.39
725.413	30777.59
725.755	30802.45
726.097	30599.07
726.439	30457.6
726.782	30523.59
727.124	30607.2
727.465	30413.76
727.807	30422.12
728.149	30349.13
728.491	30391.84
728.833	30505.06
729.175	30135.58
729.516	30229.36
729.858	30199.53
730.199	30137.39
730.541	30079.08
730.882	30080.21
731.224	30096.26
731.565	29846.77
731.906	29895.81
732.248	29861.69
732.589	29804.51
732.93	29718.87
733.271	29668.02
733.612	29706.66
733.953	29595.03
734.294	29595.48
734.635	29575.59
734.976	29594.57
735.317	29388.25
735.658	29432.32
735.999	29552.77
736.339	29333.56
736.68	29501.7
737.021	29325.88
737.361	29182.83
737.702	29308.48
738.042	29197.98
738.383	29145.77
738.723	29174.7
739.063	29108.26
739.404	29084.76
739.744	28916.63
740.084	28892.9
740.424	28861.71
740.764	28848.15
741.104	28910.07
741.444	28745.33
741.784	28623.53
742.124	28781.04
742.464	28668.95
742.804	28683.19
743.143	28552.79
743.483	28750.08
743.823	28407.71
744.162	28371.78
744.502	28443.42
744.841	28381.27
745.181	28478.9
745.52	28308.73
745.86	28365.23
746.199	28390.09
746.538	28247.49
746.877	28414.04
747.216	28120.26
747.556	28226.7
747.895	28007.95
748.234	28005.24
748.573	28084.56
748.911	27948.29
749.25	27979.25
749.589	27789.2
749.928	27931.79
750.267	28022.19
750.605	27761.85
750.944	27661.74
751.283	27650.9
751.621	27716.88
751.96	27608.41
752.298	27480.96
752.636	27509.21
752.975	27402.99
753.313	27290.23
753.651	27411.36
753.989	27277.57
754.327	27181.53
754.666	27054.98
755.004	27328.42
755.342	27071.48
755.679	27124.36
756.017	26927.3
756.355	27049.56
756.693	26824.25
757.031	26889.79
757.368	26774.08
757.706	26796.91
758.044	26697.25
758.381	26773.63
758.719	26638.04
759.056	26704.93
