Data from hue_50_FLMS001491_36.txt Node
Date: Mon Feb 06 15:10:02 GMT 2017
User: dcchb
Spectrometer: FLMS00149
Trigger mode: 0
Integration Time (sec): 2.000000E-2
Scans to average: 10
Electric dark correction enabled: true
Nonlinearity correction enabled: false
Boxcar width: 0
XAxis mode: Wavelengths
Number of Pixels in Spectrum: 2048
>>>>>Begin Spectral Data<<<<<
341.393	-16.96
341.776	-16.96
342.16	-16.96
342.543	-43.18
342.927	-85.21
343.31	-62.84
343.693	-66.45
344.077	-73.46
344.46	-53.57
344.843	-55.61
345.226	-31.88
345.61	-46.34
345.993	-32.78
346.376	0.66
346.759	19.42
347.142	24.84
347.525	45.18
347.908	66.65
348.291	61.68
348.674	85.18
349.057	119.3
349.44	137.84
349.823	156.59
350.206	176.93
350.588	199.98
350.971	227.32
351.354	228.23
351.737	245.63
352.119	257.83
352.502	272.52
352.884	278.17
353.267	261.67
353.65	298.28
354.032	288.34
354.414	330.15
354.797	310.49
355.179	303.93
355.562	304.38
355.944	313.42
356.326	325.18
356.709	357.26
357.091	333.76
357.473	368.11
357.855	331.95
358.238	329.47
358.62	350.49
359.002	326.53
359.384	357.26
359.766	357.26
360.148	346.64
360.53	322.01
360.912	338.06
361.294	338.96
361.676	342.35
362.057	348.9
362.439	344.61
362.821	317.94
363.203	340.32
363.584	309.36
363.966	327.21
364.348	332.41
364.729	307.77
365.111	296.02
365.493	332.18
365.874	314.55
366.256	324.95
366.637	311.16
367.019	334.44
367.4	313.65
367.781	309.36
368.163	326.3
368.544	317.49
368.925	317.27
369.306	326.08
369.688	338.96
370.069	333.08
370.45	312.75
370.831	315.23
371.212	321.79
371.593	311.39
371.974	318.17
372.355	311.62
372.736	317.49
373.117	325.18
373.498	324.95
373.879	318.85
374.26	315.91
374.641	317.27
375.021	307.55
375.402	331.73
375.783	310.94
376.163	336.25
376.544	320.88
376.925	317.94
377.305	322.92
377.686	359.07
378.066	322.01
378.447	332.18
378.827	328.34
379.208	319.75
379.588	343.93
379.968	315.46
380.349	332.86
380.729	345.06
381.109	325.63
381.489	339.19
381.87	345.51
382.25	320.88
382.63	333.76
383.01	336.7
383.39	343.03
383.77	338.51
384.15	346.64
384.53	347.77
384.91	348.9
385.29	364.95
385.67	343.25
386.049	347.32
386.429	344.84
386.809	343.71
387.189	359.3
387.568	339.41
387.948	339.41
388.328	334.67
388.707	345.29
389.087	345.06
389.466	352.74
389.846	340.32
390.225	351.16
390.605	356.36
390.984	353.87
391.363	349.13
391.743	355.68
392.122	350.94
392.501	363.37
392.881	373.99
393.26	355.23
393.639	367.66
394.018	364.72
394.397	362.69
394.776	331.05
395.155	378.73
395.534	372.63
395.913	361.56
396.292	397.94
396.671	355.91
397.05	371.5
397.429	378.51
397.808	378.28
398.186	372.86
398.565	383.48
398.944	383.7
399.323	388.22
399.701	376.25
400.08	377.15
400.458	376.25
400.837	396.59
401.215	378.96
401.594	365.4
401.972	364.95
402.351	404.27
402.729	388.9
403.107	381.44
403.486	404.04
403.864	382.35
404.242	395.23
404.62	403.37
404.999	399.07
405.377	423.48
405.755	381.9
406.133	400.65
406.511	396.36
406.889	406.3
407.267	404.95
407.645	397.72
408.023	418.96
408.401	428.22
408.779	415.57
409.156	425.29
409.534	426.19
409.912	428
410.29	417.6
410.667	425.29
411.045	426.64
411.422	441.33
411.8	426.87
412.178	425.51
412.555	433.65
412.933	446.75
413.31	446.53
413.687	430.93
414.065	437.26
414.442	452.63
414.819	452.4
415.197	446.08
415.574	455.34
415.951	445.62
416.328	446.98
416.705	464.38
417.082	458.05
417.46	471.84
417.837	468
418.214	482.46
418.591	443.82
418.967	479.97
419.344	495.79
419.721	471.61
420.098	477.94
420.475	484.72
420.852	501.67
421.228	500.76
421.605	483.81
421.982	489.01
422.358	512.51
422.735	508.22
423.111	502.8
423.488	511.38
423.864	500.76
424.241	528.79
424.617	515.23
424.994	497.6
425.37	520.42
425.746	510.25
426.123	529.69
426.499	536.47
426.875	532.85
427.251	523.14
427.627	547.99
428.003	530.37
428.379	543.02
428.756	544.83
429.132	547.09
429.507	549.8
429.883	546.41
430.259	554.55
430.635	555.45
431.011	567.65
431.387	559.29
431.763	543.93
432.138	548.9
432.514	570.59
432.89	550.25
433.265	611.95
433.641	577.37
434.016	610.14
434.392	578.05
434.767	631.16
435.143	617.37
435.518	598.61
435.894	591.38
436.269	625.28
436.644	614.66
437.02	619.18
437.395	638.16
437.77	646.3
438.145	636.58
438.52	656.92
438.895	659.18
439.271	646.3
439.646	639.74
440.021	660.53
440.395	665.96
440.77	650.36
441.145	686.52
441.52	671.83
441.895	654.43
442.27	707.09
442.645	666.18
443.019	688.78
443.394	663.92
443.769	706.18
444.143	690.14
444.518	696.24
444.892	714.32
445.267	688.1
445.641	701.21
446.016	700.53
446.39	701.66
446.764	717.03
447.139	688.1
447.513	721.55
447.887	715.45
448.262	747.99
448.636	719.29
449.01	739.18
449.384	723.36
449.758	745.28
450.132	753.41
450.506	758.61
450.88	743.7
451.254	742.57
451.628	754.99
452.002	754.99
452.376	798.16
452.75	778.95
453.123	786.41
453.497	801.09
453.871	797.71
454.244	807.87
454.618	815.33
454.992	798.61
455.365	834.99
455.739	834.77
456.112	859.85
456.486	841.32
456.859	856.01
457.232	874.31
457.606	862.56
457.979	876.12
458.352	871.6
458.725	891.71
459.099	910.47
459.472	940.53
459.845	938.72
460.218	952.28
460.591	917.02
460.964	939.17
461.337	980.98
461.71	982.33
462.083	981.43
462.456	997.25
462.829	999.96
463.201	1028.66
463.574	998.83
463.947	1026.85
464.32	1067.75
464.692	1095.1
465.065	1065.27
465.438	1093.29
465.81	1119.96
466.183	1115.21
466.555	1110.47
466.928	1146.4
467.3	1148.43
467.672	1178.94
468.045	1199.5
468.417	1234.53
468.789	1223.91
469.161	1251.48
469.534	1266.17
469.906	1323.11
470.278	1317.69
470.65	1322.44
471.022	1379.84
471.394	1383.23
471.766	1415.77
472.138	1434.75
472.51	1467.74
472.882	1510
473.253	1510.91
473.625	1577.57
473.997	1599.04
474.369	1629.1
474.74	1634.75
475.112	1700.51
475.484	1750.22
475.855	1757.45
476.227	1814.4
476.598	1853.27
476.97	1899.82
477.341	1963.78
477.713	1999.48
478.084	2003.32
478.455	2104.11
478.827	2151.57
479.198	2221.17
479.569	2244.45
479.94	2341.85
480.311	2387.95
480.682	2498.45
481.053	2570.54
481.424	2622.52
481.795	2664.77
482.166	2793.13
482.537	2830.42
482.908	2961.49
483.279	3013.47
483.65	3085.1
484.021	3226.34
484.391	3282.61
484.762	3377.07
485.133	3430.4
485.503	3540.01
485.874	3676.05
486.244	3732.32
486.615	3859.09
486.985	3986.1
487.356	4093.89
487.726	4173.66
488.097	4315.35
488.467	4430.15
488.837	4549.47
489.207	4597.83
489.578	4826.53
489.948	4891.16
490.318	5051.38
490.688	5130.7
491.058	5282.78
491.428	5379.51
491.798	5521.87
492.168	5718.25
492.538	5787.63
492.908	5877.8
493.278	6042.99
493.648	6137.45
494.017	6265.36
494.387	6375.86
494.757	6569.76
495.126	6687.72
495.496	6801.16
495.866	6912.8
496.235	7033.7
496.605	7135.62
496.974	7303.07
497.344	7447.47
497.713	7514.36
498.082	7625.1
498.452	7804.3
498.821	7903.51
499.19	7928.14
499.559	8129.04
499.928	8303.27
500.298	8383.72
500.667	8551.63
501.036	8541.91
501.405	8725.41
501.774	8783.48
502.143	8991.61
502.512	9063.02
502.88	9249.69
503.249	9171.95
503.618	9389.57
503.987	9435.22
504.356	9546.63
504.724	9673.86
505.093	9806.06
505.462	9908.2
505.83	10031.36
506.199	10101.64
506.567	10253.05
506.936	10353.61
507.304	10467.73
507.672	10525.58
508.041	10651.68
508.409	10773.49
508.777	10884.67
509.145	10995.4
509.514	11056.87
509.882	11157.66
510.25	11271.55
510.618	11314.94
510.986	11451.66
511.354	11605.56
511.722	11617.08
512.09	11769.85
512.458	11827.02
512.826	12020.46
513.193	12103.4
513.561	12197.63
513.929	12336.38
514.297	12470.17
514.664	12532.54
515.032	12605.3
515.4	12734.11
515.767	12815.47
516.135	12906.54
516.502	12879.42
516.869	13090.94
517.237	13220.2
517.604	13258.39
517.972	13366.87
518.339	13400.76
518.706	13494.77
519.073	13523.47
519.44	13695.44
519.808	13882.78
520.175	13865.38
520.542	14045.72
520.909	14210.46
521.276	14200.29
521.643	14277.12
522.009	14352.15
522.376	14592.82
522.743	14680.28
523.11	14740.39
523.477	14882.31
523.843	15080.72
524.21	15141.51
524.577	15250.43
524.943	15300.6
525.31	15418.34
525.676	15616.98
526.043	15713.7
526.409	15751.66
526.776	15883.86
527.142	15953.69
527.508	16155.49
527.874	16208.6
528.241	16233.91
528.607	16428.48
528.973	16614.24
529.339	16517.52
529.705	16652.66
530.071	16861.24
530.437	16966.09
530.803	16988.01
531.169	17161.12
531.535	17157.27
531.901	17230.72
532.267	17378.74
532.632	17446.08
532.998	17428.91
533.364	17623.7
533.73	17707.54
534.095	17749.12
534.461	17912.06
534.826	17924.26
535.192	17968.78
535.557	18152.5
535.923	18180.52
536.288	18238.6
536.653	18283.35
537.019	18298.49
537.384	18458.48
537.749	18499.39
538.114	18565.6
538.479	18570.12
538.845	18753.84
539.21	18696.22
539.575	18777.8
539.94	18878.59
540.305	19052.82
540.67	18962.65
541.034	19060.05
541.399	19166.49
541.764	19293.72
542.129	19383.66
542.494	19381.62
542.858	19484.45
543.223	19464.78
543.587	19705.68
543.952	19621.62
544.316	19737.77
544.681	19669.75
545.045	19882.85
545.41	19893.02
545.774	20088.5
546.138	20014.83
546.503	20049.18
546.867	20073.58
547.231	20298.21
547.595	20325.55
547.959	20379.11
548.324	20436.96
548.688	20416.62
549.052	20685.77
549.416	20552.44
549.779	20551.54
550.143	20728.93
550.507	20836.95
550.871	20789.5
551.235	20801.92
551.599	21120.79
551.962	20987.68
552.326	21114.91
552.689	21254.34
553.053	21295.25
553.417	21303.61
553.78	21571.17
554.143	21535.69
554.507	21535.01
554.87	21609.36
555.234	21829.92
555.597	21713.99
555.96	21846.64
556.323	22074.89
556.686	22036.24
557.05	22156.01
557.413	22292.96
557.776	22323.24
558.139	22530.69
558.502	22423.13
558.865	22530.69
559.228	22797.35
559.59	22841.87
559.953	22775.21
560.316	23048.19
560.679	22983.56
561.041	23147.17
561.404	23308.98
561.767	23419.94
562.129	23334.97
562.492	23555.07
562.854	23523.66
563.217	23680.72
563.579	23734.05
563.941	23885.91
564.304	23915.74
564.666	24119.58
565.028	24106.24
565.39	24255.39
565.753	24406.58
566.115	24477.99
566.477	24585.1
566.839	24647.93
567.201	24875.72
567.563	24671.65
567.925	24987.8
568.287	25007.69
568.648	25102.83
569.01	25278.87
569.372	25425.76
569.734	25270.96
570.095	25502.37
570.457	25691.29
570.819	25738.29
571.18	25812.19
571.542	25815.35
571.903	25826.43
572.265	26037.72
572.626	26105.97
572.987	26229.58
573.349	26268
573.71	26350.03
574.071	26593.86
574.432	26559.97
574.794	26799.73
575.155	26802.9
575.516	26728.55
575.877	26902.33
576.238	27028.88
576.599	27064.13
576.96	27111.59
577.32	27200.63
577.681	27228.65
578.042	27414.18
578.403	27571.46
578.763	27648.98
579.124	27739.6
579.485	27866.6
579.845	27938.69
580.206	27940.04
580.566	28117.66
580.927	28152.47
581.287	28341.61
581.648	28242.86
582.008	28430.88
582.368	28495.06
582.728	28642.4
583.089	28654.83
583.449	28674.03
583.809	28917.19
584.169	28929.39
584.529	29047.13
584.889	29301.36
585.249	29248.03
585.609	29283.74
585.969	29538.42
586.329	29454.8
586.688	29694.57
587.048	29640.34
587.408	29733.89
587.768	29911.97
588.127	29926.2
588.487	30023.83
588.846	30292.97
589.206	30256.59
589.565	30278.06
589.925	30496.36
590.284	30442.35
590.643	30682.12
591.003	30886.63
591.362	31012.5
591.721	31016.12
592.08	31043.01
592.44	31194.87
592.799	31401.19
593.158	31237.58
593.517	31608.42
593.876	31580.4
594.235	31584.01
594.593	31746.04
594.952	31808.19
595.311	31769.77
595.67	32054.74
596.029	32224.9
596.387	32426.03
596.746	32334.05
597.104	32404.11
597.463	32355.97
597.822	32533.37
598.18	32684.32
598.538	32575.4
598.897	32946.24
599.255	32710.31
599.613	33209.96
599.972	33142.17
600.33	33151.88
600.688	33177.87
601.046	33400.46
601.404	33548.03
601.762	33445.21
602.12	33886.78
602.478	33785.99
602.836	33797.52
603.194	33760
603.552	33958.87
603.91	33906.44
604.268	34134.23
604.625	34112.08
604.983	34329.7
605.341	34207.45
605.698	34447.89
606.056	34460.55
606.413	34526.31
606.771	34667.32
607.128	34720.65
607.485	34630.94
607.843	34707.55
608.2	35032.74
608.557	35068.89
608.914	34957.94
609.272	35280.64
609.629	35442.44
609.986	35469.79
610.343	35311.37
610.7	35728.54
611.057	35529.22
611.414	35605.6
611.771	35660.97
612.127	35731.02
612.484	35896.44
612.841	35982.54
613.198	35895.09
613.554	35971.92
613.911	36259.15
614.267	36185.93
614.624	36203.1
614.98	36385.7
615.337	36551.12
615.693	36476.31
616.05	36480.61
616.406	36706.37
616.762	36508.4
617.118	36625.69
617.475	36696.65
617.831	36836.31
618.187	36893.48
618.543	37022.29
618.899	37144.09
619.255	37208.5
619.611	36991.78
619.967	37249.4
620.323	37316.74
620.678	37223.64
621.034	37255.05
621.39	37344.54
621.746	37278.1
622.101	37702.27
622.457	37409.85
622.812	37506.34
623.168	37514.03
623.523	37593.35
623.879	37761.7
624.234	37573.46
624.589	37605.32
624.945	37763.06
625.3	37753.8
625.655	37639.45
626.01	37654.36
626.365	37848.71
626.72	37672.22
627.075	37890.97
627.43	37747.92
627.785	37725.55
628.14	37799.44
628.495	37826.79
628.85	37906.56
629.205	37663.4
629.559	37938.65
629.914	37823.4
630.269	37841.48
630.623	37742.72
630.978	37751.99
631.332	37936.62
631.687	37921.25
632.041	37934.58
632.396	37888.93
632.75	37782.5
633.104	37909.5
633.459	37794.92
633.813	37751.99
634.167	37791.08
634.521	37682.84
634.875	37811.65
635.229	37656.4
635.583	37580.92
635.937	37646.68
636.291	37741.14
636.645	37732.55
636.999	37552.9
637.352	37716.28
637.706	37497.31
638.06	37557.87
638.413	37705.44
638.767	37438.55
639.121	37554.93
639.474	37359
639.828	37411.88
640.181	37517.87
640.534	37387.93
640.888	37270.19
641.241	37090.99
641.594	37318.55
641.947	37340.02
642.301	37157.43
642.654	37195.39
643.007	37370.75
643.36	37101.16
643.713	37157.43
644.066	37318.1
644.419	37168.95
644.771	36912.24
645.124	36419.37
645.477	36460.27
645.83	36218.69
646.182	36071.81
646.535	36154.97
646.888	36143.44
647.24	35956.78
647.593	36082.2
647.945	36052.37
648.298	35810.57
648.65	35880.4
649.002	35780.97
649.355	35914.3
649.707	35841.53
650.059	36039.26
650.411	36310.22
650.763	36359.71
651.115	36710.66
651.467	36668.4
651.819	36486.03
652.171	36531.91
652.523	36498.69
652.875	36444.9
653.227	36348.86
653.578	36556.99
653.93	36552.7
654.282	36495.07
654.633	36189.09
654.985	36389.31
655.337	36262.54
655.688	36303.89
656.039	36476.99
656.391	36246.04
656.742	36211.24
657.094	36244.23
657.445	36453.72
657.796	36167.4
658.147	36199.26
658.498	36238.36
658.849	36228.86
659.2	36214.4
659.551	36062.99
659.902	36261.41
660.253	36217.56
660.604	36229.99
660.955	36102.99
661.306	36088.53
661.656	36035.42
662.007	35990.23
662.358	36123.78
662.708	36006.95
663.059	36001.98
663.409	35825.48
663.76	36064.57
664.11	36109.09
664.461	36039.72
664.811	36083.56
665.161	36069.77
665.511	35911.36
665.862	35967.63
666.212	36047.63
666.562	36085.36
666.912	35993.39
667.262	36000.85
667.612	36003.11
667.962	35998.14
668.312	36059.83
668.662	36056.66
669.011	35982.09
669.361	35846.95
669.711	35967.18
670.06	35870.23
670.41	35858.03
670.76	35694.41
671.109	35936.67
671.459	35820.29
671.808	35877.91
672.157	35872.94
672.507	35648.31
672.856	35592.27
673.205	35811.93
673.554	35789.1
673.904	35712.49
674.253	35905.03
674.602	35785.71
674.951	35277.02
675.3	35182.34
675.649	35698.26
675.998	35536
676.346	35550.92
676.695	35788.2
677.044	35389.79
677.393	35577.81
677.741	35453.29
678.09	35330.81
678.438	35518.83
678.787	35407.42
679.135	35411.26
679.484	35356.34
679.832	35191.83
680.181	35012.17
680.529	35261.43
680.877	35184.15
681.225	35117.48
681.573	35332.84
681.922	35131.27
682.27	34905.06
682.618	34907.32
682.966	34892.18
683.314	34911.84
683.661	34786.42
684.009	34728.34
684.357	34706.87
684.705	34651.05
685.053	34744.61
685.4	34699.64
685.748	34435.46
686.095	34479.31
686.443	34400.66
686.79	34324.51
687.138	34368.12
687.485	34291.06
687.832	34163.16
688.18	34201.12
688.527	34105.76
688.874	34020.79
689.221	33951.18
689.568	33983.27
689.915	33845.42
690.262	33723.17
690.609	33651.53
690.956	33720.23
691.303	33519.78
691.65	33342.16
691.997	33382.84
692.344	33188.49
692.69	33196.4
693.037	33360.01
693.383	32930.19
693.73	33106.91
694.077	32871.21
694.423	32949.4
694.769	32770.65
695.116	32678.67
695.462	32600.71
695.808	32539.02
696.155	32643.2
696.501	32349.87
696.847	32349.42
697.193	32103.55
697.539	32348.06
697.885	31934.74
698.231	32003.21
698.577	31934.06
698.923	31890.22
699.269	31630.57
699.614	31771.58
699.96	31484.36
700.306	31596.67
700.651	31402.78
700.997	31361.2
701.342	31318.94
701.688	31260.41
702.033	31084.59
702.379	31095.21
702.724	30996.23
703.069	31009.11
703.415	30784.49
703.76	30777.71
704.105	30713.3
704.45	30724.83
704.795	30391.5
705.14	30455.68
705.485	30391.73
705.83	30179.08
706.175	30280.77
706.52	30234.9
706.865	30111.96
707.209	30020.67
707.554	29971.63
707.899	30037.61
708.243	29770.05
708.588	29716.04
708.932	29590.39
709.277	29671.52
709.621	29678.3
709.966	29413.45
710.31	29574.12
710.654	29237.18
710.998	29400.12
711.342	29360.34
711.687	29172.78
712.031	29128.26
712.375	29159.22
712.719	29089.39
713.063	28954.25
713.407	29164.42
713.75	28837.19
714.094	28976.85
714.438	28879
714.782	28729.4
715.125	28579.8
715.469	28711.32
715.812	28485.34
716.156	28427.94
716.499	28463.64
716.843	28417.77
717.186	28231.33
717.53	28385
717.873	28358.34
718.216	28308.39
718.559	28162.64
718.902	27965.8
719.246	27961.06
719.589	27782.98
719.932	27779.14
720.275	27796.54
720.617	27717.22
720.96	27697.11
721.303	27708.64
721.646	27752.93
721.989	27488.3
722.331	27667.73
722.674	27544.35
723.016	27534.63
723.359	27493.05
723.701	27484.01
724.044	27215.09
724.386	27177.35
724.729	27347.97
725.071	27190.23
725.413	27129.44
725.755	27156.56
726.097	27006.73
726.439	26879.05
726.782	26991.59
727.124	27024.81
727.465	26895.55
727.807	26881.54
728.149	26788.66
728.491	26794.08
728.833	26745.27
729.175	26793.41
729.516	26675.44
729.858	26616.46
730.199	26625.95
730.541	26641.32
730.882	26615.56
731.224	26672.5
731.565	26378.95
731.906	26340.31
732.248	26428.67
732.589	26299.86
732.93	26159.75
733.271	26165.4
733.612	26124.04
733.953	26152.97
734.294	26150.71
734.635	25997.95
734.976	26073.2
735.317	26021.67
735.658	25862.13
735.999	25967.89
736.339	25795.24
736.68	25962.02
737.021	25664.62
737.361	25745.3
737.702	25974.67
738.042	25792.98
738.383	25608.35
738.723	25707.78
739.063	25597.73
739.404	25620.56
739.744	25529.03
740.084	25439.32
740.424	25515.47
740.764	25517.73
741.104	25517.96
741.444	25322.71
741.784	25316.16
742.124	25357.96
742.464	25312.99
742.804	25184.18
743.143	25099.21
743.483	25124.75
743.823	24985.54
744.162	25123.39
744.502	25085.43
744.841	24938.77
745.181	25122.49
745.52	25001.36
745.86	24896.51
746.199	24822.61
746.538	24809.73
746.877	24887.47
747.216	24790.97
747.556	24716.4
747.895	24726.79
748.234	24677.3
748.573	24588.72
748.911	24531.54
749.25	24473.47
749.589	24396.18
749.928	24345.33
750.267	24494.71
750.605	24195.73
750.944	24346.69
751.283	24218.33
751.621	24253.59
751.96	24159.35
752.298	24101.73
752.636	24013.82
752.975	24020.15
753.313	23877.55
753.651	24002.74
753.989	23887.27
754.327	23860.6
754.666	23660.83
755.004	23716.2
755.342	23810.66
755.679	23779.02
756.017	23484.79
756.355	23643.66
756.693	23433.04
757.031	23539.25
757.368	23344
