Data from hue_28_FLMS001491_00091.txt Node
Date: Tue Feb 07 17:18:03 GMT 2017
User: dcchb
Spectrometer: FLMS00149
Trigger mode: 0
Integration Time (sec): 2.000000E-2
Scans to average: 10
Electric dark correction enabled: true
Nonlinearity correction enabled: false
Boxcar width: 0
XAxis mode: Wavelengths
Number of Pixels in Spectrum: 2048
>>>>>Begin Spectral Data<<<<<
341.393	-25.39
341.776	-25.39
342.16	-25.39
342.543	-61.1
342.927	-43.47
343.31	-90.48
343.693	-74.66
344.077	-53.19
344.46	-71.04
344.843	-56.81
345.226	-38.73
345.61	-32.4
345.993	-6.64
346.376	-11.84
346.759	7.6
347.142	28.62
347.525	40.59
347.908	74.26
348.291	83.08
348.674	94.6
349.057	107.03
349.44	140.02
349.823	147.03
350.206	159.23
350.588	196.07
350.971	216.63
351.354	211.89
351.737	260.02
352.119	254.15
352.502	272.9
352.884	264.99
353.267	276.97
353.65	310.64
354.032	283.3
354.414	303.86
354.797	323.97
355.179	333.01
355.562	299.79
355.944	319.23
356.326	342.96
356.709	337.99
357.091	325.33
357.473	337.08
357.855	344.09
358.238	349.51
358.62	329.4
359.002	345.89
359.384	334.14
359.766	335.73
360.148	332.11
360.53	352.22
360.912	329.17
361.294	321.94
361.676	338.44
362.057	332.11
362.439	324.43
362.821	343.86
363.203	328.49
363.584	328.27
363.966	314.71
364.348	336.18
364.729	336.86
365.111	311.77
365.493	324.43
365.874	315.61
366.256	316.74
366.637	345.67
367.019	318.78
367.4	294.37
367.781	322.84
368.163	337.31
368.544	319
368.925	328.27
369.306	334.37
369.688	321.26
370.069	321.71
370.45	317.2
370.831	310.42
371.212	325.1
371.593	321.94
371.974	295.05
372.355	318.55
372.736	315.61
373.117	324.2
373.498	299.12
373.879	328.72
374.26	292.11
374.641	326.01
375.021	317.42
375.402	319.68
375.783	318.55
376.163	324.43
376.544	344.09
376.925	332.11
377.305	348.61
377.686	336.18
378.066	303.86
378.447	362.84
378.827	339.57
379.208	335.95
379.588	332.11
379.968	326.69
380.349	335.95
380.729	346.12
381.109	328.27
381.489	345.22
381.87	331.43
382.25	343.64
382.63	331.43
383.01	344.31
383.39	355.84
383.77	332.79
384.15	337.99
384.53	360.13
384.91	341.83
385.29	360.36
385.67	348.38
386.049	361.49
386.429	354.71
386.809	329.4
387.189	369.62
387.568	361.71
387.948	362.62
388.328	360.58
388.707	374.37
389.087	364.43
389.466	358.78
389.846	361.94
390.225	364.2
390.605	349.96
390.984	362.39
391.363	380.92
391.743	383.41
392.122	369.85
392.501	378.44
392.881	361.49
393.26	377.08
393.639	375.05
394.018	383.86
394.397	357.87
394.776	389.06
395.155	396.97
395.534	395.61
395.913	391.77
396.292	384.99
396.671	407.81
397.05	389.74
397.429	379.34
397.808	397.42
398.186	378.21
398.565	380.47
398.944	395.84
399.323	415.5
399.701	406.91
400.08	423.63
400.458	393.58
400.837	408.94
401.215	411.66
401.594	408.27
401.972	392.67
402.351	412.11
402.729	421.6
403.107	416.85
403.486	403.75
403.864	406.23
404.242	420.47
404.62	406.23
404.999	410.53
405.377	426.57
405.755	422.05
406.133	434.48
406.511	425.21
406.889	421.15
407.267	418.44
407.645	431.54
408.023	415.72
408.401	452.33
408.779	435.16
409.156	447.81
409.534	443.75
409.912	439.68
410.29	457.98
410.667	461.15
411.045	449.17
411.422	457.3
411.8	456.85
412.178	453.91
412.555	451.2
412.933	500.24
413.31	471.77
413.687	473.58
414.065	493.69
414.442	481.48
414.819	470.19
415.197	483.29
415.574	491.2
415.951	482.39
416.328	505.89
416.705	500.47
417.082	488.26
417.46	495.95
417.837	516.74
418.214	507.7
418.591	502.95
418.967	517.87
419.344	519.45
419.721	534.14
420.098	508.38
420.475	550.86
420.852	540.47
421.228	521.26
421.605	524.2
421.982	545.44
422.358	530.52
422.735	534.59
423.111	531.88
423.488	533.01
423.864	553.57
424.241	583.63
424.617	551.99
424.994	554.93
425.37	551.54
425.746	572.33
426.123	553.8
426.499	572.33
426.875	608.71
427.251	559.45
427.627	581.37
428.003	572.78
428.379	552.9
428.756	591.09
429.132	588.6
429.507	601.03
429.883	614.81
430.259	617.53
430.635	638.09
431.011	616.62
431.387	644.64
431.763	634.93
432.138	634.25
432.514	651.65
432.89	650.07
433.265	661.82
433.641	662.72
434.016	662.27
434.392	660.69
434.767	674.02
435.143	686
435.518	685.09
435.894	694.36
436.269	697.75
436.644	698.65
437.02	721.25
437.395	718.31
437.77	726.68
438.145	724.87
438.52	743.17
438.895	735.04
439.271	748.6
439.646	783.85
440.021	749.05
440.395	772.1
440.77	748.82
441.145	751.53
441.52	760.35
441.895	769.61
442.27	761.25
442.645	793.57
443.019	771.19
443.394	805.77
443.769	786.11
444.143	773
444.518	784.3
444.892	811.87
445.267	794.02
445.641	819.33
446.016	790.63
446.39	834.02
446.764	815.04
447.139	829.72
447.513	813
447.887	819.55
448.262	861.14
448.636	845.77
449.01	829.27
449.384	829.72
449.758	845.32
450.132	860.68
450.506	865.43
450.88	900.68
451.254	859.1
451.628	890.29
452.002	897.52
452.376	885.54
452.75	932.77
453.123	931.19
453.497	926.9
453.871	935.03
454.244	939.78
454.618	965.31
454.992	963.05
455.365	971.64
455.739	990.62
456.112	989.04
456.486	989.72
456.859	1006.89
457.232	1009.61
457.606	1026.78
457.979	1032.88
458.352	1047.57
458.725	1064.07
459.099	1046.22
459.472	1077.85
459.845	1081.69
460.218	1107
460.591	1106.78
460.964	1112.43
461.337	1123.5
461.71	1121.69
462.083	1168.47
462.456	1152.2
462.829	1150.39
463.201	1196.49
463.574	1194.46
463.947	1226.32
464.32	1222.03
464.692	1244.85
465.065	1260.22
465.438	1280.33
465.81	1288.24
466.183	1307.45
466.555	1307.68
466.928	1301.58
467.3	1337.73
467.672	1364.63
468.045	1383.16
468.417	1409.6
468.789	1408.47
469.161	1437.84
469.534	1435.36
469.906	1452.76
470.278	1477.62
470.65	1496.37
471.022	1533.43
471.394	1538.63
471.766	1594.45
472.138	1591.96
472.51	1590.83
472.882	1670.38
473.253	1664.73
473.625	1695.92
473.997	1730.27
474.369	1737.72
474.74	1777.5
475.112	1807.33
475.484	1808
475.855	1855.91
476.227	1894.1
476.598	1908.79
476.97	1945.85
477.341	2000.09
477.713	2027.66
478.084	2061.1
478.455	2112.18
478.827	2142.91
479.198	2200.99
479.569	2206.64
479.94	2277.14
480.311	2307.2
480.682	2401.21
481.053	2406.41
481.424	2447.99
481.795	2523.24
482.166	2540.87
482.537	2601.43
482.908	2675.55
483.279	2693.63
483.65	2744.25
484.021	2836
484.391	2842.1
484.762	2914.41
485.133	2970.91
485.503	3009.55
485.874	3083.9
486.244	3106.95
486.615	3195.09
486.985	3218.14
487.356	3248.19
487.726	3336.1
488.097	3437.34
488.467	3400.73
488.837	3529.31
489.207	3586.04
489.578	3662.19
489.948	3707.61
490.318	3757.56
490.688	3766.6
491.058	3881.17
491.428	3904.22
491.798	3972.92
492.168	4064.22
492.538	4063.09
492.908	4101.95
493.278	4215.85
493.648	4254.27
494.017	4296.07
494.387	4344.43
494.757	4400.25
495.126	4470.08
495.496	4487.93
495.866	4505.33
496.235	4649.51
496.605	4652.45
496.974	4719.34
497.344	4724.99
497.713	4752.33
498.082	4826.91
498.452	4890.63
498.821	4934.7
499.19	4933.8
499.559	4980.12
499.928	5034.36
500.298	5078.43
500.667	5102.61
501.036	5123.85
501.405	5154.13
501.774	5206.78
502.143	5244.98
502.512	5282.49
502.88	5344.18
503.249	5381.69
503.618	5392.32
503.987	5439.77
504.356	5475.25
504.724	5493.78
505.093	5493.56
505.462	5532.65
505.83	5575.59
506.199	5622.14
506.567	5743.95
506.936	5669.82
507.304	5702.82
507.672	5784.85
508.041	5828.91
508.409	5874.34
508.777	5874.34
509.145	5948.46
509.514	5975.8
509.882	6008.34
510.25	5996.37
510.618	5957.05
510.986	6011.73
511.354	6119.98
511.722	6092.18
512.09	6191.39
512.458	6185.29
512.826	6223.48
513.193	6217.38
513.561	6253.54
513.929	6317.72
514.297	6284.95
514.664	6347.32
515.032	6361.78
515.4	6431.84
515.767	6481.1
516.135	6492.63
516.502	6500.54
516.869	6537.37
517.237	6600.87
517.604	6606.3
517.972	6606.75
518.339	6619.18
518.706	6609.46
519.073	6731.49
519.44	6767.65
519.808	6794.99
520.175	6816.46
520.542	6859.4
520.909	6841.77
521.276	6898.26
521.643	6926.51
522.009	6977.81
522.376	6997.25
522.743	7004.48
523.11	7123.8
523.477	7143
523.843	7154.76
524.21	7175.32
524.577	7286.28
524.943	7252.61
525.31	7328.99
525.676	7358.59
526.043	7385.94
526.409	7429.78
526.776	7477.46
527.142	7549.32
527.508	7533.28
527.874	7574.86
528.241	7701.18
528.607	7707.96
528.973	7808.52
529.339	7739.15
529.705	7790.9
530.071	7818.24
530.437	7877.45
530.803	7931.01
531.169	7947.5
531.535	8014.62
531.901	7999.7
532.267	8069.99
532.632	8097.56
532.998	8097.33
533.364	8145.46
533.73	8211.45
534.095	8241.28
534.461	8263.88
534.826	8252.13
535.192	8319.7
535.557	8388.17
535.923	8401.05
536.288	8430.65
536.653	8462.52
537.019	8545.91
537.384	8511.56
537.749	8532.12
538.114	8600.37
538.479	8602.85
538.845	8687.37
539.21	8660.25
539.575	8730.53
539.94	8724.88
540.305	8807.14
540.67	8790.19
541.034	8847.37
541.399	8888.95
541.764	8873.58
542.129	8969.62
542.494	9000.58
542.858	9014.14
543.223	9025.67
543.587	9131.2
543.952	9094.37
544.316	9116.51
544.681	9192.44
545.045	9256.62
545.41	9326.9
545.774	9360.8
546.138	9358.77
546.503	9373
546.867	9376.39
547.231	9494.81
547.595	9465.88
547.959	9487.35
548.324	9580.45
548.688	9582.71
549.052	9639.66
549.416	9693.45
549.779	9636.72
550.143	9652.54
550.507	9764.4
550.871	9743.61
551.235	9761.69
551.599	9824.97
551.962	9863.61
552.326	9882.82
552.689	9963.95
553.053	9915.36
553.417	9966.66
553.78	10087.33
554.143	10012.53
554.507	10053.21
554.87	10088.69
555.234	10179.31
555.597	10142.93
555.96	10192.19
556.323	10211.17
556.686	10216.6
557.05	10328.01
557.413	10331.17
557.776	10383.37
558.139	10420.43
558.502	10434.22
558.865	10449.36
559.228	10536.59
559.59	10626.3
559.953	10559.19
560.316	10652.06
560.679	10673.08
561.041	10740.42
561.404	10758.05
561.767	10835.56
562.129	10845.96
562.492	10872.4
562.854	10848.67
563.217	10884.37
563.579	10972.28
563.941	11025.84
564.304	11036.46
564.666	11040.75
565.028	11091.6
565.39	11149.45
565.753	11145.16
566.115	11221.77
566.477	11245.95
566.839	11246.85
567.201	11359.39
567.563	11359.39
567.925	11462.44
568.287	11499.27
568.648	11455.43
569.01	11574.53
569.372	11614.07
569.734	11647.07
570.095	11632.6
570.457	11735.88
570.819	11774.75
571.18	11891.35
571.542	11987.62
571.903	11901.75
572.265	11963.44
572.626	12026.27
572.987	12058.36
573.349	12210.89
573.71	12244.79
574.071	12317.56
574.432	12315.07
574.794	12472.13
575.155	12538.34
575.516	12532.24
575.877	12613.59
576.238	12750.31
576.599	12863.31
576.96	12933.13
577.32	12994.6
577.681	13001.83
578.042	13201.83
578.403	13284.09
578.763	13374.03
579.124	13495.15
579.485	13619.22
579.845	13787.8
580.206	13851.75
580.566	13995.03
580.927	14102.14
581.287	14226.43
581.648	14316.83
582.008	14467.33
582.368	14643.15
582.728	14871.61
583.089	14982.57
583.449	15123.13
583.809	15370.13
584.169	15545.04
584.529	15697.58
584.889	15989.78
585.249	16121.98
585.609	16291.92
585.969	16567.16
586.329	16763.32
586.688	16906.14
587.048	17198.33
587.408	17410.98
587.768	17631.09
588.127	17908.37
588.487	18159.44
588.846	18503.38
589.206	18686.2
589.565	18900.89
589.925	19248
590.284	19546.75
590.643	19757.59
591.003	20022.67
591.362	20374.29
591.721	20536.55
592.08	20867.16
592.44	21189.19
592.799	21515.51
593.158	21709.17
593.517	21987.36
593.876	22309.84
594.235	22485.88
594.593	22770.62
594.952	23328.12
595.311	23338.74
595.67	23816.46
596.029	24183.91
596.387	24474.53
596.746	24759.26
597.104	24972.14
597.463	25279.25
597.822	25686.02
598.18	25749.52
598.538	26073.81
598.897	26574.36
599.255	26662.49
599.613	27227.67
599.972	27302.25
600.33	27627.44
600.688	27941.1
601.046	28261.09
601.404	28645.72
601.762	28759.84
602.12	29160.73
602.478	29367.96
602.836	29746.25
603.194	29772.92
603.552	30101.95
603.91	30314.15
604.268	30705.32
604.625	30920.01
604.983	31156.84
605.341	31287.68
605.698	31672.3
606.056	32013.76
606.413	32263.25
606.771	32591.6
607.128	32817.81
607.485	32658.72
607.843	32949.56
608.2	33420.73
608.557	33743.66
608.914	33699.82
609.272	34157.89
609.629	34316.3
609.986	34607.37
610.343	34674.03
610.7	35056.17
611.057	35098.2
611.414	35385.88
611.771	35537.06
612.127	35789.93
612.484	36103.15
612.841	36278.28
613.198	36202.81
613.554	36460.88
613.911	36696.13
614.267	36724.37
614.624	37028.77
614.98	37348.31
615.337	37463.56
615.693	37517.8
616.05	37647.51
616.406	37980.84
616.762	38011.8
617.118	38253.6
617.475	38319.13
617.831	38616.98
618.187	38678.45
618.543	38850.65
618.899	39018.78
619.255	39196.85
619.611	39307.58
619.967	39413.12
620.323	39554.81
620.678	39527.69
621.034	39488.59
621.39	39615.14
621.746	39673.45
622.101	40172.19
622.457	39912.99
622.812	40201.57
623.168	40309.36
623.523	40327.67
623.879	40540.54
624.234	40363.15
624.589	40608.79
624.945	40731.73
625.3	40893.3
625.655	40997.93
626.01	40879.07
626.365	41008.78
626.72	41030.93
627.075	41201.32
627.43	41034.54
627.785	41026.18
628.14	41219.4
628.495	41388.43
628.85	41321.54
629.205	41213.29
629.559	41469.56
629.914	41395.89
630.269	41422.33
630.623	41460.97
630.978	41411.71
631.332	41716.33
631.687	41688.54
632.041	41530.8
632.396	41682.66
632.75	41620.74
633.104	41681.76
633.459	41610.8
633.813	41623.45
634.167	41621.42
634.521	41691.7
634.875	41783
635.229	41744.13
635.583	41595.21
635.937	41618.93
636.291	41713.39
636.645	41776.44
636.999	41829.32
637.352	41978.47
637.706	41646.73
638.06	41625.04
638.413	41524.93
638.767	41625.71
639.121	41707.75
639.474	41465.49
639.828	41574.42
640.181	41625.49
640.534	41607.18
640.888	41586.39
641.241	41439.05
641.594	41435.89
641.947	41672.49
642.301	41476.11
642.654	41623
643.007	41490.35
643.36	41464.59
643.713	41501.42
644.066	41670.01
644.419	41353.18
644.771	41268.89
645.124	40752.74
645.477	40785.51
645.83	40520.21
646.182	40437.72
646.535	40322.92
646.888	40329.93
647.24	40112.31
647.593	40547.1
647.945	40324.05
648.298	40235.24
648.65	40119.54
649.002	40146.2
649.355	40238.63
649.707	40065.75
650.059	40304.62
650.411	40754.32
650.763	40842.91
651.115	41360.64
651.467	41109.57
651.819	41175.78
652.171	41017.59
652.523	40971.95
652.875	41131.49
653.227	40845.17
653.578	41117.48
653.93	40995.67
654.282	40714.32
654.633	40759.3
654.985	40884.49
655.337	40917.48
655.688	40878.16
656.039	41005.16
656.391	40745.74
656.742	40733.76
657.094	40746.41
657.445	40987.09
657.796	40901.44
658.147	40753.87
658.498	40811.05
658.849	40948.9
659.2	40827.09
659.551	40601.33
659.902	40891.27
660.253	40846.75
660.604	40711.84
660.955	40642.91
661.306	40815.34
661.656	40597.27
662.007	40702.57
662.358	40714.78
662.708	40681.56
663.059	40731.5
663.409	40532.86
663.76	40767.43
664.11	40791.84
664.461	40931.72
664.811	40740.54
665.161	40658.06
665.511	40724.04
665.862	40712.07
666.212	40695.34
666.562	40766.07
666.912	40675.23
667.262	40608.79
667.612	40653.31
667.962	40771.72
668.312	40524.05
668.662	40777.6
669.011	40695.34
669.361	40716.58
669.711	40591.16
670.06	40543.93
670.41	40596.81
670.76	40460.09
671.109	40688.11
671.459	40501.68
671.808	40629.81
672.157	40644.27
672.507	40344.17
672.856	40299.19
673.205	40400.21
673.554	40489.47
673.904	40274.56
674.253	40504.39
674.602	40242.02
674.951	39889.49
675.3	39738.53
675.649	40217.16
675.998	40307.1
676.346	40340.32
676.695	40435.69
677.044	40105.75
677.393	40246.09
677.741	40253.55
678.09	40142.81
678.438	40099.43
678.787	40160.44
679.135	40181.46
679.484	39927.9
679.832	40023.04
680.181	39838.87
680.529	39954.57
680.877	39898.3
681.225	39915.7
681.573	40074.79
681.922	39665.76
682.27	39705.09
682.618	39762.71
682.966	39541.47
683.314	39722.94
683.661	39585.09
684.009	39388.71
684.357	39304.64
684.705	39175.83
685.053	39313.23
685.4	39196.85
685.748	39039.57
686.095	39060.13
686.443	38988.04
686.79	38842.28
687.138	38958.89
687.485	38816.75
687.832	38781.04
688.18	38794.6
688.527	38437.1
688.874	38716.86
689.221	38556.42
689.568	38440.49
689.915	38181.74
690.262	38403.88
690.609	38301.96
690.956	37997.11
691.303	38097.22
691.65	37909.2
691.997	37867.85
692.344	37637.8
692.69	37685.48
693.037	37636.44
693.383	37508.08
693.73	37523.22
694.077	37390.8
694.423	37382.44
694.769	37260.63
695.116	37065.83
695.462	37108.54
695.808	37017.7
696.155	37012.95
696.501	36741.32
696.847	36884.14
697.193	36659.74
697.539	36831.72
697.885	36398.96
698.231	36162.58
698.577	36321.22
698.923	36223.14
699.269	36063.83
699.614	35968.91
699.96	35851.63
700.306	35869.03
700.651	35821.57
700.997	35536.38
701.342	35574.8
701.688	35547.91
702.033	35490.28
702.379	35360.57
702.724	35272.89
703.069	35361.47
703.415	34994.25
703.76	34964.65
704.105	35080.12
704.45	34940.92
704.795	34763.75
705.14	34702.05
705.485	34666.12
705.83	34425
706.175	34431.1
706.52	34364.44
706.865	34160.37
707.209	34254.83
707.554	34019.13
707.899	34224.78
708.243	33961.73
708.588	33973.71
708.932	33828.86
709.277	33631.57
709.621	33743.43
709.966	33538.69
710.31	33600.84
710.654	33271.13
710.998	33367.17
711.342	33314.07
711.687	33201.75
712.031	33064.58
712.375	33054.41
712.719	33154.75
713.063	33066.84
713.407	33167.4
713.75	33017.35
714.094	32962.66
714.438	32724.03
714.782	32863.01
715.125	32630.7
715.469	32750.24
715.812	32519.74
716.156	32364.71
716.499	32487.87
716.843	32497.59
717.186	32290.14
717.53	32381.21
717.873	32377.59
718.216	32316.58
718.559	32087.21
718.902	31934.89
719.246	31944.84
719.589	31864.39
719.932	31776.71
720.275	31835.24
720.617	31722.24
720.96	31671.62
721.303	31713.66
721.646	31631.63
721.989	31414.91
722.331	31542.59
722.674	31486.54
723.016	31386.89
723.359	31486.54
723.701	31365.87
724.044	31173.78
724.386	31103.05
724.729	31256.27
725.071	31110.28
725.413	31020.12
725.755	30996.16
726.097	30881.36
726.439	30705.1
726.782	30869.16
727.124	30968.82
727.465	30830.07
727.807	30782.38
728.149	30595.27
728.491	30668.04
728.833	30526.34
729.175	30573.12
729.516	30506.01
729.858	30486.8
730.199	30441.37
730.541	30313.02
730.882	30235.73
731.224	30493.35
731.565	30193.02
731.906	30292
732.248	30213.36
732.589	29978.79
732.93	30054.27
733.271	29981.05
733.612	30004.1
733.953	30062.18
734.294	29931.56
734.635	29779.47
734.976	29817.89
735.317	29708.29
735.658	29708.51
735.999	29548.52
736.339	29650.66
736.68	29748.51
737.021	29612.24
737.361	29493.38
737.702	29686.37
738.042	29489.54
738.383	29477.56
738.723	29512.59
739.063	29309.88
739.404	29343.78
739.744	29331.12
740.084	29223.78
740.424	29237.79
740.764	29127.96
741.104	29183.55
741.444	29134.06
741.784	28885.48
742.124	29034.41
742.464	29025.59
742.804	28944.01
743.143	28896.56
743.483	28972.49
743.823	28619.28
744.162	28735.43
744.502	28781.31
744.841	28551.25
745.181	28763.45
745.52	28588.09
745.86	28614.53
746.199	28544.7
746.538	28499.96
746.877	28623.12
747.216	28477.36
747.556	28428.55
747.895	28445.27
748.234	28238.27
748.573	28286.4
748.911	28370.69
749.25	28243.24
749.589	28117.82
749.928	28150.36
750.267	28183.13
750.605	28115.11
750.944	28047.99
751.283	27920.54
751.621	28034.43
751.96	27827.66
752.298	27730.26
752.636	27810.94
752.975	27634.44
753.313	27623.37
753.651	27673.99
753.989	27623.37
754.327	27531.62
754.666	27483.71
755.004	27445.75
755.342	27449.59
755.679	27336.37
756.017	27166.21
756.355	27314.23
756.693	27141.57
757.031	27232.42
757.368	26950.17
757.706	26942.26
758.044	26908.81
758.381	26934.8
758.719	26809.83
759.056	26876.95
759.394	26772.09
