Data from hue_50_FLMS001491_71.txt Node
Date: Mon Feb 06 15:10:57 GMT 2017
User: dcchb
Spectrometer: FLMS00149
Trigger mode: 0
Integration Time (sec): 2.000000E-2
Scans to average: 10
Electric dark correction enabled: true
Nonlinearity correction enabled: false
Boxcar width: 0
XAxis mode: Wavelengths
Number of Pixels in Spectrum: 2048
>>>>>Begin Spectral Data<<<<<
341.393	1.67
341.776	1.67
342.16	1.67
342.543	-59.35
342.927	-67.94
343.31	-60.7
343.693	-64.09
344.077	-73.59
344.46	-36.52
344.843	-71.1
345.226	-53.7
345.61	-28.16
345.993	-34.26
346.376	-17.77
346.759	22.23
347.142	32.17
347.525	27.43
347.908	76.92
348.291	59.29
348.674	107.88
349.057	113.98
349.44	130.25
349.823	122.57
350.206	161.44
350.588	185.39
350.971	219.29
351.354	223.81
351.737	236.91
352.119	254.32
352.502	254.77
352.884	269.68
353.267	289.12
353.65	302.45
354.032	301.77
354.414	321.21
354.797	317.59
355.179	325.73
355.562	318.27
355.944	327.31
356.326	334.99
356.709	346.29
357.091	332.73
357.473	348.55
357.855	345.84
358.238	359.17
358.62	344.48
359.002	363.01
359.384	340.87
359.766	355.78
360.148	320.98
360.53	330.7
360.912	348.32
361.294	325.73
361.676	355.78
362.057	339.28
362.439	351.71
362.821	313.75
363.203	348.32
363.584	320.53
363.966	324.82
364.348	333.86
364.729	319.85
365.111	309.23
365.493	342.22
365.874	318.27
366.256	318.72
366.637	320.3
367.019	325.05
367.4	308.33
367.781	312.17
368.163	330.47
368.544	314.2
368.925	330.25
369.306	337.48
369.688	327.99
370.069	335.67
370.45	305.16
370.831	303.13
371.212	307.42
371.593	317.36
371.974	324.14
372.355	318.49
372.736	310.13
373.117	321.21
373.498	308.1
373.879	323.47
374.26	316.69
374.641	311.49
375.021	327.99
375.402	326.4
375.783	309.68
376.163	326.86
376.544	331.38
376.925	321.88
377.305	337.7
377.686	337.03
378.066	317.14
378.447	342.22
378.827	328.44
379.208	330.47
379.588	329.79
379.968	334.99
380.349	342.9
380.729	346.06
381.109	326.4
381.489	338.83
381.87	353.97
382.25	338.38
382.63	339.06
383.01	333.86
383.39	342.67
383.77	332.51
384.15	339.96
384.53	323.47
384.91	354.88
385.29	343.13
385.67	344.03
386.049	342.9
386.429	333.41
386.809	343.13
387.189	347.65
387.568	366.85
387.948	347.87
388.328	352.84
388.707	347.87
389.087	360.3
389.466	343.58
389.846	338.61
390.225	356.01
390.605	359.62
390.984	376.8
391.363	369.11
391.743	348.32
392.122	354.2
392.501	360.08
392.881	355.56
393.26	342
393.639	363.92
394.018	381.32
394.397	375.44
394.776	349.68
395.155	358.04
395.534	349.68
395.913	367.53
396.292	371.37
396.671	363.69
397.05	380.19
397.429	380.87
397.808	364.59
398.186	372.28
398.565	375.89
398.944	410.7
399.323	396.23
399.701	392.39
400.08	356.23
400.458	389.23
400.837	413.63
401.215	394.65
401.594	384.71
401.972	372.28
402.351	392.84
402.729	388.78
403.107	400.3
403.486	405.27
403.864	401.43
404.242	395.78
404.62	393.07
404.999	408.21
405.377	398.27
405.755	407.31
406.133	383.8
406.511	416.12
406.889	433.52
407.267	425.38
407.645	420.41
408.023	398.04
408.401	423.35
408.779	426.97
409.156	417.7
409.534	414.99
409.912	438.04
410.29	436.01
410.667	435.78
411.045	429.9
411.422	438.04
411.8	449.11
412.178	439.85
412.555	452.05
412.933	459.73
413.31	442.56
413.687	447.76
414.065	483.91
414.442	466.97
414.819	456.8
415.197	480.07
415.574	472.39
415.951	472.16
416.328	487.08
416.705	493.41
417.082	464.93
417.46	478.49
417.837	478.49
418.214	475.78
418.591	481.65
418.967	482.78
419.344	494.54
419.721	496.12
420.098	503.35
420.475	497.7
420.852	529.79
421.228	512.39
421.605	507.19
421.982	523.69
422.358	513.74
422.735	513.97
423.111	526.62
423.488	525.49
423.864	514.42
424.241	540.64
424.617	526.4
424.994	539.96
425.37	515.78
425.746	519.39
426.123	546.51
426.499	542.44
426.875	534.31
427.251	558.04
427.627	557.13
428.003	564.14
428.379	553.52
428.756	551.93
429.132	571.6
429.507	570.92
429.883	578.15
430.259	574.31
430.635	581.31
431.011	603.46
431.387	579.28
431.763	609.33
432.138	598.94
432.514	598.94
432.89	617.92
433.265	612.72
433.641	620.63
434.016	634.42
434.392	605.04
434.767	636
435.143	623.8
435.518	638.49
435.894	635.32
436.269	651.37
436.644	656.79
437.02	657.02
437.395	668.77
437.77	669.67
438.145	687.52
438.52	697.02
438.895	685.72
439.271	693.85
439.646	690.69
440.021	704.7
440.395	706.96
440.77	690.46
441.145	711.03
441.52	685.04
441.895	718.71
442.27	716.22
442.645	731.82
443.019	734.98
443.394	735.66
443.769	723.68
444.143	722.1
444.518	730.01
444.892	741.08
445.267	739.05
445.641	743.79
446.016	770.91
446.39	760.52
446.764	775.88
447.139	772.27
447.513	760.74
447.887	766.17
448.262	772.04
448.636	791.02
449.01	789.89
449.384	816.79
449.758	815.2
450.132	809.78
450.506	823.79
450.88	784.02
451.254	802.32
451.628	830.35
452.002	841.19
452.376	840.97
452.75	831.02
453.123	834.19
453.497	826.5
453.871	844.13
454.244	890
454.618	874.41
454.992	919.38
455.365	900.4
455.739	891.59
456.112	933.17
456.486	922.77
456.859	944.69
457.232	939.95
457.606	930.23
457.979	935.43
458.352	955.09
458.725	986.5
459.099	979.04
459.472	1003.22
459.845	991.92
460.218	1005.93
460.591	1012.26
460.964	1022.2
461.337	1054.29
461.71	1064.92
462.083	1061.3
462.456	1071.02
462.829	1075.31
463.201	1117.57
463.574	1117.8
463.947	1119.6
464.32	1138.81
464.692	1150.11
465.065	1161.86
465.438	1178.81
465.81	1203.44
466.183	1198.02
466.555	1258.58
466.928	1234.63
467.3	1241.86
467.672	1281.63
468.045	1300.84
468.417	1304.68
468.789	1310.33
469.161	1358.69
469.534	1367.28
469.906	1376.09
470.278	1419.48
470.65	1452.7
471.022	1480.27
471.394	1479.14
471.766	1541.06
472.138	1558.01
472.51	1572.02
472.882	1584
473.253	1635.97
473.625	1695.63
473.997	1711.68
474.369	1765.01
474.74	1785.12
475.112	1821.05
475.484	1864.89
475.855	1925.91
476.227	1946.02
476.598	2011.78
476.97	2049.52
477.341	2098.11
477.713	2145.34
478.084	2188.73
478.455	2290.87
478.827	2342.62
479.198	2397.08
479.569	2451.09
479.94	2488.38
480.311	2576.74
480.682	2677.3
481.053	2746.68
481.424	2851.76
481.795	2851.76
482.166	2946.22
482.537	3032.1
482.908	3146.67
483.279	3241.58
483.65	3328.36
484.021	3428.92
484.391	3485.87
484.762	3556.15
485.133	3743.04
485.503	3779.65
485.874	3922.02
486.244	4054.22
486.615	4104.61
486.985	4251.05
487.356	4356.13
487.726	4433.19
488.097	4611.26
488.467	4703.01
488.837	4820.07
489.207	4947.98
489.578	5099.84
489.948	5199.5
490.318	5339.83
490.688	5457.12
491.058	5570.79
491.428	5709.09
491.798	5827.5
492.168	6049.87
492.538	6111.79
492.908	6286.93
493.278	6384.55
493.648	6504.32
494.017	6655.05
494.387	6795.16
494.757	6925.1
495.126	7072.44
495.496	7184.98
495.866	7311.98
496.235	7440.79
496.605	7554.46
496.974	7699.77
497.344	7822.25
497.713	7893.66
498.082	8113.09
498.452	8274.67
498.821	8343.14
499.19	8452.52
499.559	8637.6
499.928	8777.48
500.298	8873.07
500.667	9038.49
501.036	9025.61
501.405	9219.05
501.774	9271.03
502.143	9471.25
502.512	9521.42
502.88	9686.16
503.249	9821.52
503.618	9913.72
503.987	9937
504.356	10153.04
504.724	10226.93
505.093	10347.38
505.462	10371.34
505.83	10509.86
506.199	10675.28
506.567	10876.18
506.936	10943.75
507.304	11075.5
507.672	11188.04
508.041	11247.7
508.409	11411.99
508.777	11495.83
509.145	11610.17
509.514	11671.87
509.882	11808.36
510.25	11842.94
510.618	11967.23
510.986	12073.67
511.354	12224.85
511.722	12330.61
512.09	12541.68
512.458	12553.65
512.826	12642.92
513.193	12770.37
513.561	12847.2
513.929	13012.17
514.297	13121.77
514.664	13206.07
515.032	13309.57
515.4	13350.02
515.767	13477.24
516.135	13583.68
516.502	13518.6
516.869	13823.9
517.237	13891.24
517.604	13964.01
517.972	14107.96
518.339	14199.03
518.706	14244.46
519.073	14379.82
519.44	14429.99
519.808	14575.07
520.175	14636.76
520.542	14789.53
520.909	14949.3
521.276	15012.57
521.643	15100.03
522.009	15208.72
522.376	15282.62
522.743	15427.02
523.11	15614.59
523.477	15774.59
523.843	15950.4
524.21	16020.68
524.577	16146.1
524.943	16128.47
525.31	16253.44
525.676	16493.89
526.043	16538.63
526.409	16636.03
526.776	16818.85
527.142	16893.88
527.508	16998.96
527.874	17109.47
528.241	17143.81
528.607	17330.93
528.973	17408.44
529.339	17467.42
529.705	17597.36
530.071	17784.93
530.437	17885.49
530.803	17998.48
531.169	18033.06
531.535	18115.99
531.901	18119.38
532.267	18308.53
532.632	18411.35
532.998	18431.24
533.364	18660.84
533.73	18628.07
534.095	18749.2
534.461	18819.7
534.826	19037.32
535.192	19004.78
535.557	19113.71
535.923	19172.01
536.288	19261.5
536.653	19394.6
537.019	19329.52
537.384	19401.16
537.749	19544.66
538.114	19589.63
538.479	19674.6
538.845	19726.35
539.21	19613.13
539.575	19894.25
539.94	19939.22
540.305	20100.57
540.67	19875.95
541.034	20170.85
541.399	20203.17
541.764	20262.38
542.129	20399.77
542.494	20394.8
542.858	20494.69
543.223	20543.95
543.587	20651.07
543.952	20734
544.316	20752.53
544.681	20722.93
545.045	20919.53
545.41	21066.2
545.774	21080.66
546.138	21161.34
546.503	21209.47
546.867	21157.95
547.231	21389.8
547.595	21322.46
547.959	21454.44
548.324	21493.98
548.688	21549.12
549.052	21631.38
549.416	21679.97
549.779	21707.08
550.143	21764.26
550.507	22029.79
550.871	21950.69
551.235	22069.11
551.599	22233.17
551.962	22221.2
552.326	22287.18
552.689	22506.61
553.053	22467.06
553.417	22507.97
553.78	22831.8
554.143	22775.98
554.507	22841.97
554.87	22841.97
555.234	23049.65
555.597	22978.92
555.96	23082.42
556.323	23178.46
556.686	23280.15
557.05	23456.87
557.413	23563.53
557.776	23588.84
558.139	23739.12
558.502	23768.05
558.865	23772.12
559.228	24063.41
559.59	24042.84
559.953	24020.47
560.316	24389.27
560.679	24380.01
561.041	24480.35
561.404	24526.67
561.767	24791.98
562.129	24617.52
562.492	24965.3
562.854	24787
563.217	24860.22
563.579	24961.24
563.941	25231.06
564.304	25283.04
564.666	25508.34
565.028	25469.92
565.39	25673.08
565.753	25676.25
566.115	25842.8
566.477	25955.33
566.839	25848.22
567.201	26094.54
567.563	26215.44
567.925	26464.25
568.287	26475.77
568.648	26497.92
569.01	26791.02
569.372	26845.03
569.734	26697.46
570.095	26952.82
570.457	27046.38
570.819	27085.47
571.18	27128.86
571.542	27268.07
571.903	27308.07
572.265	27500.15
572.626	27548.96
572.987	27535.86
573.349	27761.61
573.71	27870.76
574.071	27912.57
574.432	28009.97
574.794	28237.31
575.155	28257.42
575.516	28286.12
575.877	28430.52
576.238	28455.16
576.599	28593.68
576.96	28496.06
577.32	28628.48
577.681	28773.79
578.042	28971.53
578.403	28962.26
578.763	29129.94
579.124	29175.59
579.485	29265.98
579.845	29467.11
580.206	29359.99
580.566	29468.46
580.927	29604.28
581.287	29743.26
581.648	29745.74
582.008	30023.93
582.368	29982.35
582.728	30247.43
583.089	30119.07
583.449	30267.31
583.809	30333.07
584.169	30531.49
584.529	30494.88
584.889	30835.88
585.249	30711.37
585.609	30663.46
585.969	31058.25
586.329	31020.51
586.688	31230
587.048	31286.27
587.408	31255.31
587.768	31477.22
588.127	31435.64
588.487	31488.52
588.846	31838.12
589.206	31817.1
589.565	31733.26
589.925	31950.66
590.284	31976.19
590.643	32177.32
591.003	32253.93
591.362	32335.73
591.721	32426.12
592.08	32519.68
592.44	32686.91
592.799	32776.4
593.158	32886.9
593.517	32818.66
593.876	33068.14
594.235	32990.86
594.593	33211.64
594.952	33329.15
595.311	33345.42
595.67	33450.05
596.029	33710.16
596.387	33747.9
596.746	33701.57
597.104	33731.18
597.463	33791.06
597.822	34043.94
598.18	33926.88
598.538	34104.27
598.897	34358.96
599.255	34102.92
599.613	34716.69
599.972	34406.86
600.33	34679.4
600.688	34433.98
601.046	34679.62
601.404	35110.35
601.762	34958.94
602.12	35182.89
602.478	35237.8
602.836	35270.8
603.194	35188.09
603.552	35247.75
603.91	35265.6
604.268	35432.15
604.625	35479.6
604.983	35636.89
605.341	35386.05
605.698	35791.46
606.056	35884.79
606.413	35851.35
606.771	35959.82
607.128	36033.26
607.485	35926.37
607.843	36074.16
608.2	36264.67
608.557	36439.58
608.914	36222.64
609.272	36616.3
609.629	36626.24
609.986	36902.39
610.343	36726.35
610.7	37016.51
611.057	36911.43
611.414	36873.24
611.771	37061.03
612.127	37233
612.484	37173.34
612.841	37443.85
613.198	37399.78
613.554	37383.51
613.911	37558.65
614.267	37691.52
614.624	37629.15
614.98	37642.26
615.337	37954.79
615.693	37869.82
616.05	37872.54
616.406	38054.45
616.762	37953.21
617.118	38070.5
617.475	38055.13
617.831	38214.22
618.187	38232.98
618.543	38360.43
618.899	38491.73
619.255	38558.62
619.611	38501.45
619.967	38604.95
620.323	38705.96
620.678	38504.38
621.034	38558.17
621.39	38570.82
621.746	38664.38
622.101	39046.52
622.457	38632.97
622.812	38719.52
623.168	38887.88
623.523	38885.62
623.879	39205.61
624.234	38896.01
624.589	39081.32
624.945	39057.59
625.3	39146.4
625.655	39180.3
626.01	39152.73
626.365	39253.06
626.72	39123.58
627.075	39285.15
627.43	39257.81
627.785	39232.27
628.14	39190.92
628.495	39265.27
628.85	39297.81
629.205	39027.76
629.559	39310.24
629.914	39188.43
630.269	39281.54
630.623	39156.57
630.978	39046.29
631.332	39338.71
631.687	39385.94
632.041	39165.16
632.396	39312.05
632.75	39074.54
633.104	39127.19
633.459	39250.13
633.813	39050.58
634.167	39146.63
634.521	38984.6
634.875	39184.59
635.229	39003.13
635.583	38842.68
635.937	39026.63
636.291	39041.54
636.645	38994.31
636.999	38909.8
637.352	39019.85
637.706	38824.83
638.06	39024.82
638.413	38824.83
638.767	38812.4
639.121	38861.21
639.474	38607.66
639.828	38570.37
640.181	38734.43
640.534	38640.88
640.888	38571.27
641.241	38413.09
641.594	38536.02
641.947	38662.12
642.301	38530.82
642.654	38532.18
643.007	38448.57
643.36	38477.27
643.713	38426.87
644.066	38489.92
644.419	38288.57
644.771	38144.39
645.124	37675.48
645.477	37716.16
645.83	37588.47
646.182	37414.47
646.535	37230.97
646.888	37405.2
647.24	37131.09
647.593	37302.38
647.945	37377.86
648.298	37171.31
648.65	37096.06
649.002	37028.26
649.355	37161.59
649.707	37198.65
650.059	37289.73
650.411	37649.04
650.763	37771.97
651.115	38094.68
651.467	37939.43
651.819	37800.9
652.171	37828.92
652.523	37685.42
652.875	37749.15
653.227	37715.93
653.578	37940.33
653.93	37742.14
654.282	37651.3
654.633	37554.58
654.985	37635.25
655.337	37602.71
655.688	37692.43
656.039	37839.09
656.391	37397.75
656.742	37407.24
657.094	37540.11
657.445	37560.23
657.796	37670.73
658.147	37400.01
658.498	37507.12
658.849	37564.75
659.2	37455.6
659.551	37467.12
659.902	37634.35
660.253	37460.34
660.604	37527.01
660.955	37353.68
661.306	37496.5
661.656	37380.12
662.007	37258.31
662.358	37306.9
662.708	37293.34
663.059	37304.64
663.409	37126.79
663.76	37439.55
664.11	37352.55
664.461	37353.23
664.811	37322.72
665.161	37473.22
665.511	37207.24
665.862	37285.43
666.212	37369.72
666.562	37324.98
666.912	37157.53
667.262	37194.36
667.612	37234.81
667.962	37329.05
668.312	37164.08
668.662	37390.29
669.011	37410.63
669.361	37224.42
669.711	37200.01
670.06	37203.85
670.41	36931.09
670.76	37139.22
671.109	37126.57
671.459	37093.12
671.808	37120.46
672.157	37122.72
672.507	36731.1
672.856	36929.74
673.205	36960.02
673.554	37132.89
673.904	36927.93
674.253	37122.95
674.602	36965.44
674.951	36465.11
675.3	36234.39
675.649	36808.38
675.998	36865.56
676.346	36867.36
676.695	36897.87
677.044	36636.18
677.393	36791.43
677.741	36777.2
678.09	36726.35
678.438	36605.45
678.787	36704.66
679.135	36717.09
679.484	36398.45
679.832	36631.66
680.181	36451.56
680.529	36549.63
680.877	36416.3
681.225	36400.94
681.573	36537.43
681.922	36316.19
682.27	36361.84
682.618	36296.98
682.966	36173.6
683.314	36186.48
683.661	36028.52
684.009	35904
684.357	35858.58
684.705	35794.17
685.053	35835.53
685.4	35815.19
685.748	35693.84
686.095	35738.13
686.443	35607.06
686.79	35443.9
687.138	35538.13
687.485	35517.12
687.832	35285.71
688.18	35440.73
688.527	35251.36
688.874	35180.63
689.221	35199.61
689.568	34951.71
689.915	34909.22
690.262	34904.03
690.609	34819.73
690.956	34821.77
691.303	34715.56
691.65	34554.43
691.997	34533.64
692.344	34304.04
692.69	34283.7
693.037	34361.22
693.383	34111.73
693.73	34221.78
694.077	33924.39
694.423	34107.66
694.769	33953.32
695.116	33880.78
695.462	33706.32
695.808	33638.3
696.155	33696.83
696.501	33517.17
696.847	33489.15
697.193	33199.21
697.539	33443.95
697.885	33015.71
698.231	33124.64
698.577	32955.38
698.923	33065.88
699.269	32873.8
699.614	32691.88
699.96	32697.76
700.306	32597.65
700.651	32540.02
700.997	32482.62
701.342	32476.52
701.688	32294.6
702.033	32078.34
702.379	32258.22
702.724	32198.79
703.069	32046.7
703.415	31782.75
703.76	31815.29
704.105	31914.5
704.45	31828.85
704.795	31534.62
705.14	31591.57
705.485	31538.92
705.83	31242.65
706.175	31462.76
706.52	31371.92
706.865	31148.19
707.209	31092.6
707.554	30958.14
707.899	31080.85
708.243	30872.95
708.588	30950.68
708.932	30511.82
709.277	30686.28
709.621	30679.28
709.966	30458.04
710.31	30441.32
710.654	30375.33
710.998	30268.22
711.342	30319.51
711.687	30204.26
712.031	30121.78
712.375	29876.36
712.719	29974.21
713.063	29953.87
713.407	30058.05
713.75	29904.38
714.094	29830.94
714.438	29667.55
714.782	29739.87
715.125	29666.42
715.469	29745.74
715.812	29481.34
716.156	29393.44
716.499	29455.58
716.843	29455.13
717.186	29171.52
717.53	29282.03
717.873	29353.89
718.216	29223.05
718.559	29106.21
718.902	28922.04
719.246	29111.86
719.589	28830.06
719.932	28727.24
720.275	28762.72
720.617	28837.52
720.96	28684.53
721.303	28754.36
721.646	28746.9
721.989	28498.32
722.331	28630.29
722.674	28473.91
723.016	28495.15
723.359	28410.64
723.701	28406.57
724.044	28274.6
724.386	28100.14
724.729	28267.82
725.071	28029.18
725.413	28289.51
725.755	28103.75
726.097	28102.85
726.439	27882.97
726.782	27876.87
727.124	28118.67
727.465	27783.76
727.807	27816.08
728.149	27687.72
728.491	27702.63
728.833	27791.67
729.175	27572.47
729.516	27611.56
729.858	27571.11
730.199	27617.89
730.541	27442.98
730.882	27456.09
731.224	27605.69
731.565	27191.23
731.906	27368.86
732.248	27361.17
732.589	27226.49
732.93	27113.95
733.271	27168.64
733.612	27116.21
733.953	27150.33
734.294	26993.27
734.635	26994.63
734.976	26966.38
735.317	26824.46
735.658	26885.93
735.999	26896.33
736.339	26822.43
736.68	26920.96
737.021	26729.55
737.361	26621.76
737.702	26731.81
738.042	26739.72
738.383	26504.92
738.723	26743.34
739.063	26497.47
739.404	26437.36
739.744	26510.57
740.084	26302.22
740.424	26377.24
740.764	26234.88
741.104	26356
741.444	26210.7
741.784	26108.32
742.124	26261.99
742.464	26174.31
742.804	26024.49
743.143	26074.65
743.483	26040.98
743.823	25939.97
744.162	25958.95
744.502	25871.49
744.841	25768.9
745.181	25954.88
745.52	25737.94
745.86	25874.88
746.199	25737.49
746.538	25651.39
746.877	25756.47
747.216	25684.38
747.556	25536.14
747.895	25553.76
748.234	25455.69
748.573	25565.51
748.911	25444.61
749.25	25382.92
749.589	25336.82
749.928	25322.13
750.267	25177.5
750.605	25252.53
750.944	25145.19
751.283	25110.84
751.621	25169.59
751.96	24961.24
752.298	24921.69
752.636	24957.17
752.975	24896.83
753.313	24750.85
753.651	24806.66
753.989	24786.1
754.327	24622.26
754.666	24598.53
755.004	24652.09
755.342	24478.76
755.679	24467.69
756.017	24415.26
756.355	24485.09
756.693	24391.31
757.031	24346.56
