Data from hue_130_FLMS001491_00010.txt Node
Date: Tue Feb 07 16:57:05 GMT 2017
User: dcchb
Spectrometer: FLMS00149
Trigger mode: 0
Integration Time (sec): 2.000000E-2
Scans to average: 10
Electric dark correction enabled: true
Nonlinearity correction enabled: false
Boxcar width: 0
XAxis mode: Wavelengths
Number of Pixels in Spectrum: 2048
>>>>>Begin Spectral Data<<<<<
341.393	5.28
341.776	5.28
342.16	5.28
342.543	-33.36
342.927	-67.26
343.31	-50.76
343.693	-69.74
344.077	-55.06
344.46	-48.05
344.843	-57.54
345.226	-42.4
345.61	-51.21
345.993	-32.23
346.376	2.8
346.759	-0.59
347.142	14.77
347.525	51.38
347.908	53.42
348.291	75.79
348.674	99.74
349.057	109.69
349.44	130.93
349.823	117.14
350.206	171.38
350.588	196.69
350.971	207.31
351.354	211.83
351.737	235.11
352.119	247.08
352.502	254.54
352.884	267.2
353.267	287.53
353.65	308.78
354.032	307.87
354.414	307.87
354.797	310.13
355.179	329.12
355.562	319.62
355.944	309.91
356.326	323.92
356.709	335.44
357.091	346.74
357.473	354.65
357.855	341.32
358.238	348.32
358.62	343.35
359.002	341.09
359.384	352.84
359.766	342.45
360.148	350.81
360.53	357.14
360.912	353.75
361.294	358.49
361.676	343.35
362.057	349.91
362.439	349.45
362.821	348.1
363.203	330.47
363.584	313.75
363.966	328.66
364.348	341.09
364.729	324.82
365.111	330.02
365.493	323.01
365.874	319.17
366.256	345.84
366.637	311.71
367.019	311.94
367.4	310.36
367.781	303.81
368.163	302
368.544	327.08
368.925	319.85
369.306	335.44
369.688	305.16
370.069	335.67
370.45	319.4
370.831	327.31
371.212	309
371.593	333.18
371.974	325.5
372.355	299.74
372.736	325.73
373.117	311.26
373.498	334.09
373.879	321.43
374.26	314.43
374.641	332.28
375.021	334.54
375.402	325.5
375.783	335.67
376.163	327.08
376.544	312.39
376.925	326.86
377.305	319.4
377.686	305.61
378.066	322.56
378.447	308.33
378.827	327.99
379.208	319.17
379.588	331.38
379.968	341.09
380.349	333.18
380.729	339.28
381.109	365.5
381.489	334.31
381.87	360.3
382.25	353.3
382.63	344.03
383.01	338.61
383.39	347.19
383.77	346.52
384.15	363.69
384.53	357.82
384.91	346.29
385.29	366.85
385.67	375.22
386.049	351.26
386.429	361.43
386.809	367.31
387.189	365.95
387.568	378.61
387.948	360.75
388.328	380.64
388.707	368.44
389.087	370.92
389.466	380.19
389.846	391.71
390.225	373.18
390.605	351.26
390.984	362.79
391.363	382.45
391.743	366.85
392.122	387.19
392.501	391.71
392.881	372.28
393.26	408.44
393.639	381.09
394.018	401.2
394.397	398.27
394.776	405.05
395.155	394.88
395.534	382.67
395.913	391.94
396.292	418.38
396.671	413.41
397.05	411.6
397.429	398.04
397.808	405.5
398.186	399.4
398.565	390.13
398.944	388.78
399.323	392.39
399.701	402.11
400.08	407.98
400.458	423.58
400.837	412.5
401.215	415.44
401.594	410.92
401.972	418.38
402.351	395.1
402.729	426.97
403.107	446.17
403.486	432.16
403.864	423.35
404.242	435.33
404.62	468.77
404.999	422.22
405.377	457.7
405.755	432.16
406.133	464.03
406.511	427.64
406.889	454.99
407.267	458.83
407.645	471.71
408.023	470.81
408.401	469
408.779	440.75
409.156	466.06
409.534	466.29
409.912	462.45
410.29	473.74
410.667	473.74
411.045	477.59
411.422	479.39
411.8	495.89
412.178	481.88
412.555	488.66
412.933	484.14
413.31	486.17
413.687	495.21
414.065	523.01
414.442	525.04
414.819	520.98
415.197	520.52
415.574	519.62
415.951	534.53
416.328	526.62
416.705	532.27
417.082	530.92
417.46	550.35
417.837	542.44
418.214	546.51
418.591	550.58
418.967	554.87
419.344	539.96
419.721	539.96
420.098	550.58
420.475	567.53
420.852	564.82
421.228	582.22
421.605	591.93
421.982	555.78
422.358	593.06
422.735	598.94
423.111	570.92
423.488	572.05
423.864	612.95
424.241	585.83
424.617	617.24
424.994	583.57
425.37	609.79
425.746	600.52
426.123	594.65
426.499	621.31
426.875	634.42
427.251	635.77
427.627	636.68
428.003	654.76
428.379	616.34
428.756	654.98
429.132	635.55
429.507	656.34
429.883	658.15
430.259	667.19
430.635	675.32
431.011	698.6
431.387	681.42
431.763	711.25
432.138	692.5
432.514	731.36
432.89	708.77
433.265	696.56
433.641	721.87
434.016	714.19
434.392	741.08
434.767	760.52
435.143	751.7
435.518	755.32
435.894	791.93
436.269	762.55
436.644	797.8
437.02	801.19
437.395	803.91
437.77	791.25
438.145	805.04
438.52	792.83
438.895	813.62
439.271	821.53
439.646	818.37
440.021	834.64
440.395	832.38
440.77	870.8
441.145	850.91
441.52	870.57
441.895	870.12
442.27	877.8
442.645	857.24
443.019	902.89
443.394	880.97
443.769	884.81
444.143	890.68
444.518	897.69
444.892	885.49
445.267	920.06
445.641	933.62
446.016	940.85
446.39	912.83
446.764	920.06
447.139	927.74
447.513	972.04
447.887	942.66
448.262	955.31
448.636	979.49
449.01	980.85
449.384	989.44
449.758	991.02
450.132	1003.67
450.506	1019.94
450.88	1008.65
451.254	1014.52
451.628	1023.33
452.002	1021.07
452.376	1023.79
452.75	1040.96
453.123	1033.05
453.497	1054.52
453.871	1078.7
454.244	1058.36
454.618	1096.1
454.992	1098.36
455.365	1134.07
455.739	1128.19
456.112	1146.27
456.486	1160.28
456.859	1193.05
457.232	1203.89
457.606	1181.3
457.979	1198.47
458.352	1234.63
458.725	1249.54
459.099	1266.94
459.472	1257
459.845	1299.71
460.218	1328.19
460.591	1320.5
460.964	1314.85
461.337	1372.03
461.71	1378.58
462.083	1387.84
462.456	1377.22
462.829	1394.85
463.201	1417.67
463.574	1455.19
463.947	1486.15
464.32	1504.68
464.692	1506.03
465.065	1509.88
465.438	1545.58
465.81	1567.28
466.183	1598.69
466.555	1606.37
466.928	1618.57
467.3	1626.93
467.672	1675.75
468.045	1727.5
468.417	1687.5
468.789	1736.76
469.161	1778.34
469.534	1822.41
469.906	1844.78
470.278	1871
470.65	1925.68
471.022	1953.48
471.394	1967.49
471.766	2014.27
472.138	2076.87
472.51	2138.56
472.882	2140.37
473.253	2171.55
473.625	2198.67
473.997	2269.18
474.369	2333.36
474.74	2344.66
475.112	2446.35
475.484	2487.48
475.855	2520.92
476.227	2566.34
476.598	2666.68
476.97	2676.62
477.341	2759.11
477.713	2838.65
478.084	2927.47
478.455	2988.48
478.827	3038.42
479.198	3160.91
479.569	3206.1
479.94	3278.64
480.311	3370.84
480.682	3460.56
481.053	3570.61
481.424	3658.07
481.795	3747.33
482.166	3882.47
482.537	3925.41
482.908	4058.28
483.279	4141.9
483.65	4268.9
484.021	4394.09
484.391	4494.2
484.762	4574.2
485.133	4659.17
485.503	4821.88
485.874	5016.22
486.244	5074.75
486.615	5225.94
486.985	5312.94
487.356	5431.58
487.726	5554.06
488.097	5760.61
488.467	5860.95
488.837	5997.67
489.207	6179.36
489.578	6378
489.948	6443.98
490.318	6599.69
490.688	6682.62
491.058	6831.09
491.428	6998.77
491.798	7187.69
492.168	7276.73
492.538	7387.69
492.908	7551.75
493.278	7727.11
493.648	7782.93
494.017	8031.51
494.387	8135.69
494.757	8307.66
495.126	8370.26
495.496	8533.42
495.866	8660.65
496.235	8837.59
496.605	8852.28
496.974	9024.25
497.344	9165.27
497.713	9248.2
498.082	9394.87
498.452	9597.12
498.821	9627.85
499.19	9813.39
499.559	9940.16
499.928	9986.49
500.298	10095.64
500.667	10277.55
501.036	10277.55
501.405	10484.1
501.774	10491.79
502.143	10604.78
502.512	10656.08
502.88	10868.5
503.249	10869.63
503.618	10995.05
503.987	11100.36
504.356	11252.67
504.724	11266.46
505.093	11398.88
505.462	11436.17
505.83	11534.7
506.199	11657.18
506.567	11802.03
506.936	11743.96
507.304	11971.3
507.672	12006.1
508.041	12085.87
508.409	12269.37
508.777	12274.79
509.145	12390.72
509.514	12419.42
509.882	12468.01
510.25	12554.78
510.618	12608.79
510.986	12643.14
511.354	12784.38
511.722	12837.26
512.09	12966.52
512.458	12890.82
512.826	13088.78
513.193	13155.67
513.561	13125.16
513.929	13141.66
514.297	13417.36
514.664	13394.31
515.032	13330.36
515.4	13515.66
515.767	13499.16
516.135	13526.28
516.502	13491.03
516.869	13704.81
517.237	13655.54
517.604	13671.59
517.972	13795.65
518.339	13868.19
518.706	13788.65
519.073	13907.74
519.44	13917.01
519.808	13929.44
520.175	13975.54
520.542	14097.57
520.909	14079.94
521.276	14033.39
521.643	14235.87
522.009	14255.98
522.376	14319.26
522.743	14284.23
523.11	14457.78
523.477	14479.03
523.843	14502.3
524.21	14649.87
524.577	14557.22
524.943	14592.7
525.31	14695.74
525.676	14727.16
526.043	14793.37
526.409	14795.4
526.776	14921.27
527.142	14879.24
527.508	14903.65
527.874	14925.57
528.241	15019.8
528.607	14958.11
528.973	15079.01
529.339	15028.84
529.705	15064.1
530.071	15144.32
530.437	15061.16
530.803	15107.03
531.169	15093.25
531.535	15066.13
531.901	15141.61
532.267	15057.32
532.632	15084.43
532.998	15070.42
533.364	15097.77
533.73	15048.73
534.095	15107.48
534.461	15086.47
534.826	15105.45
535.192	15074.49
535.557	15167.37
535.923	15107.26
536.288	15006.7
536.653	15115.85
537.019	14854.61
537.384	14989.52
537.749	14996.98
538.114	14961.27
538.479	14826.14
538.845	14947.04
539.21	14820.03
539.575	14825.46
539.94	14871.78
540.305	14794.5
540.67	14733.48
541.034	14809.86
541.399	14722.64
541.764	14649.19
542.129	14742.3
542.494	14629.76
542.858	14718.57
543.223	14580.04
543.587	14638.34
543.952	14506.82
544.316	14541.17
544.681	14419.59
545.045	14491
545.41	14472.02
545.774	14364.9
546.138	14395.64
546.503	14374.62
546.867	14267.51
547.231	14338.01
547.595	14297.34
547.959	14175.31
548.324	14151.35
548.688	14141.41
549.052	14105.93
549.416	14153.84
549.779	14174.85
550.143	14028.87
550.507	14034.74
550.871	14037
551.235	14008.3
551.599	13998.81
551.962	13981.41
552.326	13947.74
552.689	13997
553.053	13871.81
553.417	13750.23
553.78	13942.77
554.143	13808.54
554.507	13754.07
554.87	13799.27
555.234	13864.35
555.597	13754.3
555.96	13744.36
556.323	13697.8
556.686	13716.33
557.05	13757.24
557.413	13683.11
557.776	13747.52
558.139	13743.68
558.502	13718.82
558.865	13715.88
559.228	13750.91
559.59	13765.37
559.953	13747.97
560.316	13755.2
560.679	13740.74
561.041	13763.56
561.404	13762.43
561.767	13813.96
562.129	13822.09
562.492	13863.45
562.854	13862.09
563.217	13742.32
563.579	13771.7
563.941	13830.91
564.304	13793.39
564.666	13879.49
565.028	13783.45
565.39	13903.22
565.753	13870
566.115	13917.46
566.477	13920.62
566.839	13959.94
567.201	13949.55
567.563	13994.75
567.925	14025.03
568.287	14073.61
568.648	13968.31
569.01	14174.4
569.372	14068.42
569.734	14018.25
570.095	14072.26
570.457	14206.49
570.819	14179.82
571.18	14049.21
571.542	14161.07
571.903	14252.82
572.265	14175.08
572.626	14195.19
572.987	14252.37
573.349	14220.28
573.71	14194.97
574.071	14313.61
574.432	14284.23
574.794	14316.54
575.155	14251.01
575.516	14215.76
575.877	14316.09
576.238	14339.82
576.599	14310.44
576.96	14294.62
577.32	14283.78
577.681	14327.62
578.042	14341.85
578.403	14348.41
578.763	14375.98
579.124	14307.96
579.485	14378.24
579.845	14434.73
580.206	14306.38
580.566	14386.37
580.927	14364
581.287	14539.82
581.648	14340.72
582.008	14364.68
582.368	14413.94
582.728	14370.78
583.089	14360.16
583.449	14295.98
583.809	14375.3
584.169	14367.84
584.529	14337.11
584.889	14396.32
585.249	14277.68
585.609	14235.19
585.969	14330.78
586.329	14307.51
586.688	14287.17
587.048	14296.66
587.408	14260.95
587.768	14253.27
588.127	14282.87
588.487	14237.45
588.846	14322.19
589.206	14198.36
589.565	14215.76
589.925	14256.66
590.284	14168.53
590.643	14205.59
591.003	14189.99
591.362	14145.7
591.721	14214.4
592.08	14198.13
592.44	14201.75
592.799	14200.16
593.158	14070.9
593.517	14120.17
593.876	14233.83
594.235	14124.91
594.593	14028.19
594.952	14154.97
595.311	14103.67
595.67	14018.25
596.029	14180.28
596.387	14132.14
596.746	14106.15
597.104	14083.78
597.463	14035.87
597.822	14139.83
598.18	14032.26
598.538	14065.48
598.897	14110.22
599.255	13951.58
599.613	14121.52
599.972	14115.87
600.33	14106.38
600.688	14043.33
601.046	14098.02
601.404	14136.89
601.762	14087.62
602.12	14120.62
602.478	14144.57
602.836	14103.44
603.194	14075.65
603.552	14194.51
603.91	14026.83
604.268	14104.12
604.625	14022.99
604.983	14168.07
605.341	14046.72
605.698	14079.94
606.056	14138.47
606.413	14121.97
606.771	14152.71
607.128	14104.8
607.485	14016.89
607.843	14082.65
608.2	14123.78
608.557	14299.82
608.914	14127.85
609.272	14154.97
609.629	14208.07
609.986	14236.55
610.343	14204.01
610.7	14268.18
611.057	14268.41
611.414	14298.24
611.771	14293.27
612.127	14211.69
612.484	14304.57
612.841	14381.85
613.198	14277.22
613.554	14402.87
613.911	14322.19
614.267	14376.43
614.624	14364.9
614.98	14389.54
615.337	14389.08
615.693	14403.32
616.05	14399.71
616.406	14397.9
616.762	14358.58
617.118	14428.63
617.475	14416.88
617.831	14535.07
618.187	14525.58
618.543	14390.67
618.899	14547.72
619.255	14470.89
619.611	14472.25
619.967	14577.1
620.323	14597.22
620.678	14466.15
621.034	14442.64
621.39	14494.84
621.746	14513.6
622.101	14613.71
622.457	14519.48
622.812	14581.4
623.168	14568.29
623.523	14638.34
623.879	14666.59
624.234	14521.06
624.589	14535.75
624.945	14599.93
625.3	14637.89
625.655	14566.26
626.01	14566.71
626.365	14561.51
626.72	14509.53
627.075	14507.27
627.43	14540.95
627.785	14518.57
628.14	14487.61
628.495	14494.39
628.85	14568.97
629.205	14482.19
629.559	14552.02
629.914	14451.46
630.269	14411.23
630.623	14471.57
630.978	14402.64
631.332	14396.54
631.687	14436.54
632.041	14453.26
632.396	14488.29
632.75	14377.33
633.104	14421.17
633.459	14396.77
633.813	14393.6
634.167	14327.84
634.521	14301.86
634.875	14334.4
635.229	14268.86
635.583	14223.44
635.937	14249.43
636.291	14277.68
636.645	14238.13
636.999	14141.63
637.352	14178.02
637.706	14111.35
638.06	14247.85
638.413	14135.76
638.767	14049.88
639.121	14143.67
639.474	14083.1
639.828	14114.06
640.181	14083.33
640.534	14030.45
640.888	14059.83
641.241	13988.19
641.594	14006.95
641.947	13995.42
642.301	13944.12
642.654	13982.54
643.007	13933.96
643.36	13971.02
643.713	13908.87
644.066	13975.54
644.419	13957.01
644.771	13808.31
645.124	13726.5
645.477	13696.22
645.83	13540.52
646.182	13579.61
646.535	13559.95
646.888	13525.83
647.24	13447.19
647.593	13446.06
647.945	13431.82
648.298	13454.42
648.65	13404.93
649.002	13386.63
649.355	13424.82
649.707	13439.96
650.059	13496.91
650.411	13664.36
650.763	13664.36
651.115	13778.03
651.467	13728.99
651.819	13721.76
652.171	13817.12
652.523	13689.89
652.875	13671.14
653.227	13687.41
653.578	13747.75
653.93	13707.29
654.282	13684.92
654.633	13696.67
654.985	13665.26
655.337	13765.15
655.688	13748.88
656.039	13779.61
656.391	13695.09
656.742	13651.25
657.094	13730.57
657.445	13666.84
657.796	13723.57
658.147	13708.65
658.498	13657.35
658.849	13798.14
659.2	13695.54
659.551	13660.29
659.902	13805.15
660.253	13775.32
660.604	13836.11
660.955	13690.57
661.306	13770.57
661.656	13794.52
662.007	13765.37
662.358	13785.94
662.708	13759.27
663.059	13789.78
663.409	13757.24
663.76	13846.05
664.11	13760.63
664.461	13762.43
664.811	13756.33
665.161	13804.69
665.511	13756.11
665.862	13761.3
666.212	13829.78
666.562	13829.78
666.912	13749.78
667.262	13754.53
667.612	13775.32
667.962	13763.11
668.312	13754.75
668.662	13870.68
669.011	13773.06
669.361	13783.23
669.711	13718.37
670.06	13703.23
670.41	13761.08
670.76	13727.63
671.109	13764.02
671.459	13760.17
671.808	13653.74
672.157	13816.44
672.507	13577.35
672.856	13675.88
673.205	13625.94
673.554	13647.18
673.904	13598.15
674.253	13695.09
674.602	13630.23
674.951	13419.17
675.3	13449.9
675.649	13607.64
675.998	13571.93
676.346	13498.49
676.695	13652.16
677.044	13543.68
677.393	13475.89
677.741	13556.56
678.09	13469.56
678.438	13430.47
678.787	13458.49
679.135	13504.81
679.484	13392.05
679.832	13432.5
680.181	13353.63
680.529	13391.82
680.877	13342.78
681.225	13352.28
681.573	13376
681.922	13376.46
682.27	13175.56
682.618	13238.61
682.966	13151.15
683.314	13262.56
683.661	13176.24
684.009	13099.63
684.357	13089.68
684.705	13032.74
685.053	13175.78
685.4	13091.04
685.748	12954.77
686.095	12987.54
686.443	12897.82
686.79	12980.53
687.138	12952.51
687.485	12948.67
687.832	12882.68
688.18	12884.49
688.527	12749.81
688.874	12782.12
689.221	12755
689.568	12672.97
689.915	12711.16
690.262	12679.53
690.609	12576.7
690.956	12596.14
691.303	12501.45
691.65	12479.3
691.997	12455.58
692.344	12395.92
692.69	12334.9
693.037	12342.36
693.383	12229.14
693.73	12296.48
694.077	12235.47
694.423	12104.63
694.769	12115.7
695.116	12100.33
695.462	12031.18
695.808	12018.53
696.155	12103.72
696.501	11936.72
696.847	11912.77
697.193	11791.41
697.539	11827.57
697.885	11717.74
698.231	11697.86
698.577	11680.46
698.923	11720
699.269	11614.47
699.614	11524.75
699.96	11570.63
700.306	11591.87
700.651	11475.72
700.997	11404.98
701.342	11428.94
701.688	11331.09
702.033	11176.97
702.379	11279.79
702.724	11216.51
703.069	11246.12
703.415	11203.86
703.76	11085.22
704.105	11139.23
704.45	11080.47
704.795	10999.12
705.14	10964.09
705.485	10913.02
705.83	10886.13
706.175	10879.12
706.52	10883.41
706.865	10796.41
707.209	10807.26
707.554	10769.29
707.899	10765.45
708.243	10666.7
708.588	10668.96
708.932	10598
709.277	10588.73
709.621	10502.18
709.966	10539.47
710.31	10625.12
710.654	10465.8
710.998	10468.51
711.342	10488.62
711.687	10447.49
712.031	10369.98
712.375	10348.06
712.719	10320.49
713.063	10334.5
713.407	10313.94
713.75	10321.62
714.094	10337.67
714.438	10244.56
714.782	10271
715.125	10207.5
715.469	10206.6
715.812	10151.23
716.156	10112.36
716.499	10134.28
716.843	10211.57
717.186	10101.51
717.53	10136.54
717.873	10123.43
718.216	10019.03
718.559	10000.27
718.902	9982.65
719.246	10026.71
719.589	9924.8
719.932	9934.29
720.275	9922.08
720.617	9955.3
720.96	9919.15
721.303	9885.7
721.646	9923.89
721.989	9847.28
722.331	9892.25
722.674	9870.11
723.016	9848.41
723.359	9842.99
723.701	9836.89
724.044	9808.64
724.386	9723.44
724.729	9757.12
725.071	9827.17
725.413	9739.04
725.755	9730.68
726.097	9725.25
726.439	9751.01
726.782	9709.66
727.124	9817.23
727.465	9670.79
727.807	9748.3
728.149	9637.12
728.491	9653.39
728.833	9720.28
729.175	9581.08
729.516	9627.4
729.858	9630.34
730.199	9710.56
730.541	9622.2
730.882	9555.09
731.224	9600.51
731.565	9600.74
731.906	9658.36
732.248	9640.28
732.589	9587.63
732.93	9558.03
733.271	9582.43
733.612	9588.76
733.953	9708.53
734.294	9556.67
734.635	9571.58
734.976	9626.27
735.317	9583.79
735.658	9610.45
735.999	9578.82
736.339	9628.76
736.68	9638.7
737.021	9567.06
737.361	9548.31
737.702	9600.96
738.042	9599.61
738.383	9619.04
738.723	9600.06
739.063	9648.42
739.404	9690
739.744	9694.29
740.084	9674.41
740.424	9697.91
740.764	9639.61
741.104	9720.73
741.444	9722.31
741.784	9631.02
742.124	9692.49
742.464	9778.36
742.804	9760.73
743.143	9799.15
743.483	9815.42
743.823	9814.29
744.162	9816.1
744.502	9863.33
744.841	9894.97
745.181	9941.74
745.52	9988.97
745.86	9939.03
746.199	10025.13
746.538	10087.96
746.877	10093.83
747.216	10185.81
747.556	10223.32
747.895	10240.49
748.234	10322.53
748.573	10304.67
748.911	10384.44
749.25	10456.31
749.589	10456.53
749.928	10561.61
750.267	10597.32
750.605	10685.45
750.944	10859.91
751.283	10899.91
751.621	10993.47
751.96	11045.67
752.298	11095.16
752.636	11229.17
752.975	11211.54
753.313	11346.91
753.651	11578.31
753.989	11588.93
754.327	11713.9
754.666	11863.5
755.004	11955.25
755.342	12039.77
755.679	12143.27
756.017	12306.2
756.355	12545.97
756.693	12628.91
757.031	12734.21
757.368	12812.86
757.706	13007.65
758.044	13198.16
