Data from hue_150_FLMS001491_00080.txt Node
Date: Tue Feb 07 16:54:31 GMT 2017
User: dcchb
Spectrometer: FLMS00149
Trigger mode: 0
Integration Time (sec): 2.000000E-2
Scans to average: 10
Electric dark correction enabled: true
Nonlinearity correction enabled: false
Boxcar width: 0
XAxis mode: Wavelengths
Number of Pixels in Spectrum: 2048
>>>>>Begin Spectral Data<<<<<
341.393	-12.71
341.776	-12.71
342.16	-12.71
342.543	-53.84
342.927	-64.69
343.31	-74.86
343.693	-95.2
344.077	-59.72
344.46	-43.22
344.843	-49.09
345.226	-25.82
345.61	-39.15
345.993	-21.52
346.376	10.56
346.759	-5.25
347.142	31.36
347.525	55.76
347.908	68.42
348.291	79.49
348.674	77.68
349.057	90.56
349.44	126.49
349.823	158.36
350.206	159.04
350.588	213.05
350.971	223.21
351.354	222.99
351.737	240.62
352.119	260.5
352.502	250.78
352.884	268.41
353.267	274.29
353.65	293.72
354.032	293.72
354.414	295.08
354.797	292.14
355.179	308.18
355.562	319.48
355.944	334.4
356.326	328.07
356.709	350.89
357.091	338.69
357.473	347.96
357.855	351.57
358.238	341.4
358.62	338.24
359.002	328.75
359.384	349.54
359.766	327.84
360.148	339.82
360.53	343.66
360.912	328.75
361.294	337.34
361.676	331.91
362.057	337.11
362.439	336.66
362.821	322.65
363.203	321.52
363.584	326.26
363.966	316.77
364.348	314.29
364.729	316.77
365.111	338.69
365.493	317
365.874	319.48
366.256	320.16
366.637	320.39
367.019	309.77
367.4	314.74
367.781	313.16
368.163	319.03
368.544	326.04
368.925	292.82
369.306	318.58
369.688	332.36
370.069	317.22
370.45	314.29
370.831	298.47
371.212	331.01
371.593	303.89
371.974	324.91
372.355	289.2
372.736	321.29
373.117	314.96
373.498	312.03
373.879	313.61
374.26	320.39
374.641	286.04
375.021	316.09
375.402	310.22
375.783	338.47
376.163	348.86
376.544	307.05
376.925	318.58
377.305	315.42
377.686	313.16
378.066	343.44
378.447	314.06
378.827	331.01
379.208	329.88
379.588	307.96
379.968	326.26
380.349	332.82
380.729	347.28
381.109	339.14
381.489	347.5
381.87	328.75
382.25	349.76
382.63	345.7
383.01	349.09
383.39	345.47
383.77	353.61
384.15	342.08
384.53	345.47
384.91	349.76
385.29	353.38
385.67	356.09
386.049	366.26
386.429	367.84
386.809	356.54
387.189	354.51
387.568	344.79
387.948	369.88
388.328	374.4
388.707	375.75
389.087	368.75
389.466	355.41
389.846	362.19
390.225	365.58
390.605	354.51
390.984	348.86
391.363	360.61
391.743	372.14
392.122	368.52
392.501	383.44
392.881	382.76
393.26	354.51
393.639	379.59
394.018	390.22
394.397	378.46
394.776	370.1
395.155	375.98
395.534	415.3
395.913	402.19
396.292	403.77
396.671	399.93
397.05	395.19
397.429	389.31
397.808	385.02
398.186	392.7
398.565	396.77
398.944	385.92
399.323	377.11
399.701	411.23
400.08	387.28
400.458	405.58
400.837	399.71
401.215	407.84
401.594	414.4
401.972	406.49
402.351	396.09
402.729	410.78
403.107	425.24
403.486	411.46
403.864	425.47
404.242	403.55
404.62	414.62
404.999	422.53
405.377	426.37
405.755	436.54
406.133	444.23
406.511	434.96
406.889	439.48
407.267	458.24
407.645	428.18
408.023	441.06
408.401	441.51
408.779	432.47
409.156	468.86
409.534	448.07
409.912	461.17
410.29	471.34
410.667	463.66
411.045	463.21
411.422	479.7
411.8	452.36
412.178	453.94
412.555	486.71
412.933	488.07
413.31	488.74
413.687	471.12
414.065	472.47
414.442	503.89
414.819	496.2
415.197	492.36
415.574	505.24
415.951	507.5
416.328	496.88
416.705	495.75
417.082	509.99
417.46	509.99
417.837	533.49
418.214	538.01
418.591	538.91
418.967	516.31
419.344	523.55
419.721	528.52
420.098	528.74
420.475	536.2
420.852	551.12
421.228	539.14
421.605	561.28
421.982	549.31
422.358	575.52
422.735	557.89
423.111	566.48
423.488	557.22
423.864	564.9
424.241	587.05
424.617	611
424.994	595.18
425.37	571.45
425.746	570.32
426.123	601.74
426.499	573.04
426.875	599.25
427.251	643.54
427.627	592.92
428.003	616.88
428.379	631.11
428.756	622.3
429.132	661.62
429.507	644.9
429.883	655.52
430.259	655.75
430.635	644.22
431.011	669.98
431.387	681.51
431.763	683.54
432.138	688.51
432.514	693.03
432.89	681.96
433.265	681.06
433.641	705.69
434.016	711.79
434.392	721.05
434.767	727.83
435.143	719.92
435.518	732.81
435.894	749.3
436.269	769.64
436.644	740.94
437.02	765.57
437.395	748.85
437.77	756.31
438.145	789.75
438.52	803.99
438.895	793.82
439.271	798.57
439.646	783.65
440.021	800.83
440.395	791.34
440.77	805.57
441.145	822.29
441.52	825.46
441.895	835.18
442.27	850.99
442.645	842.18
443.019	896.64
443.394	865.46
443.769	877.21
444.143	864.33
444.518	899.35
444.892	887.6
445.267	892.58
445.641	884.89
446.016	894.38
446.39	897.32
446.764	921.5
447.139	902.97
447.513	923.08
447.887	936.42
448.262	948.85
448.636	951.33
449.01	933.03
449.384	948.85
449.758	961.95
450.132	963.31
450.506	958.79
450.88	997.88
451.254	984.32
451.628	1001.95
452.002	1009.86
452.376	1000.37
452.75	1004.21
453.123	1032.23
453.497	1040.14
453.871	1018.67
454.244	1070.65
454.618	1046.92
454.992	1084.21
455.365	1095.51
455.739	1117.65
456.112	1125.34
456.486	1124.66
456.859	1133.7
457.232	1144.55
457.606	1146.58
457.979	1169.86
458.352	1180.03
458.725	1247.82
459.099	1210.53
459.472	1235.39
459.845	1210.53
460.218	1261.61
460.591	1276.52
460.964	1309.29
461.337	1293.24
461.71	1340.93
462.083	1359
462.456	1349.96
462.829	1344.99
463.201	1376.18
463.574	1379.79
463.947	1437.87
464.32	1420.02
464.692	1460.02
465.065	1497.98
465.438	1511.09
465.81	1505.21
466.183	1529.39
466.555	1588.83
466.928	1589.96
467.3	1581.82
467.672	1615.04
468.045	1659.33
468.417	1690.29
468.789	1724.19
469.161	1743.4
469.534	1729.16
469.906	1789.95
470.278	1817.75
470.65	1869.5
471.022	1907.69
471.394	1930.74
471.766	1984.52
472.138	1997.41
472.51	2063.62
472.882	2088.25
473.253	2093.9
473.625	2147.01
473.997	2202.82
474.369	2232.43
474.74	2298.19
475.112	2369.82
475.484	2349.26
475.855	2462.25
476.227	2479.65
476.598	2545.87
476.97	2628.35
477.341	2656.6
477.713	2773.66
478.084	2805.97
478.455	2896.36
478.827	2938.4
479.198	3093.87
479.569	3072.41
479.94	3227.66
480.311	3253.87
480.682	3368.89
481.053	3478.04
481.424	3558.04
481.795	3680.07
482.166	3707.64
482.537	3833.74
482.908	3941.76
483.279	4047.97
483.65	4162.77
484.021	4239.83
484.391	4327.06
484.762	4470.33
485.133	4519.82
485.503	4649.54
485.874	4759.59
486.244	4904.22
486.615	5045.46
486.985	5140.37
487.356	5239.13
487.726	5336.53
488.097	5569.97
488.467	5582.62
488.837	5787.36
489.207	5893.57
489.578	6053.57
489.948	6170.4
490.318	6316.61
490.688	6358.65
491.058	6555.25
491.428	6701.24
491.798	6836.83
492.168	6975.81
492.538	7111.39
492.908	7167.44
493.278	7340.54
493.648	7440.88
494.017	7650.82
494.387	7741.89
494.757	7884.03
495.126	7955.21
495.496	8085.61
495.866	8219.39
496.235	8371.47
496.605	8455.31
496.974	8591.13
497.344	8721.52
497.713	8811.92
498.082	8992.02
498.452	9102.53
498.821	9156.31
499.19	9233.37
499.559	9427.49
499.928	9453.71
500.298	9531.67
500.667	9698.9
501.036	9683.53
501.405	9927.37
501.774	9944.99
502.143	10082.16
502.512	10074.25
502.88	10116.51
503.249	10248.04
503.618	10356.06
503.987	10403.29
504.356	10522.15
504.724	10616.16
505.093	10665.2
505.462	10714.46
505.83	10860.67
506.199	10896.83
506.567	11051.86
506.936	11068.58
507.304	11252.08
507.672	11225.86
508.041	11319.87
508.409	11435.12
508.777	11523.93
509.145	11590.83
509.514	11570.94
509.882	11661.33
510.25	11628.56
510.618	11747.88
510.986	11820.88
511.354	11934.54
511.722	12073.52
512.09	12051.83
512.458	11997.14
512.826	12060.87
513.193	12111.94
513.561	12186.97
513.929	12199.4
514.297	12317.59
514.664	12380.41
515.032	12355.78
515.4	12466.96
515.767	12488.65
516.135	12628.76
516.502	12555.55
516.869	12671.02
517.237	12730.68
517.604	12675.09
517.972	12785.14
518.339	12795.31
518.706	12774.97
519.073	12807.29
519.44	12838.48
519.808	12934.97
520.175	12981.3
520.542	13080.05
520.909	13056.32
521.276	13082.54
521.643	13140.39
522.009	13207.51
522.376	13225.81
522.743	13242.08
523.11	13280.5
523.477	13364.34
523.843	13465.58
524.21	13516.42
524.577	13571.11
524.943	13513.94
525.31	13553.26
525.676	13637.33
526.043	13688.4
526.409	13619.47
526.776	13731.11
527.142	13772.69
527.508	13739.92
527.874	13746.47
528.241	13703.54
528.607	13748.96
528.973	13858.34
529.339	13788.06
529.705	13950.54
530.071	13949.63
530.437	13843.65
530.803	13948.05
531.169	13893.59
531.535	13838.45
531.901	13880.48
532.267	13896.08
532.632	13940.59
532.998	13907.83
533.364	13885.45
533.73	13882.74
534.095	13903.76
534.461	13829.41
534.826	13869.18
535.192	13903.98
535.557	13948.28
535.923	13824.21
536.288	13830.54
536.653	13869.86
537.019	13794.61
537.384	13797.09
537.749	13714.84
538.114	13797.55
538.479	13667.83
538.845	13731.79
539.21	13619.92
539.575	13631
539.94	13562.3
540.305	13628.29
540.67	13535.86
541.034	13517.1
541.399	13555.97
541.764	13537.67
542.129	13534.95
542.494	13407.95
542.858	13480.27
543.223	13372.47
543.587	13336.54
543.952	13360.27
544.316	13264
544.681	13186.26
545.045	13317.33
545.41	13180.61
545.774	13233.49
546.138	13086.38
546.503	13106.04
546.867	13055.65
547.231	13101.07
547.595	13101.75
547.959	12946.04
548.324	12933.16
548.688	12899.27
549.052	12931.13
549.416	12849.32
549.779	12910.34
550.143	12876.67
550.507	12917.34
550.871	12864.69
551.235	12755.99
551.599	12824.92
551.962	12797.12
552.326	12748.99
552.689	12680.06
553.053	12613.85
553.417	12567.52
553.78	12710.34
554.143	12563.23
554.507	12611.14
554.87	12565.71
555.234	12622.66
555.597	12488.43
555.96	12468.99
556.323	12580.18
556.686	12515.77
557.05	12561.87
557.413	12603.23
557.776	12464.02
558.139	12584.7
558.502	12485.72
558.865	12491.37
559.228	12554.19
559.59	12520.97
559.953	12468.54
560.316	12564.81
560.679	12552.61
561.041	12537.69
561.404	12552.16
561.767	12615.21
562.129	12495.43
562.492	12553.06
562.854	12555.55
563.217	12529.11
563.579	12490.69
563.941	12546.51
564.304	12561.42
564.666	12598.71
565.028	12624.02
565.39	12570.91
565.753	12642.1
566.115	12612.72
566.477	12597.13
566.839	12674.64
567.201	12718.93
567.563	12716.45
567.925	12740.17
568.287	12727.52
568.648	12716.45
569.01	12694.3
569.372	12711.93
569.734	12682.77
570.095	12873.05
570.457	12758.93
570.819	12815.88
571.18	12857.68
571.542	12881.41
571.903	12829.44
572.265	12901.07
572.626	12906.27
572.987	12835.54
573.349	12802.32
573.71	12898.14
574.071	12919.83
574.432	12922.54
574.794	13001.18
575.155	12950.56
575.516	12914.41
575.877	12936.55
576.238	12969.09
576.599	12996.21
576.96	12984.69
577.32	12937.68
577.681	13035.31
578.042	12972.03
578.403	12944.69
578.763	12989.21
579.124	12976.78
579.485	12992.6
579.845	13083.44
580.206	12915.31
580.566	13003.44
580.927	12987.4
581.287	13036.66
581.648	12990.79
582.008	13031.24
582.368	12985.36
582.728	13018.81
583.089	13051.8
583.449	12955.54
583.809	12945.59
584.169	12911.69
584.529	12949.21
584.889	13066.94
585.249	12913.73
585.609	12906.04
585.969	12908.98
586.329	12860.4
586.688	12904.01
587.048	12841.87
587.408	12822.21
587.768	12854.97
588.127	12834.86
588.487	12710.57
588.846	12879.83
589.206	12795.31
589.565	12817.23
589.925	12877.35
590.284	12805.26
590.643	12894.52
591.003	12806.16
591.362	12881.41
591.721	12821.3
592.08	12864.24
592.44	12791.47
592.799	12757.35
593.158	12831.47
593.517	12775.88
593.876	12771.36
594.235	12759.38
594.593	12759.16
594.952	12799.83
595.311	12704.47
595.67	12702.66
596.029	12803.9
596.387	12772.49
596.746	12802.77
597.104	12729.78
597.463	12725.94
597.822	12812.49
598.18	12675.32
598.538	12694.3
598.897	12710.34
599.255	12583.34
599.613	12784.24
599.972	12700.85
600.33	12734.52
600.688	12647.52
601.046	12706.28
601.404	12817.01
601.762	12721.42
602.12	12731.13
602.478	12758.93
602.836	12702.89
603.194	12643.45
603.552	12665.83
603.91	12703.79
604.268	12723.9
604.625	12685.49
604.983	12670.8
605.341	12603.45
605.698	12688.2
606.056	12690.91
606.413	12645.03
606.771	12738.59
607.128	12753.73
607.485	12626.05
607.843	12574.53
608.2	12716.67
608.557	12697.24
608.914	12678.03
609.272	12823.34
609.629	12854.07
609.986	12803.22
610.343	12733.85
610.7	12788.76
611.057	12889.1
611.414	12800.96
611.771	12781.53
612.127	12960.05
612.484	12860.4
612.841	12935.2
613.198	12843.67
613.554	12892.26
613.911	12883.9
614.267	12991.24
614.624	12890.23
614.98	12878.25
615.337	12946.5
615.693	12967.74
616.05	12941.07
616.406	13024.01
616.762	13025.59
617.118	13019.71
617.475	12947.4
617.831	13030.11
618.187	13043.22
618.543	13094.06
618.899	13132.25
619.255	13060.17
619.611	13050
619.967	13140.84
620.323	13148.3
620.678	13141.29
621.034	13078.7
621.39	13015.42
621.746	13031.69
622.101	13175.42
622.457	13081.41
622.812	13046.61
623.168	13114.63
623.523	13138.36
623.879	13074.4
624.234	13046.15
624.589	13040.5
624.945	13109.2
625.3	13015.87
625.655	13002.54
626.01	13051.8
626.365	13089.09
626.72	13111.01
627.075	13059.71
627.43	13088.64
627.785	13006.61
628.14	13017.91
628.495	13115.53
628.85	13082.31
629.205	12949.21
629.559	13029.88
629.914	13000.73
630.269	13032.37
630.623	13017
630.978	12978.81
631.332	12978.59
631.687	13047.06
632.041	12983.33
632.396	13000.51
632.75	12916.21
633.104	13020.17
633.459	12874.18
633.813	12830.79
634.167	12889.55
634.521	12839.38
634.875	12854.07
635.229	12787.4
635.583	12867.85
635.937	12752.83
636.291	12779.49
636.645	12837.8
636.999	12798.7
637.352	12737.91
637.706	12707.18
638.06	12800.06
638.413	12629.89
638.767	12629.89
639.121	12590.35
639.474	12640.74
639.828	12655.88
640.181	12653.85
640.534	12592.38
640.888	12592.38
641.241	12513.29
641.594	12522.55
641.947	12617.01
642.301	12529.33
642.654	12549.44
643.007	12470.12
643.36	12506.73
643.713	12483.68
644.066	12591.93
644.419	12440.97
644.771	12384.02
645.124	12383.35
645.477	12249.11
645.83	12199.85
646.182	12136.57
646.535	12090.02
646.888	12100.87
647.24	12063.36
647.593	12155.33
647.945	12075.33
648.298	12011.83
648.65	12012.51
649.002	11996.92
649.355	12070.81
649.707	12088.44
650.059	12180.64
650.411	12285.5
650.763	12246.4
651.115	12431.26
651.467	12379.05
651.819	12342.44
652.171	12284.14
652.523	12424.25
652.875	12313.07
653.227	12298.15
653.578	12374.53
653.93	12405.04
654.282	12319.62
654.633	12302.9
654.985	12327.3
655.337	12330.24
655.688	12397.13
656.039	12332.27
656.391	12259.51
656.742	12306.74
657.094	12336.12
657.445	12348.09
657.796	12278.72
658.147	12326.85
658.498	12305.38
658.849	12254.31
659.2	12318.26
659.551	12299.06
659.902	12338.38
660.253	12299.28
660.604	12381.54
660.955	12316.91
661.306	12380.63
661.656	12397.13
662.007	12377.7
662.358	12387.64
662.708	12355.78
663.059	12331.6
663.409	12331.6
663.76	12387.41
664.11	12472.16
664.461	12344.48
664.811	12356.45
665.161	12412.27
665.511	12347.19
665.862	12364.59
666.212	12355.1
666.562	12376.12
666.912	12336.34
667.262	12353.07
667.612	12343.12
667.962	12443.01
668.312	12304.93
668.662	12458.6
669.011	12318.26
669.361	12418.37
669.711	12418.37
670.06	12359.17
670.41	12369.11
670.76	12258.15
671.109	12386.06
671.459	12353.07
671.808	12283.91
672.157	12362.78
672.507	12291.37
672.856	12234.42
673.205	12346.74
673.554	12333.18
673.904	12177.48
674.253	12243.69
674.602	12264.71
674.951	12089.34
675.3	11988.33
675.649	12228.32
675.998	12159.85
676.346	12133.64
676.695	12211.6
677.044	12046.63
677.393	12243.69
677.741	12163.01
678.09	12100.87
678.438	12148.55
678.787	12103.81
679.135	12042.79
679.484	12061.55
679.832	12100.64
680.181	11989.01
680.529	12036.01
680.877	11881.44
681.225	11927.09
681.573	11976.58
681.922	11902.91
682.27	11894.09
682.618	11861.33
682.966	11785.4
683.314	11814.55
683.661	11670.6
684.009	11789.69
684.357	11695.91
684.705	11722.8
685.053	11682.12
685.4	11694.33
685.748	11582.46
686.095	11662.69
686.443	11615.46
686.79	11533.43
687.138	11607.55
687.485	11567.1
687.832	11466.31
688.18	11556.48
688.527	11481.22
688.874	11484.84
689.221	11344.5
689.568	11361.68
689.915	11383.15
690.262	11290.04
690.609	11276.48
690.956	11280.1
691.303	11267.44
691.65	11163.72
691.997	11222.02
692.344	11104.96
692.69	11094.79
693.037	10999.2
693.383	10939.09
693.73	10978.19
694.077	10892.99
694.423	10909.71
694.769	10888.24
695.116	10824.07
695.462	10848.7
695.808	10825.87
696.155	10868.81
696.501	10741.36
696.847	10744.07
697.193	10635.37
697.539	10657.74
697.885	10508.37
698.231	10532.77
698.577	10502.72
698.923	10546.56
699.269	10377.3
699.614	10407.13
699.96	10300.01
700.306	10336.17
700.651	10288.49
700.997	10179.56
701.342	10219.79
701.688	10180.47
702.033	10075.16
702.379	10142.5
702.724	10037.42
703.069	10063.41
703.415	9961.26
703.76	9930.53
704.105	10007.59
704.45	9941.83
704.795	9844.43
705.14	9873.58
705.485	9789.29
705.83	9817.54
706.175	9771.89
706.52	9794.26
706.865	9754.26
707.209	9648.73
707.554	9566.47
707.899	9674.27
708.243	9636.07
708.588	9547.04
708.932	9500.94
709.277	9507.04
709.621	9539.13
709.966	9413.93
710.31	9437.21
710.654	9369.64
710.998	9381.39
711.342	9362.64
711.687	9311.56
712.031	9331.22
712.375	9248.29
712.719	9315.18
713.063	9225.24
713.407	9296.2
713.75	9197.44
714.094	9194.73
714.438	9101.17
714.782	9155.18
715.125	9146.82
715.469	9116.99
715.812	9103.43
716.156	9041.97
716.499	9079.7
716.843	9027.73
717.186	8982.53
717.53	9088.29
717.873	9044
718.216	9056.88
718.559	9018.92
718.902	8907.28
719.246	8978.92
719.589	8954.28
719.932	8913.61
720.275	8925.81
720.617	8869.54
720.96	8881.07
721.303	8865.93
721.646	8912.48
721.989	8863.21
722.331	8844.23
722.674	8823.21
723.016	8785.7
723.359	8862.76
723.701	8839.49
724.044	8841.97
724.386	8742.54
724.729	8795.42
725.071	8793.38
725.413	8748.19
725.755	8768.75
726.097	8752.48
726.439	8746.61
726.782	8677.91
727.124	8768.07
727.465	8719.71
727.807	8652.6
728.149	8672.03
728.491	8704.35
728.833	8654.86
729.175	8637.91
729.516	8679.72
729.858	8630.23
730.199	8676.1
730.541	8656.67
730.882	8649.21
731.224	8657.79
731.565	8572.6
731.906	8620.73
732.248	8576.67
732.589	8559.04
732.93	8570.34
733.271	8515.43
733.612	8547.29
733.953	8641.3
734.294	8608.98
734.635	8562.66
734.976	8559.49
735.317	8541.64
735.658	8599.72
735.999	8597.68
736.339	8596.33
736.68	8613.28
737.021	8628.64
737.361	8560.4
737.702	8587.51
738.042	8603.56
738.383	8558.81
738.723	8635.42
739.063	8577.8
739.404	8637.91
739.744	8646.27
740.084	8592.26
740.424	8621.86
740.764	8592.94
741.104	8666.83
741.444	8659.6
741.784	8709.32
742.124	8721.97
742.464	8733.73
742.804	8741.86
743.143	8767.62
743.483	8795.42
743.823	8766.27
744.162	8816.89
744.502	8871.8
744.841	8850.11
745.181	8872.93
745.52	8885.81
745.86	8893.04
746.199	8910.44
746.538	8971.46
746.877	9051.91
747.216	9111.12
747.556	9123.77
747.895	9135.3
748.234	9205.13
748.573	9230.44
748.911	9236.08
749.25	9385.23
749.589	9380.49
749.928	9438.79
750.267	9481.73
750.605	9609.18
750.944	9621.61
751.283	9681.04
751.621	9774.6
751.96	9842.4
752.298	9931.21
752.636	10095.5
752.975	10182.27
753.313	10240.58
753.651	10324.64
753.989	10420.23
754.327	10439.67
754.666	10593.56
755.004	10784.29
755.342	10841.01
755.679	10932.09
756.017	11053.21
756.355	11182.93
756.693	11297.95
757.031	11487.1
757.368	11518.96
757.706	11718.73
758.044	11874.43
758.381	11978.61
758.719	12165.95
