Data from hue_170_FLMS001491_00018.txt Node
Date: Tue Feb 07 16:48:20 GMT 2017
User: dcchb
Spectrometer: FLMS00149
Trigger mode: 0
Integration Time (sec): 2.000000E-2
Scans to average: 10
Electric dark correction enabled: true
Nonlinearity correction enabled: false
Boxcar width: 0
XAxis mode: Wavelengths
Number of Pixels in Spectrum: 2048
>>>>>Begin Spectral Data<<<<<
341.393	-32.74
341.776	-32.74
342.16	-32.74
342.543	-58.28
342.927	-75.9
343.31	-56.47
343.693	-86.52
344.077	-59.63
344.46	-69.35
344.843	-42.91
345.226	-36.58
345.61	-22.12
345.993	-30.25
346.376	-7.43
346.759	1.38
347.142	27.6
347.525	33.7
347.908	51.55
348.291	61.27
348.674	113.25
349.057	122.51
349.44	134.26
349.823	151.66
350.206	152.79
350.588	180.59
350.971	188.27
351.354	216.52
351.737	232.79
352.119	255.16
352.502	259.91
352.884	275.05
353.267	282.28
353.65	277.99
354.032	304.88
354.414	292.9
354.797	310.3
355.179	316.86
355.562	315.95
355.944	313.24
356.326	333.13
356.709	323.41
357.091	331.77
357.473	319.12
357.855	344.65
358.238	345.78
358.62	328.61
359.002	342.39
359.384	334.93
359.766	342.62
360.148	346.91
360.53	333.13
360.912	343.97
361.294	340.13
361.676	329.51
362.057	331.32
362.439	318.66
362.821	294.48
363.203	318.44
363.584	322.51
363.966	333.13
364.348	300.36
364.729	337.65
365.111	316.18
365.493	317.76
365.874	317.31
366.256	298.78
366.637	282.05
367.019	306.91
367.4	327.7
367.781	322.28
368.163	296.97
368.544	312.34
368.925	310.98
369.306	298.33
369.688	298.78
370.069	323.18
370.45	314.6
370.831	300.36
371.212	303.98
371.593	322.96
371.974	291.32
372.355	309.4
372.736	307.82
373.117	320.7
373.498	313.47
373.879	315.73
374.26	332.67
374.641	314.37
375.021	302.39
375.402	339.45
375.783	306.01
376.163	306.01
376.544	315.05
376.925	311.88
377.305	303.75
377.686	315.5
378.066	320.47
378.447	328.61
378.827	316.86
379.208	326.57
379.588	337.87
379.968	330.19
380.349	339
380.729	326.8
381.109	353.69
381.489	334.93
381.87	331.77
382.25	320.25
382.63	339.68
383.01	332.67
383.39	346.46
383.77	345.33
384.15	344.2
384.53	357.08
384.91	329.96
385.29	340.36
385.67	329.06
386.049	350.75
386.429	346.23
386.809	334.03
387.189	349.4
387.568	351.43
387.948	364.54
388.328	354.6
388.707	339.23
389.087	352.34
389.466	352.56
389.846	365.67
390.225	370.64
390.605	379.23
390.984	366.8
391.363	377.42
391.743	373.35
392.122	375.39
392.501	374.48
392.881	374.48
393.26	364.31
393.639	394.82
394.018	365.22
394.397	374.26
394.776	384.65
395.155	373.8
395.534	377.87
395.913	365.89
396.292	390.75
396.671	396.63
397.05	405.89
397.429	400.02
397.808	373.13
398.186	388.04
398.565	406.57
398.944	401.83
399.323	394.82
399.701	404.54
400.08	396.85
400.458	399.11
400.837	416.97
401.215	410.64
401.594	405.22
401.972	429.4
402.351	406.57
402.729	407.7
403.107	435.5
403.486	417.19
403.864	422.62
404.242	417.87
404.62	442.28
404.999	434.14
405.377	421.03
405.755	437.76
406.133	435.27
406.511	440.92
406.889	458.55
407.267	444.99
407.645	445.67
408.023	448.15
408.401	475.5
408.779	480.69
409.156	475.27
409.534	487.93
409.912	477.08
410.29	493.35
410.667	455.61
411.045	498.77
411.422	484.76
411.8	500.58
412.178	514.82
412.555	507.13
412.933	511.88
413.31	521.82
413.687	525.66
414.065	531.09
414.442	543.97
414.819	529.73
415.197	546.45
415.574	562.05
415.951	574.25
416.328	557.3
416.705	573.8
417.082	543.06
417.46	561.82
417.837	581.03
418.214	565.89
418.591	571.31
418.967	587.81
419.344	597.53
419.721	621.03
420.098	611.76
420.475	615.38
420.852	636.62
421.228	638.66
421.605	609.96
421.982	641.37
422.358	656.51
422.735	660.8
423.111	683.4
423.488	686.56
423.864	681.14
424.241	686.79
424.617	708.71
424.994	688.82
425.37	710.52
425.746	721.82
426.123	712.33
426.499	717.52
426.875	732.66
427.251	745.32
427.627	740.8
428.003	759.78
428.379	767.92
428.756	774.47
429.132	778.09
429.507	804.3
429.883	776.96
430.259	807.01
430.635	811.53
431.011	814.24
431.387	851.08
431.763	822.83
432.138	832.1
432.514	869.84
432.89	856.05
433.265	867.35
433.641	891.98
434.016	897.18
434.392	898.08
434.767	918.65
435.143	958.65
435.518	956.84
435.894	952.55
436.269	972.21
436.644	983.05
437.02	992.32
437.395	987.8
437.77	999.1
438.145	1039.32
438.52	1038.19
438.895	1038.19
439.271	1069.15
439.646	1095.82
440.021	1055.82
440.395	1108.02
440.77	1085.88
441.145	1086.33
441.52	1120.9
441.895	1100.56
442.27	1146.66
442.645	1158.87
443.019	1141.69
443.394	1194.57
443.769	1196.83
444.143	1176.49
444.518	1186.44
444.892	1206.32
445.267	1218.53
445.641	1230.5
446.016	1213.33
446.39	1238.41
446.764	1256.72
447.139	1259.88
447.513	1274.57
447.887	1256.72
448.262	1294.46
448.636	1282.25
449.01	1321.58
449.384	1333.55
449.758	1295.59
450.132	1315.93
450.506	1366.09
450.88	1374.91
451.254	1367.22
451.628	1379.88
452.002	1392.53
452.376	1416.49
452.75	1427.79
453.123	1429.6
453.497	1441.35
453.871	1475.02
454.244	1515.24
454.618	1509.59
454.992	1540.33
455.365	1535.81
455.739	1578.74
456.112	1604.51
456.486	1594.79
456.859	1632.08
457.232	1639.53
457.606	1633.66
457.979	1683.37
458.352	1729.93
458.725	1743.71
459.099	1729.47
459.472	1778.29
459.845	1770.15
460.218	1803.37
460.591	1836.36
460.964	1823.71
461.337	1875.23
461.71	1902.35
462.083	1908.9
462.456	1955.91
462.829	1943.93
463.201	2005.17
463.574	2012.4
463.947	2035.68
464.32	2119.29
464.692	2098.28
465.065	2109.8
465.438	2147.99
465.81	2202
466.183	2249.69
466.555	2260.31
466.928	2319.74
467.3	2285.62
467.672	2364.71
468.045	2416.01
468.417	2436.8
468.789	2447.65
469.161	2482.45
469.534	2583.01
469.906	2616
470.278	2636.57
470.65	2704.82
471.022	2756.11
471.394	2799.95
471.766	2823.46
472.138	2907.07
472.51	2966.05
472.882	2983
473.253	3056.22
473.625	3102.09
473.997	3188.87
474.369	3209.66
474.74	3284.24
475.112	3326.72
475.484	3414.85
475.855	3464.34
476.227	3512.7
476.598	3633.61
476.97	3700.5
477.341	3806.48
477.713	3867.72
478.084	3942.75
478.455	4064.55
478.827	4146.13
479.198	4274.72
479.569	4334.15
479.94	4418.67
480.311	4530.53
480.682	4640.58
481.053	4782.28
481.424	4900.69
481.795	4944.53
482.166	4991.76
482.537	5198.31
482.908	5259.1
483.279	5419.09
483.65	5487.79
484.021	5630.84
484.391	5774.11
484.762	5847.56
485.133	5997.84
485.503	6095.24
485.874	6272.41
486.244	6334.32
486.615	6469.46
486.985	6653.41
487.356	6782.45
487.726	6866.06
488.097	7074.19
488.467	7115.32
488.837	7276.22
489.207	7385.37
489.578	7557.34
489.948	7737
490.318	7829.2
490.688	7909.65
491.058	8066.26
491.428	8228.29
491.798	8326.81
492.168	8503.08
492.538	8588.05
492.908	8789.4
493.278	8899.23
493.648	8983.07
494.017	9088.6
494.387	9192.78
494.757	9291.54
495.126	9414.47
495.496	9475.26
495.866	9674.58
496.235	9742.14
496.605	9907.79
496.974	9969.71
497.344	10108.01
497.713	10135.35
498.082	10195.69
498.452	10306.2
498.821	10391.39
499.19	10458.28
499.559	10600.43
499.928	10688.56
500.298	10795.45
500.667	10885.62
501.036	10870.48
501.405	10972.17
501.774	11093.52
502.143	11184.37
502.512	11199.96
502.88	11339.17
503.249	11345.72
503.618	11403.12
503.987	11399.73
504.356	11537.8
504.724	11671.13
505.093	11609.67
505.462	11734.18
505.83	11791.13
506.199	11856.44
506.567	12057.79
506.936	11993.61
507.304	12075.64
507.672	12188.63
508.041	12153.61
508.409	12255.53
508.777	12358.57
509.145	12388.63
509.514	12347.73
509.882	12502.75
510.25	12498.91
510.618	12504.11
510.986	12557.66
511.354	12687.15
511.722	12757.43
512.09	12862.51
512.458	12766.7
512.826	12833.14
513.193	12904.77
513.561	13005.11
513.929	13000.14
514.297	13133.24
514.664	13068.61
515.032	13172.11
515.4	13136.86
515.767	13235.61
516.135	13284.2
516.502	13088.5
516.869	13400.81
517.237	13415.72
517.604	13300.47
517.972	13379.11
518.339	13414.36
518.706	13408.94
519.073	13452.1
519.44	13411.43
519.808	13513.12
520.175	13549.28
520.542	13761.93
520.909	13615.72
521.276	13621.59
521.643	13678.99
522.009	13791.98
522.376	13706.11
522.743	13768.93
523.11	13871.53
523.477	13894.35
523.843	13987.68
524.21	14051.64
524.577	14048.47
524.943	14023.84
525.31	14040.79
525.676	14128.02
526.043	14203.95
526.409	14104.97
526.776	14236.04
527.142	14141.8
527.508	14292.76
527.874	14282.82
528.241	14291.63
528.607	14270.61
528.973	14346.32
529.339	14183.16
529.705	14390.84
530.071	14350.39
530.437	14329.14
530.803	14366.66
531.169	14344.06
531.535	14209.15
531.901	14259.99
532.267	14359.65
532.632	14219.32
532.998	14322.36
533.364	14304.74
533.73	14285.3
534.095	14388.12
534.461	14270.84
534.826	14225.19
535.192	14189.26
535.557	14332.53
535.923	14174.8
536.288	14134.12
536.653	14209.82
537.019	14076.27
537.384	14056.16
537.749	14049.83
538.114	14008.7
538.479	13976.16
538.845	14080.34
539.21	13886.67
539.575	13897.74
539.94	13931.41
540.305	13905.43
540.67	13761.7
541.034	13783.62
541.399	13797.41
541.764	13678.31
542.129	13741.36
542.494	13700.46
542.858	13598.31
543.223	13485.32
543.587	13618.43
543.952	13489.17
544.316	13413.01
544.681	13432.67
545.045	13443.29
545.41	13347.7
545.774	13329.4
546.138	13372.11
546.503	13293.69
546.867	13231.09
547.231	13244.88
547.595	13229.28
547.959	13170.98
548.324	13101.83
548.688	13087.59
549.052	13084.43
549.416	13053.24
549.779	12994.26
550.143	12980.7
550.507	12954.94
550.871	12845.34
551.235	12853.25
551.599	12878.11
551.962	12870.42
552.326	12777.55
552.689	12817.77
553.053	12696.42
553.417	12667.04
553.78	12736.19
554.143	12608.74
554.507	12632.69
554.87	12628.62
555.234	12702.29
555.597	12618.68
555.96	12617.1
556.323	12562.64
556.686	12603.76
557.05	12625.91
557.413	12490.32
557.776	12523.31
558.139	12568.96
558.502	12519.25
558.865	12419.36
559.228	12581.84
559.59	12558.34
559.953	12413.04
560.316	12512.47
560.679	12433.37
561.041	12436.31
561.404	12502.52
561.767	12544.56
562.129	12404.22
562.492	12543.43
562.854	12422.75
563.217	12392.92
563.579	12422.75
563.941	12506.14
564.304	12440.83
564.666	12477.44
565.028	12481.73
565.39	12568.74
565.753	12539.36
566.115	12539.81
566.477	12528.06
566.839	12596.76
567.201	12575.74
567.563	12513.37
567.925	12580.94
568.287	12578.45
568.648	12620.04
569.01	12606.02
569.372	12644.67
569.734	12585.46
570.095	12631.56
570.457	12667.04
570.819	12684.67
571.18	12602.63
571.542	12607.61
571.903	12654.84
572.265	12788.39
572.626	12664.1
572.987	12757.66
573.349	12681.73
573.71	12770.77
574.071	12785.45
574.432	12665.46
574.794	12827.71
575.155	12771.44
575.516	12717.21
575.877	12712.46
576.238	12736.87
576.599	12810.99
576.96	12852.8
577.32	12822.06
577.681	12820.26
578.042	12823.87
578.403	12809.86
578.763	12743.87
579.124	12840.82
579.485	12837.88
579.845	12825.45
580.206	12810.09
580.566	12876.98
580.927	12803.08
581.287	12830.88
581.648	12837.66
582.008	12766.47
582.368	12750.88
582.728	12749.52
583.089	12778
583.449	12821.61
583.809	12671.79
584.169	12787.71
584.529	12648.51
584.889	12830.2
585.249	12690.54
585.609	12644.44
585.969	12722.86
586.329	12759.47
586.688	12669.53
587.048	12680.6
587.408	12579.58
587.768	12662.07
588.127	12632.92
588.487	12565.8
588.846	12637.66
589.206	12549.3
589.565	12568.74
589.925	12652.35
590.284	12573.26
590.643	12604.44
591.003	12596.53
591.362	12564.9
591.721	12528.06
592.08	12545.46
592.44	12528.96
592.799	12588.4
593.158	12485.58
593.517	12509.53
593.876	12452.81
594.235	12530.55
594.593	12507.5
594.952	12482.64
595.311	12384.34
595.67	12501.17
596.029	12532.81
596.387	12521.51
596.746	12520.38
597.104	12447.61
597.463	12441.96
597.822	12493.49
598.18	12375.75
598.538	12396.99
598.897	12504.78
599.255	12398.57
599.613	12497.78
599.972	12359.03
600.33	12440.61
600.688	12418.01
601.046	12500.26
601.404	12519.02
601.762	12402.87
602.12	12572.13
602.478	12558.57
602.836	12446.25
603.194	12424.33
603.552	12495.07
603.91	12431.34
604.268	12441.06
604.625	12447.84
604.983	12389.98
605.341	12424.56
605.698	12442.86
606.056	12469.76
606.413	12413.04
606.771	12457.1
607.128	12441.06
607.485	12343.66
607.843	12441.51
608.2	12432.24
608.557	12531.45
608.914	12549.98
609.272	12526.93
609.629	12559.02
609.986	12588.62
610.343	12507.04
610.7	12581.39
611.057	12570.55
611.414	12567.61
611.771	12522.64
612.127	12580.49
612.484	12598.79
612.841	12687.83
613.198	12661.62
613.554	12567.38
613.911	12621.84
614.267	12637.66
614.624	12634.95
614.98	12702.75
615.337	12694.61
615.693	12669.75
616.05	12630.88
616.406	12713.59
616.762	12633.37
617.118	12735.74
617.475	12656.87
617.831	12754.27
618.187	12779.81
618.543	12696.87
618.899	12758.56
619.255	12774.38
619.611	12772.57
619.967	12756.75
620.323	12828.17
620.678	12785.45
621.034	12721.73
621.39	12779.13
621.746	12717.43
622.101	12914.04
622.457	12810.76
622.812	12760.37
623.168	12870.65
623.523	12819.58
623.879	12808.28
624.234	12761.73
624.589	12782.74
624.945	12779.81
625.3	12763.31
625.655	12756.53
626.01	12842.4
626.365	12734.83
626.72	12723.54
627.075	12770.31
627.43	12816.64
627.785	12750.88
628.14	12814.15
628.495	12759.69
628.85	12805.34
629.205	12775.51
629.559	12773.25
629.914	12681.05
630.269	12703.88
630.623	12632.01
630.978	12696.64
631.332	12740.26
631.687	12700.26
632.041	12635.63
632.396	12697.77
632.75	12624.78
633.104	12632.24
633.459	12533.48
633.813	12553.6
634.167	12497.78
634.521	12553.37
634.875	12550.88
635.229	12471.56
635.583	12457.78
635.937	12494.61
636.291	12407.39
636.645	12443.77
636.999	12449.19
637.352	12557.44
637.706	12393.37
638.06	12446.93
638.413	12368.74
638.767	12386.82
639.121	12416.2
639.474	12450.77
639.828	12329.65
640.181	12400.61
640.534	12329.2
640.888	12239.48
641.241	12202.87
641.594	12269.31
641.947	12202.87
642.301	12241.97
642.654	12298.91
643.007	12261.85
643.36	12278.35
643.713	12218.69
644.066	12271.8
644.419	12086.49
644.771	12137.79
645.124	12018.7
645.477	11957.45
645.83	11892.6
646.182	11885.59
646.535	11887.85
646.888	11950.45
647.24	11755.43
647.593	11837.23
647.945	11794.75
648.298	11744.8
648.65	11780.28
649.002	11720.17
649.355	11813.73
649.707	11782.32
650.059	11807.85
650.411	11976.89
650.763	11970.11
651.115	12088.98
651.467	12122.87
651.819	11983.89
652.171	12043.78
652.523	11978.02
652.875	12045.36
653.227	11971.46
653.578	12091.69
653.93	12077.68
654.282	12022.31
654.633	11973.5
654.985	11976.21
655.337	12080.61
655.688	12008.98
656.039	12080.84
656.391	12058.02
656.742	11999.71
657.094	12016.21
657.445	12124.68
657.796	12039.03
658.147	12116.77
658.498	12002.65
658.849	12094.17
659.2	12081.97
659.551	12058.24
659.902	12109.99
660.253	12094.4
660.604	12126.26
660.955	12071.12
661.306	12169.43
661.656	12140.05
662.007	12071.35
662.358	12118.81
662.708	12147.28
663.059	12138.47
663.409	12137.34
663.76	12151.8
664.11	12124.91
664.461	12149.99
664.811	12173.27
665.161	12168.07
665.511	12090.56
665.862	12077.68
666.212	12134.4
666.562	12212.59
666.912	12171.91
667.262	12152.48
667.612	12132.59
667.962	12194.28
668.312	12130.56
668.662	12229.31
669.011	12147.51
669.361	12107.96
669.711	12108.41
670.06	12109.09
670.41	12137.56
670.76	12037.9
671.109	12123.1
671.459	12072.03
671.808	12130.78
672.157	12056.66
672.507	12022.54
672.856	12035.64
673.205	12051.01
673.554	12077.22
673.904	12025.25
674.253	12029.09
674.602	12038.81
674.951	11833.84
675.3	11855.08
675.649	11983.67
675.998	12001.29
676.346	11941.86
676.695	11990
677.044	11897.57
677.393	11977.79
677.741	11954.97
678.09	11911.81
678.438	11921.52
678.787	11938.25
679.135	11905.25
679.484	11745.93
679.832	11812.15
680.181	11765.37
680.529	11813.73
680.877	11734.63
681.225	11686.95
681.573	11720.4
681.922	11673.62
682.27	11650.34
682.618	11628.88
682.966	11662.09
683.314	11675.65
683.661	11581.87
684.009	11528.31
684.357	11568.09
684.705	11478.37
685.053	11485.6
685.4	11520.86
685.748	11429.56
686.095	11433.63
686.443	11345.27
686.79	11375.32
687.138	11335.1
687.485	11372.84
687.832	11228.43
688.18	11299.62
688.527	11160.19
688.874	11292.61
689.221	11204.48
689.568	11122.9
689.915	11205.16
690.262	11147.53
690.609	11143.92
690.956	10975.56
691.303	10983.69
691.65	10938.5
691.997	10988.21
692.344	10850.36
692.69	10850.59
693.037	10839.29
693.383	10726.07
693.73	10764.04
694.077	10692.85
694.423	10659.18
694.769	10636.58
695.116	10613.53
695.462	10623.93
695.808	10549.13
696.155	10585.74
696.501	10477.94
696.847	10395.91
697.193	10323.15
697.539	10409.47
697.885	10284.96
698.231	10291.51
698.577	10249.7
698.923	10260.78
699.269	10165.86
699.614	10087.45
699.96	10143.94
700.306	10037.96
700.651	10106.2
700.997	9988.01
701.342	9976.49
701.688	9947.34
702.033	9915.25
702.379	9910.28
702.724	9825.08
703.069	9856.94
703.415	9735.59
703.76	9804.29
704.105	9783.73
704.45	9688.36
704.795	9661.7
705.14	9593.67
705.485	9553.45
705.83	9512.09
706.175	9550.29
706.52	9513.68
706.865	9422.61
707.209	9483.17
707.554	9378.09
707.899	9378.76
708.243	9331.08
708.588	9321.82
708.932	9358.43
709.277	9258.32
709.621	9260.8
709.966	9216.28
710.31	9232.1
710.654	9064.2
710.998	9146.68
711.342	9158.21
711.687	9116.62
712.031	9031.43
712.375	8996.18
712.719	9074.37
713.063	9007.93
713.407	8987.36
713.75	8975.16
714.094	8974.26
714.438	8982.84
714.782	9035.95
715.125	8958.89
715.469	8970.64
715.812	8928.38
716.156	8784.66
716.499	8824.65
716.843	8799.34
717.186	8785.79
717.53	8860.59
717.873	8800.7
718.216	8786.24
718.559	8764.09
718.902	8692.91
719.246	8700.36
719.589	8717.99
719.932	8699.69
720.275	8624.66
720.617	8671.89
720.96	8669.4
721.303	8654.49
721.646	8683.42
721.989	8623.53
722.331	8605.23
722.674	8598.22
723.016	8583.31
723.359	8642.96
723.701	8582.18
724.044	8576.53
724.386	8500.82
724.729	8555.51
725.071	8534.27
725.413	8554.83
725.755	8542.18
726.097	8461.05
726.439	8411.78
726.782	8496.98
727.124	8510.09
727.465	8485.68
727.807	8469.64
728.149	8434.61
728.491	8396.19
728.833	8449.52
729.175	8403.2
729.516	8428.06
729.858	8398.45
730.199	8406.81
730.541	8399.36
730.882	8416.76
731.224	8403.65
731.565	8304.89
731.906	8376.53
732.248	8418.79
732.589	8348.06
732.93	8352.13
733.271	8436.64
733.612	8391.22
733.953	8439.35
734.294	8389.86
734.635	8347.61
734.976	8372.92
735.317	8419.47
735.658	8383.54
735.999	8419.24
736.339	8407.72
736.68	8468.28
737.021	8433.93
737.361	8428.73
737.702	8436.42
738.042	8424.89
738.383	8455.63
738.723	8484.78
739.063	8470.31
739.404	8540.37
739.744	8455.17
740.084	8451.11
740.424	8466.7
740.764	8505.79
741.104	8538.79
741.444	8550.31
741.784	8540.14
742.124	8538.79
742.464	8532.23
742.804	8581.72
743.143	8581.72
743.483	8644.55
743.823	8705.34
744.162	8598.45
744.502	8803.64
744.841	8753.92
745.181	8786.92
745.52	8733.36
745.86	8805.45
746.199	8819.68
746.538	8895.39
746.877	8968.61
747.216	8937.42
747.556	9043.18
747.895	9118.88
748.234	9099
748.573	9180.35
748.911	9220.12
749.25	9312.78
749.589	9357.07
749.928	9408.59
750.267	9535.14
750.605	9515.71
750.944	9574.69
751.283	9647.46
751.621	9792.77
751.96	9791.86
752.298	9982.36
752.636	10026.88
752.975	10063.72
753.313	10193.66
753.651	10380.09
753.989	10416.25
754.327	10579.19
754.666	10632.29
755.004	10784.38
755.342	10926.97
755.679	11023.24
756.017	11109.57
756.355	11342.1
756.693	11399.05
757.031	11558.59
757.368	11673.85
757.706	11879.49
758.044	11948.64
