Data from hue_150_FLMS001491_00098.txt Node
Date: Tue Feb 07 16:54:48 GMT 2017
User: dcchb
Spectrometer: FLMS00149
Trigger mode: 0
Integration Time (sec): 2.000000E-2
Scans to average: 10
Electric dark correction enabled: true
Nonlinearity correction enabled: false
Boxcar width: 0
XAxis mode: Wavelengths
Number of Pixels in Spectrum: 2048
>>>>>Begin Spectral Data<<<<<
341.393	-14.39
341.776	-14.39
342.16	-14.39
342.543	-46.26
342.927	-79.48
343.31	-69.98
343.693	-70.21
344.077	-58.91
344.46	-59.14
344.843	-42.41
345.226	-56.2
345.61	-48.74
345.993	-9.42
346.376	-12.13
346.759	-1.06
347.142	31.26
347.525	39.62
347.908	74.64
348.291	74.42
348.674	85.04
349.057	123.23
349.44	132.5
349.823	132.04
350.206	165.94
350.588	181.99
350.971	200.07
351.354	223.34
351.737	225.15
352.119	238.71
352.502	251.14
352.884	264.02
353.267	280.97
353.65	290.68
354.032	290.68
354.414	314.19
354.797	287.29
355.179	317.12
355.562	320.06
355.944	314.86
356.326	298.14
356.709	337.01
357.091	343.34
357.473	348.76
357.855	338.82
358.238	348.99
358.62	324.81
359.002	323
359.384	345.6
359.766	353.06
360.148	335.66
360.53	337.01
360.912	319.38
361.294	341.76
361.676	319.38
362.057	302.66
362.439	346.73
362.821	320.74
363.203	320.74
363.584	312.15
363.966	325.03
364.348	317.35
364.729	320.51
365.111	297.69
365.493	312.83
365.874	306.96
366.256	313.28
366.637	292.27
367.019	304.24
367.4	315.54
367.781	308.54
368.163	310.8
368.544	321.87
368.925	310.12
369.306	302.21
369.688	308.99
370.069	292.94
370.45	299.27
370.831	289.33
371.212	291.14
371.593	304.24
371.974	313.96
372.355	317.12
372.736	304.47
373.117	306.73
373.498	309.89
373.879	305.6
374.26	319.61
374.641	291.36
375.021	299.5
375.402	308.76
375.783	295.2
376.163	310.12
376.544	323.9
376.925	324.58
377.305	316.67
377.686	301.53
378.066	309.44
378.447	326.39
378.827	316.67
379.208	313.51
379.588	333.62
379.968	339.04
380.349	329.78
380.729	330.23
381.109	313.96
381.489	313.28
381.87	324.13
382.25	327.97
382.63	318.93
383.01	335.43
383.39	347.86
383.77	321.42
384.15	329.78
384.53	337.01
384.91	342.89
385.29	319.61
385.67	330.23
386.049	353.28
386.429	373.17
386.809	343.34
387.189	342.89
387.568	316.9
387.948	331.36
388.328	342.89
388.707	352.6
389.087	340.17
389.466	356.45
389.846	335.2
390.225	362.32
390.605	367.97
390.984	367.29
391.363	339.95
391.743	342.66
392.122	358.25
392.501	361.42
392.881	349.44
393.26	342.43
393.639	345.15
394.018	361.64
394.397	353.06
394.776	385.37
395.155	388.31
395.534	367.97
395.913	355.54
396.292	364.58
396.671	344.47
397.05	392.83
397.429	351.02
397.808	356.67
398.186	404.35
398.565	376.56
398.944	361.87
399.323	360.74
399.701	370.91
400.08	371.59
400.458	383.34
400.837	366.84
401.215	363.45
401.594	379.72
401.972	374.3
402.351	390.12
402.729	426.5
403.107	378.37
403.486	403.68
403.864	382.89
404.242	383.34
404.62	400.29
404.999	405.48
405.377	392.15
405.755	399.61
406.133	400.96
406.511	402.09
406.889	404.81
407.267	419.27
407.645	410.23
408.023	411.13
408.401	414.3
408.779	410.46
409.156	410.46
409.534	432.15
409.912	420.4
410.29	426.95
410.667	447.97
411.045	445.03
411.422	447.52
411.8	452.04
412.178	422.88
412.555	443
412.933	435.99
413.31	457.91
413.687	459.95
414.065	466.73
414.442	441.19
414.819	467.85
415.197	454.97
415.574	467.63
415.951	458.36
416.328	475.09
416.705	474.63
417.082	481.64
417.46	499.72
417.837	480.74
418.214	458.82
418.591	495.2
418.967	474.18
419.344	472.15
419.721	483.9
420.098	481.41
420.475	491.81
420.852	506.27
421.228	479.83
421.605	500.17
421.982	515.09
422.358	489.1
422.735	513.96
423.111	517.35
423.488	545.59
423.864	521.41
424.241	552.37
424.617	535.42
424.994	512.83
425.37	540.4
425.746	537.68
426.123	530
426.499	544.46
426.875	544.24
427.251	549.43
427.627	551.24
428.003	556.44
428.379	559.6
428.756	579.72
429.132	560.28
429.507	578.36
429.883	562.09
430.259	568.87
430.635	595.54
431.011	596.89
431.387	608.87
431.763	615.2
432.138	610.45
432.514	620.39
432.89	629.88
433.265	636.89
433.641	633.5
434.016	615.2
434.392	642.77
434.767	623.78
435.143	646.16
435.518	651.8
435.894	656.32
436.269	649.55
436.644	652.03
437.02	681.63
437.395	671.01
437.77	691.8
438.145	706.04
438.52	688.87
438.895	717.79
439.271	706.04
439.646	705.36
440.021	717.57
440.395	701.97
440.77	712.14
441.145	723.44
441.52	742.42
441.895	725.93
442.27	766.38
442.645	760.73
443.019	753.72
443.394	757.34
443.769	756.66
444.143	761.63
444.518	773.16
444.892	767.73
445.267	789.2
445.641	791.69
446.016	786.04
446.39	800.05
446.764	787.17
447.139	798.92
447.513	791.46
447.887	813.38
448.262	828.75
448.636	815.42
449.01	854.29
449.384	819.48
449.758	862.19
450.132	866.71
450.506	867.84
450.88	853.16
451.254	865.36
451.628	874.17
452.002	883.66
452.376	904.23
452.75	883.21
453.123	897
453.497	918.92
453.871	923.44
454.244	933.15
454.618	927.05
454.992	954.17
455.365	954.4
455.739	958.69
456.112	951.46
456.486	994.39
456.859	1024.22
457.232	1017.22
457.606	1007.73
457.979	1020.83
458.352	1026.71
458.725	1027.39
459.099	1054.51
459.472	1072.13
459.845	1085.24
460.218	1102.64
460.591	1096.54
460.964	1115.52
461.337	1141.06
461.71	1137.89
462.083	1166.59
462.456	1175.63
462.829	1202.75
463.201	1203.2
463.574	1209.08
463.947	1226.71
464.32	1238.91
464.692	1264.44
465.065	1254.73
465.438	1279.36
465.81	1284.78
466.183	1317.32
466.555	1358.68
466.928	1364.78
467.3	1363.88
467.672	1390.09
468.045	1425.12
468.417	1437.09
468.789	1471.67
469.161	1491.1
469.534	1503.31
469.906	1522.97
470.278	1558
470.65	1598.45
471.022	1649.52
471.394	1673.25
471.766	1707.6
472.138	1713.02
472.51	1748.27
472.882	1780.14
473.253	1813.81
473.625	1855.16
473.997	1906.01
474.369	1908.95
474.74	1968.61
475.112	2035.72
475.484	2066.91
475.855	2090.64
476.227	2178.32
476.598	2207.92
476.97	2233.91
477.341	2327.69
477.713	2421.93
478.084	2438.65
478.455	2505.32
478.827	2567.46
479.198	2634.58
479.569	2701.02
479.94	2798.42
480.311	2821.01
480.682	2943.27
481.053	3032.53
481.424	3108.69
481.795	3145.52
482.166	3245.41
482.537	3345.29
482.908	3435.91
483.279	3485.18
483.65	3612.86
484.021	3715.68
484.391	3799.52
484.762	3871.61
485.133	3965.16
485.503	4117.25
485.874	4206.29
486.244	4311.37
486.615	4432.04
486.985	4551.36
487.356	4627.97
487.726	4757.46
488.097	4921.98
488.467	4991.35
488.837	5138.92
489.207	5264.11
489.578	5386.82
489.948	5418.91
490.318	5557.44
490.688	5672.92
491.058	5868.16
491.428	5895.73
491.798	6116.52
492.168	6279.68
492.538	6336.4
492.908	6488.26
493.278	6602.83
493.648	6710.85
494.017	6821.36
494.387	6892.09
494.757	6992.66
495.126	7177.06
495.496	7324.85
495.866	7383.38
496.235	7494.56
496.605	7605.75
496.974	7680.32
497.344	7857.49
497.713	7902.24
498.082	8026.3
498.452	8203.24
498.821	8255.67
499.19	8282.34
499.559	8506.29
499.928	8498.6
500.298	8648.66
500.667	8759.16
501.036	8833.96
501.405	8921.42
501.774	9002.55
502.143	9086.39
502.512	9103.56
502.88	9288.19
503.249	9268.08
503.618	9355.53
503.987	9422.42
504.356	9453.61
504.724	9603.21
505.093	9639.59
505.462	9714.62
505.83	9783.32
506.199	9912.8
506.567	9994.84
506.936	9951.9
507.304	10094.04
507.672	10203.42
508.041	10212.91
508.409	10396.41
508.777	10396.86
509.145	10473.02
509.514	10421.27
509.882	10464.65
510.25	10540.13
510.618	10602.28
510.986	10627.14
511.354	10830.07
511.722	10810.41
512.09	10837.3
512.458	10835.72
512.826	10929.05
513.193	10947.35
513.561	10972.21
513.929	11055.37
514.297	11124.52
514.664	11128.82
515.032	11247.23
515.4	11341.69
515.767	11354.57
516.135	11327.91
516.502	11230.96
516.869	11356.61
517.237	11457.17
517.604	11386.44
517.972	11449.26
518.339	11515.47
518.706	11475.7
519.073	11529.48
519.44	11504.63
519.808	11568.35
520.175	11574.46
520.542	11677.73
520.909	11689.48
521.276	11655.13
521.643	11745.75
522.009	11797.05
522.376	11755.69
522.743	11810.61
523.11	11816.94
523.477	11933.54
523.843	11966.54
524.21	11999.08
524.577	11973.99
524.943	12084.5
525.31	12082.92
525.676	12105.97
526.043	12135.8
526.409	12115.01
526.776	12245.85
527.142	12208.34
527.508	12144.38
527.874	12204.5
528.241	12237.26
528.607	12136.25
528.973	12225.29
529.339	12159.98
529.705	12263.03
530.071	12335.57
530.437	12244.49
530.803	12206.53
531.169	12322.46
531.535	12119.3
531.901	12170.6
532.267	12163.82
532.632	12256.7
532.998	12209.47
533.364	12246.3
533.73	12163.37
534.095	12276.58
534.461	12247.43
534.826	12223.25
535.192	12111.16
535.557	12203.14
535.923	12049.7
536.288	12071.17
536.653	12140.32
537.019	11996.59
537.384	12011.05
537.749	12009.92
538.114	11942.36
538.479	11895.35
538.845	11939.19
539.21	11813.55
539.575	11818.06
539.94	11818.74
540.305	11810.83
540.67	11735.36
541.034	11789.14
541.399	11671.4
541.764	11660.55
542.129	11669.59
542.494	11579.65
542.858	11562.03
543.223	11538.75
543.587	11533.78
543.952	11497.62
544.316	11474.8
544.681	11414.01
545.045	11454.46
545.41	11414.01
545.774	11333.33
546.138	11267.57
546.503	11276.16
546.867	11228.02
547.231	11227.8
547.595	11235.03
547.959	11200
548.324	11193.45
548.688	11056.5
549.052	11106.45
549.416	11050.4
549.779	11047.69
550.143	10987.58
550.507	10980.57
550.871	10994.58
551.235	10932.44
551.599	10908.03
551.962	10934.7
552.326	10782.39
552.689	10871.2
553.053	10719.56
553.417	10776.06
553.78	10846.57
554.143	10747.13
554.507	10790.3
554.87	10733.8
555.234	10759.11
555.597	10609.51
555.96	10661.03
556.323	10675.5
556.686	10585.55
557.05	10646.12
557.413	10613.8
557.776	10601.6
558.139	10643.86
558.502	10548.27
558.865	10607.02
559.228	10615.84
559.59	10550.53
559.953	10550.53
560.316	10629.4
560.679	10533.35
561.041	10640.69
561.404	10575.16
561.767	10590.75
562.129	10590.98
562.492	10558.66
562.854	10602.5
563.217	10563.63
563.579	10494.26
563.941	10591.88
564.304	10684.08
564.666	10643.41
565.028	10688.6
565.39	10671.2
565.753	10629.62
566.115	10598.21
566.477	10684.99
566.839	10651.09
567.201	10683.18
567.563	10649.73
567.925	10710.75
568.287	10676.4
568.648	10769.05
569.01	10720.92
569.372	10703.97
569.734	10680.47
570.095	10780.35
570.457	10743.06
570.819	10715.27
571.18	10718.21
571.542	10783.74
571.903	10741.71
572.265	10779.22
572.626	10767.7
572.987	10812.44
573.349	10788.71
573.71	10855.6
574.071	10746.91
574.432	10809.05
574.794	10854.7
575.155	10830.52
575.516	10821.48
575.877	10873.46
576.238	10858.54
576.599	10934.02
576.96	10878.65
577.32	10847.69
577.681	10867.13
578.042	10865.1
578.403	10901.7
578.763	10860.8
579.124	10887.69
579.485	10854.93
579.845	10931.08
580.206	10885.66
580.566	10864.64
580.927	10856.51
581.287	10879.78
581.648	10819.9
582.008	10903.29
582.368	10835.04
582.728	10909.61
583.089	10853.57
583.449	10785.55
583.809	10763.86
584.169	10838.2
584.529	10718.43
584.889	10858.77
585.249	10793.01
585.609	10724.31
585.969	10832.33
586.329	10828.94
586.688	10809.28
587.048	10755.04
587.408	10644.54
587.768	10710.52
588.127	10725.44
588.487	10735.83
588.846	10788.94
589.206	10706.68
589.565	10731.54
589.925	10764.31
590.284	10649.73
590.643	10738.55
591.003	10796.17
591.362	10725.89
591.721	10724.08
592.08	10680.47
592.44	10689.73
592.799	10619
593.158	10656.97
593.517	10708.04
593.876	10683.41
594.235	10627.36
594.593	10580.13
594.952	10681.37
595.311	10593.24
595.67	10626.46
596.029	10705.1
596.387	10674.14
596.746	10692.44
597.104	10548.27
597.463	10577.19
597.822	10571.32
598.18	10580.58
598.538	10534.26
598.897	10725.44
599.255	10543.3
599.613	10718.43
599.972	10629.4
600.33	10647.47
600.688	10590.3
601.046	10587.36
601.404	10628.72
601.762	10590.75
602.12	10615.16
602.478	10662.84
602.836	10645.89
603.194	10572.67
603.552	10551.88
603.91	10543.75
604.268	10611.77
604.625	10526.35
604.983	10619.9
605.341	10546.91
605.698	10569.74
606.056	10601.15
606.413	10614.03
606.771	10609.06
607.128	10635.5
607.485	10558.21
607.843	10569.51
608.2	10624.65
608.557	10630.98
608.914	10660.58
609.272	10644.99
609.629	10662.84
609.986	10703.74
610.343	10652.22
610.7	10704.42
611.057	10736.06
611.414	10629.17
611.771	10673.69
612.127	10690.19
612.484	10732.22
612.841	10737.64
613.198	10691.09
613.554	10741.48
613.911	10763.4
614.267	10715.5
614.624	10729.73
614.98	10783.97
615.337	10780.13
615.693	10740.35
616.05	10800.24
616.406	10861.25
616.762	10810.86
617.118	10732.9
617.475	10843.85
617.831	10807.24
618.187	10869.84
618.543	10818.32
618.899	10848.82
619.255	10915.94
619.611	10888.37
619.967	10827.13
620.323	10853.57
620.678	10864.19
621.034	10828.71
621.39	10828.49
621.746	10809.73
622.101	10919.11
622.457	10852.21
622.812	10890.86
623.168	10913.68
623.523	10875.04
623.879	10960.69
624.234	10904.87
624.589	10823.74
624.945	10891.08
625.3	10836.17
625.655	10876.62
626.01	10877.98
626.365	10911.2
626.72	10911.42
627.075	10896.96
627.43	10854.47
627.785	10831.42
628.14	10887.02
628.495	10842.5
628.85	10859.22
629.205	10818.09
629.559	10812.67
629.914	10773.12
630.269	10798.66
630.623	10791.43
630.978	10789.84
631.332	10837.07
631.687	10788.71
632.041	10792.33
632.396	10775.61
632.75	10764.53
633.104	10804.76
633.459	10714.37
633.813	10724.31
634.167	10691.31
634.521	10754.59
634.875	10692.22
635.229	10679.34
635.583	10592.79
635.937	10674.59
636.291	10611.54
636.645	10618.77
636.999	10607.93
637.352	10621.26
637.706	10563.63
638.06	10574.71
638.413	10571.54
638.767	10555.73
639.121	10571.54
639.474	10538.1
639.828	10564.09
640.181	10529.96
640.534	10431.21
640.888	10504.88
641.241	10411.77
641.594	10435.5
641.947	10520.92
642.301	10460.81
642.654	10397.99
643.007	10449.74
643.36	10488.83
643.713	10470.3
644.066	10454.48
644.419	10342.17
644.771	10380.14
645.124	10192.57
645.477	10202.29
645.83	10180.37
646.182	10163.42
646.535	10149.63
646.888	10088.84
647.24	10070.31
647.593	10084.1
647.945	10059.02
648.298	10062.86
648.65	10061.73
649.002	10020.37
649.355	10084.55
649.707	10070.99
650.059	10118.45
650.411	10188.28
650.763	10207.94
651.115	10317.09
651.467	10290.42
651.819	10340.36
652.171	10287.48
652.523	10299.23
652.875	10235.06
653.227	10240.93
653.578	10261.95
653.93	10285.68
654.282	10248.16
654.633	10216.53
654.985	10264.66
655.337	10340.14
655.688	10242.51
656.039	10373.81
656.391	10270.31
656.742	10234.6
657.094	10260.14
657.445	10264.43
657.796	10322.96
658.147	10321.38
658.498	10228.5
658.849	10310.53
659.2	10311.66
659.551	10353.24
659.902	10362.51
660.253	10320.03
660.604	10347.37
660.955	10250.65
661.306	10275.73
661.656	10275.96
662.007	10301.72
662.358	10300.14
662.708	10307.37
663.059	10320.48
663.409	10272.12
663.76	10377.88
664.11	10355.28
664.461	10328.61
664.811	10347.6
665.161	10339.69
665.511	10296.52
665.862	10329.52
666.212	10382.85
666.562	10357.09
666.912	10364.77
667.262	10362.74
667.612	10376.29
667.962	10347.14
668.312	10363.64
668.662	10360.25
669.011	10365.45
669.361	10358.22
669.711	10333.36
670.06	10349.63
670.41	10302.85
670.76	10339.01
671.109	10356.41
671.459	10343.75
671.808	10271.44
672.157	10303.98
672.507	10232.12
672.856	10249.07
673.205	10273.7
673.554	10251.1
673.904	10267.6
674.253	10263.3
674.602	10250.65
674.951	10128.84
675.3	10050.2
675.649	10227.6
675.998	10255.17
676.346	10211.55
676.695	10298.78
677.044	10176.53
677.393	10165
677.741	10181.5
678.09	10112.57
678.438	10112.57
678.787	10116.87
679.135	10134.72
679.484	10088.17
679.832	10139.01
680.181	10063.53
680.529	10000.49
680.877	10024.21
681.225	9963.65
681.573	10064.44
681.922	9942.86
682.27	9945.12
682.618	9998.9
682.966	9995.97
683.314	9969.98
683.661	9940.37
684.009	9852.92
684.357	9862.18
684.705	9846.14
685.053	9807.27
685.4	9852.69
685.748	9810.21
686.095	9817.67
686.443	9750.32
686.79	9696.54
687.138	9744
687.485	9690.21
687.832	9699.93
688.18	9654.05
688.527	9588.97
688.874	9653.6
689.221	9500.16
689.568	9541.06
689.915	9505.36
690.262	9476.88
690.609	9425.13
690.956	9415.42
691.303	9434.17
691.65	9325.25
691.997	9364.12
692.344	9278.24
692.69	9310.11
693.037	9278.02
693.383	9211.81
693.73	9300.62
694.077	9174.29
694.423	9079.83
694.769	9123.9
695.116	9046.16
695.462	9068.53
695.808	9058.82
696.155	8988.76
696.501	8913.06
696.847	8978.14
697.193	8937.69
697.539	8942.21
697.885	8824.47
698.231	8774.3
698.577	8836.45
698.923	8794.19
699.269	8705.83
699.614	8670.8
699.96	8665.61
700.306	8582.22
700.651	8625.61
700.997	8594.65
701.342	8596.45
701.688	8504.48
702.033	8482.11
702.379	8491.6
702.724	8447.53
703.069	8429.23
703.415	8391.26
703.76	8405.27
704.105	8349.23
704.45	8203.92
704.795	8262.45
705.14	8266.75
705.485	8199.18
705.83	8183.13
706.175	8230.81
706.52	8144.94
706.865	8076.02
707.209	8148.33
707.554	8070.59
707.899	8080.08
708.243	8048.67
708.588	8062.68
708.932	7978.39
709.277	7988.11
709.621	7978.62
709.966	7901.78
710.31	7936.59
710.654	7861.56
710.998	7885.96
711.342	7860.43
711.687	7848.45
712.031	7812.97
712.375	7752.64
712.719	7836.93
713.063	7785.85
713.407	7785.4
713.75	7718.51
714.094	7714.22
714.438	7690.72
714.782	7634.9
715.125	7671.06
715.469	7653.2
715.812	7572.53
716.156	7551.74
716.499	7546.54
716.843	7598.51
717.186	7542.02
717.53	7578.85
717.873	7545.18
718.216	7509.93
718.559	7518.07
718.902	7447.78
719.246	7514
719.589	7486.65
719.932	7411.63
720.275	7432.42
720.617	7473.32
720.96	7465.86
721.303	7445.3
721.646	7404.85
721.989	7417.95
722.331	7446.2
722.674	7387.67
723.016	7413.66
723.359	7386.54
723.701	7382.93
724.044	7391.51
724.386	7291.4
724.729	7335.24
725.071	7290.5
725.413	7342.7
725.755	7405.53
726.097	7285.53
726.439	7241.69
726.782	7249.15
727.124	7355.58
727.465	7235.59
727.807	7302.7
728.149	7285.98
728.491	7306.09
728.833	7337.05
729.175	7257.51
729.516	7303.38
729.858	7218.86
730.199	7351.29
730.541	7247.56
730.882	7269.03
731.224	7281.01
731.565	7255.02
731.906	7212.76
732.248	7289.6
732.589	7249.82
732.93	7256.6
733.271	7210.95
733.612	7256.38
733.953	7262.93
734.294	7231.52
734.635	7265.87
734.976	7261.12
735.317	7225.42
735.658	7328.24
735.999	7278.98
736.339	7204.85
736.68	7287.11
737.021	7242.82
737.361	7235.81
737.702	7314
738.042	7322.14
738.383	7338.63
738.723	7243.5
739.063	7287.34
739.404	7302.25
739.744	7389.25
740.084	7291.4
740.424	7329.6
740.764	7376.15
741.104	7390.38
741.444	7394.68
741.784	7439.65
742.124	7394.68
742.464	7415.47
742.804	7388.12
743.143	7448.91
743.483	7487.11
743.823	7422.93
744.162	7431.74
744.502	7504.05
744.841	7519.65
745.181	7601.9
745.52	7598.29
745.86	7698.63
746.199	7694.78
746.538	7651.39
746.877	7777.72
747.216	7838.73
747.556	7832.18
747.895	7903.82
748.234	7961.9
748.573	7971.84
748.911	7969.58
749.25	8071.95
749.589	8075.56
749.928	8169.35
750.267	8266.07
750.605	8304.03
750.944	8316.91
751.283	8463.58
751.621	8559.85
751.96	8606.62
752.298	8661.54
752.636	8751.25
752.975	8844.36
753.313	8973.39
753.651	9064.01
753.989	9065.37
754.327	9204.8
754.666	9312.14
755.004	9450.22
755.342	9571.8
755.679	9652.47
756.017	9698.35
756.355	9943.09
756.693	10042.52
757.031	10143.31
757.368	10243.87
757.706	10422.62
758.044	10564.09
758.381	10717.75
758.719	10779.45
759.056	11052.89
759.394	11103.96
759.731	11229.15
760.068	11346.89
760.405	11502.59
760.743	11674.79
761.08	11880.89
