Data from hue_10_FLMS001491_79.txt Node
Date: Mon Feb 06 15:32:32 GMT 2017
User: dcchb
Spectrometer: FLMS00149
Trigger mode: 0
Integration Time (sec): 2.000000E-2
Scans to average: 10
Electric dark correction enabled: true
Nonlinearity correction enabled: false
Boxcar width: 0
XAxis mode: Wavelengths
Number of Pixels in Spectrum: 2048
>>>>>Begin Spectral Data<<<<<
341.393	-10.28
341.776	-10.28
342.16	-10.28
342.543	-76.04
342.927	-71.98
343.31	-61.58
343.693	-62.71
344.077	-70.39
344.46	-51.86
344.843	-41.47
345.226	-41.24
345.61	-31.52
345.993	-21.81
346.376	8.7
346.759	10.06
347.142	32.65
347.525	38.08
347.908	51.19
348.291	52.77
348.674	77.17
349.057	111.97
349.44	139.32
349.823	156.72
350.206	167.57
350.588	203.95
350.971	201.46
351.354	220.45
351.737	243.27
352.119	232.65
352.502	255.25
352.884	265.64
353.267	296.6
353.65	299.99
354.032	293.89
354.414	291.4
354.797	301.35
355.179	319.2
355.562	325.75
355.944	344.51
356.326	354.45
356.709	327.56
357.091	316.26
357.473	329.37
357.855	319.88
358.238	341.35
358.62	325.98
359.002	353.55
359.384	330.5
359.766	336.83
360.148	336.38
360.53	359.43
360.912	331.86
361.294	333.44
361.676	321.23
362.057	341.8
362.439	331.18
362.821	321.23
363.203	356.71
363.584	341.35
363.966	313.78
364.348	305.87
364.729	316.49
365.111	332.76
365.493	312.65
365.874	318.52
366.256	317.84
366.637	312.65
367.019	302.25
367.4	313.1
367.781	313.78
368.163	335.47
368.544	302.03
368.925	317.84
369.306	298.41
369.688	287.79
370.069	320.33
370.45	320.1
370.831	301.57
371.212	299.31
371.593	303.38
371.974	314
372.355	324.4
372.736	298.18
373.117	305.19
373.498	292.53
373.879	318.75
374.26	314
374.641	302.03
375.021	315.13
375.402	307.45
375.783	328.47
376.163	317.17
376.544	313.1
376.925	321.69
377.305	322.82
377.686	329.6
378.066	305.42
378.447	331.18
378.827	327.79
379.208	319.43
379.588	330.73
379.968	331.4
380.349	354.68
380.729	337.51
381.109	323.04
381.489	324.4
381.87	337.51
382.25	329.37
382.63	316.26
383.01	333.66
383.39	320.56
383.77	337.51
384.15	323.49
384.53	325.75
384.91	339.31
385.29	325.98
385.67	342.93
386.049	332.53
386.429	344.06
386.809	352.42
387.189	349.93
387.568	332.76
387.948	345.87
388.328	329.6
388.707	339.09
389.087	368.92
389.466	357.39
389.846	356.26
390.225	340.89
390.605	355.36
390.984	341.35
391.363	362.36
391.743	328.92
392.122	353.55
392.501	353.32
392.881	350.16
393.26	346.77
393.639	351.97
394.018	347.67
394.397	354.45
394.776	357.62
395.155	353.55
395.534	365.98
395.913	353.55
396.292	352.42
396.671	347.22
397.05	385.64
397.429	386.54
397.808	383.15
398.186	349.93
398.565	380.22
398.944	372.76
399.323	350.84
399.701	379.99
400.08	373.66
400.458	382.93
400.837	363.95
401.215	364.85
401.594	380.67
401.972	372.53
402.351	386.32
402.729	385.64
403.107	382.25
403.486	398.75
403.864	370.5
404.242	384.28
404.62	377.28
404.999	390.39
405.377	378.86
405.755	370.95
406.133	377.28
406.511	398.75
406.889	378.41
407.267	390.16
407.645	404.17
408.023	384.96
408.401	407.33
408.779	402.36
409.156	410.72
409.534	420.21
409.912	419.09
410.29	419.99
410.667	432.42
411.045	412.76
411.422	392.19
411.8	416.15
412.178	426.54
412.555	415.7
412.933	440.1
413.31	400.55
413.687	415.47
414.065	437.62
414.442	430.84
414.819	429.03
415.197	429.71
415.574	424.28
415.951	435.36
416.328	432.42
416.705	443.94
417.082	457.95
417.46	460.21
417.837	451.85
418.214	450.72
418.591	462.25
418.967	466.54
419.344	444.85
419.721	459.08
420.098	466.54
420.475	453.66
420.852	471.96
421.228	486.88
421.605	474.9
421.982	472.64
422.358	463.15
422.735	465.64
423.111	475.58
423.488	480.78
423.864	471.74
424.241	488.24
424.617	484.17
424.994	475.35
425.37	493.66
425.746	475.35
426.123	495.69
426.499	521.68
426.875	489.37
427.251	514.68
427.627	525.3
428.003	526.65
428.379	531.17
428.756	505.64
429.132	529.14
429.507	501.34
429.883	518.97
430.259	541.79
430.635	531.4
431.011	546.31
431.387	530.49
431.763	546.09
432.138	541.34
432.514	560.1
432.89	560.32
433.265	553.32
433.641	565.07
434.016	555.35
434.392	550.16
434.767	541.57
435.143	567.33
435.518	559.19
435.894	582.24
436.269	594.67
436.644	574.79
437.02	596.03
437.395	569.36
437.77	582.24
438.145	602.36
438.52	575.47
438.895	606.42
439.271	613.2
439.646	609.36
440.021	615.46
440.395	623.37
440.77	615.92
441.145	644.84
441.52	614.11
441.895	637.84
442.27	614.79
442.645	634.67
443.019	642.81
443.394	621.34
443.769	616.59
444.143	658.17
444.518	646.2
444.892	639.87
445.267	648.91
445.641	660.43
446.016	658.4
446.39	668.12
446.764	653.43
447.139	656.14
447.513	646.88
447.887	671.73
448.262	672.64
448.636	660.21
449.01	682.35
449.384	677.16
449.758	689.13
450.132	703.6
450.506	685.07
450.88	695.91
451.254	684.39
451.628	717.61
452.002	688.91
452.376	706.54
452.75	714.22
453.123	734.33
453.497	710.83
453.871	735.23
454.244	733.2
454.618	755.57
454.992	732.98
455.365	745.86
455.739	754.44
456.112	785.86
456.486	783.6
456.859	784.05
457.232	792.18
457.606	810.49
457.979	801.9
458.352	764.39
458.725	791.28
459.099	823.14
459.472	835.57
459.845	808.23
460.218	829.7
460.591	850.26
460.964	830.6
461.337	861.79
461.71	868.11
462.083	860.88
462.456	863.14
462.829	885.97
463.201	902.69
463.574	874.67
463.947	883.03
464.32	925.74
464.692	896.59
465.065	931.84
465.438	937.94
465.81	910.6
466.183	975.68
466.555	967.09
466.928	960.77
467.3	967.77
467.672	1004.61
468.045	1014.1
468.417	1000.99
468.789	1025.85
469.161	1031.27
469.534	1062.68
469.906	1071.5
470.278	1098.84
470.65	1069.46
471.022	1123.93
471.394	1123.47
471.766	1152.4
472.138	1146.07
472.51	1165.73
472.882	1194.88
473.253	1209.57
473.625	1237.59
473.997	1233.98
474.369	1244.37
474.74	1279.85
475.112	1299.97
475.484	1302
475.855	1323.92
476.227	1340.19
476.598	1401.43
476.97	1399.4
477.341	1404.82
477.713	1458.83
478.084	1454.09
478.455	1509.45
478.827	1507.87
479.198	1573.4
479.569	1597.59
479.94	1664.48
480.311	1629.9
480.682	1691.59
481.053	1721.65
481.424	1735.43
481.795	1762.33
482.166	1823.57
482.537	1838.26
482.908	1872.83
483.279	1901.98
483.65	1963.23
484.021	1970
484.391	1981.98
484.762	2061.98
485.133	2079.61
485.503	2112.6
485.874	2139.27
486.244	2184.01
486.615	2191.47
486.985	2295.87
487.356	2319.6
487.726	2347.62
488.097	2402.54
488.467	2415.87
488.837	2410.45
489.207	2492.48
489.578	2520.5
489.948	2549.42
490.318	2593.72
490.688	2613.15
491.058	2693.15
491.428	2746.03
491.798	2801.62
492.168	2804.11
492.538	2871
492.908	2872.58
493.278	2933.14
493.648	2944.22
494.017	2988.51
494.387	2978.57
494.757	3011.33
495.126	3049.75
495.496	3068.96
495.866	3073.25
496.235	3153.48
496.605	3162.52
496.974	3234.83
497.344	3235.73
497.713	3294.26
498.082	3316.41
498.452	3329.29
498.821	3363.19
499.19	3360.48
499.559	3347.82
499.928	3386.69
500.298	3464.2
500.667	3469.17
501.036	3487.93
501.405	3513.47
501.774	3509.17
502.143	3542.39
502.512	3574.48
502.88	3623.29
503.249	3595.72
503.618	3580.13
503.987	3645.67
504.356	3721.37
504.724	3707.13
505.093	3702.39
505.462	3689.96
505.83	3748.04
506.199	3754.82
506.567	3820.13
506.936	3765.66
507.304	3824.42
507.672	3803.4
508.041	3861.25
508.409	3891.31
508.777	3907.13
509.145	3956.17
509.514	3929.5
509.882	3927.02
510.25	3967.24
510.618	3983.29
510.986	3978.99
511.354	4028.03
511.722	4017.41
512.09	4025.54
512.458	4058.31
512.826	4082.27
513.193	4090.17
513.561	4090.17
513.929	4102.38
514.297	4113
514.664	4164.07
515.032	4089.5
515.4	4166.33
515.767	4160.46
516.135	4197.29
516.502	4169.04
516.869	4211.3
517.237	4216.05
517.604	4188.25
517.972	4258.53
518.339	4264.18
518.706	4279.77
519.073	4283.84
519.44	4302.15
519.808	4338.3
520.175	4294.24
520.542	4334.01
520.909	4360.45
521.276	4295.59
521.643	4405.19
522.009	4394.8
522.376	4387.57
522.743	4389.38
523.11	4413.78
523.477	4494.91
523.843	4437.96
524.21	4526.77
524.577	4502.14
524.943	4543.5
525.31	4551.63
525.676	4560.22
526.043	4604.06
526.409	4614.91
526.776	4656.04
527.142	4653.55
527.508	4672.08
527.874	4671.4
528.241	4725.41
528.607	4723.83
528.973	4758.86
529.339	4772.42
529.705	4796.15
530.071	4785.52
530.437	4856.71
530.803	4856.48
531.169	4880.89
531.535	4867.1
531.901	4924.5
532.267	4938.74
532.632	5008.34
532.998	4985.52
533.364	4977.16
533.73	5007.21
534.095	5065.74
534.461	5053.99
534.826	5105.97
535.192	5088.11
535.557	5132.86
535.923	5076.14
536.288	5147.1
536.653	5168.11
537.019	5164.05
537.384	5180.99
537.749	5221.67
538.114	5252.86
538.479	5233.2
538.845	5215.57
539.21	5265.96
539.575	5270.48
539.94	5314.1
540.305	5332.4
540.67	5352.51
541.034	5405.17
541.399	5385.28
541.764	5407.65
542.129	5471.38
542.494	5483.36
542.858	5487.2
543.223	5484.94
543.587	5547.76
543.952	5564.26
544.316	5584.37
544.681	5533.53
545.045	5626.41
545.41	5649.68
545.774	5694.65
546.138	5710.47
546.503	5730.81
546.867	5719.96
547.231	5831.37
547.595	5807.19
547.959	5838.15
548.324	5823.69
548.688	5847.42
549.052	5858.72
549.416	5870.69
549.779	5933.52
550.143	5879.51
550.507	5961.09
550.871	5953.4
551.235	6009.45
551.599	6012.38
551.962	6071.14
552.326	5998.15
552.689	6098.71
553.053	6062.55
553.417	6073.4
553.78	6114.08
554.143	6074.53
554.507	6152.95
554.87	6153.62
555.234	6237.46
555.597	6211.93
555.96	6176.45
556.323	6252.6
556.686	6307.29
557.05	6317.91
557.413	6312.72
557.776	6326.05
558.139	6319.04
558.502	6342.55
558.865	6366.05
559.228	6381.19
559.59	6339.61
559.953	6412.37
560.316	6512.03
560.679	6436.55
561.041	6525.59
561.404	6495.54
561.767	6516.55
562.129	6488.76
562.492	6555.87
562.854	6533.05
563.217	6599.04
563.579	6586.83
563.941	6564.69
564.304	6693.95
564.666	6720.84
565.028	6756.09
565.39	6716.32
565.753	6754.51
566.115	6798.8
566.477	6807.17
566.839	6808.75
567.201	6817.79
567.563	6888.75
567.925	6900.04
568.287	6917.22
568.648	6938.91
569.01	6951.57
569.372	6995.41
569.734	6975.3
570.095	7003.09
570.457	7083.09
570.819	7107.04
571.18	7096.42
571.542	7116.99
571.903	7199.47
572.265	7265.91
572.626	7290.99
572.987	7363.76
573.349	7386.81
573.71	7411.67
574.071	7515.62
574.432	7510.88
574.794	7598.11
575.155	7671.32
575.516	7646.24
575.877	7833.13
576.238	7851.66
576.599	7919.9
576.96	8010.75
577.32	8048.71
577.681	8184.08
578.042	8209.16
578.403	8316.73
578.763	8361.25
579.124	8439.89
579.485	8648.47
579.845	8711.52
580.206	8828.81
580.566	8982.48
580.927	9084.39
581.287	9213.2
581.648	9363.03
582.008	9508.56
582.368	9654.32
582.728	9831.49
583.089	10030.36
583.449	10149.68
583.809	10366.85
584.169	10571.13
584.529	10795.99
584.889	11044.34
585.249	11261.74
585.609	11398.46
585.969	11729.07
586.329	11908.5
586.688	12122.28
587.048	12431.65
587.408	12679.1
587.768	12976.04
588.127	13220.33
588.487	13415.81
588.846	13829.35
589.206	14084.94
589.565	14273.18
589.925	14795.88
590.284	14955.65
590.643	15306.6
591.003	15668.18
591.362	16010.09
591.721	16332.11
592.08	16667.47
592.44	17040.57
592.799	17378.19
593.158	17706.31
593.517	18072.41
593.876	18489.12
594.235	18824.93
594.593	19248.19
594.952	19570.9
595.311	19870.78
595.67	20262.63
596.029	20799.57
596.387	21054.47
596.746	21496.04
597.104	21765.42
597.463	22099.87
597.822	22616.24
598.18	22865.27
598.538	23303.68
598.897	23641.07
599.255	23845.81
599.613	24579.81
599.972	24741.16
600.33	25291.65
600.688	25434.7
601.046	25907.91
601.404	26329.36
601.762	26719.86
602.12	27156.91
602.478	27549.9
602.836	27822.88
603.194	28047.74
603.552	28454.28
603.91	28651.79
604.268	29116.18
604.625	29378.32
604.983	29879.55
605.341	29902.15
605.698	30454.23
606.056	30881.33
606.413	31162.46
606.771	31512.73
607.128	31933.96
607.485	32011.25
607.843	32160.62
608.2	32805.13
608.557	32974.39
608.914	33233.82
609.272	33777.3
609.629	34008.48
609.986	34252.55
610.343	34421.58
610.7	35026.31
611.057	35186.53
611.414	35392.63
611.771	35693.64
612.127	35983.35
612.484	36064.48
612.841	36387.18
613.198	36528.42
613.554	36744.68
613.911	37200.26
614.267	37460.14
614.624	37557.09
614.98	37843.64
615.337	38141.48
615.693	38233.01
616.05	38510.96
616.406	38719.09
616.762	38877.96
617.118	38914.34
617.475	39149.37
617.831	39443.14
618.187	39597.04
618.543	39750.03
618.899	40147.08
619.255	40224.82
619.611	40458.94
619.967	40632.72
620.323	40707.52
620.678	40829.55
621.034	40936.89
621.39	41022.31
621.746	41112.7
622.101	41759.24
622.457	41498.46
622.812	41819.35
623.168	41944.09
623.523	41933.25
623.879	42148.84
624.234	42043.75
624.589	42200.13
624.945	42301.15
625.3	42465.89
625.655	42514.48
626.01	42725.09
626.365	42880.34
626.72	42871.53
627.075	42916.05
627.43	42998.98
627.785	42998.98
628.14	43198.07
628.495	43127.11
628.85	43373.89
629.205	43285.08
629.559	43589.25
629.914	43412.98
630.269	43424.73
630.623	43563.94
630.978	43464.73
631.332	43876.47
631.687	43914.44
632.041	43702.69
632.396	43670.15
632.75	43749.02
633.104	43834.44
633.459	43685.52
633.813	43753.54
634.167	43812.75
634.521	43911.27
634.875	43926.87
635.229	43873.99
635.583	43720.55
635.937	43730.94
636.291	43924.61
636.645	43917.83
636.999	43940.43
637.352	44052.06
637.706	43795.35
638.06	44078.5
638.413	43868.34
638.767	43802.13
639.121	43923.7
639.474	43781.79
639.828	43920.09
640.181	43871.28
640.534	43972.74
640.888	43759.64
641.241	43662.69
641.594	43711.51
641.947	43997.15
642.301	43801.22
642.654	43932.74
643.007	43869.47
643.36	43811.39
643.713	43798.96
644.066	43992.63
644.419	43727.55
644.771	43442.81
645.124	43010.51
645.477	43221.58
645.83	42830.4
646.182	42848.03
646.535	42566.23
646.888	42719.22
647.24	42564.19
647.593	42754.7
647.945	42714.02
648.298	42565.55
648.65	42349.28
649.002	42366.68
649.355	42555.38
649.707	42534.81
650.059	42697.97
650.411	43175.7
650.763	43250.28
651.115	43443.72
651.467	43339.99
651.819	43368.69
652.171	43407.56
652.523	43409.59
652.875	43431.74
653.227	43130.96
653.578	43434
653.93	43321.23
654.282	43228.81
654.633	43133.44
654.985	43144.29
655.337	43241.01
655.688	43157.17
656.039	43265.42
656.391	42944.97
656.742	43111.97
657.094	43231.29
657.445	43202.37
657.796	43163.27
658.147	43139.54
658.498	43126.21
658.849	43092.77
659.2	43058.19
659.551	43049.83
659.902	43136.61
660.253	42940.45
660.604	43146.78
660.955	42871.3
661.306	43124.4
661.656	42893.67
662.007	43016.61
662.358	42813.45
662.708	43061.35
663.059	42795.37
663.409	42588.15
663.76	43012.32
664.11	43006.89
664.461	43035.82
664.811	42997.63
665.161	42933.9
665.511	42844.86
665.862	42970.28
666.212	42947.46
666.562	43043.5
666.912	42890.74
667.262	42847.35
667.612	42940.9
667.962	43083.05
668.312	42812.32
668.662	43063.84
669.011	42947.68
669.361	42868.59
669.711	42811.87
670.06	42731.64
670.41	42653
670.76	42674.92
671.109	42772.1
671.459	42784.3
671.808	42735.71
672.157	42740.01
672.507	42594.02
672.856	42532.1
673.205	42656.84
673.554	42685.32
673.904	42499.79
674.253	42844.41
674.602	42565.32
674.951	42106.8
675.3	41817.77
675.649	42478.77
675.998	42404.2
676.346	42507.02
676.695	42521.25
677.044	42373.01
677.393	42366.23
677.741	42535.94
678.09	42361.94
678.438	42175.28
678.787	42410.52
679.135	42323.75
679.484	42059.35
679.832	42204.65
680.181	41965.11
680.529	41959.46
680.877	41898.67
681.225	41905.45
681.573	42156.52
681.922	41841.27
682.27	41856.87
682.618	41844.21
682.966	41658
683.314	41679.7
683.661	41660.49
684.009	41608.51
684.357	41455.29
684.705	41244.68
685.053	41368.29
685.4	41286.49
685.748	41090.78
686.095	41168.07
686.443	41073.61
686.79	40973.72
687.138	41054.17
687.485	41092.59
687.832	40796.55
688.18	40922.88
688.527	40594.75
688.874	40724.47
689.221	40541.87
689.568	40443.34
689.915	40447.19
690.262	40359.73
690.609	40457.58
690.956	40057.82
691.303	40061.66
691.65	39934.66
691.997	39948.22
692.344	39738.73
692.69	39744.38
693.037	39765.17
693.383	39401.79
693.73	39580.54
694.077	39396.59
694.423	39329.7
694.769	39340.1
695.116	39167.9
695.462	39039.54
695.808	38934.91
696.155	39047.9
696.501	38782.6
696.847	38734.46
697.193	38454.24
697.539	38644.75
697.885	38435.26
698.231	38268.26
698.577	38303.96
698.923	38171.54
699.269	38081.82
699.614	37858.33
699.96	37854.26
700.306	37743.75
700.651	37659.69
700.997	37447.49
701.342	37508.51
701.688	37429.41
702.033	37287.95
702.379	37186.93
702.724	37168.85
703.069	37140.38
703.415	36674.63
703.76	36755.08
704.105	36867.62
704.45	36797.56
704.795	36545.82
705.14	36502.66
705.485	36404.13
705.83	36340.63
706.175	36348.99
706.52	36077.58
706.865	36072.16
707.209	36086.4
707.554	35952.61
707.899	35978.83
708.243	35868.32
708.588	35711.72
708.932	35556.47
709.277	35606.18
709.621	35761.43
709.966	35332.29
710.31	35337.71
710.654	35146.53
710.998	35176.82
711.342	35120.77
711.687	35097.72
712.031	34899.08
712.375	34721.01
712.719	34991.06
713.063	34700.9
713.407	34869.7
713.75	34636.04
714.094	34629.03
714.438	34475.59
714.782	34495.48
715.125	34282.83
715.469	34439.66
715.812	34207.35
716.156	34108.59
716.499	34160.34
716.843	34094.13
717.186	33895.27
717.53	34091.42
717.873	34202.6
718.216	33841.26
718.559	33815.27
718.902	33584.31
719.246	33700.02
719.589	33623.41
719.932	33431.32
720.275	33374.6
720.617	33377.99
720.96	33370.99
721.303	33368.05
721.646	33256.64
721.989	33139.13
722.331	33147.26
722.674	33124.21
723.016	33238.79
723.359	32969.42
723.701	33072.01
724.044	32873.37
724.386	32591.57
724.729	32820.49
725.071	32709.99
725.413	32711.12
725.755	32685.58
726.097	32528.98
726.439	32380.28
726.782	32324.46
727.124	32490.78
727.465	32440.16
727.807	32237.91
728.149	32164.24
728.491	32244.01
728.833	32156.33
729.175	32026.16
729.516	32071.59
729.858	31906.84
730.199	31970.35
730.541	31957.46
730.882	31848.99
731.224	31961.98
731.565	31779.39
731.906	31697.81
732.248	31790.24
732.589	31577.81
732.93	31351.38
733.271	31476.12
733.612	31571.49
733.953	31522
734.294	31370.14
734.635	31348.22
734.976	31312.51
735.317	31232.06
735.658	31253.3
735.999	31236.81
736.339	31127.66
736.68	31132.63
737.021	31112.29
737.361	30886.98
737.702	31096.47
738.042	30933.76
738.383	30862.13
738.723	30762.02
739.063	30857.15
739.404	30819.87
739.744	30731.96
740.084	30554.79
740.424	30646.76
740.764	30539.87
741.104	30756.37
741.444	30526.54
741.784	30419.43
742.124	30379.88
742.464	30434.79
742.804	30329.03
743.143	30157.96
743.483	30245.87
743.823	30136.72
744.162	30149.38
744.502	30078.19
744.841	30018.98
745.181	30146.21
745.52	29922.04
745.86	30154.8
746.199	29930.17
746.538	29960.68
746.877	30021.7
747.216	29854.92
747.556	29675.72
747.895	29731.31
748.234	29680.69
748.573	29665.32
748.911	29649.05
749.25	29471.2
749.589	29340.81
749.928	29408.15
750.267	29453.35
750.605	29329.51
750.944	29313.69
751.283	29362.73
751.621	29281.6
751.96	29143.75
752.298	29058.56
752.636	29069.18
752.975	28811.78
753.313	28765.23
753.651	28936.3
753.989	28731.79
754.327	28739.02
754.666	28623.77
755.004	28597.1
755.342	28619.25
755.679	28587.16
756.017	28422.87
756.355	28407.95
756.693	28352.14
757.031	28290.44
757.368	28154.85
757.706	28212.93
758.044	28041.86
758.381	28121.41
758.719	27930.45
759.056	28028.3
759.394	27900.4
759.731	27758.48
760.068	27698.37
760.405	27504.25
760.743	27449.33
761.08	27605.71
761.417	27444.36
