Data from hue_10_FLMS001491_99.txt Node
Date: Mon Feb 06 15:32:51 GMT 2017
User: dcchb
Spectrometer: FLMS00149
Trigger mode: 0
Integration Time (sec): 2.000000E-2
Scans to average: 10
Electric dark correction enabled: true
Nonlinearity correction enabled: false
Boxcar width: 0
XAxis mode: Wavelengths
Number of Pixels in Spectrum: 2048
>>>>>Begin Spectral Data<<<<<
341.393	-9.35
341.776	-9.35
342.16	-9.35
342.543	-55.68
342.927	-66.52
343.31	-57.94
343.693	-51.61
344.077	-84.38
344.46	-69.24
344.843	-54.55
345.226	-43.02
345.61	-45.28
345.993	5.56
346.376	8.28
346.759	6.47
347.142	24.32
347.525	43.98
347.908	56.86
348.291	71.1
348.674	93.02
349.057	96.41
349.44	112
349.823	152.45
350.206	168.27
350.588	181.15
350.971	234.49
351.354	225.67
351.737	239.01
352.119	239.23
352.502	250.76
352.884	273.58
353.267	283.3
353.65	302.28
354.032	291.66
354.414	303.86
354.797	294.6
355.179	294.6
355.562	322.17
355.944	324.2
356.326	327.14
356.709	319
357.091	321.26
357.473	346.57
357.855	337.08
358.238	345.67
358.62	358.55
359.002	337.31
359.384	344.31
359.766	353.58
360.148	339.12
360.53	340.7
360.912	333.01
361.294	337.53
361.676	295.95
362.057	349.96
362.439	335.5
362.821	333.92
363.203	324.65
363.584	329.85
363.966	290.53
364.348	314.03
364.729	321.94
365.111	308.83
365.493	323.07
365.874	315.61
366.256	320.58
366.637	289.4
367.019	325.78
367.4	309.96
367.781	308.38
368.163	316.07
368.544	315.61
368.925	322.39
369.306	330.3
369.688	305.44
370.069	312
370.45	317.2
370.831	321.71
371.212	321.49
371.593	325.56
371.974	329.85
372.355	305.22
372.736	306.8
373.117	311.32
373.498	318.55
373.879	302.51
374.26	310.19
374.641	307.93
375.021	314.94
375.402	325.33
375.783	337.08
376.163	326.01
376.544	338.89
376.925	293.69
377.305	305.67
377.686	326.69
378.066	295.5
378.447	328.27
378.827	323.3
379.208	330.08
379.588	318.32
379.968	313.58
380.349	331.88
380.729	322.84
381.109	335.27
381.489	319.68
381.87	334.82
382.25	334.82
382.63	320.81
383.01	327.59
383.39	329.4
383.77	335.27
384.15	327.59
384.53	337.08
384.91	349.51
385.29	349.51
385.67	335.95
386.049	335.95
386.429	349.96
386.809	351.77
387.189	337.08
387.568	343.86
387.948	343.64
388.328	343.86
388.707	354.48
389.087	333.69
389.466	362.17
389.846	354.48
390.225	356.06
390.605	359.91
390.984	342.05
391.363	366.69
391.743	369.4
392.122	368.49
392.501	363.07
392.881	362.17
393.26	363.75
393.639	334.82
394.018	371.88
394.397	366.69
394.776	401.03
395.155	373.92
395.534	362.84
395.913	382.73
396.292	400.13
396.671	358.55
397.05	379.57
397.429	402.39
397.808	357.42
398.186	380.7
398.565	391.32
398.944	364.43
399.323	370.08
399.701	379.57
400.08	371.2
400.458	386.8
400.837	386.12
401.215	389.28
401.594	392.22
401.972	366.46
402.351	395.84
402.729	387.25
403.107	377.76
403.486	398.55
403.864	399.45
404.242	387.25
404.62	406.01
404.999	388.61
405.377	399.23
405.755	395.61
406.133	410.3
406.511	414.82
406.889	406.68
407.267	415.72
407.645	413.46
408.023	420.92
408.401	425.44
408.779	421.37
409.156	415.72
409.534	430.86
409.912	436.29
410.29	442.84
410.667	439.68
411.045	428.6
411.422	413.69
411.8	445.78
412.178	430.41
412.555	436.74
412.933	436.06
413.31	439.45
413.687	462.28
414.065	457.98
414.442	457.53
414.819	457.76
415.197	471.77
415.574	466.57
415.951	483.29
416.328	470.41
416.705	489.39
417.082	458.66
417.46	486.68
417.837	482.39
418.214	479.22
418.591	491.88
418.967	472.22
419.344	484.2
419.721	491.65
420.098	490.3
420.475	499.11
420.852	488.72
421.228	494.82
421.605	517.64
421.982	499.34
422.358	518.77
422.735	522.16
423.111	508.15
423.488	504.76
423.864	499.56
424.241	503.86
424.617	531.2
424.994	535.95
425.37	517.42
425.746	529.84
426.123	545.89
426.499	537.3
426.875	545.89
427.251	544.53
427.627	565.55
428.003	566.23
428.379	575.95
428.756	565.1
429.132	562.61
429.507	561.03
429.883	584.98
430.259	582.95
430.635	588.15
431.011	581.82
431.387	594.7
431.763	580.46
432.138	576.4
432.514	615.04
432.89	606.9
433.265	609.62
433.641	599.9
434.016	594.93
434.392	632.44
434.767	636.06
435.143	622.27
435.518	648.71
435.894	648.94
436.269	644.19
436.644	674.7
437.02	663.63
437.395	669.5
437.77	673.57
438.145	671.76
438.52	663.17
438.895	711.08
439.271	686.22
439.646	693.46
440.021	688.94
440.395	698.43
440.77	705.66
441.145	699.11
441.52	692.33
441.895	713.57
442.27	714.02
442.645	695.49
443.019	711.08
443.394	732.1
443.769	729.61
444.143	724.87
444.518	741.59
444.892	716.28
445.267	727.13
445.641	737.75
446.016	744.3
446.39	774.81
446.764	749.95
447.139	763.96
447.513	770.74
447.887	765.77
448.262	764.87
448.636	759.44
449.01	767.58
449.384	788.6
449.758	784.98
450.132	794.47
450.506	774.81
450.88	820.46
451.254	822.94
451.628	829.95
452.002	817.52
452.376	826.11
452.75	833.57
453.123	848.71
453.497	841.7
453.871	843.28
454.244	866.11
454.618	843.28
454.992	874.69
455.365	853.23
455.739	891.87
456.112	885.54
456.486	906.78
456.859	905.88
457.232	878.31
457.606	917.41
457.979	928.25
458.352	936.39
458.725	960.34
459.099	946.33
459.472	942.04
459.845	971.87
460.218	979.32
460.591	981.81
460.964	1005.31
461.337	1006.22
461.71	1026.78
462.083	1048.48
462.456	1061.58
462.829	1026.33
463.201	1040.79
463.574	1048.02
463.947	1082.37
464.32	1089.38
464.692	1119.43
465.065	1103.84
465.438	1121.47
465.81	1120.34
466.183	1155.14
466.555	1150.62
466.928	1149.49
467.3	1173.44
467.672	1171.86
468.045	1200.34
468.417	1215.48
468.789	1220
469.161	1229.04
469.534	1282.14
469.906	1280.79
470.278	1293.44
470.65	1311.97
471.022	1306.77
471.394	1355.59
471.766	1351.07
472.138	1369.6
472.51	1383.38
472.882	1427
473.253	1440.78
473.625	1448.69
473.997	1473.55
474.369	1490.5
474.74	1497.73
475.112	1548.8
475.484	1574.56
475.855	1589.25
476.227	1610.72
476.598	1658.85
476.97	1688.01
477.341	1707.89
477.713	1742.24
478.084	1738.17
478.455	1765.74
478.827	1832.86
479.198	1832.64
479.569	1867.44
479.94	1909.92
480.311	1938.17
480.682	1983.59
481.053	2001.9
481.424	2017.49
481.795	2050.03
482.166	2088.22
482.537	2136.13
482.908	2181.55
483.279	2201.44
483.65	2255.9
484.021	2280.53
484.391	2319.63
484.762	2363.24
485.133	2384.49
485.503	2426.29
485.874	2470.81
486.244	2494.09
486.615	2533.41
486.985	2548.1
487.356	2616.12
487.726	2620.64
488.097	2711.26
488.467	2749.22
488.837	2757.58
489.207	2814.76
489.578	2829.67
489.948	2893.62
490.318	2946.5
490.688	2956.67
491.058	3010.68
491.428	3036.67
491.798	3106.05
492.168	3121.87
492.538	3166.39
492.908	3180.4
493.278	3222.2
493.648	3247.51
494.017	3282.31
494.387	3311.01
494.757	3337
495.126	3370
495.496	3414.29
495.866	3435.98
496.235	3486.6
496.605	3518.92
496.974	3550.33
497.344	3542.65
497.713	3609.09
498.082	3606.83
498.452	3645.92
498.821	3671.91
499.19	3646.6
499.559	3724.56
499.928	3715.98
500.298	3747.84
500.667	3775.41
501.036	3793.71
501.405	3816.54
501.774	3833.49
502.143	3900.83
502.512	3927.5
502.88	3936.76
503.249	3910.55
503.618	3980.38
503.987	4026.7
504.356	3999.13
504.724	3999.81
505.093	4007.27
505.462	4064.67
505.83	4085.23
506.199	4109.41
506.567	4172.01
506.936	4176.75
507.304	4217.43
507.672	4218.79
508.041	4195.96
508.409	4242.29
508.777	4284.1
509.145	4305.56
509.514	4345.79
509.882	4373.59
510.25	4312.34
510.618	4355.96
510.986	4364.55
511.354	4471.21
511.722	4465.11
512.09	4471.89
512.458	4462.85
512.826	4551.43
513.193	4500.36
513.561	4556.41
513.929	4605.22
514.297	4604.77
514.664	4620.81
515.032	4620.81
515.4	4680.24
515.767	4665.1
516.135	4669.62
516.502	4698.32
516.869	4765.89
517.237	4742.84
517.604	4776.06
517.972	4767.02
518.339	4794.14
518.706	4792.56
519.073	4786.46
519.44	4866.23
519.808	4851.31
520.175	4828.26
520.542	4877.53
520.909	4944.64
521.276	4938.32
521.643	4944.19
522.009	4992.1
522.376	4999.33
522.743	5089.5
523.11	5075.49
523.477	5130.85
523.843	5148.03
524.21	5130.85
524.577	5191.87
524.943	5179.21
525.31	5277.29
525.676	5311.19
526.043	5307.8
526.409	5279.78
526.776	5363.84
527.142	5368.59
527.508	5330.85
527.874	5440.45
528.241	5437.06
528.607	5480.68
528.973	5489.04
529.339	5519.77
529.705	5604.29
530.071	5603.61
530.437	5604.06
530.803	5656.72
531.169	5652.65
531.535	5671.86
531.901	5721.8
532.267	5710.5
532.632	5767.67
532.998	5769.93
533.364	5832.3
533.73	5854.9
534.095	5876.82
534.461	5914.34
534.826	5933.77
535.192	5922.02
535.557	5999.08
535.923	5951.4
536.288	6018.29
536.653	6015.58
537.019	6064.39
537.384	6059.19
537.749	6055.8
538.114	6060.77
538.479	6119.53
538.845	6195.68
539.21	6187.78
539.575	6205.63
539.94	6257.15
540.305	6209.7
540.67	6260.32
541.034	6328.79
541.399	6298.05
541.764	6357.04
542.129	6300.77
542.494	6425.06
542.858	6415.57
543.223	6497.6
543.587	6485.62
543.952	6509.8
544.316	6499.86
544.681	6516.35
545.045	6572.17
545.41	6588.22
545.774	6598.39
546.138	6654.43
546.503	6688.1
546.867	6696.69
547.231	6765.61
547.595	6747.31
547.959	6716.35
548.324	6821.43
548.688	6809.45
549.052	6792.51
549.416	6839.06
549.779	6846.51
550.143	6868.21
550.507	6996.57
550.871	6971.94
551.235	6971.48
551.599	6997.47
551.962	7032.95
552.326	7050.8
552.689	7095.55
553.053	7073.4
553.417	7102.55
553.78	7191.14
554.143	7162.89
554.507	7132.16
554.87	7185.72
555.234	7223.91
555.597	7229.33
555.96	7216.9
556.323	7287.41
556.686	7256.22
557.05	7398.14
557.413	7274.07
557.776	7369.44
558.139	7416.22
558.502	7413.51
558.865	7409.44
559.228	7501.64
559.59	7473.39
559.953	7585.48
560.316	7565.82
560.679	7533.5
561.041	7670.22
561.404	7692.82
561.767	7698.24
562.129	7716.55
562.492	7770.11
562.854	7767.17
563.217	7700.28
563.579	7817.79
563.941	7825.02
564.304	7879.03
564.666	7954.51
565.028	7965.58
565.39	7979.37
565.753	8002.42
566.115	8029.31
566.477	8091
566.839	8065.24
567.201	8164.9
567.563	8152.92
567.925	8173.71
568.287	8174.39
568.648	8212.35
569.01	8294.84
569.372	8315.4
569.734	8326.48
570.095	8371.67
570.457	8329.87
570.819	8390.66
571.18	8396.76
571.542	8519.01
571.903	8524.21
572.265	8518.56
572.626	8630.2
572.987	8659.35
573.349	8698.67
573.71	8695.05
574.071	8758.78
574.432	8796.29
574.794	8876.74
575.155	8947.7
575.516	8936.4
575.877	9027.7
576.238	9049.85
576.599	9129.62
576.96	9210.29
577.32	9242.84
577.681	9341.14
578.042	9406
578.403	9481.02
578.763	9561.02
579.124	9656.16
579.485	9825.19
579.845	9845.08
580.206	9923.72
580.566	9978.18
580.927	10145.86
581.287	10301.57
581.648	10283.94
582.008	10513.76
582.368	10622.69
582.728	10711.27
583.089	10936.35
583.449	10989.68
583.809	11146.97
584.169	11282.56
584.529	11340.63
584.889	11646.39
585.249	11749.44
585.609	11908.53
585.969	12147.17
586.329	12254.73
586.688	12476.88
587.048	12661.28
587.408	12841.16
587.768	13055.39
588.127	13216.06
588.487	13495.61
588.846	13662.83
589.206	13799.55
589.565	14036.16
589.925	14315.25
590.284	14525.64
590.643	14801.79
591.003	15114.77
591.362	15307.31
591.721	15531.94
592.08	15789.1
592.44	16041.53
592.799	16262.31
593.158	16578.69
593.517	16811.22
593.876	17163.08
594.235	17397.65
594.593	17654.59
594.952	18031.98
595.311	18131.42
595.67	18476.94
596.029	18761
596.387	19153.08
596.746	19448.22
597.104	19567.08
597.463	19926.4
597.822	20163.45
598.18	20342.88
598.538	20692.03
598.897	21130.89
599.255	21188.96
599.613	21812.22
599.972	21946.68
600.33	22312.1
600.688	22508.48
601.046	22683.84
601.404	23126.76
601.762	23296.25
602.12	23613.08
602.478	23975.56
602.836	24265.49
603.194	24392.04
603.552	24621.64
603.91	24780.05
604.268	25159.03
604.625	25363.09
604.983	25701.39
605.341	25796.53
605.698	26120.36
606.056	26493.68
606.413	26676.95
606.771	27027.45
607.128	27269.93
607.485	27448.69
607.843	27593.54
608.2	27967.32
608.557	28146.97
608.914	28349.68
609.272	28616.11
609.629	28887.52
609.986	29101.3
610.343	29236.43
610.7	29527.27
611.057	29799.36
611.414	29948.51
611.771	30153.25
612.127	30506.01
612.484	30569.51
612.841	30820.35
613.198	30920.68
613.554	31048.14
613.911	31414.91
614.267	31583.49
614.624	31626.88
614.98	31841.79
615.337	32115.23
615.693	32234.55
616.05	32244.27
616.406	32657.36
616.762	32547.08
617.118	32874.53
617.475	33047.63
617.831	33208.76
618.187	33392.48
618.543	33463.44
618.899	33706.6
619.255	33862.08
619.611	33936.42
619.967	34084.44
620.323	34264.55
620.678	34183.2
621.034	34300.03
621.39	34380.25
621.746	34488.5
622.101	35083.74
622.457	34921.48
622.812	34913.8
623.168	35095.04
623.523	35235.15
623.879	35502.71
624.234	35390.62
624.589	35533.44
624.945	35625.19
625.3	35669.49
625.655	35692.76
626.01	35853.21
626.365	35956.26
626.72	35902.25
627.075	36090.94
627.43	36027.89
627.785	36081.9
628.14	36155.35
628.495	36288.9
628.85	36191.28
629.205	36160.09
629.559	36404.38
629.914	36395.12
630.269	36424.72
630.623	36302.46
630.978	36311.5
631.332	36508.11
631.687	36570.48
632.041	36485.51
632.396	36616.58
632.75	36634.66
633.104	36509.01
633.459	36403.93
633.813	36559.86
634.167	36537.71
634.521	36516.92
634.875	36710.14
635.229	36664.26
635.583	36549.46
635.937	36561.21
636.291	36645.73
636.645	36657.71
636.999	36563.02
637.352	36707.65
637.706	36457.49
638.06	36670.14
638.413	36634.88
638.767	36622.46
639.121	36684.6
639.474	36512.63
639.828	36612.96
640.181	36581.33
640.534	36667.65
640.888	36560.08
641.241	36436.92
641.594	36444.61
641.947	36621.33
642.301	36586.3
642.654	36632.17
643.007	36601.21
643.36	36656.8
643.713	36535.9
644.066	36641.44
644.419	36401.67
644.771	36196.25
645.124	35980.66
645.477	35937.73
645.83	35708.58
646.182	35591.97
646.535	35358.31
646.888	35541.35
647.24	35393.33
647.593	35678.3
647.945	35577.74
648.298	35263.85
648.65	35253.9
649.002	35303.39
649.355	35450.28
649.707	35292.55
650.059	35481.47
650.411	35889.82
650.763	36029.7
651.115	36341.33
651.467	36208.91
651.819	36144.28
652.171	36092.53
652.523	36067.67
652.875	36145.63
653.227	35875.13
653.578	36280.77
653.93	36194.44
654.282	35801.23
654.633	35797.17
654.985	35900.89
655.337	35979.76
655.688	36007.1
656.039	36005.75
656.391	35746.55
656.742	35854.11
657.094	35877.39
657.445	35990.38
657.796	35922.36
658.147	35774.34
658.498	35812.98
658.849	35894.11
659.2	35878.97
659.551	35774.34
659.902	35957.39
660.253	35784.29
660.604	35950.83
660.955	35650.28
661.306	35667.23
661.656	35704.06
662.007	35692.08
662.358	35779.99
662.708	35670.39
663.059	35722.14
663.409	35593.56
663.76	35864.06
664.11	35765.98
664.461	35735.02
664.811	35803.49
665.161	35646.44
665.511	35652.99
665.862	35650.28
666.212	35787.9
666.562	35714.23
666.912	35709.26
667.262	35608.02
667.612	35706.77
667.962	35669.49
668.312	35673.55
668.662	35876.94
669.011	35668.81
669.361	35586.1
669.711	35627.91
670.06	35499.55
670.41	35431.3
670.76	35465.65
671.109	35631.07
671.459	35578.64
671.808	35480.79
672.157	35597.85
672.507	35406.22
672.856	35406.44
673.205	35377.06
673.554	35474.01
673.904	35431.07
674.253	35669.49
674.602	35444.41
674.951	35006.68
675.3	34780.02
675.649	35263.85
675.998	35253.9
676.346	35119.9
676.695	35336.84
677.044	35117.18
677.393	35282.38
677.741	35289.83
678.09	35104.98
678.438	35137.3
678.787	35218.65
679.135	35108.82
679.484	34938.66
679.832	35097.75
680.181	34925.55
680.529	35019.11
680.877	35021.82
681.225	34942.95
681.573	35116.28
681.922	34906.79
682.27	34667.48
682.618	34686.69
682.966	34658.66
683.314	34696.86
683.661	34495.05
684.009	34477.43
684.357	34337.54
684.705	34323.53
685.053	34221.84
685.4	34318.33
685.748	34129.41
686.095	34097.78
686.443	34027.5
686.79	34003.99
687.138	34067.72
687.485	34019.81
687.832	33829.99
688.18	33916.09
688.527	33751.57
688.874	33810.1
689.221	33656.21
689.568	33575.53
689.915	33533.95
690.262	33645.13
690.609	33411.24
690.956	33276.1
691.303	33250.79
691.65	33186.16
691.997	33135.09
692.344	33013.28
692.69	32861.88
693.037	33025.04
693.383	32842.89
693.73	32825.27
694.077	32667.08
694.423	32651.26
694.769	32653.97
695.116	32349.12
695.462	32443.58
695.808	32325.39
696.155	32270.71
696.501	32100.99
696.847	31971.73
697.193	31905.07
697.539	31966.76
697.885	31680.44
698.231	31720.21
698.577	31640.67
698.923	31595.92
699.269	31457.39
699.614	31377.85
699.96	31288.58
700.306	31408.35
700.651	31154.35
700.997	31022.6
701.342	31038.87
701.688	31016.27
702.033	30932.21
702.379	30769.5
702.724	30667.58
703.069	30848.82
703.415	30356.41
703.76	30513.01
704.105	30444.09
704.45	30291.55
704.795	30219.01
705.14	30076.19
705.485	30023.53
705.83	29935.63
706.175	29990.54
706.52	29943.31
706.865	29760.94
707.209	29845.01
707.554	29763.43
707.899	29698.57
708.243	29496.54
708.588	29595.07
708.932	29484.34
709.277	29260.16
709.621	29404.11
709.966	29186.27
710.31	29220.39
710.654	29061.3
710.998	29073.73
711.342	28981.98
711.687	28829.44
712.031	28698.37
712.375	28640.07
712.719	28748.76
713.063	28725.26
713.407	28705.83
713.75	28591.71
714.094	28703.34
714.438	28426.74
714.782	28529.56
715.125	28320.75
715.469	28336.12
715.812	28238.49
716.156	28072.85
716.499	28191.04
716.843	28148.1
717.186	28087.31
717.53	28133.41
717.873	28017.03
718.216	28018.61
718.559	27727.77
718.902	27798.05
719.246	27884.15
719.589	27564.84
719.932	27549.47
720.275	27503.82
720.617	27551.73
720.96	27518.29
721.303	27496.59
721.646	27504.28
721.989	27222.7
722.331	27406.2
722.674	27275.58
723.016	27253.44
723.359	27176.83
723.701	27263.38
724.044	27011.41
724.386	26954.46
724.729	27018.64
725.071	26999.88
725.413	27007.34
725.755	26888.02
726.097	26947.46
726.439	26706.56
726.782	26788.82
727.124	26840.79
727.465	26707.24
727.807	26751.3
728.149	26669.27
728.491	26446
728.833	26510.63
729.175	26399
729.516	26434.25
729.858	26440.12
730.199	26394.48
730.541	26216.4
730.882	26232.9
731.224	26396.74
731.565	26105.44
731.906	26147.25
732.248	26336.4
732.589	26071.09
732.93	25943.87
733.271	25940.7
733.612	26102.05
733.953	26010.98
734.294	25869.07
734.635	25844.43
734.976	25789.97
735.317	25760.37
735.658	25715.85
735.999	25718.79
736.339	25718.11
736.68	25728.28
737.021	25521.73
737.361	25589.07
737.702	25623.87
738.042	25556.98
738.383	25500.26
738.723	25529.87
739.063	25402.19
739.404	25422.98
739.744	25434.73
740.084	25307.05
740.424	25333.26
740.764	25294.62
741.104	25366.93
741.444	25178.01
741.784	25133.72
742.124	25186.82
742.464	25162.87
742.804	25103.44
743.143	25084
743.483	25192.93
743.823	24964.23
744.162	24984.12
744.502	24945.02
744.841	24950.22
745.181	24810.79
745.52	24681.53
745.86	24855.76
746.199	24804.46
746.538	24621.64
746.877	24794.52
747.216	24813.73
747.556	24681.3
747.895	24583.68
748.234	24592.04
748.573	24606.27
748.911	24533.51
749.25	24513.85
749.589	24339.61
749.928	24440.85
750.267	24459.16
750.605	24317.92
750.944	24232.5
751.283	24216.91
751.621	24256.68
751.96	24120.86
752.298	24031.6
752.636	24152.5
752.975	23933.07
753.313	23861.21
753.651	24006.29
753.989	23884.48
754.327	23860.98
754.666	23758.84
755.004	23815.11
755.342	23855.56
755.679	23724.04
756.017	23661.89
756.355	23669.12
756.693	23478.39
757.031	23546.19
757.368	23359.08
757.706	23381.67
758.044	23390.26
758.381	23406.98
758.719	23360.43
759.056	23267.55
759.394	23180.1
759.731	23128.57
760.068	22968.35
760.405	23027.11
760.743	22806.77
761.08	23006.32
761.417	22757.28
