Data from hue_60_FLMS001491_8.txt Node
Date: Mon Feb 06 15:11:51 GMT 2017
User: dcchb
Spectrometer: FLMS00149
Trigger mode: 0
Integration Time (sec): 2.000000E-2
Scans to average: 10
Electric dark correction enabled: true
Nonlinearity correction enabled: false
Boxcar width: 0
XAxis mode: Wavelengths
Number of Pixels in Spectrum: 2048
>>>>>Begin Spectral Data<<<<<
341.393	9.66
341.776	9.66
342.16	9.66
342.543	-56.33
342.927	-90
343.31	-70.56
343.693	-66.95
344.077	-66.72
344.46	-62.2
344.843	-58.81
345.226	-45.93
345.61	-24.24
345.993	-22.2
346.376	1.98
346.759	14.41
347.142	18.47
347.525	49.43
347.908	66.38
348.291	72.03
348.674	90.34
349.057	104.57
349.44	126.27
349.823	136.89
350.206	163.78
350.588	189.77
350.971	213.5
351.354	218.02
351.737	234.97
352.119	255.76
352.502	266.6
352.884	288.75
353.267	269.99
353.65	308.86
354.032	279.94
354.414	313.83
354.797	326.94
355.179	314.06
355.562	331.46
355.944	341.86
356.326	362.65
356.709	340.27
357.091	333.95
357.473	372.82
357.855	340.95
358.238	346.83
358.62	341.4
359.002	343.44
359.384	370.56
359.766	343.66
360.148	347.28
360.53	346.6
360.912	347.05
361.294	344.57
361.676	331.69
362.057	367.84
362.439	350.67
362.821	332.36
363.203	344.57
363.584	328.52
363.966	329.2
364.348	326.94
364.729	347.5
365.111	320.84
365.493	331.23
365.874	325.36
366.256	327.17
366.637	312.7
367.019	328.07
367.4	314.06
367.781	332.14
368.163	325.58
368.544	338.92
368.925	305.25
369.306	329.88
369.688	312.48
370.069	296.21
370.45	321.97
370.831	329.88
371.212	342.08
371.593	324.91
371.974	317.9
372.355	313.83
372.736	320.61
373.117	331.01
373.498	335.3
373.879	320.39
374.26	329.2
374.641	338.24
375.021	321.97
375.402	320.16
375.783	321.07
376.163	321.52
376.544	337.11
376.925	345.02
377.305	316.32
377.686	334.85
378.066	340.27
378.447	346.83
378.827	332.59
379.208	347.5
379.588	326.71
379.968	335.3
380.349	347.96
380.729	350.22
381.109	356.54
381.489	346.83
381.87	329.88
382.25	336.66
382.63	339.14
383.01	365.13
383.39	343.89
383.77	336.88
384.15	361.29
384.53	345.02
384.91	376.43
385.29	357.67
385.67	333.04
386.049	349.54
386.429	376.43
386.809	350.67
387.189	361.74
387.568	363.1
387.948	372.82
388.328	366.71
388.707	354.06
389.087	345.92
389.466	365.36
389.846	382.31
390.225	372.14
390.605	370.78
390.984	384.79
391.363	364.45
391.743	371.69
392.122	374.4
392.501	366.49
392.881	366.49
393.26	367.84
393.639	365.36
394.018	380.95
394.397	368.75
394.776	391.35
395.155	386.15
395.534	374.85
395.913	394.06
396.292	385.7
396.671	390.22
397.05	393.38
397.429	398.13
397.808	395.19
398.186	405.81
398.565	374.4
398.944	376.2
399.323	397.22
399.701	380.72
400.08	398.35
400.458	403.77
400.837	410.33
401.215	400.38
401.594	391.8
401.972	422.08
402.351	408.29
402.729	407.84
403.107	404.45
403.486	405.36
403.864	412.59
404.242	413.27
404.62	411.01
404.999	414.62
405.377	407.16
405.755	418.01
406.133	416.43
406.511	422.98
406.889	415.3
407.267	427.73
407.645	413.27
408.023	434.06
408.401	436.32
408.779	443.32
409.156	428.86
409.534	426.15
409.912	429.31
410.29	429.54
410.667	427.95
411.045	462.3
411.422	452.14
411.8	458.69
412.178	461.85
412.555	479.48
412.933	453.26
413.31	454.17
413.687	474.06
414.065	490.33
414.442	503.21
414.819	486.48
415.197	482.42
415.574	494.62
415.951	499.37
416.328	481.29
416.705	475.64
417.082	495.3
417.46	488.52
417.837	498.01
418.214	494.62
418.591	507.05
418.967	508.18
419.344	501.85
419.721	504.11
420.098	530.33
420.475	503.21
420.852	512.92
421.228	538.46
421.605	527.16
421.982	515.41
422.358	534.84
422.735	543.21
423.111	543.21
423.488	550.44
423.864	545.24
424.241	542.75
424.617	541.4
424.994	552.02
425.37	555.64
425.746	571.91
426.123	578.01
426.499	570.32
426.875	565.13
427.251	582.98
427.627	606.71
428.003	590.21
428.379	594.5
428.756	590.44
429.132	597.89
429.507	589.08
429.883	619.81
430.259	603.32
430.635	603.54
431.011	614.62
431.387	624.11
431.763	625.92
432.138	638.12
432.514	665.01
432.89	651.45
433.265	636.08
433.641	658.46
434.016	655.29
434.392	641.73
434.767	664.78
435.143	674.05
435.518	690.77
435.894	664.78
436.269	695.07
436.644	714.95
437.02	693.03
437.395	723.31
437.77	702.07
438.145	709.3
438.52	730.09
438.895	718.34
439.271	717.21
439.646	746.82
440.021	740.26
440.395	713.37
440.77	742.52
441.145	760.15
441.52	779.58
441.895	750.66
442.27	772.8
442.645	764.22
443.019	774.39
443.394	771.9
443.769	760.15
444.143	761.28
444.518	781.84
444.892	786.36
445.267	791.34
445.641	793.59
446.016	794.95
446.39	811.9
446.764	832.69
447.139	804.22
447.513	796.76
447.887	809.64
448.262	839.7
448.636	799.02
449.01	851.9
449.384	812.35
449.758	835.63
450.132	845.8
450.506	869.75
450.88	867.94
451.254	846.47
451.628	857.55
452.002	864.33
452.376	848.96
452.75	931.22
453.123	890.09
453.497	897.55
453.871	916.76
454.244	931.22
454.618	930.09
454.992	936.42
455.365	963.99
455.739	957.21
456.112	952.91
456.486	972.57
456.859	969.64
457.232	980.71
457.606	999.69
457.979	1013.02
458.352	1052.57
458.725	1040.59
459.099	1053.93
459.472	1043.98
459.845	1092.12
460.218	1087.15
460.591	1097.32
460.964	1110.65
461.337	1121.04
461.71	1131.67
462.083	1160.36
462.456	1173.02
462.829	1168.05
463.201	1167.82
463.574	1193.13
463.947	1208.73
464.32	1222.06
464.692	1232.68
465.065	1265.45
465.438	1297.08
465.81	1266.58
466.183	1317.65
466.555	1287.82
466.928	1335.95
467.3	1346.35
467.672	1349.74
468.045	1432.45
468.417	1420.02
468.789	1418.89
469.161	1457.31
469.534	1496.63
469.906	1534.14
470.278	1554.48
470.65	1564.42
471.022	1579.56
471.394	1640.13
471.766	1660.01
472.138	1684.64
472.51	1749.28
472.882	1786.56
473.253	1816.39
473.625	1828.37
473.997	1912.89
474.369	1913.11
474.74	1971.42
475.112	2018.42
475.484	2060
475.855	2120.34
476.227	2177.06
476.598	2235.59
476.97	2299.32
477.341	2333.22
477.713	2437.39
478.084	2438.07
478.455	2518.07
478.827	2610.72
479.198	2681.91
479.569	2721.68
479.94	2836.48
480.311	2891.17
480.682	3009.13
481.053	3106.08
481.424	3230.59
481.795	3274.66
482.166	3375.22
482.537	3494.31
482.908	3600.75
483.279	3683.46
483.65	3798.04
484.021	3888.65
484.391	4005.49
484.762	4078.48
485.133	4201.64
485.503	4308.08
485.874	4503.33
486.244	4635.53
486.615	4715.98
486.985	4892.92
487.356	5012.69
487.726	5080.04
488.097	5287.94
488.467	5366.81
488.837	5618.1
489.207	5736.74
489.578	5898.32
489.948	6042.72
490.318	6197.75
490.688	6364.52
491.058	6511.86
491.428	6697.85
491.798	6838.86
492.168	7033.66
492.538	7135.12
492.908	7339.86
493.278	7618.73
493.648	7675.67
494.017	7860.3
494.387	7991.37
494.757	8174.19
495.126	8345.26
495.496	8528.98
495.866	8649.66
496.235	8828.86
496.605	9055.07
496.974	9218.23
497.344	9375.29
497.713	9556.98
498.082	9691.44
498.452	9909.97
498.821	9942.73
499.19	10151.32
499.559	10388.37
499.928	10514.47
500.298	10641.92
500.667	10870.62
501.036	10902.71
501.405	11217.73
501.774	11278.07
502.143	11445.52
502.512	11577.04
502.88	11887.77
503.249	11853.42
503.618	12083.69
503.987	12199.62
504.356	12349.22
504.724	12544.92
505.093	12627.18
505.462	12868.98
505.83	13023.78
506.199	13182.2
506.567	13433.49
506.936	13537.21
507.304	13655.63
507.672	13879.8
508.041	14004.32
508.409	14183.07
508.777	14333.8
509.145	14587.36
509.514	14596.4
509.882	14732.21
510.25	14828.71
510.618	15094.46
510.986	15166.32
511.354	15394.79
511.722	15567.67
512.09	15797.72
512.458	15727.21
512.826	15972.4
513.193	16133.08
513.561	16264.15
513.929	16415.33
514.297	16597.25
514.664	16723.35
515.032	16883.79
515.4	17005.6
515.767	17222.54
516.135	17351.8
516.502	17315.42
516.869	17646.49
517.237	17771
517.604	17796.99
517.972	18005.8
518.339	18131.22
518.706	18273.14
519.073	18416.18
519.44	18556.29
519.808	18807.36
520.175	18807.81
520.542	19084.19
520.909	19223.39
521.276	19300
521.643	19516.94
522.009	19714
522.376	19855.47
522.743	20102.24
523.11	20207.32
523.477	20456.81
523.843	20552.17
524.21	20787.19
524.577	21017.24
524.943	21116.9
525.31	21195.77
525.676	21438.02
526.043	21584.69
526.409	21677.79
526.776	21888.18
527.142	22004.11
527.508	22201.39
527.874	22330.43
528.241	22365.01
528.607	22545.11
528.973	22828.72
529.339	22770.19
529.705	23083.18
530.071	23258.09
530.437	23372.66
530.803	23579.66
531.169	23641.81
531.535	23625.99
531.901	23758.41
532.267	23957.51
532.632	24001.35
532.998	24238.85
533.364	24370.15
533.73	24463.26
534.095	24709.12
534.461	24704.38
534.826	24823.02
535.192	24889.46
535.557	25067.76
535.923	25112.5
536.288	25264.36
536.653	25309.11
537.019	25324.48
537.384	25537.8
537.749	25601.98
538.114	25670.45
538.479	25795.65
538.845	25874.07
539.21	25844.91
539.575	26037.68
539.94	26079.71
540.305	26221.17
540.67	26291.23
541.034	26541.39
541.399	26499.81
541.764	26571.22
542.129	26756.75
542.494	26779.8
542.858	26894.83
543.223	27011.89
543.587	27065.67
543.952	27082.17
544.316	27121.49
544.681	27164.65
545.045	27458.43
545.41	27537.52
545.774	27646.9
546.138	27623.17
546.503	27730.29
546.867	27680.35
547.231	27991.75
547.595	27888.02
547.959	28131.86
548.324	28109.03
548.688	28213.21
549.052	28365.75
549.416	28405.07
549.779	28485.07
550.143	28504.5
550.507	28627.89
550.871	28759.19
551.235	28824.95
551.599	29045.96
551.962	29045.96
552.326	29211.38
552.689	29461.09
553.053	29299.96
553.417	29460.86
553.78	29749.44
554.143	29682.33
554.507	29855.88
554.87	29987.18
555.234	30330.45
555.597	29978.59
555.96	30188.3
556.323	30347.17
556.686	30381.52
557.05	30615.64
557.413	30670.1
557.776	30779.7
558.139	31000.94
558.502	31097.66
558.865	31053.59
559.228	31353.47
559.59	31369.74
559.953	31553.92
560.316	31933.34
560.679	31714.36
561.041	31969.95
561.404	32225.31
561.767	32447.23
562.129	32174.69
562.492	32649.71
562.854	32575.13
563.217	32647.9
563.579	32775.58
563.941	32929.02
564.304	33247.2
564.666	33401.55
565.028	33463.47
565.39	33487.42
565.753	33880.41
566.115	33894.65
566.477	33973.97
566.839	34152.49
567.201	34291.7
567.563	34369.44
567.925	34583.67
568.287	34508.19
568.648	34632.25
569.01	34783.21
569.372	35097.55
569.734	34918.35
570.095	35294.16
570.457	35269.75
570.819	35422.51
571.18	35471.78
571.542	35660.93
571.903	35733.92
572.265	35846.01
572.626	35851.43
572.987	35951.54
573.349	36132.33
573.71	36145.43
574.071	36315.15
574.432	36345.65
574.794	36739.54
575.155	36742.48
575.516	36725.53
575.877	36823.61
576.238	36882.82
576.599	37066.99
576.96	37082.81
577.32	37144.05
577.681	37192.86
578.042	37250.04
578.403	37427.43
578.763	37481.44
579.124	37559.86
579.485	37593.53
579.845	37758.27
580.206	37661.55
580.566	37705.17
580.927	37639.63
581.287	37875.11
581.648	37881.89
582.008	37955.1
582.368	37941.77
582.728	37954.65
583.089	38007.53
583.449	37905.39
583.809	38075.1
584.169	38078.94
584.529	38027.42
584.889	38237.13
585.249	38135.66
585.609	38125.95
585.969	38248.66
586.329	38005.05
586.688	38144.03
587.048	38245.27
587.408	38214.08
587.768	38229.9
588.127	38131.14
588.487	38184.48
588.846	38487.97
589.206	38203.68
589.565	38331.37
589.925	38419.5
590.284	38279.16
590.643	38388.31
591.003	38436.22
591.362	38662.43
591.721	38572.49
592.08	38542.88
592.44	38626.95
592.799	38603.22
593.158	38537.69
593.517	38608.42
593.876	38764.12
594.235	38557.8
594.593	38770.22
594.952	38803.89
595.311	38625.37
595.67	38726.38
596.029	38893.84
596.387	38914.17
596.746	38918.47
597.104	38988.3
597.463	38896.32
597.822	39053.38
598.18	38947.39
598.538	38764.8
598.897	39091.12
599.255	38817.68
599.613	39391.45
599.972	39228.06
600.33	39354.84
600.688	39148.97
601.046	39253.15
601.404	39431.45
601.762	39278.68
602.12	39560.03
602.478	39525.91
602.836	39562.07
603.194	39342.64
603.552	39462.63
603.91	39383.09
604.268	39742.85
604.625	39585.57
604.983	39787.6
605.341	39580.82
605.698	39841.16
606.056	39808.16
606.413	39856.3
606.771	40075.27
607.128	40122.96
607.485	39926.58
607.843	40120.24
608.2	40346.91
608.557	40394.36
608.914	40323.85
609.272	40432.33
609.629	40503.06
609.986	40699.66
610.343	40575.83
610.7	40718.65
611.057	40775.14
611.414	40656.73
611.771	40862.82
612.127	41027.11
612.484	41055.81
612.841	41123.61
613.198	41106.66
613.554	40981.01
613.911	41366.09
614.267	41301.91
614.624	41354.56
614.98	41322.25
615.337	41530.15
615.693	41693.76
616.05	41424.84
616.406	41775.79
616.762	41591.17
617.118	41618.96
617.475	41681.11
617.831	41886.75
618.187	41884.94
618.543	42051.49
618.899	42166.29
619.255	42097.59
619.611	42060.08
619.967	42210.81
620.323	42357.02
620.678	42176.24
621.034	42162.68
621.39	42153.86
621.746	42233.86
622.101	42594.76
622.457	42249.68
622.812	42388.21
623.168	42444.7
623.523	42546.62
623.879	42600.18
624.234	42431.82
624.589	42609.22
624.945	42520.86
625.3	42704.81
625.655	42595.66
626.01	42549.33
626.365	42761.76
626.72	42673.62
627.075	42661.87
627.43	42717.24
627.785	42580.97
628.14	42540.07
628.495	42762.89
628.85	42671.36
629.205	42512.27
629.559	42730.57
629.914	42508.43
630.269	42654.87
630.623	42494.19
630.978	42426.62
631.332	42668.43
631.687	42781.42
632.041	42531.25
632.396	42627.98
632.75	42506.4
633.104	42533.29
633.459	42357.47
633.813	42311.37
634.167	42366.97
634.521	42418.26
634.875	42437.02
635.229	42289.45
635.583	42145.05
635.937	42152.96
636.291	42232.73
636.645	42249.45
636.999	42108.67
637.352	42365.84
637.706	41924.72
638.06	42188.21
638.413	42050.14
638.767	42155.45
639.121	42072.74
639.474	41839.3
639.828	41868.22
640.181	42008.33
640.534	42023.7
640.888	41862.35
641.241	41658.96
641.594	41764.72
641.947	41869.8
642.301	41738.51
642.654	41631.62
643.007	41798.62
643.36	41726.76
643.713	41611.05
644.066	41828
644.419	41573.31
644.771	41250.16
645.124	40977.85
645.477	40933.1
645.83	40713.22
646.182	40510.97
646.535	40484.75
646.888	40409.73
647.24	40118.21
647.593	40511.87
647.945	40500.12
648.298	40217.42
648.65	40111.66
649.002	40283.86
649.355	40296.51
649.707	39995.28
650.059	40305.55
650.411	40707.57
650.763	40765.43
651.115	41103.27
651.467	40898.3
651.819	41091.07
652.171	40965.65
652.523	40989.6
652.875	40855.14
653.227	40814.69
653.578	41063.5
653.93	40905.76
654.282	40809.49
654.633	40655.15
654.985	40889.94
655.337	40687.46
655.688	40686.56
656.039	40852.2
656.391	40563.85
656.742	40581.02
657.094	40573.11
657.445	40579.22
657.796	40691.98
658.147	40516.39
658.498	40423.51
658.849	40587.12
659.2	40472.33
659.551	40324.31
659.902	40556.62
660.253	40381.48
660.604	40416.73
660.955	40255.38
661.306	40405.66
661.656	40376.51
662.007	40289.51
662.358	40329.28
662.708	40370.18
663.059	40341.71
663.409	40075.27
663.76	40408.82
664.11	40425.55
664.461	40355.49
664.811	40481.59
665.161	40301.03
665.511	40288.6
665.862	40336.06
666.212	40394.81
666.562	40414.02
666.912	40272.78
667.262	40293.57
667.612	40230.3
667.962	40189.85
668.312	40216.29
668.662	40362.27
669.011	40159.34
669.361	40155.05
669.711	39990.76
670.06	40039.34
670.41	39969.29
670.76	39962.28
671.109	40114.82
671.459	40166.12
671.808	39945.11
672.157	40032.11
672.507	39839.12
672.856	39805.9
673.205	39777.65
673.554	39928.16
673.904	39858.78
674.253	40155.27
674.602	39967.93
674.951	39278.23
675.3	39121.17
675.649	39864.66
675.998	39732.91
676.346	39711.67
676.695	39811.78
677.044	39593.03
677.393	39738.79
677.741	39824.43
678.09	39576.53
678.438	39477.1
678.787	39539.92
679.135	39722.74
679.484	39380.38
679.832	39428.29
680.181	39263.54
680.529	39354.61
680.877	39348.29
681.225	39333.37
681.573	39407.95
681.922	39267.61
682.27	38927.51
682.618	39068.29
682.966	38995.3
683.314	39050.22
683.661	38967.28
684.009	38737.46
684.357	38746.72
684.705	38671.92
685.053	38683.9
685.4	38614.75
685.748	38349.67
686.095	38438.93
686.443	38360.52
686.79	38284.59
687.138	38428.54
687.485	38296.11
687.832	38124.36
688.18	38211.14
688.527	37990.58
688.874	37854.77
689.221	37867.2
689.568	37701.1
689.915	37758.27
690.262	37589.92
690.609	37484.61
690.956	37334.56
691.303	37397.83
691.65	37209.36
691.997	37255.46
692.344	37035.35
692.69	36954.9
693.037	37050.95
693.383	36679.88
693.73	36989.03
694.077	36617.74
694.423	36532.54
694.769	36528.47
695.116	36380.46
695.462	36414.81
695.808	36259.56
696.155	36369.83
696.501	35991.77
696.847	36257.3
697.193	35806.46
697.539	35964.2
697.885	35632
698.231	35671.1
698.577	35546.58
698.923	35631.77
699.269	35465.45
699.614	35237.21
699.96	35188.4
700.306	35028.85
700.651	35078.8
700.997	34968.52
701.342	34935.52
701.688	34862.3
702.033	34731.46
702.379	34733.27
702.724	34570.56
703.069	34623.21
703.415	34340.51
703.76	34378.25
704.105	34189.55
704.45	34226.16
704.795	34056.9
705.14	33900.3
705.485	33935.32
705.83	33747.3
706.175	33804.03
706.52	33723.8
706.865	33561.77
707.209	33521.32
707.554	33378.73
707.899	33437.93
708.243	33324.27
708.588	33190.94
708.932	33169.24
709.277	33027.55
709.621	32978.06
709.966	32740.33
710.31	32855.58
710.654	32615.13
710.998	32703.04
711.342	32636.83
711.687	32533.78
712.031	32407.45
712.375	32408.81
712.719	32382.14
713.063	32293.78
713.407	32405.65
713.75	32223.05
714.094	32145.76
714.438	31971.08
714.782	31991.42
715.125	31835.94
715.469	32089.72
715.812	31746.23
716.156	31602.28
716.499	31690.41
716.843	31642.05
717.186	31577.64
717.53	31663.97
717.873	31623.07
718.216	31423.98
718.559	31384.43
718.902	31296.52
719.246	31271.66
719.589	31110.76
719.932	31034.16
720.275	30951.9
720.617	31065.79
720.96	30869.87
721.303	30876.65
721.646	30886.36
721.989	30653.6
722.331	30831.68
722.674	30775.63
723.016	30672.58
723.359	30635.52
723.701	30656.09
724.044	30564.56
724.386	30337.22
724.729	30469.65
725.071	30285.7
725.413	30337.9
725.755	30365.92
726.097	30269.43
726.439	30009.1
726.782	30093.84
727.124	30255.42
727.465	30035.76
727.807	30054.29
728.149	29868.99
728.491	29911.02
728.833	29873.06
729.175	29645.04
729.516	29667.86
729.858	29643.46
730.199	29692.95
730.541	29614.31
730.882	29623.35
731.224	29640.75
731.565	29298.83
731.906	29393.29
732.248	29417.02
732.589	29254.09
732.93	29149.46
733.271	29202.34
733.612	29149.23
733.953	29219.06
734.294	29117.14
734.635	28878.51
734.976	28985.17
735.317	28861.11
735.658	28864.5
735.999	28867.21
736.339	28709.02
736.68	28936.58
737.021	28685.97
737.361	28702.24
737.702	28869.92
738.042	28668.12
738.383	28505.41
738.723	28655.91
739.063	28553.99
739.404	28507.44
739.744	28529.59
740.084	28417.5
740.424	28314.68
740.764	28387.22
741.104	28360.1
741.444	28225.87
741.784	28076.95
742.124	28294.11
742.464	28169.6
742.804	28072.43
743.143	28083.05
743.483	27928.47
743.823	27858.19
744.162	27797.18
744.502	27853
744.841	27717.86
745.181	27907.01
745.52	27722.6
745.86	27713.57
746.199	27615.49
746.538	27664.75
746.877	27582.5
747.216	27527.81
747.556	27474.25
747.895	27490.75
748.234	27360.35
748.573	27265.89
748.911	27399.9
749.25	27240.81
749.589	27105.45
749.928	27137.31
750.267	27131.66
750.605	26962.17
750.944	26990.87
751.283	26887.15
751.621	26880.59
751.96	26834.72
752.298	26811.44
752.636	26811.22
752.975	26698
753.313	26575.06
753.651	26745.68
753.989	26498.46
754.327	26556.31
754.666	26381.4
755.004	26349.53
755.342	26388.18
755.679	26317.44
756.017	26200.61
756.355	26216.43
756.693	26063.89
