Data from hue_40_FLMS001491_75.txt Node
Date: Mon Feb 06 15:08:25 GMT 2017
User: dcchb
Spectrometer: FLMS00149
Trigger mode: 0
Integration Time (sec): 2.000000E-2
Scans to average: 10
Electric dark correction enabled: true
Nonlinearity correction enabled: false
Boxcar width: 0
XAxis mode: Wavelengths
Number of Pixels in Spectrum: 2048
>>>>>Begin Spectral Data<<<<<
341.393	-22.02
341.776	-22.02
342.16	-22.02
342.543	-59.76
342.927	-67.22
343.31	-55.92
343.693	-56.37
344.077	-42.58
344.46	-54.56
344.843	-64.05
345.226	-32.41
345.61	-45.97
345.993	-17.5
346.376	-15.69
346.759	-3.49
347.142	11.65
347.525	42.61
347.908	58.88
348.291	75.83
348.674	93.23
349.057	106.34
349.44	144.3
349.823	142.95
350.206	186.79
350.588	173.46
350.971	221.59
351.354	231.08
351.737	225.66
352.119	233.79
352.502	258.2
352.884	260.69
353.267	289.16
353.65	288.93
354.032	290.06
354.414	310.4
354.797	314.02
355.179	335.71
355.562	311.53
355.944	338.88
356.326	330.74
356.709	331.19
357.091	326.22
357.473	344.75
357.855	329.16
358.238	364.19
358.62	351.98
359.002	360.34
359.384	330.29
359.766	340.23
360.148	330.51
360.53	351.98
360.912	329.38
361.294	346.78
361.676	311.98
362.057	322.6
362.439	335.71
362.821	347.01
363.203	344.52
363.584	324.41
363.966	324.64
364.348	335.26
364.729	305.88
365.111	315.6
365.493	325.77
365.874	299.1
366.256	321.02
366.637	323.06
367.019	305.43
367.4	322.15
367.781	316.73
368.163	312.66
368.544	316.73
368.925	297.29
369.306	325.32
369.688	319.44
370.069	309.27
370.45	310.85
370.831	311.53
371.212	311.53
371.593	319.21
371.974	312.66
372.355	302.49
372.736	323.28
373.117	308.59
373.498	314.02
373.879	314.92
374.26	313.57
374.641	305.88
375.021	331.64
375.402	326.67
375.783	336.39
376.163	329.38
376.544	333.9
376.925	323.06
377.305	327.12
377.686	336.16
378.066	342.94
378.447	318.76
378.827	328.48
379.208	329.61
379.588	337.97
379.968	337.29
380.349	340.91
380.729	304.07
381.109	347.46
381.489	327.12
381.87	343.62
382.25	341.36
382.63	315.83
383.01	321.25
383.39	331.19
383.77	361.93
384.15	352.21
384.53	333.9
384.91	356.5
385.29	363.06
385.67	350.17
386.049	356.95
386.429	330.29
386.809	345.43
387.189	354.24
387.568	360.8
387.948	368.48
388.328	344.07
388.707	341.14
389.087	356.05
389.466	364.86
389.846	377.52
390.225	320.57
390.605	375.26
390.984	356.95
391.363	363.96
391.743	363.51
392.122	377.29
392.501	357.63
392.881	366.45
393.26	358.76
393.639	363.28
394.018	359.67
394.397	378.2
394.776	354.92
395.155	368.93
395.534	381.36
395.913	369.38
396.292	383.17
396.671	362.15
397.05	372.55
397.429	357.18
397.808	375.48
398.186	379.33
398.565	384.75
398.944	365.54
399.323	375.71
399.701	401.7
400.08	365.09
400.458	393.56
400.837	378.65
401.215	377.97
401.594	380
401.972	393.34
402.351	406.67
402.729	404.86
403.107	402.38
403.486	395.14
403.864	408.48
404.242	399.89
404.62	402.38
404.999	393.34
405.377	418.87
405.755	396.05
406.133	425.88
406.511	405.31
406.889	415.71
407.267	437.86
407.645	423.84
408.023	404.18
408.401	406.67
408.779	420
409.156	451.87
409.534	433.56
409.912	443.73
410.29	426.33
410.667	431.3
411.045	435.6
411.422	441.47
411.8	450.74
412.178	445.99
412.555	451.64
412.933	458.65
413.31	444.41
413.687	456.84
414.065	445.99
414.442	453.22
414.819	468.59
415.197	468.82
415.574	477.4
415.951	460.91
416.328	474.69
416.705	477.63
417.082	466.56
417.46	464.3
417.837	485.99
418.214	505.88
418.591	516.72
418.967	483.05
419.344	475.37
419.721	519.89
420.098	492.09
420.475	508.36
420.852	515.82
421.228	514.92
421.605	507.68
421.982	517.18
422.358	512.88
422.735	518.08
423.111	519.66
423.488	518.98
423.864	535.25
424.241	535.93
424.617	535.93
424.994	551.53
425.37	551.98
425.746	527.34
426.123	552.43
426.499	560.34
426.875	553.11
427.251	546.1
427.627	573.22
428.003	557.63
428.379	586.1
428.756	567.12
429.132	607.34
429.507	560.11
429.883	593.56
430.259	580.22
430.635	603.5
431.011	587.91
431.387	599.89
431.763	613.44
432.138	608.25
432.514	605.08
432.89	621.13
433.265	627.23
433.641	631.52
434.016	623.61
434.392	678.75
434.767	633.33
435.143	649.38
435.518	659.77
435.894	667.68
436.269	657.96
436.644	682.6
437.02	664.52
437.395	676.95
437.77	674.01
438.145	687.57
438.52	703.16
438.895	701.8
439.271	670.84
439.646	708.81
440.021	714.46
440.395	713.55
440.77	723.72
441.145	700
441.52	729.83
441.895	728.24
442.27	720.56
442.645	730.73
443.019	725.31
443.394	702.71
443.769	741.58
444.143	757.4
444.518	759.66
444.892	770.28
445.267	751.07
445.641	770.5
446.016	765.08
446.39	770.05
446.764	794
447.139	768.92
447.513	803.04
447.887	803.72
448.262	798.52
448.636	776.15
449.01	813.89
449.384	803.95
449.758	795.81
450.132	816.15
450.506	828.58
450.88	805.76
451.254	846.66
451.628	819.54
452.002	844.62
452.376	860.44
452.75	825.64
453.123	848.92
453.497	873.55
453.871	866.32
454.244	887.79
454.618	874
454.992	890.27
455.365	882.36
455.739	907.45
456.112	921.23
456.486	915.36
456.859	947.9
457.232	915.36
457.606	942.25
457.979	967.33
458.352	1011.85
458.725	965.53
459.099	997.39
459.472	1014.34
459.845	1016.82
460.218	1027.67
460.591	1027.44
460.964	1034.22
461.337	1078.52
461.71	1069.7
462.083	1067.9
462.456	1088.69
462.829	1101.34
463.201	1111.28
463.574	1110.83
463.947	1127.1
464.32	1158.97
464.692	1146.09
465.065	1147.22
465.438	1151.51
465.81	1196.03
466.183	1192.64
466.555	1252.98
466.928	1274.67
467.3	1232.19
467.672	1289.13
468.045	1290.94
468.417	1313.76
468.789	1338.17
469.161	1351.05
469.534	1357.38
469.906	1389.02
470.278	1425.63
470.65	1450.48
471.022	1454.78
471.394	1458.39
471.766	1504.95
472.138	1541.56
472.51	1544.49
472.882	1590.82
473.253	1616.81
473.625	1636.24
473.997	1690.48
474.369	1702.68
474.74	1722.12
475.112	1784.26
475.484	1777.71
475.855	1806.86
476.227	1866.07
476.598	1924.6
476.97	1993.75
477.341	1999.85
477.713	2050.24
478.084	2074.2
478.455	2170.69
478.827	2205.49
479.198	2246.4
479.569	2295.66
479.94	2379.27
480.311	2400.29
480.682	2513.96
481.053	2558.48
481.424	2598.93
481.795	2697.23
482.166	2727.74
482.537	2820.62
482.908	2908.3
483.279	2923.44
483.65	3023.55
484.021	3133.15
484.391	3167.73
484.762	3255.41
485.133	3356.42
485.503	3406.37
485.874	3478.23
486.244	3607.94
486.615	3657.66
486.985	3741.5
487.356	3865.11
487.726	3929.52
488.097	4079.12
488.467	4099
488.837	4281.37
489.207	4330.41
489.578	4445.21
489.948	4485.88
490.318	4588.03
490.688	4667.58
491.058	4789.83
491.428	4925.42
491.798	5007.68
492.168	5116.38
492.538	5152.53
492.908	5247.22
493.278	5437.95
493.648	5462.81
494.017	5569.47
494.387	5707.1
494.757	5703.25
495.126	5846.75
495.496	5945.51
495.866	6017.14
496.235	6149.8
496.605	6227.31
496.974	6328.1
497.344	6402.9
497.713	6474.76
498.082	6561.76
498.452	6704.81
498.821	6764.92
499.19	6831.13
499.559	6903.45
499.928	7017.34
500.298	7114.06
500.667	7141.18
501.036	7234.06
501.405	7364.91
501.774	7363.1
502.143	7492.13
502.512	7519.48
502.88	7658.91
503.249	7655.52
503.618	7815.06
503.987	7882.86
504.356	7928.96
504.724	8027.94
505.093	8070.65
505.462	8147.03
505.83	8248.95
506.199	8351.32
506.567	8404.65
506.936	8459.34
507.304	8567.36
507.672	8537.76
508.041	8701.82
508.409	8854.81
508.777	8859.33
509.145	8935.03
509.514	8968.25
509.882	9036.5
510.25	9064.07
510.618	9210.51
510.986	9192.65
511.354	9253.67
511.722	9401.24
512.09	9504.51
512.458	9462.7
512.826	9602.36
513.193	9637.39
513.561	9739.98
513.929	9748.8
514.297	9864.5
514.664	9912.86
515.032	9943.82
515.4	10061.11
515.767	10084.83
516.135	10149.92
516.502	10080.54
516.869	10315.79
517.237	10375.22
517.604	10391.94
517.972	10455.22
518.339	10563.92
518.706	10582.67
519.073	10586.06
519.44	10719.39
519.808	10778.83
520.175	10865.6
520.542	10984.25
520.909	11006.62
521.276	11013.85
521.643	11139.72
522.009	11213.17
522.376	11245.93
522.743	11331.81
523.11	11380.62
523.477	11567.96
523.843	11568.64
524.21	11687.28
524.577	11767.73
524.943	11775.86
525.31	11889.98
525.676	12022.64
526.043	12016.08
526.409	12096.08
526.776	12277.54
527.142	12298.11
527.508	12324.1
527.874	12464.21
528.241	12517.76
528.607	12545.56
528.973	12677.99
529.339	12628.72
529.705	12813.58
530.071	12934.7
530.437	12995.49
530.803	13031.42
531.169	13074.59
531.535	13143.74
531.901	13166.11
532.267	13225.54
532.632	13354.13
532.998	13388.25
533.364	13371.98
533.73	13440
534.095	13614.23
534.461	13668.24
534.826	13765.41
535.192	13753.21
535.557	13894.9
535.923	13858.97
536.288	13941.68
536.653	13993.66
537.019	13944.85
537.384	14105.97
537.749	14162.24
538.114	14235.91
538.479	14225.74
538.845	14272.52
539.21	14241.56
539.575	14389.13
539.94	14407.66
540.305	14512.06
540.67	14517.71
541.034	14517.26
541.399	14659.4
541.764	14570.82
542.129	14752.96
542.494	14769
542.858	14730.36
543.223	14857.59
543.587	14965.16
543.952	14997.47
544.316	15096.45
544.681	15030.24
545.045	15131.71
545.41	15247.18
545.774	15275.43
546.138	15380.29
546.503	15381.19
546.867	15361.76
547.231	15594.75
547.595	15627.74
547.959	15685.36
548.324	15608.3
548.688	15649.43
549.052	15748.87
549.416	15828.64
549.779	15874.06
550.143	15893.95
550.507	15968.52
550.871	15937.11
551.235	15985.7
551.599	16240.38
551.962	16146.37
552.326	16234.73
552.689	16324.9
553.053	16250.77
553.417	16312.92
553.78	16542.07
554.143	16498
554.507	16613.93
554.87	16629.07
555.234	16777.99
555.597	16687.6
555.96	16747.94
556.323	16779.12
556.686	16850.08
557.05	17019.34
557.413	16935.73
557.776	17093.24
558.139	17171.43
558.502	17210.52
558.865	17231.31
559.228	17400.57
559.59	17359.22
559.953	17457.07
560.316	17584.52
560.679	17653.22
561.041	17660.91
561.404	17702.49
561.767	17883.05
562.129	17863.84
562.492	18019.77
562.854	17972.54
563.217	18008.24
563.579	18143.6
563.941	18191.97
564.304	18279.42
564.666	18463.37
565.028	18481.9
565.39	18512.18
565.753	18632.18
566.115	18540.2
566.477	18784.49
566.839	18735
567.201	18932.28
567.563	18916.01
567.925	19003.02
568.287	19045.28
568.648	19086.63
569.01	19215.22
569.372	19401.42
569.734	19186.97
570.095	19457.47
570.457	19545.6
570.819	19534.3
571.18	19555.77
571.542	19703.34
571.903	19756.44
572.265	19841.19
572.626	19950.34
572.987	20091.35
573.349	20129.99
573.71	20105.36
574.071	20233.95
574.432	20345.81
574.794	20485.46
575.155	20637.32
575.516	20545.35
575.877	20721.16
576.238	20709.41
576.599	20919.8
576.96	21032.79
577.32	21079.12
577.681	21245.44
578.042	21305.1
578.403	21456.06
578.763	21588.71
579.124	21674.59
579.485	21831.19
579.845	21983.28
580.206	22008.59
580.566	22196.15
580.927	22210.84
581.287	22345.08
581.648	22496.94
582.008	22698.74
582.368	22724.5
582.728	23014.44
583.089	23038.62
583.449	23185.51
583.809	23392.05
584.169	23672.27
584.529	23603.57
584.889	23981.42
585.249	23968.99
585.609	24112.04
585.969	24298.25
586.329	24538.46
586.688	24623.66
587.048	24852.81
587.408	25035.63
587.768	25164.89
588.127	25375.96
588.487	25547.93
588.846	25907.24
589.206	25878.32
589.565	26076.73
589.925	26331.64
590.284	26424.74
590.643	26723.27
591.003	26903.15
591.362	27107.44
591.721	27143.37
592.08	27356.47
592.44	27567.99
592.799	27817.47
593.158	27917.59
593.517	28048.43
593.876	28322.77
594.235	28445.71
594.593	28730.9
594.952	28824.91
595.311	28892.25
595.67	29284.33
596.029	29456.98
596.387	29881.83
596.746	29851.09
597.104	29934.71
597.463	30012.67
597.822	30437.07
598.18	30308.71
598.538	30604.97
598.897	30826.89
599.255	30856.26
599.613	31297.84
599.972	31261.9
600.33	31552.97
600.688	31512.97
601.046	31754.32
601.404	31956.12
601.762	32069.11
602.12	32293.06
602.478	32376
602.836	32624.13
603.194	32570.8
603.552	32850.79
603.91	32858.47
604.268	33162.19
604.625	33152.48
604.983	33391.57
605.341	33315.86
605.698	33603.76
606.056	33799.01
606.413	33804.44
606.771	33951.78
607.128	34096.86
607.485	34116.07
607.843	34269.51
608.2	34574.13
608.557	34842.37
608.914	34589.5
609.272	34862.71
609.629	35022.94
609.986	35207.11
610.343	35259.54
610.7	35497.72
611.057	35518.74
611.414	35617.72
611.771	35636.25
612.127	35987.43
612.484	35889.8
612.841	36080.08
613.198	36153.98
613.554	36232.39
613.911	36462.9
614.267	36483.91
614.624	36552.16
614.98	36596
615.337	36857.92
615.693	36754.64
616.05	36819.27
616.406	37114.41
616.762	37052.94
617.118	37118.25
617.475	37153.5
617.831	37367.73
618.187	37264.46
618.543	37246.61
618.899	37734.73
619.255	37699.93
619.611	37595.97
619.967	37823.09
620.323	38008.85
620.678	37860.15
621.034	37838.23
621.39	37925.23
621.746	37941.05
622.101	38303.53
622.457	37976.08
622.812	38185.79
623.168	38351.66
623.523	38407.48
623.879	38376.75
624.234	38353.92
624.589	38389.85
624.945	38378.33
625.3	38616.51
625.655	38613.35
626.01	38718.66
626.365	38751.42
626.72	38765.89
627.075	38724.08
627.43	38831.87
627.785	38705.55
628.14	38842.04
628.495	38823.06
628.85	38725.89
629.205	38834.59
629.559	39050.17
629.914	38944.64
630.269	38891.31
630.623	38849.28
630.978	38775.6
631.332	38853.79
631.687	38951.87
632.041	38814.25
632.396	38846.34
632.75	38745.32
633.104	38980.57
633.459	38648.6
633.813	38711.65
634.167	38751.65
634.521	38743.52
634.875	38777.64
635.229	38807.02
635.583	38608.38
635.937	38557.08
636.291	38563.18
636.645	38790.75
636.999	38465.1
637.352	38737.64
637.706	38472.11
638.06	38674.36
638.413	38544.2
638.767	38510.07
639.121	38521.83
639.474	38326.58
639.828	38343.53
640.181	38482.73
640.534	38524.54
640.888	38350.98
641.241	38297.88
641.594	38302.4
641.947	38546.01
642.301	38438.66
642.654	38353.69
643.007	38331.77
643.36	38210.87
643.713	38208.16
644.066	38334.94
644.419	38077.77
644.771	37827.38
645.124	37544.22
645.477	37595.75
645.83	37405.02
646.182	37226.94
646.535	37003.22
646.888	37198.7
647.24	36976.33
647.593	37071.24
647.945	37102.88
648.298	36905.15
648.65	36925.71
649.002	36679.16
649.355	36875.99
649.707	36849.33
650.059	36984.92
650.411	37538.12
650.763	37449.31
651.115	37871.45
651.467	37622.87
651.819	37693.83
652.171	37675.07
652.523	37631.68
652.875	37561.63
653.227	37405.7
653.578	37608.63
653.93	37580.38
654.282	37308.3
654.633	37469.88
654.985	37421.97
655.337	37458.58
655.688	37372.03
656.039	37482.53
656.391	37156.89
656.742	37357.34
657.094	37191.01
657.445	37490.89
657.796	37302.2
658.147	37327.28
658.498	37349.65
658.849	37513.27
659.2	37258.36
659.551	37226.04
659.902	37217.23
660.253	37334.74
660.604	37307.62
660.955	37051.58
661.306	37118.02
661.656	37256.1
662.007	37309.43
662.358	37070.11
662.708	37142.2
663.059	37065.37
663.409	36934.75
663.76	37217.91
664.11	37072.6
664.461	37181.07
664.811	37057.46
665.161	37015.43
665.511	36924.58
665.862	37000.28
666.212	37125.93
666.562	37067.4
666.912	37121.86
667.262	37079.38
667.612	37091.81
667.962	37083.22
668.312	36831.25
668.662	37111.92
669.011	36908.08
669.361	36938.59
669.711	36904.02
670.06	36948.08
670.41	36887.97
670.76	36827.86
671.109	37007.06
671.459	36923
671.808	36977.46
672.157	36917.8
672.507	36668.77
672.856	36673.06
673.205	36841.64
673.554	36816.79
673.904	36694.3
674.253	36858.14
674.602	36798.03
674.951	36252.51
675.3	36013.87
675.649	36596.23
675.998	36682.78
676.346	36776.56
676.695	36753.96
677.044	36433.52
677.393	36667.41
677.741	36575.89
678.09	36477.59
678.438	36451.6
678.787	36537.47
679.135	36530.69
679.484	36361.43
679.832	36413.18
680.181	36216.58
680.529	36283.92
680.877	36244.6
681.225	36047.09
681.573	36369.11
681.922	36085.96
682.27	36064.72
682.618	36146.07
682.966	36034.66
683.314	36123.02
683.661	35857.49
684.009	35750.15
684.357	35725.06
684.705	35549.02
685.053	35661.11
685.4	35637.83
685.748	35445.52
686.095	35434.68
686.443	35347.22
686.79	35291.85
687.138	35340.21
687.485	35198.07
687.832	35092.76
688.18	35173.44
688.527	35024.97
688.874	34830.62
689.221	34997.62
689.568	34797.18
689.915	34768.7
690.262	34784.3
690.609	34603.06
690.956	34614.58
691.303	34486.9
691.65	34385.21
691.997	34381.14
692.344	34156.07
692.69	34149.51
693.037	34147.25
693.383	33810.99
693.73	34017.99
694.077	33860.25
694.423	33815.96
694.769	33683.54
695.116	33512.24
695.462	33534.16
695.808	33462.07
696.155	33604.89
696.501	33229.76
696.847	33281.74
697.193	33040.84
697.539	33175.53
697.885	32841.98
698.231	32798.81
698.577	32902.54
698.923	32772.82
699.269	32746.61
699.614	32579.61
699.96	32469.56
700.306	32482.44
700.651	32380.74
700.997	32276.79
701.342	32182.56
701.688	32147.76
702.033	32121.99
702.379	32011.26
702.724	31840.42
703.069	31920.64
703.415	31533.99
703.76	31566.53
704.105	31593.87
704.45	31584.61
704.795	31345.52
705.14	31219.42
705.485	31209.02
705.83	31167.67
706.175	31155.69
706.52	31086.09
706.865	30949.37
707.209	30934.45
707.554	30813.1
707.899	30792.09
708.243	30675.25
708.588	30683.61
708.932	30350.97
709.277	30324.75
709.621	30489.72
709.966	30276.17
710.31	30416.73
710.654	30016.96
710.998	30185.77
711.342	30128.83
711.687	30012.67
712.031	29840.47
712.375	29728.84
712.719	29880.47
713.063	29717.99
713.407	29829.4
713.75	29607.71
714.094	29647.48
714.438	29519.12
714.782	29524.32
715.125	29345.12
715.469	29440.93
715.812	29252.69
716.156	29158.68
716.499	29149.87
716.843	29175.86
717.186	28932.93
717.53	29142.86
717.873	29096.76
718.216	29159.36
718.559	28895.41
718.902	28857
719.246	28753.27
719.589	28726.83
719.932	28634.63
720.275	28557.57
720.617	28640.05
720.96	28522.77
721.303	28555.31
721.646	28441.19
721.989	28219.95
722.331	28358.25
722.674	28256.79
723.016	28276.22
723.359	28174.98
723.701	28230.8
724.044	28115.77
724.386	28000.97
724.729	28020.18
725.071	27893.63
725.413	27990.58
725.755	27955.32
726.097	27668.55
726.439	27672.17
726.782	27625.16
727.124	27820.19
727.465	27588.33
727.807	27570.7
728.149	27457.26
728.491	27494.09
728.833	27545.39
729.175	27379.97
729.516	27302.69
729.858	27277.38
730.199	27401.67
730.541	27305.17
730.882	27156.48
731.224	27271.27
731.565	27036.48
731.906	27165.74
732.248	27125.97
732.589	27048
732.93	26953.32
733.271	26998.29
733.612	27069.92
733.953	26930.49
734.294	26954.45
734.635	26753.77
734.976	26819.31
735.317	26655.25
735.658	26702.93
735.999	26587.9
736.339	26507.68
736.68	26675.81
737.021	26629.94
737.361	26367.12
737.702	26569.6
738.042	26301.36
738.383	26385.42
738.723	26299.1
739.063	26322.15
739.404	26389.04
739.744	26378.64
740.084	26200.12
740.424	26241.92
740.764	26128.25
741.104	26253.9
741.444	26100.68
741.784	25986.56
742.124	25970.07
742.464	26078.31
742.804	25913.34
743.143	25880.58
743.483	25791.31
743.823	25700.69
744.162	25731.65
744.502	25765.1
744.841	25679.23
745.181	25714.93
745.52	25643.97
745.86	25611.21
746.199	25569.62
746.538	25526.46
746.877	25624.54
747.216	25543.18
747.556	25456.41
747.895	25479.68
748.234	25358.78
748.573	25284.66
748.911	25283.53
749.25	25211.67
749.589	25081.28
749.928	25170.09
750.267	25245.34
750.605	25006.7
750.944	25019.81
751.283	24885.35
751.621	25020.49
751.96	24865.24
752.298	24821.17
752.636	24694.39
752.975	24620.27
753.313	24603.77
753.651	24733.49
753.989	24527.17
754.327	24570.78
754.666	24472.25
755.004	24436.32
755.342	24554.96
755.679	24350
756.017	24237.91
756.355	24296.66
756.693	24276.1
757.031	24218.93
757.368	24021.42
757.706	24027.52
