Data from hue_36_FLMS001491_00029.txt Node
Date: Tue Feb 07 17:29:36 GMT 2017
User: dcchb
Spectrometer: FLMS00149
Trigger mode: 0
Integration Time (sec): 2.000000E-2
Scans to average: 10
Electric dark correction enabled: true
Nonlinearity correction enabled: false
Boxcar width: 0
XAxis mode: Wavelengths
Number of Pixels in Spectrum: 2048
>>>>>Begin Spectral Data<<<<<
341.393	-15.35
341.776	-15.35
342.16	-15.35
342.543	-69.36
342.927	-80.44
343.31	-83.37
343.693	-73.88
344.077	-63.71
344.46	-82.24
344.843	-49.25
345.226	-51.28
345.61	-37.95
345.993	-1.57
346.376	-2.7
346.759	11.99
347.142	30.52
347.525	68.03
347.908	63.97
348.291	68.03
348.674	86.79
349.057	116.62
349.44	121.14
349.823	142.84
350.206	153.46
350.588	186.22
350.971	236.39
351.354	224.42
351.737	242.95
352.119	247.01
352.502	282.72
352.884	280.68
353.267	291.08
353.65	298.76
354.032	313
354.414	318.2
354.797	324.07
355.179	324.07
355.562	325.2
355.944	315.94
356.326	341.02
356.709	348.25
357.091	357.52
357.473	337.63
357.855	334.92
358.238	346.45
358.62	351.19
359.002	333.34
359.384	368.14
359.766	319.78
360.148	332.66
360.53	331.3
360.912	336.95
361.294	334.47
361.676	348.48
362.057	355.71
362.439	321.36
362.821	332.43
363.203	321.59
363.584	333.11
363.966	329.05
364.348	313.9
364.729	329.95
365.111	297.63
365.493	318.42
365.874	317.75
366.256	332.66
366.637	310.06
367.019	310.29
367.4	307.8
367.781	298.54
368.163	315.49
368.544	326.33
368.925	305.54
369.306	322.49
369.688	298.99
370.069	327.92
370.45	311.87
370.831	309.84
371.212	334.02
371.593	312.77
371.974	321.14
372.355	319.55
372.736	326.56
373.117	326.11
373.498	295.6
373.879	307.58
374.26	300.35
374.641	331.76
375.021	309.16
375.402	324.98
375.783	311.19
376.163	323.62
376.544	331.3
376.925	337.86
377.305	328.14
377.686	326.79
378.066	328.14
378.447	336.73
378.827	324.07
379.208	343.28
379.588	335.82
379.968	322.49
380.349	324.75
380.729	341.47
381.109	311.42
381.489	338.76
381.87	326.11
382.25	350.06
382.63	336.95
383.01	362.26
383.39	336.73
383.77	342.6
384.15	345.77
384.53	367.69
384.91	357.74
385.29	327.01
385.67	357.74
386.049	367.24
386.429	332.21
386.809	340.57
387.189	356.84
387.568	354.36
387.948	350.97
388.328	360.68
388.707	354.58
389.087	354.81
389.466	357.52
389.846	350.51
390.225	358.2
390.605	388.25
390.984	355.49
391.363	363.62
391.743	365.2
392.122	373.79
392.501	362.49
392.881	355.26
393.26	384.64
393.639	370.63
394.018	366.78
394.397	369.95
394.776	377.41
395.155	379.89
395.534	392.09
395.913	378.99
396.292	404.75
396.671	383.28
397.05	393.22
397.429	400.46
397.808	370.85
398.186	369.5
398.565	369.27
398.944	365.43
399.323	401.59
399.701	384.86
400.08	409.27
400.458	400.91
400.837	386.9
401.215	389.38
401.594	374.92
401.972	373.56
402.351	391.87
402.729	406.78
403.107	398.42
403.486	421.02
403.864	374.02
404.242	408.59
404.62	403.85
404.999	399.55
405.377	401.36
405.755	407.24
406.133	423.96
406.511	381.02
406.889	429.16
407.267	400.68
407.645	431.87
408.023	442.49
408.401	424.18
408.779	412.21
409.156	417.63
409.534	420.12
409.912	429.83
410.29	419.89
410.667	426.22
411.045	424.86
411.422	445.43
411.8	460.12
412.178	454.24
412.555	458.76
412.933	458.53
413.31	453.34
413.687	458.99
414.065	448.36
414.442	452.21
414.819	477.06
415.197	458.76
415.574	461.47
415.951	470.06
416.328	483.62
416.705	471.64
417.082	480.91
417.46	484.3
417.837	496.95
418.214	504.63
418.591	491.07
418.967	500.34
419.344	476.16
419.721	502.6
420.098	501.02
420.475	484.75
420.852	516.16
421.228	516.61
421.605	525.88
421.982	514.8
422.358	525.2
422.735	519.32
423.111	527.23
423.488	521.81
423.864	538.76
424.241	534.69
424.617	537.18
424.994	535.59
425.37	534.46
425.746	549.15
426.123	553.45
426.499	545.99
426.875	548.02
427.251	566.78
427.627	568.81
428.003	541.47
428.379	566.33
428.756	568.36
429.132	574.69
429.507	600.22
429.883	584.63
430.259	596.83
430.635	589.6
431.011	600.22
431.387	588.47
431.763	621.92
432.138	600.45
432.514	602.03
432.89	600
433.265	647.91
433.641	631.86
434.016	642.26
434.392	650.39
434.767	656.72
435.143	650.39
435.518	651.75
435.894	647.23
436.269	654.46
436.644	666.89
437.02	665.08
437.395	676.61
437.77	677.28
438.145	702.59
438.52	708.47
438.895	705.08
439.271	699.66
439.646	721.8
440.021	719.09
440.395	739.88
440.77	703.05
441.145	714.57
441.52	746.89
441.895	716.15
442.27	737.17
442.645	745.31
443.019	755.02
443.394	733.78
443.769	741.46
444.143	737.85
444.518	767.68
444.892	766.1
445.267	765.19
445.641	771.75
446.016	765.42
446.39	782.14
446.764	782.82
447.139	786.89
447.513	782.37
447.887	751.18
448.262	774.91
448.636	820.11
449.01	796.38
449.384	806.55
449.758	847.45
450.132	835.92
450.506	811.07
450.88	861.91
451.254	829.6
451.628	843.38
452.002	832.08
452.376	844.06
452.75	839.09
453.123	862.82
453.497	884.51
453.871	872.08
454.244	873.21
454.618	917.96
454.992	901.69
455.365	912.53
455.739	930.61
456.112	954.34
456.486	951.4
456.859	950.95
457.232	934.9
457.606	951.18
457.979	965.86
458.352	1017.84
458.725	1008.12
459.099	1009.93
459.472	1023.04
459.845	1022.36
460.218	1040.66
460.591	1050.61
460.964	1058.52
461.337	1069.14
461.71	1065.3
462.083	1095.35
462.456	1096.71
462.829	1107.1
463.201	1105.52
463.574	1124.28
463.947	1147.33
464.32	1133.54
464.692	1159.98
465.065	1190.72
465.438	1211.06
465.81	1198.63
466.183	1225.52
466.555	1235.24
466.928	1283.37
467.3	1252.86
467.672	1275.01
468.045	1298.06
468.417	1319.53
468.789	1354.78
469.161	1381.45
469.534	1377.83
469.906	1399.75
470.278	1417.83
470.65	1433.42
471.022	1478.39
471.394	1500.09
471.766	1519.3
472.138	1543.25
472.51	1577.6
472.882	1617.37
473.253	1615.11
473.625	1655.56
473.997	1716.13
474.369	1724.94
474.74	1742.34
475.112	1807.42
475.484	1843.13
475.855	1902.11
476.227	1916.35
476.598	1961.54
476.97	1970.13
477.341	2036.12
477.713	2085.61
478.084	2121.09
478.455	2181.65
478.827	2229.33
479.198	2274.08
479.569	2344.59
479.94	2408.76
480.311	2467.75
480.682	2553.17
481.053	2613.96
481.424	2653.73
481.795	2666.61
482.166	2776.89
482.537	2883.78
482.908	2925.36
483.279	2969.2
483.65	3083.77
484.021	3174.17
484.391	3201.96
484.762	3314.5
485.133	3291.68
485.503	3436.08
485.874	3533.48
486.244	3593.82
486.615	3691.89
486.985	3779.58
487.356	3915.84
487.726	3942.96
488.097	4089.62
488.467	4136.4
488.837	4246.23
489.207	4382.05
489.578	4469.05
489.948	4550.18
490.318	4651.64
490.688	4722.38
491.058	4775.48
491.428	4924.18
491.798	4996.04
492.168	5124.4
492.538	5231.29
492.908	5288.01
493.278	5389.02
493.648	5459.98
494.017	5542.02
494.387	5678.96
494.757	5769.13
495.126	5832.63
495.496	5956.47
495.866	6031.49
496.235	6076.92
496.605	6186.74
496.974	6236.46
497.344	6392.84
497.713	6447.08
498.082	6505.15
498.452	6661.53
498.821	6781.3
499.19	6784.47
499.559	6909.44
499.928	6968.87
500.298	7048.19
500.667	7194.4
501.036	7155.76
501.405	7304.23
501.774	7288.18
502.143	7391.68
502.512	7480.04
502.88	7558.46
503.249	7657.44
503.618	7639.81
503.987	7768.4
504.356	7874.16
504.724	7935.62
505.093	7969.97
505.462	8083.19
505.83	8085
506.199	8209.52
506.567	8283.64
506.936	8391.66
507.304	8442.05
507.672	8514.59
508.041	8547.81
508.409	8675.04
508.777	8709.39
509.145	8805.66
509.514	8841.36
509.882	8857.63
510.25	8924.3
510.618	9059.89
510.986	9069.38
511.354	9154.35
511.722	9303.27
512.09	9376.49
512.458	9338.98
512.826	9368.81
513.193	9518.63
513.561	9477.73
513.929	9643.15
514.297	9692.64
514.664	9817.16
515.032	9823.48
515.4	9850.15
515.767	9938.51
516.135	10005.17
516.502	9934.67
516.869	10077.72
517.237	10237.94
517.604	10108.45
517.972	10272.06
518.339	10284.49
518.706	10295.34
519.073	10400.19
519.44	10474.54
519.808	10572.84
520.175	10616.68
520.542	10684.93
520.909	10753.4
521.276	10766.28
521.643	10849.67
522.009	10936
522.376	11001.08
522.743	11095.09
523.11	11177.8
523.477	11302.77
523.843	11334.41
524.21	11356.78
524.577	11492.82
524.943	11587.28
525.31	11599.03
525.676	11628.18
526.043	11768.97
526.409	11839.93
526.776	11880.83
527.142	11978
527.508	12009.19
527.874	12109.3
528.241	12171.22
528.607	12209.86
528.973	12342.74
529.339	12395.85
529.705	12574.6
530.071	12574.37
530.437	12633.35
530.803	12665.22
531.169	12711.32
531.535	12763.07
531.901	12810.98
532.267	12863.18
532.632	13076.28
532.998	13055.94
533.364	13181.81
533.73	13076.28
534.095	13210.29
534.461	13250.06
534.826	13375.26
535.192	13439.66
535.557	13522.82
535.923	13538.19
536.288	13587
536.653	13596.27
537.019	13556.27
537.384	13661.8
537.749	13724.63
538.114	13715.36
538.479	13787.67
538.845	13867.67
539.21	13915.81
539.575	13991.28
539.94	14007.78
540.305	14099.76
540.67	14119.64
541.034	14184.73
541.399	14195.12
541.764	14215.91
542.129	14304.27
542.494	14408.45
542.858	14393.76
543.223	14518.95
543.587	14608.9
543.952	14647.76
544.316	14631.72
544.681	14681.21
545.045	14774.09
545.41	14856.12
545.774	14874.43
546.138	14941.32
546.503	15020.64
546.867	15029.68
547.231	15121.88
547.595	15101.99
547.959	15277.13
548.324	15146.06
548.688	15332.27
549.052	15354.64
549.416	15395.99
549.779	15388.76
550.143	15515.09
550.507	15550.11
550.871	15681.86
551.235	15585.37
551.599	15638.92
551.962	15707.4
552.326	15728.41
552.689	15867.39
553.053	15804.34
553.417	15840.5
553.78	16139.25
554.143	16052.25
554.507	16180.15
554.87	16181.28
555.234	16304.22
555.597	16303.09
555.96	16344.9
556.323	16525.23
556.686	16465.57
557.05	16607.94
557.413	16554.83
557.776	16531.78
558.139	16777.65
558.502	16732.91
558.865	16708.73
559.228	16916.18
559.59	16968.16
559.953	16927.93
560.316	17139.9
560.679	17156.63
561.041	17283.63
561.404	17376.96
561.767	17454.47
562.129	17292.67
562.492	17502.38
562.854	17535.15
563.217	17524.98
563.579	17530.17
563.941	17741.24
564.304	17734.46
564.666	17887.91
565.028	17815.82
565.39	17983.27
565.753	18057.39
566.115	18037.96
566.477	18157.95
566.839	18190.27
567.201	18300.55
567.563	18347.1
567.925	18439.53
568.287	18591.39
568.648	18553.88
569.01	18708
569.372	18785.06
569.734	18790.25
570.095	18918.61
570.457	18968.1
570.819	19105.95
571.18	19098.04
571.542	19195.89
571.903	19244.03
572.265	19303.01
572.626	19446.73
572.987	19432.95
573.349	19550.69
573.71	19606.96
574.071	19691.7
574.432	19796.56
574.794	20008.75
575.155	20001.52
575.516	19968.75
575.877	20254.85
576.238	20304.56
576.599	20371
576.96	20472.47
577.32	20491.23
577.681	20618.91
578.042	20881.95
578.403	20955.17
578.763	21076.52
579.124	21133.7
579.485	21439.68
579.845	21497.75
580.206	21591.31
580.566	21629.05
580.927	21870.4
581.287	22053.45
581.648	22230.84
582.008	22401.68
582.368	22453.89
582.728	22741.79
583.089	22799.41
583.449	22954.66
583.809	23191.27
584.169	23372.96
584.529	23409.34
584.889	23844.81
585.249	23775.89
585.609	23904.47
585.969	24326.38
586.329	24398.47
586.688	24678.69
587.048	24874.16
587.408	25089.3
587.768	25205.45
588.127	25451.55
588.487	25547.14
588.846	25984.42
589.206	26039.1
589.565	26218.99
589.925	26620.33
590.284	26795.02
590.643	26969.25
591.003	27171.5
591.362	27459.86
591.721	27653.52
592.08	27849.45
592.44	28206.05
592.799	28265.26
593.158	28563.33
593.517	28677.68
593.876	28996.31
594.235	29006.26
594.593	29404.66
594.952	29557.88
595.311	29722.17
595.67	29921.94
596.029	30339.1
596.387	30521.02
596.746	30779.32
597.104	30828.81
597.463	31081.23
597.822	31482.35
598.18	31443.71
598.538	31570.48
598.897	31967.08
599.255	32033.75
599.613	32586.05
599.972	32495.2
600.33	32812.94
600.688	32791.02
601.046	33199.59
601.404	33478.46
601.762	33497.89
602.12	33751.22
602.478	33941.27
602.836	34012.68
603.194	34030.98
603.552	34342.61
603.91	34355.27
604.268	34678.88
604.625	34804.75
604.983	35067.57
605.341	34938.76
605.698	35285.41
606.056	35642.01
606.413	35606.31
606.771	35824.61
607.128	36007.2
607.485	35941.89
607.843	36128.33
608.2	36311.6
608.557	36498.04
608.914	36461.88
609.272	36869.1
609.629	36964.69
609.986	37019.61
610.343	37202.43
610.7	37441.97
611.057	37445.13
611.414	37579.82
611.771	37635.41
612.127	37938.45
612.484	38010.77
612.841	38227.94
613.198	38184.09
613.554	38275.62
613.911	38603.07
614.267	38523.07
614.624	38601.26
614.98	38741.37
615.337	38879.9
615.693	39006.67
616.05	39003.28
616.406	39441.24
616.762	39346.55
617.118	39348.13
617.475	39436.27
617.831	39713.09
618.187	39808.68
618.543	39722.59
618.899	40077.6
619.255	40096.81
619.611	40128.45
619.967	40362.34
620.323	40441.89
620.678	40395.11
621.034	40330.25
621.39	40406.86
621.746	40420.42
622.101	40897.24
622.457	40668.32
622.812	40834.87
623.168	40891.14
623.523	40845.72
623.879	41102.21
624.234	40806.85
624.589	41130.01
624.945	41199.61
625.3	41268.31
625.655	41117.35
626.01	41237.12
626.365	41315.09
626.72	41223.34
627.075	41332.26
627.43	41433.27
627.785	41454.07
628.14	41418.13
628.495	41398.47
628.85	41456.33
629.205	41358.93
629.559	41492.03
629.914	41516.66
630.269	41537.45
630.623	41362.77
630.978	41370.68
631.332	41550.11
631.687	41691.57
632.041	41432.15
632.396	41556.66
632.75	41379.72
633.104	41489.32
633.459	41450
633.813	41432.37
634.167	41556.89
634.521	41479.15
634.875	41577.68
635.229	41550.11
635.583	41398.7
635.937	41392.6
636.291	41380.4
636.645	41445.93
636.999	41388.53
637.352	41449.55
637.706	41222.89
638.06	41552.14
638.413	41329.77
638.767	41215.88
639.121	41400.28
639.474	41261.3
639.828	41121.42
640.181	41194.86
640.534	41285.03
640.888	41038.48
641.241	41045.94
641.594	41099.5
641.947	41240.96
642.301	41052.49
642.654	41221.53
643.007	41179.72
643.36	41113.28
643.713	41015.43
644.066	41076.45
644.419	40877.13
644.771	40767.08
645.124	40472.85
645.477	40289.12
645.83	40069.24
646.182	39949.92
646.535	39841.68
646.888	39916.93
647.24	39735.47
647.593	39912.41
647.945	39923.03
648.298	39604.4
648.65	39599.88
649.002	39548.35
649.355	39644.62
649.707	39598.29
650.059	39768.91
650.411	40335
650.763	40285.96
651.115	40673.29
651.467	40425.39
651.819	40588.78
652.171	40539.51
652.523	40479.4
652.875	40387.2
653.227	40301.55
653.578	40489.57
653.93	40345.85
654.282	40336.35
654.633	40219.3
654.985	40293.64
655.337	40189.69
655.688	40227.66
656.039	40441.66
656.391	40131.84
656.742	40054.78
657.094	40188.11
657.445	40291.84
657.796	40298.39
658.147	40088.45
658.498	40192.4
658.849	40197.6
659.2	40220.65
659.551	40090.49
659.902	40245.96
660.253	40050.49
660.604	40095.91
660.955	40012.52
661.306	40191.5
661.656	40026.98
662.007	39968
662.358	40123.93
662.708	40123.7
663.059	39933.88
663.409	39800.55
663.76	40111.05
664.11	39960.77
664.461	40106.08
664.811	40121.67
665.161	39984.27
665.511	39896.59
665.862	39867.44
666.212	40073.76
666.562	40090.03
666.912	39931.62
667.262	39923.94
667.612	40038.06
667.962	39843.94
668.312	39822.47
668.662	40089.36
669.011	39824.28
669.361	39814.11
669.711	39829.93
670.06	39718.74
670.41	39700.89
670.76	39793.77
671.109	39847.55
671.459	39694.56
671.808	39686.2
672.157	39754.22
672.507	39565.98
672.856	39625.41
673.205	39659.99
673.554	39714.22
673.904	39619.99
674.253	39757.84
674.602	39538.64
674.951	39016.39
675.3	38926.67
675.649	39617.73
675.998	39547
676.346	39602.14
676.695	39608.46
677.044	39357.17
677.393	39413.44
677.741	39546.09
678.09	39480.11
678.438	39341.58
678.787	39481.69
679.135	39363.72
679.484	39159.89
679.832	39287.57
680.181	39076.95
680.529	39147.46
680.877	39019.55
681.225	39043.73
681.573	39278.3
681.922	38848.26
682.27	38855.94
682.618	38912.44
682.966	38705.21
683.314	38865.66
683.661	38727.81
684.009	38618.21
684.357	38476.74
684.705	38494.6
685.053	38599.68
685.4	38492.34
685.748	38196.3
686.095	38283.53
686.443	38083.98
686.79	38100.71
687.138	38148.84
687.485	38200.59
687.832	38050.54
688.18	37961.95
688.527	37774.61
688.874	37777.1
689.221	37791.11
689.568	37704.56
689.915	37707.5
690.262	37643.32
690.609	37577.33
690.956	37325.59
691.303	37419.14
691.65	37129.43
691.997	37265.47
692.344	36964.69
692.69	36920.4
693.037	36999.27
693.383	36687.19
693.73	36759.73
694.077	36484.03
694.423	36601.09
694.769	36416.91
695.116	36342.79
695.462	36436.34
695.808	36160.87
696.155	36310.02
696.501	36086.52
696.847	36111.83
697.193	35900.31
697.539	35956.36
697.885	35609.25
698.231	35530.38
698.577	35546.42
698.923	35639.53
699.269	35371.97
699.614	35202.93
699.96	35191.86
700.306	35184.63
700.651	34935.37
700.997	34840.45
701.342	34970.85
701.688	34810.17
702.033	34723.17
702.379	34651.31
702.724	34546.9
703.069	34596.17
703.415	34178.1
703.76	34213.35
704.105	34198.66
704.45	34127.93
704.795	33987.37
705.14	33927.03
705.485	33959.12
705.83	33832.34
706.175	33875.06
706.52	33650.88
706.865	33512.81
707.209	33634.16
707.554	33412.02
707.899	33526.82
708.243	33231
708.588	33095.64
708.932	33150.1
709.277	33020.84
709.621	33080.73
709.966	32771.36
710.31	32831.69
710.654	32560.74
710.998	32678.25
711.342	32639.38
711.687	32629.66
712.031	32492.49
712.375	32461.31
712.719	32471.25
713.063	32253.18
713.407	32425.15
713.75	32114.65
714.094	32200.52
714.438	32040.98
714.782	32065.84
715.125	31823.36
715.469	32050.02
715.812	31929.34
716.156	31749.46
716.499	31756.47
716.843	31761.21
717.186	31459.75
717.53	31739.07
717.873	31657.49
718.216	31562.12
718.559	31362.58
718.902	31154
719.246	31243.49
719.589	31074.68
719.932	31118.97
720.275	31090.27
720.617	31004.4
720.96	30984.28
721.303	30996.49
721.646	30971.4
721.989	30826.55
722.331	30859.54
722.674	30713.33
723.016	30770.05
723.359	30727.12
723.701	30749.04
724.044	30528.48
724.386	30429.72
724.729	30540.45
725.071	30387.46
725.413	30432.66
725.755	30361.25
726.097	30265.66
726.439	30023.41
726.782	30075.83
727.124	30239.45
727.465	30046.23
727.807	30009.85
728.149	29944.09
728.491	29965.1
728.833	30070.18
729.175	29798.33
729.516	29726.46
729.858	29623.42
730.199	29695.73
730.541	29677.65
730.882	29610.31
731.224	29648.73
731.565	29404.44
731.906	29510.42
732.248	29359.24
732.589	29309.75
732.93	29234.5
733.271	29196.08
733.612	29321.28
733.953	29301.84
734.294	29130.55
734.635	28972.59
734.976	29129.64
735.317	29076.54
735.658	28925.36
735.999	29013.04
736.339	28931.68
736.68	28949.31
737.021	28910.67
737.361	28673.16
737.702	28863.21
738.042	28814.4
738.383	28767.85
738.723	28784.57
739.063	28673.61
739.404	28730.33
739.744	28478.36
740.084	28516.78
740.424	28554.74
740.764	28342.55
741.104	28591.8
741.444	28320.4
741.784	28230.01
742.124	28334.64
742.464	28242.66
742.804	28156.11
743.143	28121.31
743.483	28156.34
743.823	28029.11
744.162	27956.57
744.502	27959.5
744.841	27877.47
745.181	27927.42
745.52	27775.33
745.86	27915.66
746.199	27725.16
746.538	27658.95
746.877	27784.82
747.216	27798.61
747.556	27769.91
747.895	27687.42
748.234	27500.31
748.573	27532.17
748.911	27409.91
749.25	27462.57
749.589	27412.85
749.928	27419.63
750.267	27487.2
750.605	27334.66
750.944	27043.14
751.283	27086.08
751.621	27264.38
751.96	26978.74
752.298	27047.44
752.636	26949.36
752.975	26877.95
753.313	26795.69
753.651	26960.66
753.989	26834.11
754.327	26803.83
754.666	26551.63
755.004	26603.16
755.342	26692.19
755.679	26624.62
756.017	26493.55
756.355	26460.56
756.693	26272.32
757.031	26283.84
757.368	26092.44
