Data from hue_350_FLMS001491_39.txt Node
Date: Mon Feb 06 15:37:57 GMT 2017
User: dcchb
Spectrometer: FLMS00149
Trigger mode: 0
Integration Time (sec): 2.000000E-2
Scans to average: 10
Electric dark correction enabled: true
Nonlinearity correction enabled: false
Boxcar width: 0
XAxis mode: Wavelengths
Number of Pixels in Spectrum: 2048
>>>>>Begin Spectral Data<<<<<
341.393	11.04
341.776	11.04
342.16	11.04
342.543	-59.91
342.927	-49.74
343.31	-60.14
343.693	-58.78
344.077	-68.73
344.46	-51.1
344.843	-50.42
345.226	-47.03
345.61	-40.03
345.993	-3.87
346.376	5.62
346.759	-1.16
347.142	19.63
347.525	33.87
347.908	43.59
348.291	83.36
348.674	103.92
349.057	91.27
349.44	127.88
349.823	148.67
350.206	173.3
350.588	197.71
350.971	214.2
351.354	219.85
351.737	246.07
352.119	283.13
352.502	264.37
352.884	290.59
353.267	298.95
353.65	283.81
354.032	284.03
354.414	309.57
354.797	307.99
355.179	327.65
355.562	323.58
355.944	326.97
356.326	328.1
356.709	329.45
357.091	335.78
357.473	328.32
357.855	326.97
358.238	364.26
358.62	357.7
359.002	350.47
359.384	331.26
359.766	353.86
360.148	344.37
360.53	346.4
360.912	324.26
361.294	331.94
361.676	336.23
362.057	323.13
362.439	313.86
362.821	336.01
363.203	336.91
363.584	336.01
363.966	321.32
364.348	322.68
364.729	340.3
365.111	317.7
365.493	340.08
365.874	323.35
366.256	327.87
366.637	322.68
367.019	321.32
367.4	333.97
367.781	310.02
368.163	326.52
368.544	326.97
368.925	295.78
369.306	308.44
369.688	327.42
370.069	321.55
370.45	323.35
370.831	312.28
371.212	301.21
371.593	308.44
371.974	316.35
372.355	304.82
372.736	306.18
373.117	319.74
373.498	324.48
373.879	305.27
374.26	321.09
374.641	331.94
375.021	293.52
375.402	313.86
375.783	317.48
376.163	322.68
376.544	335.56
376.925	313.86
377.305	328.32
377.686	306.4
378.066	331.71
378.447	337.59
378.827	319.96
379.208	331.94
379.588	327.19
379.968	338.95
380.349	323.13
380.729	355.22
381.109	337.14
381.489	309.34
381.87	334.2
382.25	325.84
382.63	328.55
383.01	334.65
383.39	341.66
383.77	342.56
384.15	349.79
384.53	345.05
384.91	343.47
385.29	335.78
385.67	333.3
386.049	364.93
386.429	361.77
386.809	362.67
387.189	339.4
387.568	350.47
387.948	340.3
388.328	358.83
388.707	351.37
389.087	357.93
389.466	340.3
389.846	342.34
390.225	359.96
390.605	360.64
390.984	364.93
391.363	373.75
391.743	363.35
392.122	371.49
392.501	367.65
392.881	377.59
393.26	376.01
393.639	362.45
394.018	362.45
394.397	370.81
394.776	391.15
395.155	391.37
395.534	382.11
395.913	394.09
396.292	403.8
396.671	371.04
397.05	370.13
397.429	368.78
397.808	370.13
398.186	371.94
398.565	372.17
398.944	363.8
399.323	385.5
399.701	383.92
400.08	375.1
400.458	391.15
400.837	401.09
401.215	379.4
401.594	391.37
401.972	399.28
402.351	380.3
402.729	396.57
403.107	365.39
403.486	402.22
403.864	406.29
404.242	397.02
404.62	406.06
404.999	403.35
405.377	392.73
405.755	411.49
406.133	399.51
406.511	399.06
406.889	420.98
407.267	412.62
407.645	409
408.023	404.48
408.401	419.4
408.779	433.18
409.156	432.5
409.534	426.85
409.912	430.02
410.29	450.58
410.667	438.83
411.045	435.89
411.422	433.86
411.8	431.82
412.178	438.6
412.555	442.45
412.933	456.23
413.31	447.19
413.687	456.68
414.065	443.35
414.442	452.62
414.819	469.11
415.197	468.21
415.574	484.03
415.951	469.56
416.328	475.67
416.705	478.15
417.082	459.39
417.46	478.15
417.837	458.49
418.214	492.16
418.591	503.01
418.967	498.72
419.344	501.2
419.721	481.77
420.098	494.2
420.475	506.17
420.852	507.98
421.228	523.35
421.605	516.57
421.982	514.08
422.358	513.18
422.735	534.65
423.111	533.97
423.488	538.26
423.864	553.4
424.241	548.66
424.617	543.01
424.994	548.21
425.37	540.3
425.746	565.61
426.123	552.5
426.499	558.83
426.875	583.01
427.251	569.9
427.627	602.44
428.003	592.05
428.379	579.84
428.756	580.75
429.132	596.57
429.507	579.17
429.883	590.69
430.259	608.54
430.635	588.2
431.011	624.59
431.387	606.06
431.763	629.79
432.138	631.59
432.514	612.61
432.89	633.85
433.265	644.25
433.641	654.19
434.016	643.12
434.392	660.07
434.767	666.62
435.143	656.9
435.518	667.75
435.894	640.18
436.269	672.95
436.644	686.06
437.02	676.56
437.395	697.35
437.77	685.83
438.145	674.3
438.52	689.9
438.895	714.08
439.271	710.91
439.646	719.73
440.021	704.59
440.395	729.67
440.77	717.92
441.145	713.63
441.52	717.24
441.895	731.25
442.27	753.62
442.645	742.55
443.019	735.09
443.394	736.9
443.769	763.34
444.143	750.91
444.518	746.39
444.892	756.34
445.267	767.18
445.641	775.09
446.016	764.02
446.39	770.57
446.764	778.48
447.139	768.99
447.513	782.32
447.887	798.14
448.262	793.62
448.636	777.13
449.01	790.46
449.384	792.72
449.758	805.15
450.132	810.57
450.506	830.91
450.88	823.9
451.254	837.69
451.628	827.52
452.002	828.42
452.376	827.07
452.75	848.31
453.123	843.57
453.497	832.04
453.871	872.49
454.244	863.68
454.618	874.3
454.992	880.63
455.365	895.77
455.739	908.42
456.112	938.03
456.486	899.16
456.859	906.39
457.232	941.87
457.606	934.18
457.979	930.57
458.352	947.07
458.725	960.62
459.099	957.91
459.472	951.81
459.845	987.74
460.218	973.96
460.591	994.07
460.964	975.77
461.337	1005.82
461.71	1015.54
462.083	1033.84
462.456	1011.24
462.829	1041.53
463.201	1054.41
463.574	1049.44
463.947	1078.59
464.32	1083.33
464.692	1102.54
465.065	1088.53
465.438	1078.14
465.81	1104.35
466.183	1130.56
466.555	1156.33
466.928	1163.56
467.3	1182.09
467.672	1207.4
468.045	1204.46
468.417	1211.01
468.789	1205.14
469.161	1191.58
469.534	1237.68
469.906	1252.14
470.278	1262.54
470.65	1278.58
471.022	1288.3
471.394	1305.93
471.766	1305.93
472.138	1316.55
472.51	1358.58
472.882	1359.26
473.253	1392.48
473.625	1423.44
473.997	1447.17
474.369	1457.11
474.74	1472.48
475.112	1470.67
475.484	1484.23
475.855	1515.41
476.227	1551.8
476.598	1569.2
476.97	1613.04
477.341	1629.08
477.713	1661.85
478.084	1638.35
478.455	1712.02
478.827	1747.04
479.198	1787.95
479.569	1714.28
479.94	1812.58
480.311	1829.75
480.682	1874.5
481.053	1864.33
481.424	1935.29
481.795	1978
482.166	2007.38
482.537	2014.83
482.908	2064.32
483.279	2111.55
483.65	2103.42
484.021	2183.42
484.391	2213.92
484.762	2219.57
485.133	2247.6
485.503	2286.47
485.874	2307.26
486.244	2371.43
486.615	2400.59
486.985	2426.8
487.356	2464.09
487.726	2502.96
488.097	2517.42
488.467	2523.97
488.837	2569.17
489.207	2626.57
489.578	2682.16
489.948	2702.73
490.318	2730.52
490.688	2741.14
491.058	2769.16
491.428	2852.55
491.798	2851.87
492.168	2941.59
492.538	2905.43
492.908	2980.68
493.278	2997.41
493.648	3049.61
494.017	3062.94
494.387	3076.5
494.757	3095.26
495.126	3103.84
495.496	3160.11
495.866	3159.89
496.235	3219.1
496.605	3215.93
496.974	3293.22
497.344	3309.49
497.713	3299.77
498.082	3327.12
498.452	3406.44
498.821	3414.35
499.19	3433.55
499.559	3438.53
499.928	3430.84
500.298	3455.93
500.667	3472.87
501.036	3535.7
501.405	3565.75
501.774	3551.52
502.143	3544.74
502.512	3622.02
502.88	3631.06
503.249	3588.35
503.618	3645.07
503.987	3659.54
504.356	3707.9
504.724	3703.15
505.093	3748.57
505.462	3783.38
505.83	3765.07
506.199	3817.72
506.567	3823.83
506.936	3809.36
507.304	3840.55
507.672	3873.32
508.041	3910.15
508.409	3919.19
508.777	3922.58
509.145	3909.93
509.514	3937.5
509.882	3968.68
510.25	4010.26
510.618	4021.79
510.986	4014.78
511.354	4038.51
511.722	4053.65
512.09	4088
512.458	4042.58
512.826	4106.76
513.193	4161.22
513.561	4154.89
513.929	4107.43
514.297	4208.22
514.664	4207.09
515.032	4219.97
515.4	4266.75
515.767	4247.77
516.135	4233.98
516.502	4179.3
516.869	4260.2
517.237	4303.36
517.604	4315.11
517.972	4313.53
518.339	4334.77
518.706	4338.61
519.073	4343.81
519.44	4355.79
519.808	4408.67
520.175	4387.65
520.542	4452.28
520.909	4443.47
521.276	4475.33
521.643	4517.14
522.009	4545.16
522.376	4515.56
522.743	4534.77
523.11	4559.4
523.477	4581.32
523.843	4620.42
524.21	4664.26
524.577	4659.96
524.943	4672.62
525.31	4744.93
525.676	4722.33
526.043	4753.75
526.409	4788.32
526.776	4811.6
527.142	4816.57
527.508	4823.12
527.874	4857.7
528.241	4886.62
528.607	4920.75
528.973	4930.92
529.339	4960.29
529.705	4998.03
530.071	5039.84
530.437	5033.96
530.803	5080.06
531.169	5087.07
531.535	5082.55
531.901	5113.28
532.267	5090.91
532.632	5209.33
532.998	5130.01
533.364	5210.91
533.73	5182.66
534.095	5268.76
534.461	5254.52
534.826	5324.35
535.192	5311.92
535.557	5375.65
535.923	5339.04
536.288	5390.56
536.653	5421.75
537.019	5403.22
537.384	5391.92
537.749	5486.83
538.114	5472.82
538.479	5473.27
538.845	5539.49
539.21	5509.21
539.575	5523.22
539.94	5514.18
540.305	5620.39
540.67	5546.72
541.034	5609.77
541.399	5674.62
541.764	5642.76
542.129	5673.95
542.494	5685.02
542.858	5761.85
543.223	5780.38
543.587	5840.27
543.952	5812.02
544.316	5840.72
544.681	5875.52
545.045	5890.89
545.41	5918.01
545.774	5942.87
546.138	5971.34
546.503	5945.58
546.867	5990.1
547.231	6064.22
547.595	6047.95
547.959	6041.85
548.324	6075.74
548.688	6084.33
549.052	6101.28
549.416	6112.35
549.779	6129.75
550.143	6134.95
550.507	6234.38
550.871	6242.75
551.235	6218.34
551.599	6301.05
551.962	6250.65
552.326	6285.23
552.689	6332.01
553.053	6339.92
553.417	6358.22
553.78	6395.28
554.143	6402.06
554.507	6376.3
554.87	6392.35
555.234	6468.28
555.597	6478.67
555.96	6513.92
556.323	6537.88
556.686	6482.29
557.05	6553.7
557.413	6575.17
557.776	6611.1
558.139	6607.93
558.502	6608.16
558.865	6626.69
559.228	6709.63
559.59	6745.33
559.953	6713.24
560.316	6778.1
560.679	6780.58
561.041	6846.12
561.404	6827.14
561.767	6872.11
562.129	6853.35
562.492	6888.83
562.854	6953.24
563.217	6925.21
563.579	6959.56
563.941	6939.45
564.304	6986
564.666	6992.33
565.028	7033.46
565.39	7056.74
565.753	7085.44
566.115	7116.62
566.477	7147.81
566.839	7164.76
567.201	7213.79
567.563	7270.06
567.925	7318.88
568.287	7232.1
568.648	7297.86
569.01	7337.63
569.372	7388.93
569.734	7374.47
570.095	7420.79
570.457	7475.26
570.819	7471.64
571.18	7560.9
571.542	7568.81
571.903	7586.44
572.265	7595.48
572.626	7660.11
572.987	7696.94
573.349	7722.48
573.71	7776.49
574.071	7804.51
574.432	7904.62
574.794	8009.48
575.155	7978.07
575.516	7976.94
575.877	8071.17
576.238	8178.51
576.599	8183.03
576.96	8282.92
577.32	8339.19
577.681	8380.09
578.042	8521.33
578.403	8505.96
578.763	8630.25
579.124	8728.33
579.485	8762.68
579.845	8929.45
580.206	8915.67
580.566	9046.97
580.927	9178.71
581.287	9339.39
581.648	9387.97
582.008	9536.44
582.368	9644.46
582.728	9743.67
583.089	9888.53
583.449	10062.98
583.809	10204.22
584.169	10375.07
584.529	10454.84
584.889	10712.68
585.249	10881.27
585.609	11003.52
585.969	11215.27
586.329	11386.34
586.688	11589.5
587.048	11803.5
587.408	11981.58
587.768	12208.92
588.127	12372.3
588.487	12618.85
588.846	12895.23
589.206	13038.95
589.565	13288.89
589.925	13643.68
590.284	13724.36
590.643	14053.39
591.003	14338.13
591.362	14609.31
591.721	14932.46
592.08	15087.26
592.44	15442.73
592.799	15671.42
593.158	15835.49
593.517	16185.31
593.876	16497.62
594.235	16667.33
594.593	16989.58
594.952	17286.52
595.311	17534.88
595.67	17849.67
596.029	18218.93
596.387	18554.51
596.746	18844
597.104	19074.72
597.463	19286.02
597.822	19739.11
598.18	19947.7
598.538	20128.93
598.897	20473.78
599.255	20645.3
599.613	21218.4
599.972	21372.74
600.33	21614.32
600.688	21946.97
601.046	22242.78
601.404	22598.7
601.762	22720.73
602.12	23087.5
602.478	23312.58
602.836	23725.68
603.194	23760.02
603.552	24124.08
603.91	24326.56
604.268	24656.5
604.625	24769.49
604.983	25160.21
605.341	25338.29
605.698	25687.66
606.056	25947.09
606.413	26148.44
606.771	26491.7
607.128	26837.91
607.485	26767.4
607.843	27098.92
608.2	27449.19
608.557	27757.43
608.914	27780.03
609.272	28153.81
609.629	28432.67
609.986	28720.57
610.343	28717.18
610.7	29180.9
611.057	29174.8
611.414	29409.59
611.771	29645.52
612.127	29923.03
612.484	29986.98
612.841	30266.97
613.198	30351.94
613.554	30450.92
613.911	30775.66
614.267	31074.18
614.624	31138.14
614.98	31377.23
615.337	31543.78
615.693	31592.59
616.05	31720.95
616.406	32096.08
616.762	32004.55
617.118	32165
617.475	32343.53
617.831	32677.53
618.187	32715.27
618.543	32771.77
618.899	33077.97
619.255	33125.88
619.611	33302.15
619.967	33499.43
620.323	33627.34
620.678	33583.72
621.034	33639.77
621.39	33959.98
621.746	33790.5
622.101	34475.9
622.457	34118.17
622.812	34293.76
623.168	34496.24
623.523	34453.53
623.879	34799.73
624.234	34667.08
624.589	34792.05
624.945	34849
625.3	35126.05
625.655	34896.23
626.01	35197.46
626.365	35375.09
626.72	35337.8
627.075	35273.85
627.43	35456.89
627.785	35291.93
628.14	35493.5
628.495	35607.17
628.85	35701.41
629.205	35628.87
629.559	35892.59
629.914	35756.32
630.269	35891.01
630.623	35930.1
630.978	35721.97
631.332	35977.78
631.687	36235.63
632.041	35940.27
632.396	36158.57
632.75	35913.6
633.104	36136.65
633.459	35950.89
633.813	35964.68
634.167	35985.01
634.521	36049.65
634.875	36145.91
635.229	36189.75
635.583	35904.34
635.937	36020.27
636.291	35937.33
636.645	36047.84
636.999	36096.88
637.352	36176.87
637.706	35953.6
638.06	36134.61
638.413	36125.58
638.767	35929.87
639.121	36152.69
639.474	35973.26
639.828	36038.35
640.181	35987.27
640.534	36158.34
640.888	36039.02
641.241	35973.49
641.594	36009.87
641.947	36119.02
642.301	35955.86
642.654	36078.12
643.007	36075.41
643.36	35993.38
643.713	35897.78
644.066	36084.67
644.419	35877.67
644.771	35616.44
645.124	35325.6
645.477	35239.05
645.83	35043.8
646.182	34890.13
646.535	34923.57
646.888	34970.35
647.24	34839.28
647.593	35082.89
647.945	34930.13
648.298	34764.03
648.65	34729.23
649.002	34781.2
649.355	34929.9
649.707	34814.42
650.059	34991.14
650.411	35311.13
650.763	35348.87
651.115	35768.52
651.467	35574.18
651.819	35704.57
652.171	35436.33
652.523	35540.51
652.875	35500.73
653.227	35330.57
653.578	35683.1
653.93	35483.56
654.282	35348.65
654.633	35388.65
654.985	35443.79
655.337	35380.06
655.688	35462.54
656.039	35480.39
656.391	35230.01
656.742	35350.23
657.094	35425.03
657.445	35406.72
657.796	35267.97
658.147	35296.44
658.498	35154.98
658.849	35321.98
659.2	35108.65
659.551	35105.04
659.902	35285.82
660.253	35192.04
660.604	35355.43
660.955	35230.23
661.306	35201.53
661.656	35191.36
662.007	35235.2
662.358	35113.4
662.708	35141.19
663.059	35147.75
663.409	34886.96
663.76	35209.44
664.11	35222.55
664.461	35226.39
664.811	35210.12
665.161	35066.17
665.511	35047.19
665.862	35088.54
666.212	35141.65
666.562	35145.04
666.912	35065.49
667.262	35192.04
667.612	35127.18
667.962	35172.61
668.312	35047.64
668.662	35140.74
669.011	35080.18
669.361	35018.71
669.711	34932.39
670.06	35042.67
670.41	34905.27
670.76	34878.38
671.109	35015.55
671.459	35029.11
671.808	34999.05
672.157	35058.48
672.507	34817.81
672.856	34840.19
673.205	34781.66
673.554	34939.62
673.904	34838.83
674.253	35024.36
674.602	34973.52
674.951	34282.23
675.3	34204.04
675.649	34825.27
675.998	34812.39
676.346	34745.27
676.695	34917.7
677.044	34692.84
677.393	34807.19
677.741	34722.67
678.09	34700.98
678.438	34525.84
678.787	34647.2
679.135	34630.47
679.484	34371.5
679.832	34537.37
680.181	34370.37
680.529	34505.05
680.877	34445.85
681.225	34385.73
681.573	34597.03
681.922	34259.41
682.27	34189.36
682.618	34257.83
682.966	34146.87
683.314	34243.14
683.661	34210.15
684.009	33941
684.357	33994.78
684.705	33746.66
685.053	33856.26
685.4	33764.28
685.748	33632.99
686.095	33664.4
686.443	33486.1
686.79	33578.75
687.138	33578.98
687.485	33540.78
687.832	33595.25
688.18	33461.92
688.527	33332.65
688.874	33292.2
689.221	33202.49
689.568	33060.12
689.915	33058.76
690.262	32938.99
690.609	32816.28
690.956	32745.78
691.303	32742.39
691.65	32566.57
691.997	32518.21
692.344	32317.09
692.69	32471.66
693.037	32281.16
693.383	32174.72
693.73	32364.54
694.077	32044.1
694.423	32149.18
694.769	31980.15
695.116	31910.09
695.462	31908.96
695.808	31815.18
696.155	31868.29
696.501	31651.79
696.847	31645.24
697.193	31359.15
697.539	31587.62
697.885	31332.03
698.231	31121.19
698.577	31197.12
698.923	31044.58
699.269	30870.8
699.614	30813.85
699.96	30836.22
700.306	30857.47
700.651	30685.94
700.997	30570.92
701.342	30554.2
701.688	30497.02
702.033	30486.63
702.379	30356.91
702.724	30187.88
703.069	30367.31
703.415	29992.86
703.76	30001.67
704.105	30048.45
704.45	29938.62
704.795	29798.28
705.14	29690.49
705.485	29648.01
705.83	29675.8
706.175	29580.66
706.52	29505.64
706.865	29363.27
707.209	29348.35
707.554	29271.97
707.899	29330.95
708.243	29171.18
708.588	29079.43
708.932	28971.41
709.277	28976.38
709.621	29050.28
709.966	28838.31
710.31	28834.02
710.654	28483.29
710.998	28677.41
711.342	28605.32
711.687	28498.88
712.031	28449.85
712.375	28368.94
712.719	28413.69
713.063	28312.9
713.407	28368.04
713.75	28228.83
714.094	28211.21
714.438	28012.57
714.782	27949.97
715.125	27948.16
715.469	27992.23
715.812	27868.17
716.156	27711.33
716.499	27850.31
716.843	27748.39
717.186	27472.92
717.53	27626.59
717.873	27667.04
718.216	27575.52
718.559	27471.34
718.902	27315.86
719.246	27403.32
719.589	27274.96
719.932	27127.85
720.275	27142.99
720.617	27147.73
720.96	27002.65
721.303	27117.9
721.646	27060.05
721.989	26908.87
722.331	26918.59
722.674	26876.55
723.016	27008.08
723.359	26766.73
723.701	26852.15
724.044	26685.82
724.386	26552.95
724.729	26678.82
725.071	26633.85
725.413	26705.26
725.755	26496.45
726.097	26420.75
726.439	26429.56
726.782	26321.09
727.124	26467.75
727.465	26283.57
727.807	26238.38
728.149	26162.67
728.491	26203.12
728.833	26164.03
729.175	26101.88
729.516	26061.43
729.858	26006.97
730.199	26055.78
730.541	26014.88
730.882	25839.29
731.224	26048.1
731.565	25817.6
731.906	25738.05
732.248	25830.93
732.589	25651.73
732.93	25612.86
733.271	25701.22
733.612	25611.73
733.953	25700.09
734.294	25563.59
734.635	25397.27
734.976	25531.96
735.317	25388.23
735.658	25401.34
735.999	25403.6
736.339	25333.32
736.68	25284.5
737.021	25320.66
737.361	25123.15
737.702	25293.77
738.042	25153.66
738.383	25042.48
738.723	25095.81
739.063	25005.64
739.404	25034.79
739.744	24948.24
740.084	24767.68
740.424	25037.51
740.764	24805.2
741.104	25030.95
741.444	24751.41
741.784	24662.15
742.124	24693.79
742.464	24722.94
742.804	24662.83
743.143	24555.71
743.483	24501.93
743.823	24507.12
744.162	24511.19
744.502	24575.82
744.841	24400.23
745.181	24477.75
745.52	24367.01
745.86	24492.66
746.199	24489.27
746.538	24382.83
746.877	24370.4
747.216	24367.47
747.556	24178.09
747.895	24227.13
748.234	24080.92
748.573	24155.49
748.911	24063.07
749.25	24113.46
749.589	23989.85
749.928	24086.57
750.267	24051.54
750.605	23793.02
750.944	24009.28
751.283	23764.54
751.621	23909.17
751.96	23693.13
752.298	23745.56
752.636	23700.59
752.975	23578.11
753.313	23506.92
753.651	23537.66
753.989	23532.01
754.327	23375.85
754.666	23341.5
755.004	23341.73
755.342	23356.65
755.679	23283.88
756.017	23181.28
756.355	23169.98
756.693	23095.41
757.031	23161.17
757.368	23054.73
757.706	22958.46
758.044	22869.2
758.381	22879.37
758.719	22801.18
759.056	22740.62
759.394	22720.05
759.731	22578.81
760.068	22475.09
760.405	22519.83
760.743	22471.25
761.08	22379.72
