Data from hue_24_FLMS001491_00100.txt Node
Date: Tue Feb 07 17:13:02 GMT 2017
User: dcchb
Spectrometer: FLMS00149
Trigger mode: 0
Integration Time (sec): 2.000000E-2
Scans to average: 10
Electric dark correction enabled: true
Nonlinearity correction enabled: false
Boxcar width: 0
XAxis mode: Wavelengths
Number of Pixels in Spectrum: 2048
>>>>>Begin Spectral Data<<<<<
341.393	-13.54
341.776	-13.54
342.16	-13.54
342.543	-54.45
342.927	-76.37
343.31	-72.75
343.693	-78.18
344.077	-61.68
344.46	-52.64
344.843	-59.65
345.226	-47.89
345.61	-23.71
345.993	-22.36
346.376	-7.9
346.759	12.22
347.142	21.03
347.525	47.92
347.908	52.22
348.291	66.91
348.674	101.93
349.057	124.53
349.44	124.76
349.823	123.85
350.206	173.12
350.588	202.27
350.971	197.75
351.354	202.27
351.737	249.73
352.119	251.53
352.502	276.84
352.884	283.62
353.267	304.19
353.65	307.12
354.032	308.71
354.414	308.03
354.797	324.75
355.179	331.08
355.562	337.63
355.944	325.2
356.326	331.98
356.709	356.84
357.091	357.29
357.473	337.18
357.855	341.7
358.238	358.2
358.62	364.07
359.002	336.95
359.384	334.69
359.766	350.06
360.148	356.16
360.53	354.81
360.912	356.16
361.294	326.79
361.676	345.54
362.057	338.99
362.439	338.76
362.821	334.24
363.203	324.53
363.584	331.53
363.966	333.79
364.348	329.5
364.729	315.94
365.111	331.53
365.493	329.5
365.874	331.53
366.256	323.4
366.637	327.24
367.019	336.95
367.4	315.71
367.781	325.88
368.163	315.49
368.544	322.04
368.925	321.14
369.306	345.09
369.688	331.76
370.069	303.51
370.45	318.65
370.831	309.38
371.212	326.33
371.593	306.9
371.974	324.07
372.355	338.08
372.736	332.21
373.117	324.3
373.498	310.51
373.879	314.13
374.26	323.85
374.641	332.66
375.021	321.36
375.402	341.7
375.783	322.72
376.163	336.28
376.544	331.98
376.925	354.36
377.305	361.36
377.686	332.43
378.066	335.6
378.447	329.95
378.827	349.61
379.208	350.06
379.588	373.11
379.968	336.28
380.349	347.8
380.729	375.6
381.109	343.51
381.489	372.21
381.87	349.84
382.25	367.46
382.63	368.37
383.01	374.69
383.39	366.11
383.77	355.03
384.15	374.69
384.53	352.1
384.91	384.86
385.29	391.42
385.67	361.36
386.049	376.05
386.429	370.4
386.809	353.68
387.189	367.46
387.568	390.06
387.948	393.45
388.328	378.08
388.707	383.28
389.087	394.35
389.466	376.95
389.846	381.47
390.225	412.66
390.605	384.64
390.984	382.6
391.363	398.65
391.743	399.55
392.122	387.57
392.501	393.68
392.881	411.3
393.26	402.72
393.639	422.15
394.018	409.72
394.397	425.99
394.776	411.53
395.155	427.12
395.534	412.66
395.913	428.7
396.292	428.93
396.671	416.05
397.05	433.9
397.429	429.83
397.808	405.65
398.186	417.18
398.565	448.59
398.944	416.73
399.323	441.36
399.701	448.82
400.08	426.22
400.458	429.83
400.837	442.04
401.215	458.31
401.594	441.36
401.972	460.12
402.351	444.97
402.729	444.97
403.107	454.92
403.486	454.92
403.864	460.79
404.242	455.14
404.62	463.28
404.999	483.84
405.377	482.94
405.755	476.84
406.133	493.56
406.511	460.12
406.889	492.88
407.267	504.63
407.645	496.95
408.023	494.24
408.401	503.05
408.779	510.51
409.156	489.49
409.534	514.35
409.912	505.99
410.29	515.25
410.667	531.3
411.045	527.01
411.422	554.35
411.8	545.99
412.178	523.84
412.555	531.75
412.933	529.94
413.31	533.79
413.687	552.09
414.065	565.87
414.442	552.54
414.819	566.1
415.197	534.01
415.574	557.51
415.951	556.16
416.328	583.05
416.705	559.32
417.082	597.51
417.46	562.49
417.837	601.58
418.214	605.65
418.591	607.46
418.967	615.82
419.344	609.94
419.721	585.54
420.098	589.6
420.475	613.33
420.852	636.83
421.228	616.72
421.605	633.67
421.982	619.66
422.358	633.9
422.735	633.44
423.111	622.37
423.488	658.3
423.864	658.98
424.241	644.52
424.617	662.37
424.994	683.84
425.37	656.95
425.746	696.27
426.123	697.62
426.499	693.33
426.875	682.26
427.251	704.85
427.627	719.32
428.003	711.63
428.379	729.03
428.756	725.19
429.132	722.48
429.507	745.76
429.883	723.16
430.259	753.44
430.635	769.71
431.011	767.23
431.387	772.42
431.763	781.91
432.138	793.44
432.514	828.92
432.89	801.35
433.265	828.01
433.641	822.82
434.016	836.15
434.392	834.12
434.767	843.16
435.143	856.94
435.518	859.65
435.894	852.65
436.269	878.64
436.644	863.49
437.02	910.27
437.395	870.5
437.77	907.11
438.145	895.13
438.52	898.75
438.895	906.66
439.271	913.21
439.646	938.75
440.021	953.21
440.395	943.27
440.77	936.94
441.145	931.52
441.52	966.09
441.895	958.86
442.27	968.58
442.645	966.99
443.019	1002.47
443.394	967.67
443.769	1005.86
444.143	1001.57
444.518	1015.13
444.892	994.56
445.267	1030.72
445.641	1023.72
446.016	1030.72
446.39	1044.73
446.764	1075.92
447.139	1050.38
447.513	1056.71
447.887	1038.4
448.262	1086.54
448.636	1050.16
449.01	1066.2
449.384	1095.58
449.758	1104.84
450.132	1124.73
450.506	1107.33
450.88	1136.26
451.254	1125.18
451.628	1126.31
452.002	1154.33
452.376	1159.76
452.75	1171.06
453.123	1198.63
453.497	1198.4
453.871	1198.63
454.244	1232.98
454.618	1209.02
454.992	1235.46
455.365	1267.1
455.739	1239.53
456.112	1299.87
456.486	1278.62
456.859	1296.03
457.232	1340.77
457.606	1333.31
457.979	1321.11
458.352	1354.33
458.725	1349.13
459.099	1388.68
459.472	1395.23
459.845	1413.76
460.218	1427.32
460.591	1458.73
460.964	1430.48
461.337	1498.73
461.71	1486.3
462.083	1528.56
462.456	1519.52
462.829	1503.48
463.201	1569.46
463.574	1546.87
463.947	1616.02
464.32	1610.59
464.692	1647.65
465.065	1649.24
465.438	1700.08
465.81	1685.39
466.183	1731.27
466.555	1745.5
466.928	1737.37
467.3	1731.27
467.672	1815.33
468.045	1837.71
468.417	1829.8
468.789	1851.49
469.161	1868.44
469.534	1888.78
469.906	1929.45
470.278	1971.94
470.65	1990.47
471.022	1996.8
471.394	2052.62
471.766	2069.79
472.138	2084.03
472.51	2141.88
472.882	2166.74
473.253	2192.27
473.625	2220.07
473.997	2260.07
474.369	2286.28
474.74	2325.15
475.112	2384.13
475.484	2402.66
475.855	2455.32
476.227	2472.72
476.598	2525.15
476.97	2568.53
477.341	2636.78
477.713	2652.83
478.084	2682.2
478.455	2759.72
478.827	2799.94
479.198	2864.57
479.569	2888.75
479.94	3000.39
480.311	3020.5
480.682	3058.24
481.053	3155.41
481.424	3204.22
481.795	3218.46
482.166	3293.26
482.537	3350.89
482.908	3408.51
483.279	3458.68
483.65	3523.76
484.021	3619.35
484.391	3687.15
484.762	3699.35
485.133	3750.2
485.503	3803.3
485.874	3908.39
486.244	3957.2
486.615	4017.08
486.985	4079.68
487.356	4144.76
487.726	4151.09
488.097	4254.59
488.467	4349.28
488.837	4429.73
489.207	4497.07
489.578	4555.6
489.948	4612.55
490.318	4676.95
490.688	4733.22
491.058	4754.47
491.428	4824.75
491.798	4939.77
492.168	5011.63
492.538	5018.41
492.908	5121.91
493.278	5193.32
493.648	5203.49
494.017	5286.88
494.387	5315.13
494.757	5396.03
495.126	5427.67
495.496	5428.57
495.866	5581.56
496.235	5635.57
496.605	5677.83
496.974	5691.39
497.344	5796.7
497.713	5761.9
498.082	5826.53
498.452	5907.66
498.821	5957.82
499.19	5973.19
499.559	5957.37
499.928	6038.27
500.298	6070.36
500.667	6214.31
501.036	6126.41
501.405	6230.81
501.774	6221.55
502.143	6254.31
502.512	6288.89
502.88	6365.04
503.249	6432.16
503.618	6492.5
503.987	6482.33
504.356	6485.27
504.724	6579.05
505.093	6628.54
505.462	6636.9
505.83	6718.48
506.199	6759.16
506.567	6799.16
506.936	6737.69
507.304	6884.13
507.672	6962.09
508.041	6946.72
508.409	6977.46
508.777	7025.59
509.145	7092.71
509.514	7075.53
509.882	7073.27
510.25	7118.02
510.618	7147.17
510.986	7163.89
511.354	7238.47
511.722	7358.69
512.09	7386.26
512.458	7384.45
512.826	7454.51
513.193	7551.68
513.561	7470.33
513.929	7542.64
514.297	7610.21
514.664	7672.58
515.032	7638.46
515.4	7755.52
515.767	7786.7
516.135	7836.42
516.502	7732.01
516.869	7859.02
517.237	7924.33
517.604	7853.37
517.972	8003.19
518.339	8048.62
518.706	8054.72
519.073	8046.13
519.44	8082.74
519.808	8135.85
520.175	8167.48
520.542	8311.21
520.909	8287.71
521.276	8341.49
521.643	8376.74
522.009	8434.14
522.376	8494.03
522.743	8551.43
523.11	8621.26
523.477	8659.45
523.843	8708.71
524.21	8793.91
524.577	8812.89
524.943	8798.43
525.31	8909.84
525.676	9016.95
526.043	9042.49
526.409	9090.4
526.776	9050.4
527.142	9200.22
527.508	9244.29
527.874	9275.48
528.241	9339.66
528.607	9345.08
528.973	9474.57
529.339	9464.17
529.705	9593.89
530.071	9652.19
530.437	9669.59
530.803	9648.35
531.169	9706.88
531.535	9752.98
531.901	9792.3
532.267	9847.44
532.632	9947.1
532.998	9920.43
533.364	10012.63
533.73	10035.23
534.095	10143.02
534.461	10144.15
534.826	10148.45
535.192	10285.39
535.557	10337.6
535.923	10365.39
536.288	10322.23
536.653	10351.38
537.019	10395
537.384	10423.92
537.749	10539.62
538.114	10520.42
538.479	10583.92
538.845	10642.22
539.21	10675.44
539.575	10648.55
539.94	10733.97
540.305	10830.46
540.67	10787.75
541.034	10872.27
541.399	10907.52
541.764	10939.39
542.129	11005.6
542.494	10985.49
542.858	11064.36
543.223	11085.82
543.587	11197.01
543.952	11182.54
544.316	11297.57
544.681	11237.91
545.045	11334.18
545.41	11385.48
545.774	11473.84
546.138	11398.36
546.503	11515.64
546.867	11485.81
547.231	11647.17
547.595	11639.93
547.959	11729.88
548.324	11685.13
548.688	11672.93
549.052	11861.85
549.416	11838.57
549.779	11787.05
550.143	11875.41
550.507	11994.95
550.871	11965.12
551.235	12016.2
551.599	12093.26
551.962	12121.05
552.326	12178.45
552.689	12243.53
553.053	12185.23
553.417	12265.68
553.78	12440.36
554.143	12339.12
554.507	12416.41
554.87	12546.8
555.234	12538.67
555.597	12523.98
555.96	12610.3
556.323	12616.63
556.686	12700.7
557.05	12749.96
557.413	12758.32
557.776	12761.94
558.139	12819.56
558.502	12915.83
558.865	12993.12
559.228	13010.07
559.59	13062.95
559.953	13101.59
560.316	13170.74
560.679	13229.72
561.041	13318.08
561.404	13438.3
561.767	13411.86
562.129	13310.62
562.492	13496.83
562.854	13528.02
563.217	13501.35
563.579	13563.05
563.941	13605.76
564.304	13658.19
564.666	13799.43
565.028	13742.93
565.39	13891.85
565.753	13911.74
566.115	13931.85
566.477	14049.59
566.839	14097.95
567.201	14135.01
567.563	14182.47
567.925	14283.93
568.287	14269.7
568.648	14329.58
569.01	14411.84
569.372	14479.18
569.734	14441.22
570.095	14596.01
570.457	14630.82
570.819	14652.74
571.18	14686.63
571.542	14792.62
571.903	14819.96
572.265	14890.02
572.626	15001.2
572.987	15044.36
573.349	14985.38
573.71	15151.48
574.071	15209.56
574.432	15358.71
574.794	15400.29
575.155	15499.49
575.516	15474.86
575.877	15555.99
576.238	15648.87
576.599	15889.54
576.96	15807.06
577.32	15919.37
577.681	16040.72
578.042	16113.26
578.403	16129.08
578.763	16322.3
579.124	16515.96
579.485	16651.78
579.845	16800.48
580.206	16859.68
580.566	16948.04
580.927	17071.43
581.287	17341.03
581.648	17409.5
582.008	17587.12
582.368	17736.04
582.728	17913.89
583.089	18058.07
583.449	18266.65
583.809	18340.1
584.169	18665.96
584.529	18821.44
584.889	19112.96
585.249	19172.62
585.609	19333.97
585.969	19674.3
586.329	19815.09
586.688	20061.86
587.048	20324.9
587.408	20532.58
587.768	20731.22
588.127	20976.41
588.487	21330.3
588.846	21730.74
589.206	21823.17
589.565	22102.48
589.925	22539.53
590.284	22807.1
590.643	23141.55
591.003	23436.23
591.362	23814.98
591.721	24123.67
592.08	24384.91
592.44	24709.19
592.799	25040.71
593.158	25299.69
593.517	25668.49
593.876	25927.47
594.235	26337.17
594.593	26709.14
594.952	26957.27
595.311	27416.47
595.67	27711.83
596.029	28262.1
596.387	28593.16
596.746	28970.33
597.104	28990.66
597.463	29496.41
597.822	29945.67
598.18	29955.38
598.538	30405.99
598.897	31082.59
599.255	31146.77
599.613	32094.54
599.972	32137.02
600.33	32364.59
600.688	32590.34
601.046	33042.31
601.404	33548.74
601.762	33762.74
602.12	34366.34
602.478	34688.14
602.836	34908.7
603.194	34956.38
603.552	35479.08
603.91	35593.65
604.268	36226.63
604.625	36451.71
604.983	36862.32
605.341	36835.88
605.698	37417.34
606.056	37828.85
606.413	38026.81
606.771	38464.77
607.128	38757.41
607.485	38895.71
607.843	39149.27
608.2	39564.85
608.557	39935.24
608.914	39942.47
609.272	40474.43
609.629	40651.15
609.986	41082.1
610.343	41184.47
610.7	41672.82
611.057	41788.97
611.414	42021.06
611.771	42262.63
612.127	42624.2
612.484	42664.66
612.841	43093.12
613.198	43301.02
613.554	43175.6
613.911	43652.43
614.267	43873.66
614.624	43930.38
614.98	44319.07
615.337	44679.74
615.693	44708.22
616.05	44832.06
616.406	45259.84
616.762	45257.58
617.118	45327.86
617.475	45709.09
617.831	45765.82
618.187	46029.99
618.543	46120.61
618.899	46496.42
619.255	46410.55
619.611	46545.68
619.967	46900.02
620.323	47051.88
620.678	46954.49
621.034	47070.64
621.39	47306.11
621.746	47229.28
622.101	47701.36
622.457	47565.77
622.812	47704.97
623.168	47830.39
623.523	47899.77
623.879	48154.23
624.234	47939.32
624.589	48228.12
624.945	48336.37
625.3	48545.18
625.655	48515.57
626.01	48656.14
626.365	48673.31
626.72	48627.21
627.075	48733.65
627.43	48824.27
627.785	48753.08
628.14	48944.26
628.495	49009.12
628.85	49046.18
629.205	48889.35
629.559	49216.35
629.914	49147.87
630.269	49292.05
630.623	49179.06
630.978	49076.46
631.332	49326.17
631.687	49518.26
632.041	49188.78
632.396	49350.35
632.75	49291.37
633.104	49432.16
633.459	49312.16
633.813	49398.26
634.167	49504.48
634.521	49419.28
634.875	49546.51
635.229	49520.97
635.583	49375.67
635.937	49378.15
636.291	49416.57
636.645	49353.07
636.999	49226.52
637.352	49499.5
637.706	49297.25
638.06	49495.21
638.413	49419.05
638.767	49182.45
639.121	49439.39
639.474	49153.3
639.828	49267.65
640.181	49316.91
640.534	49369.11
640.888	49137.03
641.241	49123.02
641.594	49292.05
641.947	49392.61
642.301	49231.71
642.654	49300.86
643.007	49297.93
643.36	49189
643.713	49161.43
644.066	49343.8
644.419	49260.64
644.771	48896.13
645.124	48592.86
645.477	48516.93
645.83	48351.96
646.182	48183.15
646.535	48217.96
646.888	48267.45
647.24	48085.08
647.593	48282.36
647.945	48225.19
648.298	47998.53
648.65	47977.51
649.002	47866.78
649.355	48101.12
649.707	47896.38
650.059	48169.37
650.411	48449.14
650.763	48583.82
651.115	48959.4
651.467	48826.07
651.819	48975.22
652.171	48892.06
652.523	48777.94
652.875	48812.06
653.227	48605.52
653.578	48862.46
653.93	48836.47
654.282	48730.71
654.633	48648.68
654.985	48663.14
655.337	48739.75
655.688	48695
656.039	48858.16
656.391	48576.14
656.742	48612.97
657.094	48536.59
657.445	48673.76
657.796	48678.73
658.147	48712.41
658.498	48516.25
658.849	48588.12
659.2	48633.31
659.551	48491.85
659.902	48612.52
660.253	48539.98
660.604	48530.72
660.955	48417.72
661.306	48520.77
661.656	48440.32
662.007	48446.2
662.358	48428.12
662.708	48461.34
663.059	48443.94
663.409	48284.17
663.76	48518.74
664.11	48500.89
664.461	48485.74
664.811	48483.94
665.161	48405.97
665.511	48382.24
665.862	48356.26
666.212	48408.46
666.562	48389.02
666.912	48330.04
667.262	48286.65
667.612	48250.95
667.962	48459.08
668.312	48283.94
668.662	48586.31
669.011	48291.4
669.361	48328.23
669.711	48247.33
670.06	48220.67
670.41	48196.49
670.76	48288.91
671.109	48398.97
671.459	48211.63
671.808	48170.5
672.157	48269.03
672.507	48087.34
672.856	48048.47
673.205	48242.81
673.554	48273.77
673.904	48075.36
674.253	48332.75
674.602	48182.7
674.951	47635.6
675.3	47421.37
675.649	48131.4
675.998	48023.16
676.346	48062.93
676.695	48169.6
677.044	47805.31
677.393	47970.73
677.741	47980.9
678.09	47881.02
678.438	47764.63
678.787	47938.41
679.135	47911.75
679.484	47646.22
679.832	47722.83
680.181	47548.14
680.529	47594.24
680.877	47530.52
681.225	47407.81
681.573	47712.88
681.922	47359.22
682.27	47249.17
682.618	47292.78
682.966	47260.01
683.314	47212.56
683.661	47194.03
684.009	46996.52
684.357	46897.54
684.705	46919.01
685.053	46962.4
685.4	46874.04
685.748	46827.94
686.095	46748.62
686.443	46546.59
686.79	46457.55
687.138	46585.46
687.485	46600.82
687.832	46340.26
688.18	46462.97
688.527	46370.09
688.874	46368.29
689.221	46209.19
689.568	46124.45
689.915	46093.27
690.262	45951.12
690.609	45892.37
690.956	45652.6
691.303	45672.71
691.65	45486.28
691.997	45494.41
692.344	45164.25
692.69	45239.73
693.037	45251.25
693.383	44870.47
693.73	44932.17
694.077	44849.23
694.423	44807.65
694.769	44609.46
695.116	44633.87
695.462	44541.89
695.808	44529.01
696.155	44456.02
696.501	44155.24
696.847	44209.25
697.193	44014.9
697.539	44056.48
697.885	43898.07
698.231	43576.95
698.577	43676.61
698.923	43712.31
699.269	43460.79
699.614	43100.35
699.96	43123.85
700.306	43193.23
700.651	43028.04
700.997	42921.82
701.342	42875.95
701.688	42908.94
702.033	42679.57
702.379	42608.61
702.724	42547.82
703.069	42592.79
703.415	42133.14
703.76	42277.55
704.105	42222.86
704.45	42094.95
704.795	41949.65
705.14	41767.28
705.485	41802.98
705.83	41667.62
706.175	41741.06
706.52	41610.67
706.865	41370.23
707.209	41365.25
707.554	41197.12
707.899	41360.28
708.243	40935.89
708.588	41042.1
708.932	40752.84
709.277	40720.07
709.621	40685.5
709.966	40481.44
710.31	40477.14
710.654	40219.52
710.998	40221.33
711.342	40197.38
711.687	40213.87
712.031	40104.04
712.375	39841.45
712.719	40008
713.063	39894.56
713.407	39968.68
713.75	39775.24
714.094	39685.52
714.438	39507.22
714.782	39636.71
715.125	39396.04
715.469	39442.59
715.812	39368.47
716.156	39137.97
716.499	39260
716.843	39074.01
717.186	38831.54
717.53	39154.46
717.873	39130.06
718.216	38910.63
718.559	38719.67
718.902	38515.61
719.246	38460.25
719.589	38457.53
719.932	38312.91
720.275	38237.88
720.617	38238.33
720.96	38133.93
721.303	38290.08
721.646	38095.06
721.989	38083.08
722.331	38164.21
722.674	37941.84
723.016	37975.06
723.359	37933.25
723.701	37928.96
724.044	37646.93
724.386	37442.87
724.729	37721.06
725.071	37617.78
725.413	37605.8
725.755	37376.21
726.097	37345.47
726.439	37178.02
726.782	37111.58
727.124	37329.65
727.465	37137.34
727.807	37116.33
728.149	36954.52
728.491	36870.01
728.833	36908.2
729.175	36777.8
729.516	36756.79
729.858	36721.08
730.199	36743.91
730.541	36775.54
730.882	36658.49
731.224	36679.05
731.565	36389.11
731.906	36465.95
732.248	36456.91
732.589	36265.5
732.93	36188.22
733.271	36230.02
733.612	36269.12
733.953	36190.93
734.294	36074.32
734.635	35816.93
734.976	36035.22
735.317	35762.92
735.658	35836.81
735.999	35804.04
736.339	35808.11
736.68	35898.73
737.021	35743.48
737.361	35676.36
737.702	35681.79
738.042	35626.42
738.383	35446.99
738.723	35605.63
739.063	35297.62
739.404	35541.68
739.744	35308.69
740.084	35277.5
740.424	35273.44
740.764	35303.49
741.104	35303.49
741.444	35141.69
741.784	34963.84
742.124	35145.98
742.464	35010.39
742.804	34970.85
743.143	34772.89
743.483	34849.49
743.823	34682.04
744.162	34626
744.502	34792.77
744.841	34565.21
745.181	34541.48
745.52	34506.23
745.86	34388.94
746.199	34431.43
746.538	34270.98
746.877	34405.66
747.216	34601.14
747.556	34241.6
747.895	34358.21
748.234	34110.08
748.573	34070.3
748.911	34047.25
749.25	34035.5
749.589	34040.93
749.928	34105.11
750.267	34055.39
750.605	33935.62
750.944	33774.95
751.283	33661.95
751.621	33780.37
751.96	33504.9
752.298	33504.9
752.636	33560.26
752.975	33368.63
753.313	33255.64
753.651	33486.37
753.989	33231
754.327	33126.37
754.666	33049.31
755.004	33023.33
755.342	33132.25
755.679	32993.27
756.017	32780.17
756.355	32806.38
756.693	32629.21
757.031	32732.26
