Data from hue_200_FLMS001491_00028.txt Node
Date: Tue Feb 07 16:43:03 GMT 2017
User: dcchb
Spectrometer: FLMS00149
Trigger mode: 0
Integration Time (sec): 2.000000E-2
Scans to average: 10
Electric dark correction enabled: true
Nonlinearity correction enabled: false
Boxcar width: 0
XAxis mode: Wavelengths
Number of Pixels in Spectrum: 2048
>>>>>Begin Spectral Data<<<<<
341.393	12.17
341.776	12.17
342.16	12.17
342.543	-56.52
342.927	-64.89
343.31	-70.99
343.693	-71.66
344.077	-46.81
344.46	-59.91
344.843	-58.78
345.226	-42.06
345.61	-26.92
345.993	-7.26
346.376	-1.38
346.759	10.82
347.142	19.86
347.525	30.03
347.908	52.63
348.291	91.49
348.674	80.65
349.057	100.31
349.44	153.41
349.823	138.05
350.206	170.14
350.588	204.26
350.971	215.79
351.354	225.95
351.737	216.92
352.119	252.17
352.502	259.63
352.884	269.34
353.267	277.93
353.65	313.18
354.032	295.33
354.414	300.3
354.797	299.4
355.179	317.25
355.562	328.78
355.944	316.8
356.326	337.14
356.709	314.99
357.091	334.65
357.473	329.45
357.855	331.49
358.238	346.4
358.62	354.31
359.002	328.55
359.384	341.88
359.766	331.71
360.148	344.6
360.53	339.4
360.912	329.91
361.294	351.37
361.676	325.61
362.057	326.74
362.439	322.68
362.821	336.69
363.203	338.49
363.584	327.65
363.966	330.58
364.348	335.33
364.729	323.81
365.111	333.97
365.493	322.22
365.874	312.51
366.256	315.9
366.637	351.37
367.019	306.18
367.4	320.87
367.781	319.74
368.163	320.19
368.544	309.57
368.925	321.32
369.306	319.29
369.688	312.05
370.069	316.8
370.45	290.36
370.831	314.99
371.212	322.22
371.593	333.75
371.974	327.87
372.355	322.22
372.736	317.48
373.117	309.12
373.498	326.74
373.879	324.71
374.26	318.83
374.641	316.57
375.021	318.16
375.402	319.74
375.783	334.2
376.163	338.72
376.544	334.2
376.925	315.67
377.305	331.71
377.686	319.29
378.066	330.81
378.447	324.26
378.827	325.61
379.208	324.48
379.588	336.46
379.968	329.23
380.349	323.13
380.729	342.34
381.109	336.46
381.489	339.85
381.87	325.16
382.25	354.54
382.63	334.88
383.01	339.4
383.39	334.88
383.77	366.29
384.15	347.76
384.53	346.63
384.91	355.44
385.29	355.44
385.67	353.86
386.049	353.63
386.429	370.13
386.809	346.18
387.189	341.43
387.568	353.18
387.948	351.37
388.328	366.29
388.707	366.74
389.087	364.93
389.466	373.97
389.846	384.37
390.225	356.8
390.605	379.85
390.984	360.41
391.363	389.57
391.743	363.35
392.122	362
392.501	371.04
392.881	376.23
393.26	368.55
393.639	392.96
394.018	375.78
394.397	380.75
394.776	399.06
395.155	392.96
395.534	389.79
395.913	407.64
396.292	403.58
396.671	386.63
397.05	389.34
397.429	397.48
397.808	403.35
398.186	398.38
398.565	392.96
398.944	416.91
399.323	408.32
399.701	404.03
400.08	417.14
400.458	427.98
400.837	427.31
401.215	417.59
401.594	436.57
401.972	432.95
402.351	444.93
402.729	441.77
403.107	433.41
403.486	435.44
403.864	452.16
404.242	422.79
404.62	447.87
404.999	457.59
405.377	454.65
405.755	460.07
406.133	477.02
406.511	474.31
406.889	481.09
407.267	482.9
407.645	502.33
408.023	486.29
408.401	503.91
408.779	495.78
409.156	507.98
409.534	523.57
409.912	515.44
410.29	561.76
410.667	568.54
411.045	546.85
411.422	571.48
411.8	547.98
412.178	575.1
412.555	600.63
412.933	584.82
413.31	592.27
413.687	611.48
414.065	618.03
414.442	633.4
414.819	642.67
415.197	645.83
415.574	653.74
415.951	670.46
416.328	701.42
416.705	672.04
417.082	681.99
417.46	700.29
417.837	712.27
418.214	722.66
418.591	715.66
418.967	719.5
419.344	745.26
419.721	737.58
420.098	749.33
420.475	789.1
420.852	792.27
421.228	800.4
421.605	812.83
421.982	832.27
422.358	852.38
422.735	867.52
423.111	875.2
423.488	907.52
423.864	897.8
424.241	894.41
424.617	899.61
424.994	947.29
425.37	952.72
425.746	972.15
426.123	1007.63
426.499	1009.44
426.875	1040.62
427.251	1036.1
427.627	1032.94
428.003	1053.96
428.379	1070.9
428.756	1087.17
429.132	1092.6
429.507	1107.51
429.883	1152.94
430.259	1160.62
430.635	1153.61
431.011	1172.6
431.387	1202.43
431.763	1216.44
432.138	1213.27
432.514	1238.81
432.89	1269.54
433.265	1298.47
433.641	1324.91
434.016	1338.24
434.392	1357.22
434.767	1401.52
435.143	1405.58
435.518	1440.16
435.894	1449.65
436.269	1484.68
436.644	1535.52
437.02	1549.99
437.395	1559.25
437.77	1568.97
438.145	1633.83
438.52	1616.65
438.895	1665.24
439.271	1665.46
439.646	1739.59
440.021	1748.4
440.395	1762.41
440.77	1784.33
441.145	1808.74
441.52	1860.26
441.895	1878.79
442.27	1883.99
442.645	1874.95
443.019	1923.54
443.394	1924.21
443.769	1959.24
444.143	1941.16
444.518	2037.66
444.892	2026.81
445.267	2044.44
445.641	2072.01
446.016	2093.25
446.39	2087.15
446.764	2118.56
447.139	2114.49
447.513	2127.6
447.887	2140.25
448.262	2189.97
448.636	2184.32
449.01	2227.03
449.384	2247.14
449.758	2258.9
450.132	2288.5
450.506	2284.66
450.88	2300.93
451.254	2318.33
451.628	2354.49
452.002	2405.78
452.376	2387.03
452.75	2421.38
453.123	2445.56
453.497	2451.43
453.871	2497.31
454.244	2529.4
454.618	2561.26
454.992	2601.26
455.365	2595.84
455.739	2655.27
456.112	2688.04
456.486	2720.13
456.859	2740.24
457.232	2777.98
457.606	2787.24
457.979	2817.75
458.352	2835.38
458.725	2855.26
459.099	2909.95
459.472	2960.12
459.845	2952.66
460.218	3007.12
460.591	3077.18
460.964	3077.18
461.337	3123.73
461.71	3150.62
462.083	3215.03
462.456	3231.98
462.829	3224.52
463.201	3311.75
463.574	3296.83
463.947	3389.94
464.32	3446.89
464.692	3461.8
465.065	3473.55
465.438	3548.58
465.81	3561.46
466.183	3624.74
466.555	3688.69
466.928	3741.79
467.3	3725.75
467.672	3771.4
468.045	3838.51
468.417	3829.7
468.789	3881.68
469.161	3908.57
469.534	3986.99
469.906	4065.4
470.278	4109.92
470.65	4157.6
471.022	4227.21
471.394	4347.65
471.766	4342
472.138	4404.6
472.51	4470.14
472.882	4508.55
473.253	4520.3
473.625	4626.97
473.997	4659.74
474.369	4744.25
474.74	4774.31
475.112	4882.33
475.484	4895.21
475.855	4983.57
476.227	5045.94
476.598	5161.19
476.97	5213.17
477.341	5315.31
477.713	5416.55
478.084	5430.34
478.455	5538.81
478.827	5621.07
479.198	5734.28
479.569	5742.87
479.94	5898.8
480.311	5912.13
480.682	6038.46
481.053	6155.29
481.424	6262.18
481.795	6283.87
482.166	6402.97
482.537	6412.46
482.908	6578.1
483.279	6644.32
483.65	6761.6
484.021	6834.82
484.391	6960.01
484.762	6957.08
485.133	7002.95
485.503	7062.16
485.874	7226.67
486.244	7309.61
486.615	7411.75
486.985	7470.51
487.356	7603.84
487.726	7645.87
488.097	7802.25
488.467	7816.26
488.837	7959.76
489.207	8084.28
489.578	8124.05
489.948	8212.41
490.318	8261.22
490.688	8271.84
491.058	8410.37
491.428	8522.01
491.798	8613.08
492.168	8688.78
492.538	8811.04
492.908	8860.76
493.278	8876.35
493.648	8901.66
494.017	9098.49
494.387	9123.35
494.757	9091.71
495.126	9191.14
495.496	9204.02
495.866	9250.58
496.235	9347.3
496.605	9362.21
496.974	9432.04
497.344	9529.44
497.713	9519.5
498.082	9616.22
498.452	9700.51
498.821	9612.6
499.19	9671.81
499.559	9731.92
499.928	9740.51
500.298	9834.97
500.667	9905.25
501.036	9924
501.405	9980.5
501.774	9892.14
502.143	10041.52
502.512	10088.29
502.88	10097.33
503.249	10071.35
503.618	10139.37
503.987	10145.69
504.356	10211.23
504.724	10165.35
505.093	10202.64
505.462	10238.57
505.83	10303.2
506.199	10291.23
506.567	10399.25
506.936	10396.31
507.304	10448.28
507.672	10455.29
508.041	10492.58
508.409	10518.79
508.777	10622.97
509.145	10579.35
509.514	10524.67
509.882	10622.29
510.25	10672.91
510.618	10628.39
510.986	10666.13
511.354	10671.56
511.722	10747.94
512.09	10787.26
512.458	10702.97
512.826	10863.41
513.193	10879.91
513.561	10826.35
513.929	10851.44
514.297	10864.54
514.664	10894.6
515.032	10890.76
515.4	10929.85
515.767	10911.1
516.135	10916.97
516.502	10808.5
516.869	10979.8
517.237	10991.55
517.604	10918.78
517.972	10985.45
518.339	10921.94
518.706	10948.84
519.073	10982.06
519.44	10951.77
519.808	11070.42
520.175	10994.71
520.542	11069.96
520.909	11078.55
521.276	11045.33
521.643	11104.99
522.009	11112.45
522.376	11118.55
522.743	11086.46
523.11	11127.14
523.477	11154.93
523.843	11225.44
524.21	11271.31
524.577	11281.93
524.943	11257.75
525.31	11220.69
525.676	11261.37
526.043	11208.72
526.409	11140.24
526.776	11223.63
527.142	11255.27
527.508	11229.73
527.874	11237.87
528.241	11249.62
528.607	11165.33
528.973	11260.92
529.339	11221.6
529.705	11264.31
530.071	11198.1
530.437	11288.04
530.803	11178.21
531.169	11187.93
531.535	11139.57
531.901	11136.4
532.267	11112.22
532.632	11086.01
532.998	11056.4
533.364	10999.68
533.73	11014.82
534.095	11013.02
534.461	10992.9
534.826	10957.88
535.192	10971.66
535.557	10893.47
535.923	10848.5
536.288	10849.86
536.653	10810.53
537.019	10713.59
537.384	10749.29
537.749	10716.75
538.114	10618.68
538.479	10635.4
538.845	10616.64
539.21	10599.92
539.575	10524.89
539.94	10429.08
540.305	10476.98
540.67	10401.96
541.034	10340.26
541.399	10303.66
541.764	10306.14
542.129	10274.28
542.494	10185.69
542.858	10159.48
543.223	10140.72
543.587	10156.31
543.952	10031.57
544.316	10052.14
544.681	9946.38
545.045	9951.8
545.41	9998.35
545.774	9883.55
546.138	9938.02
546.503	9764.01
546.867	9680.17
547.231	9766.04
547.595	9695.08
547.959	9700.73
548.324	9606.27
548.688	9555.65
549.052	9589.78
549.416	9438.37
549.779	9411.02
550.143	9399.72
550.507	9404.7
550.871	9405.83
551.235	9313.63
551.599	9318.37
551.962	9241.54
552.326	9271.82
552.689	9200.18
553.053	9119.28
553.417	9113.63
553.78	9161.09
554.143	9102.56
554.507	9009.45
554.87	9061.2
555.234	9055.1
555.597	8924.48
555.96	8962.9
556.323	8908.21
556.686	8912.28
557.05	8863.02
557.413	8850.36
557.776	8839.29
558.139	8828.67
558.502	8781.66
558.865	8759.97
559.228	8806.07
559.59	8809.46
559.953	8810.14
560.316	8843.13
560.679	8798.38
561.041	8770.36
561.404	8772.85
561.767	8731.04
562.129	8658.05
562.492	8744.6
562.854	8672.96
563.217	8691.95
563.579	8719.52
563.941	8707.54
564.304	8717.71
564.666	8709.12
565.028	8730.36
565.39	8712.74
565.753	8683.13
566.115	8684.26
566.477	8701.44
566.839	8726.07
567.201	8737.14
567.563	8693.08
567.925	8747.09
568.287	8734.88
568.648	8699.4
569.01	8764.26
569.372	8700.76
569.734	8742.11
570.095	8846.74
570.457	8776.69
570.819	8756.35
571.18	8696.92
571.542	8721.1
571.903	8785.28
572.265	8755.67
572.626	8754.32
572.987	8687.2
573.349	8784.15
573.71	8803.81
574.071	8779.63
574.432	8728.1
574.794	8785.96
575.155	8787.31
575.516	8767.65
575.877	8807.42
576.238	8771.04
576.599	8822.56
576.96	8779.18
577.32	8784.83
577.681	8867.08
578.042	8843.58
578.403	8875.9
578.763	8773.53
579.124	8750.93
579.485	8869.12
579.845	8856.46
580.206	8790.93
580.566	8879.74
580.927	8753.87
581.287	8838.38
581.648	8787.09
582.008	8805.62
582.368	8864.15
582.728	8805.16
583.089	8812.17
583.449	8823.24
583.809	8765.39
584.169	8803.13
584.529	8816.92
584.889	8833.64
585.249	8818.72
585.609	8739.63
585.969	8730.14
586.329	8733.3
586.688	8788.22
587.048	8803.13
587.408	8741.21
587.768	8778.05
588.127	8751.83
588.487	8699.4
588.846	8785.5
589.206	8673.87
589.565	8743.92
589.925	8822.34
590.284	8794.09
590.643	8767.42
591.003	8738.27
591.362	8769.46
591.721	8734.43
592.08	8685.62
592.44	8715.9
592.799	8802.23
593.158	8752.74
593.517	8717.26
593.876	8673.87
594.235	8651.27
594.593	8692.17
594.952	8704.38
595.311	8675
595.67	8667.77
596.029	8703.02
596.387	8688.1
596.746	8686.3
597.104	8677.26
597.463	8636.58
597.822	8736.92
598.18	8663.47
598.538	8623.25
598.897	8716.8
599.255	8577.37
599.613	8740.76
599.972	8644.72
600.33	8704.38
600.688	8633.19
601.046	8639.74
601.404	8693.75
601.762	8604.72
602.12	8741.89
602.478	8645.62
602.836	8669.12
603.194	8632.06
603.552	8651.27
603.91	8616.47
604.268	8663.02
604.625	8605.17
604.983	8684.26
605.341	8567.66
605.698	8633.19
606.056	8667.31
606.413	8642.46
606.771	8632.06
607.128	8609.01
607.485	8635.9
607.843	8651.5
608.2	8651.72
608.557	8682.91
608.914	8640.42
609.272	8741.44
609.629	8698.73
609.986	8758.84
610.343	8663.7
610.7	8646.07
611.057	8689.69
611.414	8739.18
611.771	8746.86
612.127	8673.64
612.484	8791.38
612.841	8745.28
613.198	8745.73
613.554	8706.86
613.911	8736.47
614.267	8788.89
614.624	8731.95
614.98	8778.27
615.337	8825.95
615.693	8770.59
616.05	8763.13
616.406	8817.59
616.762	8823.69
617.118	8829.12
617.475	8935.56
617.831	8778.27
618.187	8809.91
618.543	8860.76
618.899	8831.15
619.255	8773.75
619.611	8753.87
619.967	8820.98
620.323	8848.55
620.678	8836.35
621.034	8779.85
621.39	8820.76
621.746	8754.09
622.101	8875.22
622.457	8774.43
622.812	8858.95
623.168	8860.08
623.523	8913.64
623.879	8866.63
624.234	8779.4
624.589	8834.99
624.945	8817.59
625.3	8820.3
625.655	8901.88
626.01	8852.17
626.365	8938.04
626.72	8845.61
627.075	8828.89
627.43	8873.86
627.785	8784.37
628.14	8846.74
628.495	8835.9
628.85	8816.69
629.205	8843.58
629.559	8827.08
629.914	8777.37
630.269	8738.73
630.623	8743.02
630.978	8719.29
631.332	8782.79
631.687	8811.72
632.041	8736.01
632.396	8770.14
632.75	8660.53
633.104	8679.52
633.459	8615.56
633.813	8636.58
634.167	8653.76
634.521	8661.89
634.875	8626.19
635.229	8721.32
635.583	8602.23
635.937	8617.15
636.291	8547.32
636.645	8603.14
636.999	8591.61
637.352	8559.29
637.706	8514.32
638.06	8535.11
638.413	8556.81
638.767	8520.88
639.121	8523.59
639.474	8473.2
639.828	8494.89
640.181	8544.61
640.534	8491.5
640.888	8549.13
641.241	8465.06
641.594	8488.56
641.947	8451.95
642.301	8448.56
642.654	8493.99
643.007	8487.43
643.36	8480.43
643.713	8428.9
644.066	8482.69
644.419	8354.33
644.771	8383.03
645.124	8242.92
645.477	8260.55
645.83	8200.21
646.182	8184.16
646.535	8162.92
646.888	8206.31
647.24	8136.03
647.593	8213.99
647.945	8175.58
648.298	8124.5
648.65	8129.7
649.002	8118.85
649.355	8126.76
649.707	8121.11
650.059	8188.68
650.411	8249.47
650.763	8295.35
651.115	8331.5
651.467	8370.6
651.819	8360.88
652.171	8317.27
652.523	8304.39
652.875	8350.94
653.227	8255.12
653.578	8332.41
653.93	8309.13
654.282	8342.13
654.633	8266.42
654.985	8331.05
655.337	8261.22
655.688	8381.9
656.039	8322.46
656.391	8270.49
656.742	8347.77
657.094	8321.33
657.445	8380.99
657.796	8346.87
658.147	8309.81
658.498	8328.79
658.849	8383.25
659.2	8269.36
659.551	8339.41
659.902	8376.7
660.253	8308.45
660.604	8377.38
660.955	8290.38
661.306	8320.43
661.656	8333.76
662.007	8373.99
662.358	8315.46
662.708	8338.74
663.059	8324.5
663.409	8349.58
663.76	8369.24
664.11	8407.89
664.461	8333.31
664.811	8367.66
665.161	8356.36
665.511	8343.48
665.862	8436.81
666.212	8392.52
666.562	8399.3
666.912	8395.23
667.262	8400.65
667.612	8363.59
667.962	8435.46
668.312	8345.29
668.662	8367.89
669.011	8398.85
669.361	8323.37
669.711	8330.37
670.06	8336.25
670.41	8364.72
670.76	8382.12
671.109	8426.87
671.459	8308
671.808	8321.56
672.157	8352.07
672.507	8263.26
672.856	8350.26
673.205	8316.59
673.554	8381.45
673.904	8260.77
674.253	8286.76
674.602	8328.11
674.951	8195.24
675.3	8140.1
675.649	8307.32
675.998	8281.79
676.346	8277.27
676.695	8268.91
677.044	8144.84
677.393	8232.3
677.741	8210.83
678.09	8112.3
678.438	8188.23
678.787	8143.49
679.135	8164.73
679.484	8130.61
679.832	8091.96
680.181	8121.57
680.529	8146.65
680.877	8075.24
681.225	8130.38
681.573	8139.19
681.922	8112.98
682.27	8024.39
682.618	8100.78
682.966	7978.52
683.314	8002.25
683.661	7966.32
684.009	8021
684.357	7963.38
684.705	7901.91
685.053	7947.79
685.4	7924.74
685.748	7855.36
686.095	7873.66
686.443	7780.78
686.79	7781.69
687.138	7855.13
687.485	7755.02
687.832	7762.48
688.18	7782.37
688.527	7712.09
688.874	7706.89
689.221	7749.37
689.568	7657.62
689.915	7627.34
690.262	7598.64
690.609	7594.8
690.956	7570.17
691.303	7543.73
691.65	7542.6
691.997	7541.69
692.344	7450.17
692.69	7435.48
693.037	7445.65
693.383	7432.77
693.73	7392.55
694.077	7401.81
694.423	7341.02
694.769	7378.08
695.116	7276.84
695.462	7301.02
695.808	7220.8
696.155	7295.37
696.501	7187.81
696.847	7162.95
697.193	7181.25
697.539	7150.29
697.885	7106.68
698.231	7081.59
698.577	7101.71
698.923	7049.73
699.269	6972.9
699.614	6979.9
699.96	6975.38
700.306	6974.48
700.651	6920.02
700.997	6818.78
701.342	6877.31
701.688	6856.51
702.033	6880.47
702.379	6826.68
702.724	6762.73
703.069	6779.91
703.415	6669.85
703.76	6698.33
704.105	6707.59
704.45	6669.4
704.795	6635.28
705.14	6637.31
705.485	6585.11
705.83	6596.86
706.175	6556.64
706.52	6581.72
706.865	6583.75
707.209	6479.35
707.554	6470.31
707.899	6430.99
708.243	6448.62
708.588	6411.1
708.932	6404.1
709.277	6364.55
709.621	6379.47
709.966	6328.17
710.31	6341.95
710.654	6322.97
710.998	6313.7
711.342	6303.99
711.687	6268.96
712.031	6280.71
712.375	6193.71
712.719	6195.97
713.063	6242.97
713.407	6240.03
713.75	6162.97
714.094	6142.64
714.438	6150.09
714.782	6165.46
715.125	6146.25
715.469	6190.77
715.812	6126.59
716.156	6137.89
716.499	6111
716.843	6117.55
717.186	6041.62
717.53	6124.78
717.873	6054.73
718.216	6060.6
718.559	6025.8
718.902	5988.74
719.246	5984.45
719.589	6001.4
719.932	5993.71
720.275	6006.59
720.617	5951
720.96	6029.64
721.303	5973.37
721.646	5990.55
721.989	5934.05
722.331	5975.41
722.674	5965.24
723.016	5965.69
723.359	5978.35
723.701	5997.1
724.044	5941.96
724.386	5882.08
724.729	5937.22
725.071	5918.01
725.413	5901.96
725.755	5923.21
726.097	5891.12
726.439	5846.37
726.782	5870.55
727.124	5899.7
727.465	5899.25
727.807	5879.37
728.149	5877.33
728.491	5824.9
728.833	5919.82
729.175	5860.61
729.516	5857.9
729.858	5874.17
730.199	5854.96
730.541	5812.93
730.882	5856.99
731.224	5861.06
731.565	5817.67
731.906	5827.39
732.248	5816.32
732.589	5798.01
732.93	5839.59
733.271	5812.93
733.612	5836.2
733.953	5873.04
734.294	5860.16
734.635	5834.17
734.976	5881.17
735.317	5865.58
735.658	5837.56
735.999	5832.59
736.339	5852.93
736.68	5898.8
737.021	5878.01
737.361	5847.73
737.702	5906.26
738.042	5906.26
738.383	5853.15
738.723	5899.93
739.063	5877.33
739.404	5900.38
739.744	5883.88
740.084	5893.6
740.424	5945.8
740.764	5951
741.104	5975.41
741.444	5963.43
741.784	5988.51
742.124	5980.83
742.464	5986.48
742.804	6037.1
743.143	6076.2
743.483	6036.42
743.823	6045.69
744.162	6076.2
744.502	6155.29
744.841	6146.25
745.181	6226.7
745.52	6217.21
745.86	6251.33
746.199	6262.63
746.538	6296.98
746.877	6320.71
747.216	6358.22
747.556	6430.76
747.895	6438.67
748.234	6498.78
748.573	6518.44
748.911	6590.31
749.25	6629.18
749.589	6687.48
749.928	6748.04
750.267	6813.8
750.605	6859.68
750.944	6910.52
751.283	7007.92
751.621	7036.85
751.96	7183.74
752.298	7180.35
752.636	7319.78
752.975	7355.48
753.313	7499.44
753.651	7612.43
753.989	7702.82
754.327	7792.31
754.666	7835.25
755.004	8014.45
755.342	8131.51
755.679	8266.2
756.017	8324.5
756.355	8478.39
756.693	8644.26
757.031	8823.92
757.368	8906.18
757.706	8988.21
758.044	9143.01
758.381	9376
758.719	9427.52
759.056	9621.64
759.394	9782.31
759.731	9889.43
760.068	10099.82
760.405	10255.3
760.743	10414.84
761.08	10604.44
761.417	10767.15
761.754	10918.33
762.091	11107.25
762.428	11305.44
762.765	11422.04
763.102	11657.97
763.438	11814.58
763.775	11925.99
764.112	12195.36
764.449	12328.46
764.785	12438.51
765.122	12666.98
765.458	12830.59
765.795	12970.03
766.131	13178.16
766.467	13380.64
766.804	13448.88
