Data from hue_90_FLMS001491_90.txt Node
Date: Mon Feb 06 15:25:49 GMT 2017
User: dcchb
Spectrometer: FLMS00149
Trigger mode: 0
Integration Time (sec): 2.000000E-2
Scans to average: 10
Electric dark correction enabled: true
Nonlinearity correction enabled: false
Boxcar width: 0
XAxis mode: Wavelengths
Number of Pixels in Spectrum: 2048
>>>>>Begin Spectral Data<<<<<
341.393	-10.25
341.776	-10.25
342.16	-10.25
342.543	-52.29
342.927	-58.39
343.31	-63.13
343.693	-79.4
344.077	-49.35
344.46	-56.13
344.843	-48.67
345.226	-45.73
345.61	-24.72
345.993	-9.12
346.376	-5.96
346.759	-6.64
347.142	36.52
347.525	47.37
347.908	60.25
348.291	43.3
348.674	86.24
349.057	115.17
349.44	121.72
349.823	136.41
350.206	168.5
350.588	194.49
350.971	199.68
351.354	226.8
351.737	239.46
352.119	252.11
352.502	254.82
352.884	256.41
353.267	288.27
353.65	276.97
354.032	284.43
354.414	297.99
354.797	302.73
355.179	333.47
355.562	337.53
355.944	325.33
356.326	327.14
356.709	342.96
357.091	340.7
357.473	326.46
357.855	351.77
358.238	339.79
358.62	342.51
359.002	340.25
359.384	343.41
359.766	341.15
360.148	325.56
360.53	322.62
360.912	339.79
361.294	338.66
361.676	337.53
362.057	331.21
362.439	330.3
362.821	332.34
363.203	339.34
363.584	322.84
363.966	317.87
364.348	346.57
364.729	334.82
365.111	322.62
365.493	316.74
365.874	328.72
366.256	322.84
366.637	314.03
367.019	316.97
367.4	326.01
367.781	323.07
368.163	302.73
368.544	297.08
368.925	328.49
369.306	338.44
369.688	328.49
370.069	309.06
370.45	311.77
370.831	297.53
371.212	321.04
371.593	320.36
371.974	320.58
372.355	317.65
372.736	344.31
373.117	317.87
373.498	319.23
373.879	323.52
374.26	330.98
374.641	315.61
375.021	306.8
375.402	323.97
375.783	338.44
376.163	331.66
376.544	342.28
376.925	336.63
377.305	332.56
377.686	337.53
378.066	337.76
378.447	328.04
378.827	344.31
379.208	324.65
379.588	334.14
379.968	322.17
380.349	345.67
380.729	339.57
381.109	358.78
381.489	332.11
381.87	353.58
382.25	341.15
382.63	338.89
383.01	328.95
383.39	347.02
383.77	345.44
384.15	352.67
384.53	373.69
384.91	343.64
385.29	352.45
385.67	342.51
386.049	356.29
386.429	361.26
386.809	367.82
387.189	351.54
387.568	349.28
387.948	373.01
388.328	355.61
388.707	350.87
389.087	367.36
389.466	357.87
389.846	369.62
390.225	389.96
390.605	370.53
390.984	385.44
391.363	380.7
391.743	373.24
392.122	371.2
392.501	359
392.881	376.4
393.26	380.92
393.639	368.95
394.018	385.44
394.397	390.41
394.776	399.68
395.155	384.09
395.534	406.91
395.913	393.8
396.292	381.6
396.671	394.48
397.05	392.45
397.429	407.81
397.808	413.46
398.186	402.39
398.565	386.35
398.944	405.33
399.323	414.37
399.701	410.98
400.08	409.85
400.458	423.18
400.837	429.73
401.215	425.21
401.594	427.25
401.972	406.23
402.351	414.37
402.729	402.62
403.107	433.35
403.486	431.99
403.864	418.21
404.242	404.88
404.62	438.1
404.999	432.67
405.377	435.61
405.755	436.06
406.133	452.33
406.511	439.68
406.889	467.93
407.267	439.68
407.645	461.15
408.023	454.37
408.401	446.01
408.779	452.56
409.156	464.31
409.534	463.63
409.912	464.99
410.29	474.48
410.667	469.51
411.045	461.6
411.422	481.71
411.8	483.52
412.178	500.92
412.555	492.11
412.933	518.55
413.31	500.69
413.687	502.95
414.065	509.96
414.442	500.47
414.819	512.9
415.197	503.63
415.574	514.25
415.951	512.67
416.328	531.43
416.705	532.33
417.082	523.74
417.46	549.05
417.837	528.71
418.214	548.38
418.591	547.02
418.967	534.14
419.344	544.31
419.721	550.86
420.098	540.01
420.475	552.22
420.852	562.16
421.228	549.28
421.605	566.91
421.982	562.61
422.358	572.56
422.735	588.15
423.111	588.83
423.488	582.5
423.864	604.87
424.241	608.03
424.617	600.8
424.994	601.48
425.37	603.52
425.746	609.16
426.123	624.53
426.499	628.83
426.875	602.61
427.251	627.24
427.627	627.24
428.003	622.05
428.379	634.02
428.756	648.26
429.132	654.36
429.507	660.91
429.883	665.43
430.259	674.25
430.635	683.97
431.011	685.55
431.387	702.27
431.763	697.75
432.138	715.83
432.514	723.74
432.89	709.28
433.265	716.51
433.641	751.53
434.016	731.42
434.392	751.99
434.767	758.77
435.143	742.72
435.518	750.63
435.894	749.05
436.269	763.74
436.644	779.1
437.02	783.4
437.395	778.43
437.77	810.52
438.145	808.03
438.52	808.03
438.895	794.47
439.271	805.54
439.646	840.57
440.021	842.6
440.395	830.18
440.77	816.84
441.145	845.32
441.52	860.23
441.895	846.67
442.27	875.37
442.645	846.22
443.019	864.98
443.394	878.99
443.769	893.9
444.143	906.33
444.518	905.88
444.892	895.26
445.267	902.49
445.641	932.55
446.016	931.64
446.39	929.83
446.764	930.29
447.139	905.43
447.513	940.23
447.887	921.47
448.262	941.59
448.636	958.31
449.01	960.12
449.384	973
449.758	977.29
450.132	990.17
450.506	1014.8
450.88	999.66
451.254	1008.93
451.628	1005.09
452.002	1013
452.376	1032.88
452.75	1031.07
453.123	1026.33
453.497	1051.41
453.871	1052.54
454.244	1088.93
454.618	1073.56
454.992	1107.23
455.365	1092.32
455.739	1124.41
456.112	1168.92
456.486	1161.47
456.859	1146.55
457.232	1199.66
457.606	1180.22
457.979	1172.77
458.352	1231.75
458.725	1230.84
459.099	1267
459.472	1254.8
459.845	1261.58
460.218	1279.66
460.591	1291.63
460.964	1288.24
461.337	1316.72
461.71	1327.79
462.083	1358.3
462.456	1360.11
462.829	1403.27
463.201	1424.51
463.574	1433.32
463.947	1418.41
464.32	1459.09
464.692	1493.21
465.065	1491.85
465.438	1535.69
465.81	1570.27
466.183	1591.29
466.555	1592.19
466.928	1619.31
467.3	1617.73
467.672	1656.82
468.045	1706.99
468.417	1662.24
468.789	1695.01
469.161	1729.59
469.534	1767.1
469.906	1795.57
470.278	1815.01
470.65	1854.78
471.022	1887.78
471.394	1947.21
471.766	1959.64
472.138	1978.39
472.51	1994.21
472.882	2109.46
473.253	2102.68
473.625	2158.28
473.997	2230.59
474.369	2213.19
474.74	2271.49
475.112	2348.1
475.484	2380.64
475.855	2468.55
476.227	2481.66
476.598	2547.42
476.97	2576.34
477.341	2700.41
477.713	2725.72
478.084	2775.66
478.455	2887.07
478.827	2950.35
479.198	3016.79
479.569	3065.82
479.94	3182.2
480.311	3196.44
480.682	3293.39
481.053	3442.31
481.424	3496.77
481.795	3570.89
482.166	3661.74
482.537	3752.36
482.908	3853.15
483.279	3938.79
483.65	4059.24
484.021	4156.19
484.391	4251.33
484.762	4329.29
485.133	4431.66
485.503	4508.27
485.874	4699.23
486.244	4757.3
486.615	4897.87
486.985	5005.89
487.356	5176.05
487.726	5192.77
488.097	5387.8
488.467	5473.44
488.837	5650.61
489.207	5698.97
489.578	5883.83
489.948	6021
490.318	6151.39
490.688	6230.94
491.058	6363.82
491.428	6488.33
491.798	6650.59
492.168	6847.42
492.538	6865.05
492.908	7012.84
493.278	7253.28
493.648	7288.54
494.017	7382.09
494.387	7539.83
494.757	7645.82
495.126	7778.92
495.496	7858.92
495.866	7948.86
496.235	8093.71
496.605	8328.28
496.974	8412.8
497.344	8493.48
497.713	8617.09
498.082	8653.92
498.452	8841.26
498.821	8902.73
499.19	9054.37
499.559	9124.42
499.928	9238.32
500.298	9354.25
500.667	9486.45
501.036	9501.81
501.405	9586.56
501.774	9714.46
502.143	9803.5
502.512	9841.92
502.88	10034.68
503.249	10032.65
503.618	10159.2
503.987	10281
504.356	10277.39
504.724	10396.25
505.093	10454.56
505.462	10534.55
505.83	10650.48
506.199	10735.68
506.567	10857.71
506.936	10879.63
507.304	11044.14
507.672	11047.53
508.041	11089.57
508.409	11297.02
508.777	11238.04
509.145	11338.37
509.514	11413.85
509.882	11534.3
510.25	11464.25
510.618	11573.85
510.986	11649.1
511.354	11798.02
511.722	11811.58
512.09	11964.35
512.458	11933.39
512.826	12032.82
513.193	12077.34
513.561	12084.12
513.929	12293.6
514.297	12263.1
514.664	12264
515.032	12333.15
515.4	12414.28
515.767	12471.45
516.135	12529.98
516.502	12495.63
516.869	12685.46
517.237	12675.51
517.604	12604.1
517.972	12763.2
518.339	12750.09
518.706	12819.92
519.073	12852.46
519.44	12898.33
519.808	12987.14
520.175	12976.07
520.542	13124.32
520.909	13291.54
521.276	13143.52
521.643	13241.83
522.009	13272.33
522.376	13298.1
522.743	13397.98
523.11	13501.71
523.477	13562.27
523.843	13517.3
524.21	13709.61
524.577	13699.44
524.943	13693.79
525.31	13760.01
525.676	13854.01
526.043	13825.99
526.409	13836.84
526.776	13884.52
527.142	13938.31
527.508	13944.86
527.874	14084.97
528.241	14087.45
528.607	14151.86
528.973	14101.47
529.339	14087.45
529.705	14185.3
530.071	14251.97
530.437	14298.75
530.803	14281.8
531.169	14336.04
531.535	14215.36
531.901	14270.27
532.267	14229.15
532.632	14272.76
532.998	14222.14
533.364	14308.47
533.73	14367.9
534.095	14419.65
534.461	14381.01
534.826	14401.57
535.192	14323.83
535.557	14448.35
535.923	14345.98
536.288	14319.09
536.653	14354.34
537.019	14186.89
537.384	14360.67
537.749	14305.08
538.114	14354.79
538.479	14288.13
538.845	14265.98
539.21	14130.17
539.575	14256.49
539.94	14204.97
540.305	14239.31
540.67	14199.77
541.034	14143.95
541.399	14303.04
541.764	14233.89
542.129	14228.24
542.494	14173.78
542.858	14158.41
543.223	14143.72
543.587	14148.24
543.952	14021.24
544.316	14026.44
544.681	14025.31
545.045	13995.48
545.41	13919.1
545.774	13982.82
546.138	13993.9
546.503	13936.95
546.867	13845.65
547.231	14010.39
547.595	13962.49
547.959	13855.37
548.324	13961.81
548.688	13851.98
549.052	13824.64
549.416	13775.82
549.779	13763.85
550.143	13818.99
550.507	13836.84
550.871	13762.27
551.235	13706.22
551.599	13798.2
551.962	13794.58
552.326	13673
552.689	13722.94
553.053	13676.84
553.417	13630.07
553.78	13755.03
554.143	13732.21
554.507	13633.23
554.87	13649.95
555.234	13762.04
555.597	13639.56
555.96	13624.19
556.323	13561.82
556.686	13683.85
557.05	13675.94
557.413	13648.6
557.776	13627.13
558.139	13675.26
558.502	13612.21
558.865	13663.51
559.228	13655.38
559.59	13745.32
559.953	13663.06
560.316	13799.55
560.679	13671.19
561.041	13701.93
561.404	13810.63
561.767	13829.61
562.129	13695.15
562.492	13809.72
562.854	13826.22
563.217	13776.73
563.579	13839.1
563.941	13860.34
564.304	13882.94
564.666	13937.63
565.028	13860.12
565.39	13910.06
565.753	13927.01
566.115	13879.1
566.477	14040.45
566.839	13930.62
567.201	14048.36
567.563	14076.61
567.925	14093.1
568.287	14105.31
568.648	14052.88
569.01	14173.1
569.372	14124.52
569.734	14127.68
570.095	14202.03
570.457	14275.25
570.819	14218.52
571.18	14156.61
571.542	14352.98
571.903	14200.45
572.265	14236.38
572.626	14333.1
572.987	14275.92
573.349	14381.01
573.71	14367.67
574.071	14339.88
574.432	14471.63
574.794	14516.14
575.155	14454.45
575.516	14428.01
575.877	14488.35
576.238	14431.17
576.599	14523.6
576.96	14470.04
577.32	14525.41
577.681	14529.93
578.042	14575.8
578.403	14463.94
578.763	14488.57
579.124	14515.01
579.485	14602.02
579.845	14596.59
580.206	14500.1
580.566	14479.08
580.927	14537.84
581.287	14625.97
581.648	14545.75
582.008	14545.75
582.368	14604.05
582.728	14599.53
583.089	14539.42
583.449	14610.83
583.809	14576.48
584.169	14579.19
584.529	14510.04
584.889	14687.21
585.249	14538.52
585.609	14461.46
585.969	14488.57
586.329	14437.95
586.688	14521.34
587.048	14557.95
587.408	14435.47
587.768	14492.64
588.127	14368.8
588.487	14433.43
588.846	14525.18
589.206	14415.58
589.565	14424.17
589.925	14424.17
590.284	14433.66
590.643	14431.17
591.003	14394.11
591.362	14389.59
591.721	14418.52
592.08	14340.78
592.44	14397.73
592.799	14360.22
593.158	14414.45
593.517	14336.94
593.876	14461.23
594.235	14382.59
594.593	14339.65
594.952	14381.68
595.311	14305.75
595.67	14284.96
596.029	14327
596.387	14392.98
596.746	14425.75
597.104	14362.25
597.463	14357.28
597.822	14291.29
598.18	14323.61
598.538	14301.23
598.897	14321.57
599.255	14287.22
599.613	14480.44
599.972	14352.98
600.33	14360.67
600.688	14349.37
601.046	14342.14
601.404	14444.51
601.762	14359.54
602.12	14419.65
602.478	14372.42
602.836	14370.61
603.194	14244.96
603.552	14296.49
603.91	14338.07
604.268	14282.48
604.625	14327
604.983	14355.7
605.341	14213.33
605.698	14359.09
606.056	14368.13
606.413	14390.05
606.771	14419.42
607.128	14368.13
607.485	14336.04
607.843	14355.47
608.2	14392.98
608.557	14432.53
608.914	14413.55
609.272	14426.43
609.629	14434.56
609.986	14474.34
610.343	14467.11
610.7	14506.88
611.057	14488.8
611.414	14532.87
611.771	14573.09
612.127	14604.73
612.484	14529.93
612.841	14631.39
613.198	14586.65
613.554	14579.87
613.911	14595.92
614.267	14646.76
614.624	14634.78
614.98	14619.64
615.337	14701.22
615.693	14681.79
616.05	14618.74
616.406	14703.48
616.762	14683.14
617.118	14625.07
617.475	14665.07
617.831	14703.94
618.187	14750.71
618.543	14687.44
618.899	14739.41
619.255	14734.67
619.611	14675.01
619.967	14861.67
620.323	14849.92
620.678	14777.83
621.034	14743.48
621.39	14725.63
621.746	14749.13
622.101	14900.77
622.457	14810.15
622.812	14858.96
623.168	14821.9
623.523	14715.01
623.879	14893.53
624.234	14731.73
624.589	14749.81
624.945	14836.59
625.3	14856.47
625.655	14777.38
626.01	14847.89
626.365	14806.53
626.72	14841.33
627.075	14755.01
627.43	14800.66
627.785	14776.25
628.14	14734.9
628.495	14873.42
628.85	14765.4
629.205	14693.31
629.559	14734.22
629.914	14715.91
630.269	14747.55
630.623	14774.67
630.978	14599.53
631.332	14706.2
631.687	14702.58
632.041	14625.29
632.396	14702.81
632.75	14585.75
633.104	14662.13
633.459	14559.08
633.813	14506.65
634.167	14530.83
634.521	14563.37
634.875	14538.06
635.229	14565.86
635.583	14411.74
635.937	14437.73
636.291	14485.86
636.645	14411.29
636.999	14456.48
637.352	14514.34
637.706	14370.84
638.06	14386.43
638.413	14293.1
638.767	14332.87
639.121	14402.47
639.474	14346.43
639.828	14353.89
640.181	14358.18
640.534	14350.95
640.888	14273.66
641.241	14222.82
641.594	14266.21
641.947	14208.13
642.301	14197.73
642.654	14265.08
643.007	14200.45
643.36	14162.93
643.713	14092.65
644.066	14103.95
644.419	14067.34
644.771	14082.93
645.124	13949.83
645.477	13914.35
645.83	13822.83
646.182	13713.23
646.535	13705.77
646.888	13702.38
647.24	13645.66
647.593	13683.85
647.945	13638.43
648.298	13677.75
648.65	13635.04
649.002	13630.52
649.355	13641.82
649.707	13621.7
650.059	13724.53
650.411	13851.08
650.763	13847.23
651.115	14065.08
651.467	13937.85
651.819	13962.26
652.171	13884.07
652.523	13936.5
652.875	13900.11
653.227	13938.31
653.578	13931.53
653.93	13988.93
654.282	13935.59
654.633	13868.25
654.985	13806.78
655.337	13909.38
655.688	13809.04
656.039	13977.85
656.391	13835.94
656.742	13863.28
657.094	13856.95
657.445	13903.5
657.796	13903.28
658.147	13895.6
658.498	13891.53
658.849	13940.57
659.2	13882.94
659.551	13916.61
659.902	13979.43
660.253	13934.92
660.604	13966.33
660.955	13920.91
661.306	14021.69
661.656	13971.75
662.007	13916.84
662.358	13974.69
662.708	13855.37
663.059	13870.29
663.409	13836.39
663.76	13936.5
664.11	14036.83
664.461	13920
664.811	13960.9
665.161	13962.71
665.511	13969.04
665.862	13952.77
666.212	13966.33
666.562	13974.46
666.912	13980.11
667.262	13937.85
667.612	13908.25
667.962	14011.3
668.312	13942.6
668.662	14065.31
669.011	13905.99
669.361	13946.22
669.711	13932.66
670.06	13870.74
670.41	13857.4
670.76	13829.16
671.109	13848.59
671.459	13858.76
671.808	13821.7
672.157	13869.83
672.507	13730.63
672.856	13737.86
673.205	13786.45
673.554	13838.65
673.904	13721.14
674.253	13819.21
674.602	13820.79
674.951	13553.46
675.3	13556.85
675.649	13712.55
675.998	13724.98
676.346	13720.01
676.695	13703.06
677.044	13703.51
677.393	13661.25
677.741	13637.07
678.09	13705.09
678.438	13668.26
678.787	13666.9
679.135	13603.63
679.484	13492.22
679.832	13558.43
680.181	13527.02
680.529	13569.05
680.877	13457.41
681.225	13487.92
681.573	13501.93
681.922	13368.83
682.27	13505.77
682.618	13463.52
682.966	13326.8
683.314	13437.98
683.661	13401.82
684.009	13275.95
684.357	13222.17
684.705	13166.35
685.053	13233.92
685.4	13187.37
685.748	13149.17
686.095	13086.35
686.443	13129.97
686.79	13056.52
687.138	13079.57
687.485	13091.55
687.832	13016.3
688.18	12967.71
688.527	12892.46
688.874	12935.85
689.221	12925
689.568	12864.66
689.915	12863.98
690.262	12790.54
690.609	12758
690.956	12691.56
691.303	12676.42
691.65	12502.41
691.997	12585.12
692.344	12499.93
692.69	12477.33
693.037	12454.73
693.383	12438.01
693.73	12474.84
694.077	12297.9
694.423	12311.46
694.769	12218.35
695.116	12231.01
695.462	12254.51
695.808	12164.79
696.155	12219.03
696.501	12069.65
696.847	12082.08
697.193	11951.92
697.539	12047.06
697.885	11965.02
698.231	11846.84
698.577	11779.72
698.923	11831.69
699.269	11756.67
699.614	11719.61
699.96	11612.49
700.306	11617.01
700.651	11645.48
700.997	11537.24
701.342	11542.44
701.688	11525.94
702.033	11422.44
702.379	11398.26
702.724	11451.37
703.069	11403.01
703.415	11344.02
703.76	11316
704.105	11308.54
704.45	11236.23
704.795	11194.65
705.14	11090.25
705.485	11112.39
705.83	11042.56
706.175	11062
706.52	11088.89
706.865	10934.09
707.209	10946.97
707.554	10828.56
707.899	10887.31
708.243	10819.97
708.588	10838.27
708.932	10793.3
709.277	10658.39
709.621	10779.74
709.966	10672.18
710.31	10698.84
710.654	10613.42
710.998	10584.95
711.342	10593.76
711.687	10465.18
712.031	10544.5
712.375	10469.47
712.719	10533.42
713.063	10420.88
713.407	10490.71
713.75	10426.99
714.094	10404.16
714.438	10344.5
714.782	10361.45
715.125	10355.35
715.469	10367.78
715.812	10283.49
716.156	10253.43
716.499	10234.22
716.843	10269.7
717.186	10198.74
717.53	10316.03
717.873	10262.02
718.216	10248.23
718.559	10153.32
718.902	10042.82
719.246	10165.98
719.589	10151.74
719.932	10047.11
720.275	10025.87
720.617	10055.02
720.96	10008.69
721.303	10015.25
721.646	10076.94
721.989	10006.21
722.331	10026.32
722.674	10080.55
723.016	9953.78
723.359	9912.65
723.701	9877.4
724.044	9868.81
724.386	9796.95
724.729	9902.93
725.071	9882.59
725.413	9876.72
725.755	9833.1
726.097	9874.46
726.439	9741.13
726.782	9795.36
727.124	9849.83
727.465	9738.19
727.807	9758.75
728.149	9777.74
728.491	9803.05
728.833	9760.79
729.175	9728.7
729.516	9680.79
729.858	9670.4
730.199	9747.46
730.541	9728.02
730.882	9740.9
731.224	9748.13
731.565	9664.29
731.906	9689.6
732.248	9735.03
732.589	9673.56
732.93	9697.51
733.271	9629.72
733.612	9679.66
733.953	9715.82
734.294	9681.69
734.635	9672.66
734.976	9701.58
735.317	9639.89
735.658	9705.2
735.999	9678.08
736.339	9649.15
736.68	9732.31
737.021	9674.92
737.361	9607.35
737.702	9640.57
738.042	9677.63
738.383	9702.71
738.723	9713.78
739.063	9643.05
739.404	9668.14
739.744	9713.11
740.084	9695.25
740.424	9628.81
740.764	9663.84
741.104	9744.07
741.444	9689.83
741.784	9706.78
742.124	9759.43
742.464	9735.03
742.804	9728.25
743.143	9831.52
743.483	9809.83
743.823	9789.71
744.162	9735.7
744.502	9850.5
744.841	9855.7
745.181	9841.46
745.52	9901.58
745.86	9972.08
746.199	9951.29
746.538	9991.29
746.877	10117.39
747.216	10043.72
747.556	10142.25
747.895	10157.39
748.234	10134.79
748.573	10235.13
748.911	10230.61
749.25	10293.43
749.589	10404.16
749.928	10460.21
750.267	10484.39
750.605	10510.6
750.944	10542.24
751.283	10640.54
751.621	10739.52
751.96	10752.17
752.298	10776.13
752.636	10937.48
752.975	10942
753.313	10985.16
753.651	11180.64
753.989	11185.84
754.327	11330.92
754.666	11375.21
755.004	11459.95
755.342	11645.48
755.679	11711.02
756.017	11818.14
756.355	11935.42
756.693	12056.1
757.031	12115.75
757.368	12165.92
757.706	12356.88
