Data from hue_150_FLMS001491_00096.txt Node
Date: Tue Feb 07 16:54:48 GMT 2017
User: dcchb
Spectrometer: FLMS00149
Trigger mode: 0
Integration Time (sec): 2.000000E-2
Scans to average: 10
Electric dark correction enabled: true
Nonlinearity correction enabled: false
Boxcar width: 0
XAxis mode: Wavelengths
Number of Pixels in Spectrum: 2048
>>>>>Begin Spectral Data<<<<<
341.393	-7.2
341.776	-7.2
342.16	-7.2
342.543	-48.11
342.927	-50.82
343.31	-69.57
343.693	-68.22
344.077	-46.07
344.46	-61.44
344.843	-66.64
345.226	-48.33
345.61	-23.47
345.993	-11.04
346.376	-4.04
346.759	21.27
347.142	19.91
347.525	29.63
347.908	49.29
348.291	79.35
348.674	95.62
349.057	103.75
349.44	114.83
349.823	144.88
350.206	189.85
350.588	202.96
350.971	189.18
351.354	226.46
351.737	233.69
352.119	226.24
352.502	251.55
352.884	268.95
353.267	282.28
353.65	301.49
354.032	306.91
354.414	292.45
354.797	311.88
355.179	315.95
355.562	312.56
355.944	336.52
356.326	332.67
356.709	325.67
357.091	337.65
357.473	355.05
357.855	346.91
358.238	334.03
358.62	339.68
359.002	324.99
359.384	344.88
359.766	338.1
360.148	340.36
360.53	349.85
360.912	325.67
361.294	349.85
361.676	334.03
362.057	332.9
362.439	323.64
362.821	335.16
363.203	343.07
363.584	317.31
363.966	327.48
364.348	332
364.729	326.35
365.111	291.09
365.493	325.22
365.874	322.05
366.256	309.62
366.637	306.46
367.019	295.61
367.4	295.39
367.781	308.72
368.163	332
368.544	309.17
368.925	321.83
369.306	319.79
369.688	311.43
370.069	341.71
370.45	320.02
370.831	309.62
371.212	318.44
371.593	312.56
371.974	319.12
372.355	298.78
372.736	316.63
373.117	310.53
373.498	336.52
373.879	313.24
374.26	323.41
374.641	315.95
375.021	302.17
375.402	316.63
375.783	337.42
376.163	325.9
376.544	332.9
376.925	331.54
377.305	324.09
377.686	331.77
378.066	335.84
378.447	320.92
378.827	327.93
379.208	334.48
379.588	334.26
379.968	339.23
380.349	353.92
380.729	323.41
381.109	334.03
381.489	335.84
381.87	327.48
382.25	350.53
382.63	312.56
383.01	332.45
383.39	335.61
383.77	334.03
384.15	347.82
384.53	334.71
384.91	354.37
385.29	351.66
385.67	339.45
386.049	327.48
386.429	342.39
386.809	354.37
387.189	364.09
387.568	331.32
387.948	344.2
388.328	362.5
388.707	348.49
389.087	344.88
389.466	368.15
389.846	362.05
390.225	358.44
390.605	350.53
390.984	359.57
391.363	359.34
391.743	362.96
392.122	352.79
392.501	360.7
392.881	375.16
393.26	380.58
393.639	349.17
394.018	366.8
394.397	383.07
394.776	371.77
395.155	362.96
395.534	376.97
395.913	380.81
396.292	361.37
396.671	378.55
397.05	400.47
397.429	374.93
397.808	365.89
398.186	367.93
398.565	375.61
398.944	363.41
399.323	376.29
399.701	404.09
400.08	397.08
400.458	378.32
400.837	385.1
401.215	386.91
401.594	379.45
401.972	379
402.351	377.19
402.729	399.34
403.107	406.35
403.486	393.01
403.864	420.13
404.242	398.21
404.62	410.19
404.999	416.06
405.377	412.9
405.755	423.07
406.133	418.1
406.511	410.41
406.889	415.61
407.267	415.16
407.645	413.8
408.023	421.71
408.401	424.2
408.779	438.66
409.156	443.41
409.534	435.05
409.912	419.68
410.29	430.98
410.667	431.43
411.045	439.79
411.422	437.3
411.8	457.87
412.178	443.86
412.555	453.8
412.933	455.16
413.31	454.71
413.687	475.72
414.065	459.45
414.442	458.1
414.819	479.79
415.197	503.74
415.574	464.42
415.951	483.41
416.328	464.87
416.705	499.9
417.082	490.86
417.46	476.85
417.837	481.37
418.214	485.44
418.591	507.36
418.967	483.63
419.344	504.2
419.721	492.22
420.098	498.32
420.475	517.53
420.852	528.15
421.228	508.94
421.605	526.57
421.982	524.08
422.358	504.65
422.735	515.95
423.111	519.34
423.488	533.8
423.864	523.4
424.241	528.83
424.617	541.93
424.994	513.69
425.37	536.74
425.746	535.83
426.123	561.82
426.499	544.19
426.875	565.66
427.251	566.34
427.627	570.18
428.003	598.66
428.379	576.06
428.756	583.74
429.132	591.88
429.507	615.38
429.883	592.56
430.259	581.26
430.635	611.31
431.011	593.68
431.387	597.75
431.763	612.22
432.138	636.62
432.514	641.37
432.89	597.98
433.265	648.82
433.641	632.55
434.016	649.28
434.392	663.74
434.767	662.38
435.143	657.19
435.518	670.29
435.894	673.23
436.269	661.71
436.644	680.91
437.02	671.2
437.395	678.88
437.77	709.61
438.145	703.06
438.52	696.73
438.895	735.83
439.271	722.95
439.646	729.73
440.021	755.26
440.395	745.32
440.77	712.55
441.145	726.11
441.52	752.1
441.895	769.5
442.27	778.54
442.645	745.77
443.019	776.51
443.394	785.32
443.769	766.79
444.143	773.79
444.518	784.64
444.892	778.54
445.267	784.87
445.641	782.38
446.016	788.93
446.39	804.75
446.764	788.93
447.139	805.88
447.513	796.84
447.887	837.52
448.262	825.77
448.636	836.84
449.01	817.63
449.384	835.49
449.758	860.57
450.132	840.23
450.506	848.37
450.88	855.15
451.254	865.77
451.628	889.04
452.002	867.12
452.376	905.32
452.75	915.48
453.123	903.51
453.497	939.44
453.871	909.38
454.244	941.02
454.618	936.05
454.992	948.93
455.365	966.56
455.739	982.83
456.112	978.76
456.486	988.93
456.859	980.57
457.232	1038.65
457.606	1018.08
457.979	1058.31
458.352	1045.88
458.725	1033.45
459.099	1060.34
459.472	1084.07
459.845	1100.11
460.218	1084.97
460.591	1132.43
460.964	1120.68
461.337	1139.21
461.71	1153.67
462.083	1146.89
462.456	1181.47
462.829	1195.25
463.201	1213.78
463.574	1206.55
463.947	1230.05
464.32	1277.28
464.692	1273.44
465.065	1302.14
465.438	1307.34
465.81	1325.42
466.183	1357.73
466.555	1372.2
466.928	1380.78
467.3	1378.3
467.672	1413.1
468.045	1467.33
468.417	1476.83
468.789	1479.76
469.161	1486.32
469.534	1525.86
469.906	1581.46
470.278	1546.65
470.65	1607.9
471.022	1636.14
471.394	1655.58
471.766	1691.96
472.138	1670.04
472.51	1771.06
472.882	1817.83
473.253	1826.19
473.625	1903.03
473.997	1929.47
474.369	1939.86
474.74	1980.32
475.112	2062.57
475.484	2079.3
475.855	2131.27
476.227	2150.25
476.598	2246.3
476.97	2278.61
477.341	2339.85
477.713	2437.25
478.084	2433.41
478.455	2527.65
478.827	2565.16
479.198	2658.49
479.569	2724.48
479.94	2812.61
480.311	2845.15
480.682	2960.63
481.053	3032.94
481.424	3101.19
481.795	3183.67
482.166	3297.12
482.537	3340.28
482.908	3482.87
483.279	3517.9
483.65	3636.32
484.021	3736.88
484.391	3815.52
484.762	3890.77
485.133	3977.78
485.503	4070.2
485.874	4211.22
486.244	4316.98
486.615	4408.27
486.985	4515.62
487.356	4636.29
487.726	4765.33
488.097	4899.11
488.467	4980.24
488.837	5187.46
489.207	5220.46
489.578	5389.94
489.948	5503.39
490.318	5636.72
490.688	5732.31
491.058	5843.04
491.428	6021.34
491.798	6113.31
492.168	6270.6
492.538	6308.79
492.908	6486.19
493.278	6623.58
493.648	6725.05
494.017	6933.18
494.387	6965.49
494.757	7047.98
495.126	7242.55
495.496	7290.01
495.866	7369.33
496.235	7513.28
496.605	7648.19
496.974	7738.58
497.344	7927.96
497.713	7970.67
498.082	8055.86
498.452	8219.02
498.821	8274.39
499.19	8317.32
499.559	8488.84
499.928	8509.18
500.298	8700.82
500.667	8812.9
501.036	8834.6
501.405	8947.14
501.774	9001.37
502.143	9074.14
502.512	9184.19
502.88	9336.05
503.249	9315.26
503.618	9367.47
503.987	9498.54
504.356	9490.4
504.724	9621.24
505.093	9621.47
505.462	9742.82
505.83	9802.93
506.199	9937.85
506.567	9994.34
506.936	10030.95
507.304	10106.2
507.672	10198.63
508.041	10258.06
508.409	10348.91
508.777	10333.77
509.145	10482.46
509.514	10505.06
509.882	10541.22
510.25	10600.88
510.618	10639.97
510.986	10672.97
511.354	10701.89
511.722	10809.91
512.09	10882.23
512.458	10858.27
512.826	10931.94
513.193	10972.4
513.561	11031.38
513.929	11088.1
514.297	11072.73
514.664	11183.69
515.032	11237.02
515.4	11265.95
515.767	11307.3
516.135	11295.78
516.502	11247.19
516.869	11406.73
517.237	11428.2
517.604	11268.66
517.972	11491.25
518.339	11554.98
518.706	11512.27
519.073	11478.82
519.44	11567.86
519.808	11611.02
520.175	11540.06
520.542	11676.11
520.909	11731.25
521.276	11641.53
521.643	11695.09
522.009	11851.69
522.376	11743.9
522.743	11867.74
523.11	11906.83
523.477	12020.28
523.843	11951.58
524.21	12037.68
524.577	12099.37
524.943	12053.04
525.31	12043.55
525.676	12119.71
526.043	12185.92
526.409	12141.4
526.776	12248.75
527.142	12274.73
527.508	12214.62
527.874	12212.36
528.241	12219.14
528.607	12222.31
528.973	12312.02
529.339	12192.48
529.705	12320.61
530.071	12333.49
530.437	12225.47
530.803	12355.41
531.169	12236.09
531.535	12170.78
531.901	12208.75
532.267	12173.95
532.632	12274.96
532.998	12209.65
533.364	12323.32
533.73	12234.73
534.095	12231.57
534.461	12140.5
534.826	12168.97
535.192	12163.1
535.557	12222.98
535.923	12134.62
536.288	12088.3
536.653	12048.07
537.019	12087.17
537.384	11935.08
537.749	11997.23
538.114	11989.54
538.479	11959.49
538.845	11884.01
539.21	11861.64
539.575	11835.65
539.94	11758.14
540.305	11806.05
540.67	11772.6
541.034	11750.23
541.399	11710.68
541.764	11676.11
542.129	11690.79
542.494	11659.16
542.858	11618.48
543.223	11663.68
543.587	11543
543.952	11477.24
544.316	11480.18
544.681	11460.52
545.045	11428.88
545.41	11458.26
545.774	11367.19
546.138	11313.18
546.503	11282.44
546.867	11294.42
547.231	11293.74
547.595	11366.96
547.959	11230.69
548.324	11225.95
548.688	11156.57
549.052	11216.23
549.416	11086.74
549.779	11047.2
550.143	10965.39
550.507	10990.93
550.871	10985.28
551.235	10874.32
551.599	10970.59
551.962	10873.64
552.326	10886.07
552.689	10843.81
553.053	10824.15
553.417	10781.44
553.78	10901.66
554.143	10780.76
554.507	10840.87
554.87	10712.51
555.234	10802
555.597	10648.34
555.96	10663.7
556.323	10653.31
556.686	10657.6
557.05	10647.43
557.413	10653.31
557.776	10613.99
558.139	10690.82
558.502	10573.76
558.865	10548.45
559.228	10609.24
559.59	10665.96
559.953	10578.73
560.316	10626.19
560.679	10621.44
561.041	10641.33
561.404	10561.33
561.767	10592.74
562.129	10537.15
562.492	10625.06
562.854	10610.6
563.217	10592.29
563.579	10651.5
563.941	10627.55
564.304	10606.76
564.666	10661.22
565.028	10647.88
565.39	10651.05
565.753	10667.09
566.115	10708.9
566.477	10717.94
566.839	10708.9
567.201	10743.47
567.563	10696.7
567.925	10722.01
568.287	10756.58
568.648	10733.98
569.01	10746.64
569.372	10749.8
569.734	10708.67
570.095	10823.92
570.457	10805.17
570.819	10778.28
571.18	10777.6
571.542	10830.25
571.903	10761.1
572.265	10801.1
572.626	10789.58
572.987	10743.25
573.349	10835
573.71	10895.11
574.071	10864.38
574.432	10861.21
574.794	10909.35
575.155	10812.63
575.516	10815.56
575.877	10844.94
576.238	10876.13
576.599	10924.26
576.96	10908.44
577.32	10873.41
577.681	10920.87
578.042	10878.84
578.403	10867.77
578.763	10923.58
579.124	10957.71
579.485	10987.99
579.845	10930.36
580.206	10893.3
580.566	10937.59
580.927	10850.14
581.287	10885.17
581.648	10851.95
582.008	10830.93
582.368	10869.8
582.728	10845.62
583.089	10848.78
583.449	10833.19
583.809	10835.22
584.169	10817.6
584.529	10784.6
584.889	10832.06
585.249	10764.94
585.609	10808.11
585.969	10834.77
586.329	10737.6
586.688	10777.6
587.048	10777.37
587.408	10730.59
587.768	10808.33
588.127	10708.22
588.487	10700.54
588.846	10757.49
589.206	10647.88
589.565	10698.28
589.925	10730.37
590.284	10735.57
590.643	10659.18
591.003	10659.86
591.362	10735.57
591.721	10700.31
592.08	10717.03
592.44	10730.82
592.799	10683.59
593.158	10706.87
593.517	10631.16
593.876	10642.91
594.235	10653.53
594.593	10654.44
594.952	10665.51
595.311	10550.03
595.67	10618.96
596.029	10699.86
596.387	10729.46
596.746	10694.21
597.104	10597.49
597.463	10590.94
597.822	10641.56
598.18	10533.08
598.538	10583.03
598.897	10626.19
599.255	10523.14
599.613	10728.79
599.972	10557.26
600.33	10643.14
600.688	10591.84
601.046	10624.61
601.404	10666.19
601.762	10647.88
602.12	10685.4
602.478	10604.72
602.836	10605.85
603.194	10650.6
603.552	10663.02
603.91	10524.95
604.268	10566.53
604.625	10593.87
604.983	10648.11
605.341	10570.37
605.698	10626.42
606.056	10646.3
606.413	10589.81
606.771	10626.19
607.128	10665.51
607.485	10535.57
607.843	10603.82
608.2	10686.07
608.557	10653.31
608.914	10631.61
609.272	10635.23
609.629	10717.03
609.986	10736.24
610.343	10647.43
610.7	10763.14
611.057	10801.55
611.414	10708.45
611.771	10760.42
612.127	10747.32
612.484	10715.23
612.841	10768.78
613.198	10658.51
613.554	10706.19
613.911	10801.55
614.267	10779.86
614.624	10714.1
614.98	10745.73
615.337	10783.47
615.693	10759.75
616.05	10727.66
616.406	10839.29
616.762	10756.13
617.118	10775.56
617.475	10788.9
617.831	10870.02
618.187	10849.91
618.543	10834.09
618.899	10857.37
619.255	10794.77
619.611	10851.72
619.967	10917.26
620.323	10976.91
620.678	10791.83
621.034	10825.73
621.39	10825.05
621.746	10780.08
622.101	10995.22
622.457	10876.8
622.812	10904.83
623.168	10879.74
623.523	10869.35
623.879	10933.53
624.234	10856.01
624.589	10908.67
624.945	10966.97
625.3	10916.58
625.655	10938.5
626.01	10897.59
626.365	10942.57
626.72	10898.72
627.075	10932.62
627.43	10912.28
627.785	10909.8
628.14	10893.75
628.495	10970.36
628.85	10918.39
629.205	10891.04
629.559	10936.24
629.914	10806.52
630.269	10849.69
630.623	10732.4
630.978	10810.37
631.332	10846.07
631.687	10803.59
632.041	10755.23
632.396	10770.82
632.75	10819.63
633.104	10789.8
633.459	10773.08
633.813	10745.28
634.167	10678.39
634.521	10722.46
634.875	10713.19
635.229	10677.71
635.583	10600.65
635.937	10700.76
636.291	10637.71
636.645	10604.95
636.999	10544.38
637.352	10693.76
637.706	10540.99
638.06	10644.95
638.413	10524.95
638.767	10540.99
639.121	10584.16
639.474	10419.87
639.828	10477.94
640.181	10469.13
640.534	10523.82
640.888	10390.49
641.241	10462.13
641.594	10521.56
641.947	10555.91
642.301	10524.05
642.654	10489.7
643.007	10504.38
643.36	10447.89
643.713	10417.61
644.066	10472.3
644.419	10397.27
644.771	10358.17
645.124	10208.12
645.477	10241.34
645.83	10219.19
646.182	10182.13
646.535	10078.41
646.888	10154.11
647.24	10036.15
647.593	10193.88
647.945	10035.24
648.298	10111.85
648.65	9997.73
649.002	10016.26
649.355	10051.29
649.707	10064.85
650.059	10158.86
650.411	10204.28
650.763	10286.76
651.115	10378.74
651.467	10358.85
651.819	10330.15
652.171	10335.12
652.523	10295.12
652.875	10291.51
653.227	10267.33
653.578	10311.85
653.93	10331.73
654.282	10216.03
654.633	10233.43
654.985	10277.27
655.337	10283.83
655.688	10261.45
656.039	10369.25
656.391	10289.48
656.742	10277.27
657.094	10301.68
657.445	10412.18
657.796	10325.41
658.147	10286.09
658.498	10298.51
658.849	10333.99
659.2	10308.91
659.551	10364.95
659.902	10295.12
660.253	10281.34
660.604	10339.42
660.955	10324.28
661.306	10396.59
661.656	10337.84
662.007	10270.27
662.358	10346.65
662.708	10342.58
663.059	10359.08
663.409	10262.36
663.76	10387.78
664.11	10428
664.461	10297.16
664.811	10410.83
665.161	10375.12
665.511	10422.58
665.862	10230.49
666.212	10383.26
666.562	10388.91
666.912	10352.98
667.262	10426.87
667.612	10417.38
667.962	10346.42
668.312	10354.78
668.662	10426.19
669.011	10397.04
669.361	10333.99
669.711	10319.98
670.06	10344.39
670.41	10365.18
670.76	10276.14
671.109	10398.17
671.459	10317.95
671.808	10256.71
672.157	10366.31
672.507	10271.4
672.856	10258.29
673.205	10298.29
673.554	10281.34
673.904	10308.91
674.253	10341.23
674.602	10318.85
674.951	10119.31
675.3	10115.92
675.649	10192.08
675.998	10271.17
676.346	10268.01
676.695	10217.16
677.044	10164.28
677.393	10279.08
677.741	10170.83
678.09	10177.84
678.438	10184.62
678.787	10210.38
679.135	10150.5
679.484	10123.15
679.832	10141
680.181	10063.04
680.529	10102.59
680.877	10089.93
681.225	10032.76
681.573	10074.34
681.922	10014.68
682.27	9965.42
682.618	10040.67
682.966	9999.54
683.314	9990.05
683.661	9985.3
684.009	9905.08
684.357	9850.39
684.705	9788.92
685.053	9833.67
685.4	9869.83
685.748	9740.34
686.095	9795.48
686.443	9808.36
686.79	9722.03
687.138	9758.87
687.485	9724.29
687.832	9658.31
688.18	9691.3
688.527	9616.5
688.874	9594.35
689.221	9586.89
689.568	9544.86
689.915	9572.21
690.262	9568.82
690.609	9451.31
690.956	9446.79
691.303	9417.41
691.65	9409.05
691.997	9422.15
692.344	9296.73
692.69	9297.86
693.037	9289.73
693.383	9222.16
693.73	9188.26
694.077	9179.45
694.423	9198.66
694.769	9130.64
695.116	9100.35
695.462	9055.61
695.808	9088.83
696.155	9086.57
696.501	8949.62
696.847	8941.71
697.193	8876.86
697.539	8916.4
697.885	8798.44
698.231	8858.55
698.577	8864.2
698.923	8813.36
699.269	8757.54
699.614	8680.25
699.96	8647.03
700.306	8722.96
700.651	8634.83
700.997	8549.86
701.342	8555.06
701.688	8551.67
702.033	8532.23
702.379	8463.31
702.724	8440.03
703.069	8395.06
703.415	8370.2
703.76	8379.24
704.105	8310.54
704.45	8381.5
704.795	8291.79
705.14	8218.34
705.485	8242.52
705.83	8223.31
706.175	8221.96
706.52	8191.9
706.865	8134.28
707.209	8178.34
707.554	8137.67
707.899	8144.22
708.243	8038.46
708.588	7989.42
708.932	7995.07
709.277	7997.56
709.621	8000.27
709.966	7947.84
710.31	7965.47
710.654	7870.33
710.998	7877.79
711.342	7878.92
711.687	7820.84
712.031	7834.85
712.375	7766.83
712.719	7864.23
713.063	7761.41
713.407	7762.31
713.75	7706.94
714.094	7731.8
714.438	7670.34
714.782	7666.95
715.125	7690.22
715.469	7646.38
715.812	7618.13
716.156	7570
716.499	7590.34
716.843	7601.86
717.186	7538.81
717.53	7556.21
717.873	7605.25
718.216	7591.47
718.559	7520.28
718.902	7515.54
719.246	7516.89
719.589	7450.23
719.932	7481.87
720.275	7461.53
720.617	7398.03
720.96	7465.59
721.303	7463.79
721.646	7469.44
721.989	7396.22
722.331	7394.41
722.674	7424.47
723.016	7408.65
723.359	7390.12
723.701	7428.99
724.044	7315.09
724.386	7357.12
724.729	7375.2
725.071	7364.58
725.413	7324.81
725.755	7345.6
726.097	7264.24
726.439	7260.63
726.782	7335.88
727.124	7366.61
727.465	7269.22
727.807	7264.24
728.149	7305.37
728.491	7311.02
728.833	7290.23
729.175	7307.86
729.516	7244.81
729.858	7318.48
730.199	7281.87
730.541	7286.39
730.882	7294.53
731.224	7328.2
731.565	7294.75
731.906	7297.01
732.248	7260.85
732.589	7297.24
732.93	7280.51
733.271	7262.44
733.612	7295.66
733.953	7313.73
734.294	7232.15
734.635	7265.15
734.976	7312.38
735.317	7247.97
735.658	7284.58
735.999	7315.77
736.339	7259.72
736.68	7324.36
737.021	7299.95
737.361	7219.95
737.702	7302.66
738.042	7318.25
738.383	7339.04
738.723	7355.99
739.063	7343.79
739.404	7338.37
739.744	7330.46
740.084	7294.98
740.424	7330.23
740.764	7313.06
741.104	7391.7
741.444	7332.04
741.784	7384.69
742.124	7472.6
742.464	7339.04
742.804	7417.69
743.143	7428.08
743.483	7416.56
743.823	7514.86
744.162	7535.2
744.502	7529.32
744.841	7517.12
745.181	7625.59
745.52	7672.37
745.86	7723.89
746.199	7730.45
746.538	7771.35
746.877	7781.74
747.216	7843.66
747.556	7840.73
747.895	7924.34
748.234	7855.41
748.573	7992.13
748.911	8047.27
749.25	8095.86
749.589	8101.96
749.928	8240.04
750.267	8280.49
750.605	8330.43
750.944	8363.42
751.283	8420.15
751.621	8573.36
751.96	8645.9
752.298	8714.83
752.636	8808.84
752.975	8828.04
753.313	8987.59
753.651	9127.92
753.989	9224.64
754.327	9244.53
754.666	9325.21
755.004	9482.94
755.342	9615.82
755.679	9735.82
756.017	9839.77
756.355	9907.11
756.693	10020.56
757.031	10161.57
757.368	10229.59
757.706	10413.99
758.044	10549.58
758.381	10740.99
758.719	10810.59
759.056	11026.86
759.394	11211.48
759.731	11271.6
760.068	11446.96
760.405	11516.11
760.743	11704.35
