Data from hue_20_FLMS001491_2.txt Node
Date: Mon Feb 06 15:33:32 GMT 2017
User: dcchb
Spectrometer: FLMS00149
Trigger mode: 0
Integration Time (sec): 2.000000E-2
Scans to average: 10
Electric dark correction enabled: true
Nonlinearity correction enabled: false
Boxcar width: 0
XAxis mode: Wavelengths
Number of Pixels in Spectrum: 2048
>>>>>Begin Spectral Data<<<<<
341.393	9.87
341.776	9.87
342.16	9.87
342.543	-44.59
342.927	-51.37
343.31	-62.22
343.693	-84.14
344.077	-54.76
344.46	-60.86
344.843	-54.53
345.226	-55.21
345.61	-16.57
345.993	7.61
346.376	-17.02
346.759	5.58
347.142	21.85
347.525	67.05
347.908	48.52
348.291	62.07
348.674	92.36
349.057	100.27
349.44	156.99
349.823	131.68
350.206	184.56
350.588	197.89
350.971	201.96
351.354	230.66
351.737	223.65
352.119	248.06
352.502	256.19
352.884	272.69
353.267	305.46
353.65	310.66
354.032	293.03
354.414	279.24
354.797	303.2
355.179	307.49
355.562	309.53
355.944	342.75
356.326	321.95
356.709	322.86
357.091	345.91
357.473	330.77
357.855	338.68
358.238	342.75
358.62	353.37
359.002	333.48
359.384	333.03
359.766	331.45
360.148	323.76
360.53	325.12
360.912	306.36
361.294	354.72
361.676	335.51
362.057	331.67
362.439	333.25
362.821	345.01
363.203	351.56
363.584	335.97
363.966	302.97
364.348	333.93
364.729	319.24
365.111	320.82
365.493	320.15
365.874	309.07
366.256	309.75
366.637	321.5
367.019	331.9
367.4	311.79
367.781	305.91
368.163	324.44
368.544	312.24
368.925	322.18
369.306	320.37
369.688	304.1
370.069	268.62
370.45	312.92
370.831	321.73
371.212	344.55
371.593	328.28
371.974	292.58
372.355	321.95
372.736	303.88
373.117	303.42
373.498	305.01
373.879	334.84
374.26	308.62
374.641	298.68
375.021	333.71
375.402	307.72
375.783	316.31
376.163	326.25
376.544	321.73
376.925	350.88
377.305	322.41
377.686	326.47
378.066	326.47
378.447	328.51
378.827	330.77
379.208	341.39
379.588	319.24
379.968	347.72
380.349	329.86
380.729	326.93
381.109	331.9
381.489	339.58
381.87	334.38
382.25	329.86
382.63	325.34
383.01	367.15
383.39	328.51
383.77	348.62
384.15	348.62
384.53	346.13
384.91	349.07
385.29	352.91
385.67	340.71
386.049	329.41
386.429	349.98
386.809	333.48
387.189	347.04
387.568	351.33
387.948	330.32
388.328	352.91
388.707	347.94
389.087	352.24
389.466	362.63
389.846	351.11
390.225	373.7
390.605	347.04
390.984	360.15
391.363	353.37
391.743	350.43
392.122	359.69
392.501	364.44
392.881	366.7
393.26	359.02
393.639	370.09
394.018	368.06
394.397	368.73
394.776	374.16
395.155	375.74
395.534	362.18
395.913	376.64
396.292	359.47
396.671	370.32
397.05	380.94
397.429	364.21
397.808	380.94
398.186	364.44
398.565	380.48
398.944	391.78
399.323	385.68
399.701	390.65
400.08	372.8
400.458	386.13
400.837	372.8
401.215	382.07
401.594	396.3
401.972	398.11
402.351	381.61
402.729	403.99
403.107	402.4
403.486	399.69
403.864	398.56
404.242	376.42
404.62	393.82
404.999	410.09
405.377	404.89
405.755	407.6
406.133	410.31
406.511	417.09
406.889	416.87
407.267	411.9
407.645	444.89
408.023	425.68
408.401	420.94
408.779	418.22
409.156	414.38
409.534	438.34
409.912	417.55
410.29	419.13
410.667	422.29
411.045	440.37
411.422	451.44
411.8	445.34
412.178	435.4
412.555	456.87
412.933	440.37
413.31	438.79
413.687	432.23
414.065	470.43
414.442	446.02
414.819	463.87
415.197	465
415.574	469.97
415.951	464.1
416.328	463.19
416.705	480.59
417.082	478.33
417.46	475.62
417.837	449.18
418.214	449.18
418.591	491.22
418.967	482.63
419.344	490.76
419.721	478.11
420.098	479.24
420.475	480.59
420.852	481.5
421.228	478.79
421.605	475.85
421.982	493.48
422.358	503.42
422.735	521.27
423.111	531.21
423.488	500.03
423.864	506.81
424.241	527.83
424.617	513.14
424.994	508.39
425.37	539.58
425.746	518.79
426.123	549.52
426.499	536.86
426.875	538.22
427.251	542.51
427.627	542.06
428.003	547.03
428.379	549.52
428.756	543.64
429.132	556.3
429.507	562.4
429.883	563.98
430.259	571.21
430.635	566.69
431.011	569.41
431.387	595.62
431.763	587.94
432.138	591.33
432.514	607.37
432.89	605.79
433.265	592.91
433.641	617.09
434.016	621.38
434.392	624.32
434.767	624.32
435.143	620.7
435.518	640.36
435.894	614.15
436.269	643.53
436.644	630.42
437.02	655.28
437.395	642.17
437.77	639.91
438.145	667.26
438.52	676.75
438.895	679.69
439.271	673.58
439.646	685.79
440.021	673.58
440.395	681.04
440.77	693.47
441.145	653.47
441.52	714.94
441.895	692.34
442.27	696.86
442.645	670.65
443.019	722.85
443.394	708.61
443.769	723.98
444.143	713.58
444.518	691.89
444.892	716.97
445.267	712.45
445.641	704.77
446.016	730.53
446.39	744.77
446.764	710.87
447.139	740.47
447.513	739.57
447.887	749.97
448.262	738.89
448.636	752.45
449.01	731.44
449.384	759.23
449.758	756.29
450.132	780.93
450.506	763.98
450.88	779.34
451.254	782.73
451.628	757.65
452.002	804.65
452.376	787.71
452.75	807.37
453.123	808.95
453.497	824.31
453.871	815.28
454.244	838.55
454.618	860.47
454.992	851.43
455.365	854.37
455.739	864.09
456.112	878.1
456.486	865.9
456.859	888.95
457.232	895.95
457.606	893.24
457.979	932.33
458.352	929.17
458.725	934.59
459.099	921.71
459.472	946.12
459.845	934.37
460.218	951.09
460.591	966.46
460.964	946.12
461.337	963.07
461.71	998.55
462.083	1003.74
462.456	1006.91
462.829	1025.67
463.201	1029.28
463.574	1009.85
463.947	1060.92
464.32	1066.79
464.692	1068.83
465.065	1095.72
465.438	1088.26
465.81	1107.7
466.183	1124.19
466.555	1113.12
466.928	1109.96
467.3	1121.71
467.672	1162.38
468.045	1150.63
468.417	1180.24
468.789	1167.13
469.161	1197.86
469.534	1201.71
469.906	1255.72
470.278	1266.34
470.65	1264.75
471.022	1288.71
471.394	1303.85
471.766	1339.1
472.138	1321.7
472.51	1356.5
472.882	1391.08
473.253	1376.84
473.625	1413.23
473.997	1428.82
474.369	1475.82
474.74	1478.99
475.112	1484.41
475.484	1526.67
475.855	1542.71
476.227	1568.48
476.598	1596.72
476.97	1593.11
477.341	1645.99
477.713	1640.56
478.084	1649.38
478.455	1707.46
478.827	1746.32
479.198	1788.58
479.569	1788.13
479.94	1846.21
480.311	1864.97
480.682	1923.49
481.053	1961.69
481.424	2002.36
481.795	2017.5
482.166	2022.48
482.537	2098.63
482.908	2139.08
483.279	2131.62
483.65	2160.78
484.021	2215.24
484.391	2235.58
484.762	2293.88
485.133	2317.61
485.503	2361.45
485.874	2404.61
486.244	2412.07
486.615	2490.49
486.985	2491.84
487.356	2548.79
487.726	2572.07
488.097	2651.84
488.467	2669.01
488.837	2732.96
489.207	2755.11
489.578	2794.66
489.948	2880.98
490.318	2859.06
490.688	2905.84
491.058	2926.18
491.428	2941.32
491.798	3036.69
492.168	3093.63
492.538	3056.8
492.908	3101.77
493.278	3168.21
493.648	3184.48
494.017	3227.19
494.387	3255.66
494.757	3275.78
495.126	3307.19
495.496	3355.32
495.866	3370.69
496.235	3365.49
496.605	3461.76
496.974	3467.63
497.344	3483.68
497.713	3522.32
498.082	3582.21
498.452	3603.22
498.821	3642.55
499.19	3614.07
499.559	3697.23
499.928	3725.48
500.298	3738.59
500.667	3802.77
501.036	3721.19
501.405	3812.03
501.774	3805.48
502.143	3849.77
502.512	3872.82
502.88	3922.31
503.249	3899.26
503.618	3943.33
503.987	3963.89
504.356	4009.09
504.724	3988.98
505.093	4012.48
505.462	4072.14
505.83	4088.18
506.199	4103.32
506.567	4152.59
506.936	4150.1
507.304	4165.24
507.672	4167.28
508.041	4219.93
508.409	4236.2
508.777	4294.51
509.145	4280.49
509.514	4291.79
509.882	4332.24
510.25	4357.78
510.618	4358.68
510.986	4352.81
511.354	4389.87
511.722	4434.84
512.09	4471
512.458	4452.92
512.826	4518.91
513.193	4494.73
513.561	4513.71
513.929	4530.88
514.297	4605.68
514.664	4595.29
515.032	4602.07
515.4	4622.41
515.767	4660.15
516.135	4698.11
516.502	4699.24
516.869	4712.57
517.237	4750.76
517.604	4758
517.972	4791.67
518.339	4813.59
518.706	4828.95
519.073	4821.95
519.44	4821.27
519.808	4868.95
520.175	4859.46
520.542	4877.99
520.909	4904.43
521.276	4945.34
521.643	4991.44
522.009	5041.6
522.376	5042.51
522.743	5066.46
523.11	5110.3
523.477	5146.69
523.843	5159.57
524.21	5224.65
524.577	5182.39
524.943	5266.46
525.31	5295.61
525.676	5325.67
526.043	5336.06
526.409	5402.95
526.776	5406.11
527.142	5363.63
527.508	5400.69
527.874	5459.22
528.241	5504.19
528.607	5488.6
528.973	5541.48
529.339	5573.79
529.705	5602.27
530.071	5606.11
530.437	5631.65
530.803	5635.26
531.169	5713.9
531.535	5707.35
531.901	5732.89
532.267	5793.45
532.632	5797.97
532.998	5804.97
533.364	5853.11
533.73	5887.91
534.095	5868.02
534.461	5921.58
534.826	5939.43
535.192	5952.99
535.557	6070.5
535.923	6037.28
536.288	6046.1
536.653	6027.34
537.019	6072.31
537.384	6142.82
537.749	6099.66
538.114	6108.02
538.479	6151.86
538.845	6199.77
539.21	6193.21
539.575	6194.12
539.94	6291.97
540.305	6350.72
540.67	6271.85
541.034	6335.58
541.399	6354.79
541.764	6362.93
542.129	6391.17
542.494	6429.14
542.858	6486.31
543.223	6459.65
543.587	6504.17
543.952	6502.36
544.316	6554.56
544.681	6520.89
545.045	6591.39
545.41	6669.81
545.774	6643.6
546.138	6685.18
546.503	6701
546.867	6728.34
547.231	6750.94
547.595	6769.47
547.959	6752.07
548.324	6795.68
548.688	6829.81
549.052	6864.83
549.416	6827.55
549.779	6907.77
550.143	6884.49
550.507	7017.6
550.871	6985.28
551.235	6915.91
551.599	7031.38
551.962	7053.3
552.326	7073.42
552.689	7052.63
553.053	7095.11
553.417	7130.36
553.78	7208.78
554.143	7163.13
554.507	7245.61
554.87	7219.63
555.234	7300.08
555.597	7253.98
555.96	7252.62
556.323	7326.06
556.686	7297.36
557.05	7401.32
557.413	7370.58
557.776	7429.79
558.139	7436.57
558.502	7485.38
558.865	7489
559.228	7528.32
559.59	7555.89
559.953	7578.94
560.316	7615.1
560.679	7687.64
561.041	7655.32
561.404	7705.72
561.767	7774.19
562.129	7693.29
562.492	7782.1
562.854	7797.46
563.217	7797.46
563.579	7842.89
563.941	7892.38
564.304	7895.77
564.666	7928.53
565.028	7964.69
565.39	8001.07
565.753	8037.46
566.115	8102.09
566.477	8077.68
566.839	8114.74
567.201	8175.31
567.563	8157.23
567.925	8149.09
568.287	8239.94
568.648	8277.23
569.01	8237.23
569.372	8285.81
569.734	8312.03
570.095	8413.95
570.457	8422.08
570.819	8473.38
571.18	8440.39
571.542	8539.37
571.903	8624.11
572.265	8620.27
572.626	8665.46
572.987	8723.99
573.349	8756.08
573.71	8822.07
574.071	8770.09
574.432	8829.98
574.794	8954.04
575.155	9010.99
575.516	9018.68
575.877	9075.62
576.238	9103.19
576.599	9183.87
576.96	9190.87
577.32	9280.14
577.681	9380.7
578.042	9402.39
578.403	9492.11
578.763	9593.12
579.124	9613.69
579.485	9748.37
579.845	9827.02
580.206	9911.31
580.566	9966
580.927	10133.67
581.287	10212.54
581.648	10304.29
582.008	10435.59
582.368	10550.61
582.728	10749.7
583.089	10808.46
583.449	10916.7
583.809	11100.43
584.169	11301.1
584.529	11408.44
584.889	11537.48
585.249	11760.98
585.609	11878.49
585.969	12076.22
586.329	12398.02
586.688	12491.58
587.048	12654.96
587.408	12828.29
587.768	12969.98
588.127	13252.91
588.487	13426.02
588.846	13697.2
589.206	13840.92
589.565	14142.38
589.925	14394.35
590.284	14560.22
590.643	14888.58
591.003	15084.05
591.362	15354.78
591.721	15636.81
592.08	15809.46
592.44	16146.62
592.799	16518.14
593.158	16691.92
593.517	16931.24
593.876	17275.18
594.235	17520.37
594.593	17820.48
594.952	18132.79
595.311	18232.44
595.67	18644.41
596.029	19012.54
596.387	19405.97
596.746	19644.84
597.104	19849.12
597.463	20076.46
597.822	20474.42
598.18	20581.99
598.538	20976.33
598.897	21299.93
599.255	21408.86
599.613	21966.81
599.972	22144.66
600.33	22505.33
600.688	22604.76
601.046	23032.54
601.404	23568.35
601.762	23567.9
602.12	24019.41
602.478	24266.41
602.836	24478.38
603.194	24691.26
603.552	25033.17
603.91	25181.19
604.268	25598.8
604.625	25747.5
604.983	26100.71
605.341	26236.08
605.698	26574.6
606.056	26968.71
606.413	27115.37
606.771	27384.52
607.128	27600.56
607.485	27802.14
607.843	27964.62
608.2	28409.8
608.557	28606.18
608.914	28768.89
609.272	29233.74
609.629	29320.97
609.986	29779.94
610.343	29703.56
610.7	30083.21
611.057	30334.95
611.414	30492.69
611.771	30678.22
612.127	30986.01
612.484	31203.63
612.841	31392.55
613.198	31468.71
613.554	31597.06
613.911	31990.95
614.267	32078.63
614.624	32254.67
614.98	32475.69
615.337	32783.7
615.693	32760.2
616.05	32996.12
616.406	33236.8
616.762	33197.7
617.118	33473.63
617.475	33570.57
617.831	33795.42
618.187	33881.52
618.543	34079.49
618.899	34393.38
619.255	34421.4
619.611	34460.94
619.967	34590.21
620.323	34918.56
620.678	34856.41
621.034	34937.09
621.39	35111.77
621.746	35100.25
622.101	35593.57
622.457	35381.37
622.812	35535.72
623.168	35733.91
623.523	35813.68
623.879	36059.55
624.234	35847.12
624.589	36032.65
624.945	36226.77
625.3	36313.1
625.655	36243.04
626.01	36347
626.365	36511.29
626.72	36594
627.075	36635.8
627.43	36653.2
627.785	36647.1
628.14	36857.94
628.495	36960.99
628.85	36859.98
629.205	36788.57
629.559	37153.3
629.914	36906.98
630.269	37069.24
630.623	36941.78
630.978	37169.12
631.332	37294.77
631.687	37295.9
632.041	37124.83
632.396	37296.12
632.75	37275.56
633.104	37270.14
633.459	37272.62
633.813	37224.04
634.167	37325.5
634.521	37314.2
634.875	37382.22
635.229	37407.53
635.583	37216.13
635.937	37205.28
636.291	37200.53
636.645	37359.17
636.999	37344.03
637.352	37557.81
637.706	37420.19
638.06	37407.53
638.413	37326.63
638.767	37279.18
639.121	37316.24
639.474	37186.75
639.828	37267.42
640.181	37253.87
640.534	37332.51
640.888	37183.13
641.241	37135.45
641.594	37229.46
641.947	37380.19
642.301	37221.78
642.654	37195.56
643.007	37223.81
643.36	37250.25
643.713	37188.56
644.066	37296.8
644.419	37083.7
644.771	36891.39
645.124	36619.08
645.477	36456.6
645.83	36370.05
646.182	36238.07
646.535	36160.56
646.888	36130.28
647.24	35949.27
647.593	36224.74
647.945	36190.39
648.298	36065.42
648.65	35997.63
649.002	35837.86
649.355	36016.84
649.707	36032.65
650.059	36184.06
650.411	36546.09
650.763	36619.31
651.115	37076.24
651.467	36852.29
651.819	36829.7
652.171	36797.61
652.523	36803.48
652.875	36702.24
653.227	36672.41
653.578	36892.52
653.93	36713.31
654.282	36600.32
654.633	36563.04
654.985	36717.83
655.337	36713.77
655.688	36668.12
656.039	36810.03
656.391	36459.99
656.742	36552.87
657.094	36560.32
657.445	36641.23
657.796	36605.75
658.147	36489.14
658.498	36520.78
658.849	36600.77
659.2	36558.52
659.551	36472.19
659.902	36636.25
660.253	36503.6
660.604	36547.89
660.955	36326.43
661.306	36505.86
661.656	36404.85
662.007	36456.37
662.358	36439.88
662.708	36480.55
663.059	36553.77
663.409	36306.32
663.76	36586.31
664.11	36427.9
664.461	36446.65
664.811	36450.5
665.161	36397.39
665.511	36253.67
665.862	36336.6
666.212	36464.06
666.562	36485.98
666.912	36386.77
667.262	36353.78
667.612	36249.82
667.962	36351.97
668.312	36276.94
668.662	36583.37
669.011	36368.92
669.361	36248.92
669.711	36177.06
670.06	36230.62
670.41	36187.9
670.76	36255.7
671.109	36304.06
671.459	36230.16
671.808	36339.76
672.157	36243.95
672.507	36052.77
672.856	36158.53
673.205	36069.26
673.554	36313.32
673.904	36094.35
674.253	36194.46
674.602	36224.74
674.951	35658.88
675.3	35451.65
675.649	35996.5
675.998	36025.87
676.346	36002.37
676.695	36073.56
677.044	35808.48
677.393	36090.05
677.741	36037.17
678.09	35816.16
678.438	35891.64
678.787	35807.35
679.135	35918.08
679.484	35728.93
679.832	35883.05
680.181	35612.55
680.529	35692.32
680.877	35638.31
681.225	35637.86
681.573	35698.2
681.922	35496.62
682.27	35448.71
682.618	35432.22
682.966	35324.65
683.314	35414.37
683.661	35291.88
684.009	35053.47
684.357	35063.87
684.705	35107.48
685.053	35101.61
685.4	35022.29
685.748	34788.85
686.095	34759.92
686.443	34762.86
686.79	34660.26
687.138	34675.85
687.485	34792.23
687.832	34635.63
688.18	34722.41
688.527	34323.55
688.874	34415.07
689.221	34308.41
689.568	34263.89
689.915	34237.22
690.262	34145.02
690.609	34062.76
690.956	34023.67
691.303	33952.48
691.65	33760.62
691.997	33813.28
692.344	33626.39
692.69	33558.82
693.037	33597.92
693.383	33341.65
693.73	33438.82
694.077	33284.25
694.423	33221.2
694.769	33290.13
695.116	33221.43
695.462	33011.94
695.808	32916.35
696.155	32929.01
696.501	32686.75
696.847	32708
697.193	32467.55
697.539	32686.98
697.885	32406.76
698.231	32364.05
698.577	32267.1
698.923	32291.28
699.269	32131.97
699.614	31960.67
699.96	32000.44
700.306	31949.82
700.651	31867.11
700.997	31757.06
701.342	31663.73
701.688	31642.71
702.033	31439.1
702.379	31510.74
702.724	31387.8
703.069	31446.11
703.415	30991.88
703.76	31104.42
704.105	31081.6
704.45	31143.29
704.795	30939.45
705.14	30709.63
705.485	30783.3
705.83	30636.19
706.175	30590.09
706.52	30586.24
706.865	30520.26
707.209	30487.04
707.554	30350.77
707.899	30357.78
708.243	30235.74
708.588	30143.32
708.932	29918.01
709.277	29883.89
709.621	29949.42
709.966	29812.93
710.31	29821.29
710.654	29628.53
710.998	29594.41
711.342	29611.13
711.687	29581.52
712.031	29471.02
712.375	29341.76
712.719	29381.53
713.063	29366.39
713.407	29413.62
713.75	29165.26
714.094	29163.68
714.438	29140.41
714.782	29084.59
715.125	28953.97
715.469	29015.66
715.812	28845.95
716.156	28634.43
716.499	28675.11
716.843	28820.41
717.186	28666.52
717.53	28778.38
717.873	28871.03
718.216	28640.31
718.559	28438.5
718.902	28287.32
719.246	28323.03
719.589	28210.49
719.932	28206.42
720.275	28152.41
720.617	28017.72
720.96	28158.06
721.303	28081
721.646	28034.9
721.989	27858.63
722.331	27993.32
722.674	27892.76
723.016	27839.88
723.359	27681.69
723.701	27903.15
724.044	27678.75
724.386	27466.78
724.729	27594.91
725.071	27455.48
725.413	27486.44
725.755	27518.98
726.097	27374.35
726.439	27339.78
726.782	27257.74
727.124	27408.02
727.465	27110.85
727.807	27211.87
728.149	27177.07
728.491	27144.3
728.833	27136.62
729.175	26990.63
729.516	27000.8
729.858	27024.53
730.199	26851.65
730.541	26818.66
730.882	26866.12
731.224	26868.15
731.565	26736.85
731.906	26859.79
732.248	26746.12
732.589	26633.13
732.93	26540.7
733.271	26555.84
733.612	26612.11
733.953	26496.86
734.294	26552.23
734.635	26382.06
734.976	26426.81
735.317	26305.23
735.658	26417.09
735.999	26331.21
736.339	26209.41
736.68	26246.47
737.021	26144.78
737.361	26022.97
737.702	26184.55
738.042	26134.16
738.383	25997.44
738.723	26007.38
739.063	25948.85
739.404	26048.74
739.744	25866.59
740.084	25795.41
740.424	25878.34
740.764	25757.67
741.104	25874.5
741.444	25769.42
741.784	25634.28
742.124	25698.01
742.464	25732.36
742.804	25649.88
743.143	25492.14
743.483	25508.86
743.823	25499.6
744.162	25497.56
744.502	25404.01
744.841	25359.71
745.181	25340.96
745.52	25271.13
745.86	25291.47
746.199	25243.79
746.538	25256.89
746.877	25221.41
747.216	25154.07
747.556	25063.68
747.895	25110
748.234	25003.79
748.573	24974.87
748.911	25029.1
749.25	24955.43
749.589	24797.47
749.928	24877.69
750.267	24958.37
750.605	24811.48
750.944	24824.59
751.283	24765.83
751.621	24740.75
751.96	24583.46
752.298	24664.59
752.636	24599.06
752.975	24390.47
753.313	24393.64
753.651	24517.02
753.989	24346.41
754.327	24363.36
754.666	24097.37
755.004	24246.52
755.342	24225.73
755.679	24214.89
756.017	24049.47
756.355	24182.57
756.693	23966.08
757.031	24078.39
757.368	23880.21
757.706	23881.79
758.044	23828.68
758.381	23811.28
758.719	23646.54
759.056	23831.62
759.394	23635.47
759.731	23484.74
760.068	23470.95
760.405	23340.11
760.743	23322.71
