Data from hue_340_FLMS001491_72.txt Node
Date: Mon Feb 06 15:43:34 GMT 2017
User: dcchb
Spectrometer: FLMS00149
Trigger mode: 0
Integration Time (sec): 2.000000E-2
Scans to average: 10
Electric dark correction enabled: true
Nonlinearity correction enabled: false
Boxcar width: 0
XAxis mode: Wavelengths
Number of Pixels in Spectrum: 2048
>>>>>Begin Spectral Data<<<<<
341.393	-10.76
341.776	-10.76
342.16	-10.76
342.543	-65.22
342.927	-67.71
343.31	-60.03
343.693	-66.35
344.077	-60.48
344.46	-63.19
344.843	-61.61
345.226	-35.17
345.61	-17.54
345.993	-23.87
346.376	-10.76
346.759	17.03
347.142	9.35
347.525	44.15
347.908	56.81
348.291	62.68
348.674	103.36
349.057	105.62
349.44	118.95
349.823	144.26
350.206	171.61
350.588	195.79
350.971	202.79
351.354	226.75
351.737	250.93
352.119	243.02
352.502	234.2
352.884	255.45
353.267	277.37
353.65	299.29
354.032	292.96
354.414	325.27
354.797	318.27
355.179	312.17
355.562	296.35
355.944	314.43
356.326	322.79
356.709	331.38
357.091	340.87
357.473	378.38
357.855	344.71
358.238	352.84
358.62	329.57
359.002	325.5
359.384	345.61
359.766	339.06
360.148	345.39
360.53	333.18
360.912	327.08
361.294	334.99
361.676	308.78
362.057	330.47
362.439	323.24
362.821	343.58
363.203	312.39
363.584	321.21
363.966	308.78
364.348	323.92
364.729	320.3
365.111	309.46
365.493	297.25
365.874	325.5
366.256	316.69
366.637	319.85
367.019	308.78
367.4	297.7
367.781	323.69
368.163	308.33
368.544	306.97
368.925	311.71
369.306	329.79
369.688	322.34
370.069	311.94
370.45	326.18
370.831	328.66
371.212	315.56
371.593	316.01
371.974	336.57
372.355	329.12
372.736	299.96
373.117	293.41
373.498	327.99
373.879	317.36
374.26	320.3
374.641	314.2
375.021	330.47
375.402	306.97
375.783	307.42
376.163	318.95
376.544	316.46
376.925	327.53
377.305	314.43
377.686	332.05
378.066	328.21
378.447	343.8
378.827	350.81
379.208	336.8
379.588	319.17
379.968	322.11
380.349	336.57
380.729	341.77
381.109	355.56
381.489	332.51
381.87	339.28
382.25	351.94
382.63	340.64
383.01	328.89
383.39	340.41
383.77	330.7
384.15	342.22
384.53	342.45
384.91	344.48
385.29	362.34
385.67	358.95
386.049	351.49
386.429	353.3
386.809	358.95
387.189	328.44
387.568	377.93
387.948	364.14
388.328	325.73
388.707	360.98
389.087	363.47
389.466	354.43
389.846	376.12
390.225	380.41
390.605	367.53
390.984	388.32
391.363	355.33
391.743	355.56
392.122	368.44
392.501	372.28
392.881	377.25
393.26	361.88
393.639	362.79
394.018	377.25
394.397	373.63
394.776	382
395.155	376.12
395.534	389.68
395.913	369.11
396.292	380.41
396.671	389.68
397.05	374.54
397.429	382.67
397.808	383.13
398.186	384.48
398.565	382.22
398.944	380.19
399.323	415.89
399.701	377.7
400.08	398.04
400.458	390.13
400.837	392.62
401.215	410.02
401.594	385.84
401.972	400.53
402.351	375.67
402.729	404.14
403.107	419.28
403.486	426.06
403.864	418.83
404.242	418.83
404.62	432.39
404.999	394.2
405.377	421.32
405.755	427.19
406.133	424.71
406.511	419.06
406.889	437.14
407.267	426.97
407.645	431.03
408.023	437.14
408.401	432.39
408.779	453.41
409.156	456.12
409.534	452.73
409.912	427.42
410.29	449.11
410.667	480.52
411.045	450.92
411.422	480.75
411.8	487.98
412.178	482.56
412.555	505.38
412.933	498.15
413.31	492.95
413.687	491.6
414.065	504.25
414.442	496.57
414.819	508.09
415.197	504.48
415.574	530.24
415.951	520.07
416.328	522.56
416.705	542.44
417.082	525.95
417.46	562.33
417.837	552.39
418.214	529.11
418.591	568.43
418.967	554.87
419.344	572.27
419.721	592.16
420.098	548.09
420.475	569.11
420.852	564.82
421.228	598.26
421.605	585.83
421.982	613.63
422.358	605.49
422.735	616.11
423.111	609.56
423.488	606.4
423.864	627.64
424.241	614.98
424.617	621.09
424.994	627.41
425.37	648.2
425.746	668.54
426.123	626.51
426.499	646.4
426.875	648.88
427.251	680.97
427.627	671.48
428.003	663.34
428.379	681.65
428.756	669.45
429.132	700.41
429.507	724.59
429.883	708.31
430.259	726.39
430.635	700.63
431.011	719.16
431.387	745.83
431.763	770.69
432.138	750.12
432.514	777.01
432.89	771.36
433.265	770.01
433.641	764.58
434.016	779.27
434.392	780.63
434.767	768.88
435.143	817.01
435.518	829.67
435.894	816.56
436.269	835.32
436.644	835.54
437.02	837.35
437.395	842.1
437.77	854.3
438.145	865.15
438.52	895.65
438.895	879.16
439.271	867.41
439.646	890.91
440.021	903.11
440.395	927.74
440.77	884.13
441.145	902.43
441.52	913.96
441.895	939.5
442.27	942.21
442.645	905.15
443.019	964.81
443.394	936.78
443.769	935.88
444.143	946.73
444.518	972.04
444.892	961.42
445.267	983.11
445.641	977.23
446.016	946.27
446.39	977.91
446.764	967.97
447.139	998.48
447.513	994.86
447.887	996.89
448.262	1000.74
448.636	995.99
449.01	1012.94
449.384	1031.7
449.758	1058.36
450.132	1026.72
450.506	1017.91
450.88	1033.96
451.254	1031.47
451.628	1020.62
452.002	1045.03
452.376	1054.52
452.75	1065.37
453.123	1054.29
453.497	1081.86
453.871	1091.36
454.244	1098.13
454.618	1105.37
454.992	1108.08
455.365	1116.67
455.739	1127.51
456.112	1148.98
456.486	1165.7
456.859	1167.74
457.232	1207.51
457.606	1172.26
457.979	1207.74
458.352	1182.2
458.725	1208.87
459.099	1222.65
459.472	1246.38
459.845	1269.66
460.218	1252.71
460.591	1269.2
460.964	1263.78
461.337	1296.55
461.71	1349.43
462.083	1330.9
462.456	1327.96
462.829	1333.38
463.201	1343.78
463.574	1332.93
463.947	1375.87
464.32	1405.92
464.692	1383.78
465.065	1411.57
465.438	1408.18
465.81	1444.79
466.183	1424.91
466.555	1459.48
466.928	1486.6
467.3	1524.11
467.672	1484.79
468.045	1541.06
468.417	1529.31
468.789	1562.76
469.161	1567.05
469.534	1581.51
469.906	1627.84
470.278	1601.17
470.65	1637.33
471.022	1675.75
471.394	1668.97
471.766	1719.36
472.138	1694.05
472.51	1794.16
472.882	1768.4
473.253	1785.8
473.625	1814.27
473.997	1827.38
474.369	1839.36
474.74	1876.87
475.112	1891.79
475.484	1928.4
475.855	1935.4
476.227	1984.89
476.598	2057.21
476.97	2027.83
477.341	2068.96
477.713	2082.06
478.084	2104.44
478.455	2178.78
478.827	2175.17
479.198	2220.14
479.569	2253.58
479.94	2303.08
480.311	2321.61
480.682	2365.22
481.053	2398.89
481.424	2426.24
481.795	2452.68
482.166	2515.95
482.537	2544.42
482.908	2549.4
483.279	2603.63
483.65	2627.81
484.021	2643.41
484.391	2691.09
484.762	2717.3
485.133	2735.61
485.503	2784.64
485.874	2851.99
486.244	2847.69
486.615	2893.12
486.985	2957.75
487.356	3026.9
487.726	2988.71
488.097	3103.73
488.467	3070.96
488.837	3137.18
489.207	3178.31
489.578	3207.91
489.948	3225.08
490.318	3280
490.688	3282.03
491.058	3354.57
491.428	3395.25
491.798	3456.49
492.168	3460.78
492.538	3475.02
492.908	3519.54
493.278	3550.73
493.648	3583.72
494.017	3601.35
494.387	3676.82
494.757	3678.63
495.126	3694.45
495.496	3718.63
495.866	3737.61
496.235	3819.65
496.605	3831.62
496.974	3856.48
497.344	3916.82
497.713	3891.06
498.082	3940.09
498.452	3954.78
498.821	4000.88
499.19	3988
499.559	4044.27
499.928	4053.76
500.298	4056.02
500.667	4101.9
501.036	4096.47
501.405	4104.84
501.774	4124.5
502.143	4134.21
502.512	4181.67
502.88	4246.75
503.249	4224.15
503.618	4275.45
503.987	4276.36
504.356	4279.29
504.724	4317.26
505.093	4322.68
505.462	4292.85
505.83	4374.43
506.199	4388.22
506.567	4388.22
506.936	4395.45
507.304	4447.43
507.672	4456.46
508.041	4515.67
508.409	4512.28
508.777	4573.75
509.145	4565.61
509.514	4576.24
509.882	4570.81
510.25	4593.64
510.618	4639.51
510.986	4630.25
511.354	4664.82
511.722	4698.04
512.09	4738.72
512.458	4744.82
512.826	4712.96
513.193	4774.87
513.561	4761.54
513.929	4785.72
514.297	4842.44
514.664	4848.77
515.032	4859.84
515.4	4912.95
515.767	4864.59
516.135	4903.91
516.502	4919.96
516.869	4982.78
517.237	4997.69
517.604	4941.65
517.972	4981.87
518.339	4978.03
518.706	5002.44
519.073	5013.96
519.44	5048.77
519.808	5106.62
520.175	5127.63
520.542	5109.1
520.909	5163.79
521.276	5162.89
521.643	5152.94
522.009	5199.04
522.376	5221.87
522.743	5279.49
523.11	5319.27
523.477	5361.75
523.843	5346.84
524.21	5428.87
524.577	5454.18
524.943	5470.45
525.31	5465.48
525.676	5493.27
526.043	5562.42
526.409	5583.44
526.776	5611.46
527.142	5598.13
527.508	5658.47
527.874	5650.33
528.241	5757
528.607	5712.25
528.973	5742.08
529.339	5682.2
529.705	5764
530.071	5844.9
530.437	5907.5
530.803	5847.61
531.169	5975.52
531.535	5873.6
531.901	5962.87
532.267	6012.81
532.632	6042.19
532.998	6020.49
533.364	6085.8
533.73	6053.48
534.095	6147.95
534.461	6100.72
534.826	6144.78
535.192	6220.03
535.557	6236.3
535.923	6242.63
536.288	6212.12
536.653	6281.05
537.019	6273.82
537.384	6353.14
537.749	6332.35
538.114	6409.63
538.479	6445.34
538.845	6402.18
539.21	6447.82
539.575	6481.72
539.94	6477.2
540.305	6576.86
540.67	6508.39
541.034	6609.4
541.399	6616.63
541.764	6606.46
542.129	6652.11
542.494	6711.32
542.858	6674.71
543.223	6695.28
543.587	6820.7
543.952	6748.16
544.316	6791.54
544.681	6838.32
545.045	6887.59
545.41	6873.12
545.774	6989.96
546.138	6900.92
546.503	7081.03
546.867	6993.12
547.231	7015.27
547.595	7036.96
547.959	7083.29
548.324	7073.12
548.688	7092.78
549.052	7144.53
549.416	7125.32
549.779	7168.26
550.143	7187.47
550.507	7284.64
550.871	7264.98
551.235	7254.36
551.599	7355.82
551.962	7337.07
552.326	7379.78
552.689	7418.65
553.053	7380.91
553.417	7406.67
553.78	7484.86
554.143	7447.35
554.507	7460.23
554.87	7532.99
555.234	7579.55
555.597	7570.73
555.96	7607.79
556.323	7639.21
556.686	7619.55
557.05	7657.51
557.413	7705.42
557.776	7717.4
558.139	7735.02
558.502	7721.69
558.865	7726.89
559.228	7798.3
559.59	7872.65
559.953	7839.65
560.316	8003.26
560.679	7977.28
561.041	7945.19
561.404	7993.77
561.767	8104.5
562.129	8012.98
562.492	8120.32
562.854	8051.17
563.217	8179.53
563.579	8161
563.941	8168.23
564.304	8201.45
564.666	8251.17
565.028	8294.1
565.39	8250.49
565.753	8330.49
566.115	8354.89
566.477	8393.54
566.839	8393.54
567.201	8423.37
567.563	8440.54
567.925	8509.47
568.287	8576.81
568.648	8623.36
569.01	8598.5
569.372	8663.81
569.734	8692.96
570.095	8779.06
570.457	8699.52
570.819	8773.64
571.18	8844.37
571.542	8840.53
571.903	8882.11
572.265	8977.25
572.626	8945.61
572.987	9043.24
573.349	9128.21
573.71	9102.44
574.071	9137.7
574.432	9186.51
574.794	9308.99
575.155	9323.91
575.516	9403.23
575.877	9401.19
576.238	9544.47
576.599	9582.43
576.96	9630.11
577.32	9721.64
577.681	9807.74
578.042	9926.38
578.403	9960.5
578.763	9925.93
579.124	10128.86
579.485	10208.63
579.845	10373.15
580.206	10454.05
580.566	10640.48
580.927	10541.95
581.287	10705.79
581.648	10879.8
582.008	11108.49
582.368	11127.02
582.728	11295.15
583.089	11385.1
583.449	11562.49
583.809	11766.1
584.169	11960.45
584.529	12083.16
584.889	12395.92
585.249	12435.92
585.609	12506.2
585.969	12911.61
586.329	12987.09
586.688	13201.32
587.048	13432.05
587.408	13567.19
587.768	13779.84
588.127	14097.12
588.487	14223.21
588.846	14589.76
589.206	14727.83
589.565	14853.25
589.925	15262.28
590.284	15424.31
590.643	15742.95
591.003	15995.14
591.362	16363.72
591.721	16522.59
592.08	16814.56
592.44	17029.69
592.799	17339.97
593.158	17624.03
593.517	17897.47
593.876	18224.69
594.235	18438.7
594.593	18715.07
594.952	18960.72
595.311	19283.87
595.67	19503.75
596.029	19945.55
596.387	20162.94
596.746	20545.99
597.104	20712.53
597.463	20942.36
597.822	21521.33
598.18	21571.49
598.538	21851.49
598.897	22306.16
599.255	22288.09
599.613	22958.13
599.972	22911.12
600.33	23345.69
600.688	23439.24
601.046	23934.82
601.404	24157.64
601.762	24396.05
602.12	24829.49
602.478	25082.82
602.836	25260.21
603.194	25363.94
603.552	25711.5
603.91	25831.27
604.268	26193.29
604.625	26425.6
604.983	26838.7
605.341	26906.27
605.698	27299.71
606.056	27476.2
606.413	27712.58
606.771	28028.95
607.128	28240.47
607.485	28400.92
607.843	28564.53
608.2	28871.64
608.557	29247.45
608.914	29322.25
609.272	29686.76
609.629	29801.34
609.986	30142.34
610.343	30114.55
610.7	30542.11
611.057	30675.21
611.414	30868.43
611.771	31122.66
612.127	31389.99
612.484	31493.95
612.841	31770.55
613.198	31807.84
613.554	31949.53
613.911	32311.33
614.267	32385.22
614.624	32553.13
614.98	32724.65
615.337	33104.75
615.693	33195.6
616.05	33116.73
616.406	33421.13
616.762	33586.32
617.118	33594
617.475	33766.65
617.831	34037.83
618.187	34242.12
618.543	34254.55
618.899	34653.64
619.255	34715.56
619.611	34679.17
619.967	34936.34
620.323	35078.94
620.678	34990.58
621.034	35068.32
621.39	35161.65
621.746	35231.93
622.101	35718.24
622.457	35484.58
622.812	35767.05
623.168	35897.45
623.523	35914.39
623.879	36194.16
624.234	35932.25
624.589	36220.83
624.945	36132.02
625.3	36433.7
625.655	36527.49
626.01	36526.58
626.365	36628.95
626.72	36689.97
627.075	36715.73
627.43	36659.69
627.785	36791.21
628.14	36927.48
628.495	37014.7
628.85	37167.02
629.205	36903.97
629.559	37289.05
629.914	36920.24
630.269	37084.08
630.623	37156.62
630.978	37044.76
631.332	37372.21
631.687	37456.28
632.041	37317.97
632.396	37434.58
632.75	37343.51
633.104	37431.64
633.459	37360.68
633.813	37328.82
634.167	37292.21
634.521	37357.52
634.875	37383.28
635.229	37254.7
635.583	37166.11
635.937	37367.46
636.291	37409.5
636.645	37331.31
636.999	37205.43
637.352	37343.74
637.706	37152.55
638.06	37358.42
638.413	37242.95
638.767	37321.36
639.121	37315.49
639.474	37261.93
639.828	37385.99
640.181	37386.67
640.534	37344.87
640.888	37127.02
641.241	37023.07
641.594	37266.68
641.947	37326.33
642.301	37349.61
642.654	37321.36
643.007	37216.73
643.36	37268.94
643.713	37211.76
644.066	37389.16
644.419	37187.58
644.771	36855.84
645.124	36583.76
645.477	36519.58
645.83	36415.62
646.182	36213.37
646.535	36144.45
646.888	36260.37
647.24	36047.95
647.593	36207.04
647.945	36181.51
648.298	35922.98
648.65	36034.84
649.002	35908.97
649.355	35933.6
649.707	36016.76
650.059	36105.12
650.411	36591.66
650.763	36595.96
651.115	37022.61
651.467	36866.23
651.819	36838.66
652.171	36747.14
652.523	36737.88
652.875	36794.6
653.227	36697.42
653.578	36753.47
653.93	36630.76
654.282	36740.81
654.633	36617.65
654.985	36640.48
655.337	36689.52
655.688	36752.79
656.039	36799.34
656.391	36456.53
656.742	36608.39
657.094	36576.98
657.445	36659.01
657.796	36519.35
658.147	36462.85
658.498	36396.19
658.849	36640.03
659.2	36573.36
659.551	36512.12
659.902	36675.5
660.253	36502.18
660.604	36536.3
660.955	36346.25
661.306	36552.12
661.656	36475.74
662.007	36506.7
662.358	36546.69
662.708	36444.55
663.059	36393.03
663.409	36239.58
663.76	36398.9
664.11	36422.4
664.461	36456.3
664.811	36544.66
665.161	36435.28
665.511	36334.5
665.862	36504.21
666.212	36536.3
666.562	36514.38
666.912	36342.86
667.262	36382.18
667.612	36253.82
667.962	36401.16
668.312	36346.93
668.662	36591.89
669.011	36451.33
669.361	36232.35
669.711	36273.93
670.06	36296.08
670.41	36116.65
670.76	36308.51
671.109	36269.64
671.459	36273.48
671.808	36216.53
672.157	36390.77
672.507	36005.69
672.856	36095.63
673.205	36188.74
673.554	36279.58
673.904	36058.57
674.253	36345.8
674.602	36068.74
674.951	35753.27
675.3	35412.71
675.649	36020.38
675.998	35925.47
676.346	36007.73
676.695	36038.91
677.044	35751.69
677.393	35940.61
677.741	35922.08
678.09	35858.58
678.438	35807.73
678.787	35944.68
679.135	35895.64
679.484	35717.34
679.832	35831.01
680.181	35555.53
680.529	35784.23
680.877	35561.64
681.225	35685.47
681.573	35812.02
681.922	35547.85
682.27	35414.97
682.618	35558.25
682.966	35333.17
683.314	35516.44
683.661	35355.54
684.009	35119.39
684.357	35111.03
684.705	35131.59
685.053	35066.06
685.4	34998.71
685.748	34803.46
686.095	34909.9
686.443	34743.13
686.79	34737.7
687.138	34782.45
687.485	34715.78
687.832	34663.35
688.18	34583.13
688.527	34499.06
688.874	34372.74
689.221	34444.6
689.568	34235.34
689.915	34272.86
690.262	34252.07
690.609	34088.23
690.956	33959.64
691.303	33887.78
691.65	33780.89
691.997	33822.92
692.344	33688.01
692.69	33730.27
693.037	33584.51
693.383	33372.31
693.73	33544.29
694.077	33259.55
694.423	33272.66
694.769	33074.47
695.116	33128.03
695.462	33142.94
695.808	32909.05
696.155	32996.96
696.501	32848.03
696.847	32887.13
697.193	32596.97
697.539	32595.84
697.885	32487.37
698.231	32348.84
698.577	32398.78
698.923	32377.99
699.269	32184.1
699.614	32066.81
699.96	31973.03
700.306	31960.83
700.651	31782.98
700.997	31790.66
701.342	31735.07
701.688	31667.05
702.033	31568.75
702.379	31468.41
702.724	31430.67
703.069	31432.93
703.415	31066.84
703.76	31145.93
704.105	31154.29
704.45	31119.04
704.795	30878.37
705.14	30726.51
705.485	30780.97
705.83	30666.4
706.175	30702.55
706.52	30684.93
706.865	30535.1
707.209	30425.27
707.554	30348.21
707.899	30485.16
708.243	30217.14
708.588	30360.19
708.932	30063.7
709.277	29973.76
709.621	29931.5
709.966	29896.25
710.31	29870.03
710.654	29765.86
710.998	29750.94
711.342	29652.64
711.687	29601.34
712.031	29628.91
712.375	29519.31
712.719	29462.59
713.063	29346.21
713.407	29347.11
713.75	29277.51
714.094	29231.18
714.438	29156.61
714.782	29222.59
715.125	28995.48
715.469	29028.25
715.812	28804.07
716.156	28672.1
716.499	28809.04
716.843	28908.93
717.186	28671.2
717.53	28768.82
717.873	28826.67
718.216	28647.69
718.559	28559.11
718.902	28233.47
719.246	28507.36
719.589	28306.23
719.932	28195.5
720.275	28196.86
720.617	28171.77
720.96	28092.91
721.303	28144.2
721.646	28140.14
721.989	27864.89
722.331	28039.35
722.674	28051.55
723.016	28007.03
723.359	27840.71
723.701	27929.52
724.044	27665.35
724.386	27595.74
724.729	27692.92
725.071	27619.7
725.413	27635.06
725.755	27528.4
726.097	27459.25
726.439	27352.36
726.782	27408.86
727.124	27510.1
727.465	27295.64
727.807	27272.59
728.149	27243.44
728.491	27157.34
728.833	27237.11
729.175	27053.84
729.516	27075.31
729.858	27023.55
730.199	27066.49
730.541	27041.86
730.882	26901.75
731.224	26999.15
731.565	26879.83
731.906	26758.25
732.248	26786.95
732.589	26704.02
732.93	26584.24
733.271	26734.3
733.612	26695.88
733.953	26738.14
734.294	26530.23
734.635	26432.16
734.976	26506.28
735.317	26235.1
735.658	26437.81
735.999	26283.69
736.339	26267.19
736.68	26306.51
737.021	26259.51
737.361	26098.61
737.702	26300.86
738.042	26202.79
738.383	26085.05
738.723	26179.28
739.063	26070.13
739.404	26216.12
739.744	25982.9
740.084	25957.82
740.424	25901.78
740.764	25858.61
741.104	25890.48
741.444	25786.3
741.784	25661.56
742.124	25701.33
742.464	25686.64
742.804	25658.17
743.143	25652.52
743.483	25645.74
743.823	25480.54
744.162	25487.1
744.502	25355.58
744.841	25297.5
745.181	25342.47
745.52	25406.65
745.86	25287.56
746.199	25273.09
746.538	25262.47
746.877	25423.15
747.216	25211.85
747.556	25108.35
747.895	25121.46
748.234	25077.84
748.573	25072.42
748.911	25015.25
749.25	25015.02
749.589	24810.96
749.928	24916.27
750.267	24908.13
750.605	24783.61
750.944	24656.84
751.283	24601.02
751.621	24662.49
751.96	24646.22
752.298	24531.42
752.636	24498.42
752.975	24383.17
753.313	24341.14
753.651	24439.89
753.989	24350.63
754.327	24309.95
754.666	24119.45
755.004	24168.49
755.342	24235.61
755.679	24245.1
756.017	23940.02
756.355	24161.26
756.693	23954.71
757.031	23911.55
757.368	23856.18
757.706	23784.09
758.044	23782.28
758.381	23773.02
758.719	23725.34
759.056	23671.33
759.394	23523.76
759.731	23404.67
