Data from hue_300_FLMS001491_00049.txt Node
Date: Tue Feb 07 15:50:47 GMT 2017
User: dcchb
Spectrometer: FLMS00149
Trigger mode: 0
Integration Time (sec): 2.000000E-2
Scans to average: 10
Electric dark correction enabled: true
Nonlinearity correction enabled: false
Boxcar width: 0
XAxis mode: Wavelengths
Number of Pixels in Spectrum: 2048
>>>>>Begin Spectral Data<<<<<
341.393	-16.31
341.776	-16.31
342.16	-16.31
342.543	-68.52
342.927	-53.37
343.31	-57.44
343.693	-83.66
344.077	-62.19
344.46	-47.72
344.843	-61.28
345.226	-24.22
345.61	-29.87
345.993	-28.74
346.376	-17.22
346.759	0.41
347.142	19.17
347.525	43.57
347.908	74.76
348.291	74.76
348.674	84.7
349.057	114.98
349.44	121.99
349.823	144.36
350.206	155.21
350.588	175.32
350.971	190.01
351.354	215.09
351.737	218.93
352.119	237.01
352.502	255.54
352.884	276.79
353.267	291.7
353.65	293.28
354.032	292.15
354.414	308.65
354.797	317.01
355.179	314.07
355.562	325.37
355.944	324.24
356.326	350
356.709	339.38
357.091	327.63
357.473	353.39
357.855	341.87
358.238	335.77
358.62	338.48
359.002	341.19
359.384	337.58
359.766	345.94
360.148	336.45
360.53	337.58
360.912	334.64
361.294	336.67
361.676	334.86
362.057	333.28
362.439	339.84
362.821	326.95
363.203	307.97
363.584	316.56
363.966	341.64
364.348	324.92
364.729	323.34
365.111	326.73
365.493	315.2
365.874	298.93
366.256	320.18
366.637	317.69
367.019	317.69
367.4	317.46
367.781	312.72
368.163	298.03
368.544	295.32
368.925	296.45
369.306	326.73
369.688	297.12
370.069	322.66
370.45	311.81
370.831	332.15
371.212	333.73
371.593	320.85
371.974	289.44
372.355	285.83
372.736	331.93
373.117	335.77
373.498	335.32
373.879	341.42
374.26	324.02
374.641	316.11
375.021	323.34
375.402	303.9
375.783	315.43
376.163	338.48
376.544	317.92
376.925	321.31
377.305	333.06
377.686	322.44
378.066	321.31
378.447	319.05
378.827	341.64
379.208	336.45
379.588	337.8
379.968	357.01
380.349	350.91
380.729	329.44
381.109	364.02
381.489	350.91
381.87	354.07
382.25	329.89
382.63	347.07
383.01	337.35
383.39	366.5
383.77	344.13
384.15	351.81
384.53	344.58
384.91	347.97
385.29	360.17
385.67	341.19
386.049	375.09
386.429	352.94
386.809	374.19
387.189	347.75
387.568	372.15
387.948	359.95
388.328	352.49
388.707	347.52
389.087	373.51
389.466	382.55
389.846	371.93
390.225	369.44
390.605	375.77
390.984	386.61
391.363	372.83
391.743	384.58
392.122	389.78
392.501	397.69
392.881	389.78
393.26	368.54
393.639	398.82
394.018	406.05
394.397	404.01
394.776	401.75
395.155	393.17
395.534	397.01
395.913	407.86
396.292	401.08
396.671	413.28
397.05	414.18
397.429	424.81
397.808	430
398.186	438.36
398.565	424.81
398.944	412.6
399.323	390.68
399.701	441.3
400.08	413.73
400.458	434.3
400.837	460.51
401.215	452.6
401.594	436.56
401.972	428.19
402.351	421.64
402.729	458.93
403.107	464.35
403.486	461.64
403.864	441.3
404.242	441.3
404.62	460.28
404.999	451.47
405.377	459.61
405.755	470.23
406.133	473.17
406.511	476.1
406.889	507.97
407.267	480.17
407.645	485.59
408.023	514.07
408.401	480.17
408.779	519.04
409.156	498.25
409.534	534.18
409.912	532.37
410.29	569.66
410.667	535.76
411.045	571.47
411.422	567.63
411.8	561.98
412.178	602.43
412.555	613.73
412.933	590.22
413.31	595.87
413.687	626.16
414.065	613.27
414.442	621.86
414.819	627.51
415.197	672.71
415.574	665.93
415.951	662.09
416.328	708.87
416.705	687.4
417.082	676.55
417.46	690.56
417.837	684.46
418.214	711.58
418.591	760.62
418.967	735.53
419.344	735.53
419.721	747.73
420.098	761.97
420.475	751.8
420.852	789.54
421.228	796.55
421.605	796.09
421.982	802.87
422.358	825.7
422.735	820.95
423.111	833.38
423.488	842.65
423.864	854.85
424.241	889.2
424.617	876.32
424.994	870.67
425.37	879.93
425.746	905.02
426.123	925.36
426.499	906.37
426.875	934.17
427.251	943.66
427.627	974.4
428.003	980.04
428.379	973.27
428.756	954.06
429.132	999.03
429.507	1010.78
429.883	1020.95
430.259	1028.41
430.635	1052.36
431.011	1056.2
431.387	1081.74
431.763	1093.94
432.138	1115.86
432.514	1107.95
432.89	1109.31
433.265	1157.44
433.641	1167.16
434.016	1164.45
434.392	1181.85
434.767	1208.29
435.143	1220.49
435.518	1201.96
435.894	1232.24
436.269	1285.57
436.644	1259.81
437.02	1276.31
437.395	1271.79
437.77	1282.18
438.145	1331.9
438.52	1306.59
438.895	1322.86
439.271	1331.9
439.646	1353.59
440.021	1364.44
440.395	1350.43
440.77	1369.87
441.145	1372.12
441.52	1409.64
441.895	1425
442.27	1427.26
442.645	1396.08
443.019	1447.6
443.394	1432.24
443.769	1441.5
444.143	1405.12
444.518	1440.82
444.892	1453.48
445.267	1471.78
445.641	1470.88
446.016	1489.41
446.39	1508.17
446.764	1516.75
447.139	1489.18
447.513	1494.61
447.887	1488.28
448.262	1520.82
448.636	1532.12
449.01	1533.02
449.384	1556.98
449.758	1573.7
450.132	1561.95
450.506	1566.02
450.88	1582.29
451.254	1576.41
451.628	1577.77
452.002	1604.21
452.376	1610.31
452.75	1603.08
453.123	1609.63
453.497	1607.82
453.871	1637.2
454.244	1660.25
454.618	1653.47
454.992	1657.54
455.365	1714.49
455.739	1734.6
456.112	1740.48
456.486	1731.44
456.859	1744.09
457.232	1774.83
457.606	1783.41
457.979	1778.89
458.352	1806.46
458.725	1841.72
459.099	1861.15
459.472	1877.87
459.845	1865.22
460.218	1906.12
460.591	1905.9
460.964	1905.44
461.337	1946.12
461.71	1929.17
462.083	1977.53
462.456	1984.09
462.829	1955.61
463.201	2003.52
463.574	2012.11
463.947	2048.04
464.32	2063.41
464.692	2071.99
465.065	2060.92
465.438	2108.38
465.81	2108.83
466.183	2144.53
466.555	2170.3
466.928	2191.99
467.3	2185.21
467.672	2189.28
468.045	2262.05
468.417	2238.77
468.789	2245.32
469.161	2304.08
469.534	2321.48
469.906	2317.41
470.278	2338.65
470.65	2345.66
471.022	2440.35
471.394	2427.69
471.766	2462.72
472.138	2451.19
472.51	2481.93
472.882	2509.5
473.253	2564.18
473.625	2574.58
473.997	2620.68
474.369	2611.87
474.74	2626.33
475.112	2666.1
475.484	2709.04
475.855	2749.26
476.227	2741.58
476.598	2848.47
476.97	2855.93
477.341	2892.99
477.713	2938.19
478.084	2933.44
478.455	2948.81
478.827	2987.68
479.198	3068.8
479.569	3078.29
479.94	3103.6
480.311	3119.42
480.682	3214.34
481.053	3216.82
481.424	3258.18
481.795	3289.81
482.166	3353.99
482.537	3320.32
482.908	3435.57
483.279	3426.08
483.65	3440.32
484.021	3505.85
484.391	3544.72
484.762	3576.59
485.133	3565.97
485.503	3635.57
485.874	3676.92
486.244	3653.87
486.615	3744.27
486.985	3777.71
487.356	3815.22
487.726	3890.7
488.097	3925.96
488.467	3898.61
488.837	3963.7
489.207	3989.23
489.578	4060.87
489.948	4070.36
490.318	4113.52
490.688	4156.01
491.058	4215.67
491.428	4205.72
491.798	4239.17
492.168	4275.78
492.538	4325.04
492.908	4375.21
493.278	4363.68
493.648	4386.73
494.017	4431.03
494.387	4506.73
494.757	4482.33
495.126	4525.49
495.496	4517.8
495.866	4571.14
496.235	4587.41
496.605	4655.43
496.974	4660.4
497.344	4645.26
497.713	4693.17
498.082	4719.38
498.452	4774.52
498.821	4748.08
499.19	4797.35
499.559	4825.14
499.928	4835.54
500.298	4892.03
500.667	4868.08
501.036	4904.69
501.405	4927.51
501.774	4954.63
502.143	4974.52
502.512	5007.96
502.88	5044.12
503.249	5029.43
503.618	5064.46
503.987	5040.96
504.356	5085.02
504.724	5121.4
505.093	5149.43
505.462	5142.87
505.83	5159.37
506.199	5206.37
506.567	5259.93
506.936	5219.03
507.304	5248.41
507.672	5268.97
508.041	5284.56
508.409	5319.37
508.777	5358.91
509.145	5383.77
509.514	5398.01
509.882	5385.8
510.25	5418.8
510.618	5477.33
510.986	5471
511.354	5508.74
511.722	5484.11
512.09	5541.05
512.458	5506.25
512.826	5565.01
513.193	5575.4
513.561	5555.07
513.929	5598
514.297	5688.85
514.664	5653.14
515.032	5664.89
515.4	5737.66
515.767	5733.59
516.135	5740.37
516.502	5703.76
516.869	5805
517.237	5798.45
517.604	5767.94
517.972	5800.71
518.339	5829.18
518.706	5827.83
519.073	5877.09
519.44	5920.25
519.808	5960.03
520.175	5919.35
520.542	5941.27
520.909	5988.5
521.276	5983.08
521.643	6059.01
522.009	6095.62
522.376	6148.5
522.743	6118.21
523.11	6137.2
523.477	6189.17
523.843	6263.3
524.21	6289.06
524.577	6289.06
524.943	6295.39
525.31	6303.75
525.676	6348.27
526.043	6472.78
526.409	6434.14
526.776	6524.76
527.142	6500.13
527.508	6505.32
527.874	6523.4
528.241	6587.13
528.607	6620.57
528.973	6689.95
529.339	6644.75
529.705	6756.62
530.071	6750.97
530.437	6810.63
530.803	6811.53
531.169	6871.64
531.535	6921.81
531.901	6970.62
532.267	6902.38
532.632	6992.32
532.998	6975.14
533.364	7019.66
533.73	7001.36
534.095	7093.33
534.461	7184.63
534.826	7134.46
535.192	7100.11
535.557	7203.16
535.923	7174.91
536.288	7230.28
536.653	7292.42
537.019	7297.17
537.384	7325.64
537.749	7319.99
538.114	7359.31
538.479	7357.05
538.845	7392.53
539.21	7376.49
539.575	7502.59
539.94	7489.03
540.305	7520.66
540.67	7578.06
541.034	7573.09
541.399	7590.49
541.764	7605.63
542.129	7669.59
542.494	7701.9
542.858	7757.72
543.223	7767.44
543.587	7846.08
543.952	7878.39
544.316	7881.78
544.681	7838.62
545.045	7933.53
545.41	8017.83
545.774	7995.68
546.138	7975.57
546.503	7960.65
546.867	8030.71
547.231	8144.38
547.595	8128.56
547.959	8181.21
548.324	8189.12
548.688	8207.65
549.052	8220.76
549.416	8260.76
549.779	8213.08
550.143	8310.93
550.507	8309.57
550.871	8340.3
551.235	8342.11
551.599	8407.87
551.962	8417.36
552.326	8383.92
552.689	8489.9
553.053	8449.9
553.417	8474.31
553.78	8627.3
554.143	8552.95
554.507	8648.09
554.87	8608.32
555.234	8733.51
555.597	8607.87
555.96	8698.94
556.323	8730.12
556.686	8762.21
557.05	8806.73
557.413	8841.99
557.776	8789.33
558.139	8849.67
558.502	8871.14
558.865	8855.54
559.228	8925.82
559.59	8952.72
559.953	8909.78
560.316	9026.84
560.679	9033.62
561.041	9079.49
561.404	9092.15
561.767	9098.48
562.129	9103.45
562.492	9215.31
562.854	9232.26
563.217	9227.51
563.579	9251.24
563.941	9241.52
564.304	9359.94
564.666	9481.97
565.028	9402.42
565.39	9357.23
565.753	9448.3
566.115	9532.36
566.477	9553.83
566.839	9506.83
567.201	9640.61
567.563	9671.34
567.925	9685.13
568.287	9675.41
568.648	9673.83
569.01	9679.03
569.372	9779.36
569.734	9760.38
570.095	9926.93
570.457	9930.32
570.819	10021.39
571.18	9942.52
571.542	10034.72
571.903	10037.89
572.265	10112.69
572.626	10228.16
572.987	10131.22
573.349	10266.35
573.71	10300.48
574.071	10344.77
574.432	10456.18
574.794	10497.53
575.155	10597.42
575.516	10578.21
575.877	10685.55
576.238	10813.23
576.599	10838.77
576.96	10931.87
577.32	10991.31
577.681	11120.34
578.042	11174.13
578.403	11342.03
578.763	11381.58
579.124	11490.05
579.485	11606.43
579.845	11861.11
580.206	11865.18
580.566	12001.9
580.927	12053.65
581.287	12273.99
581.648	12405.96
582.008	12610.02
582.368	12751.71
582.728	12958.71
583.089	13076.22
583.449	13239.84
583.809	13431.47
584.169	13591.24
584.529	13748.52
584.889	14052.02
585.249	14231.9
585.609	14350.31
585.969	14653.13
586.329	14949.62
586.688	15034.14
587.048	15339.67
587.408	15551.19
587.768	15803.38
588.127	16109.36
588.487	16261.68
588.846	16732.63
589.206	16726.07
589.565	17030.02
589.925	17427.75
590.284	17630.23
590.643	17936.66
591.003	18309.31
591.362	18603.31
591.721	18836.07
592.08	19183.41
592.44	19445.1
592.799	19837.18
593.158	19982.48
593.517	20335.47
593.876	20609.59
594.235	20837.83
594.593	21240.98
594.952	21473.29
595.311	21714.64
595.67	22148.08
596.029	22582.87
596.387	22838.23
596.746	23169.52
597.104	23357.31
597.463	23678.43
597.822	24110.96
598.18	24207.91
598.538	24588.69
598.897	25014.67
599.255	25004.95
599.613	25633.63
599.972	25711.82
600.33	26163.56
600.688	26254.63
601.046	26657.79
601.404	27162.63
601.762	27271.1
602.12	27756.29
602.478	27969.17
602.836	28204.87
603.194	28409.61
603.552	28699.77
603.91	28875.58
604.268	29245.74
604.625	29389.92
604.983	29695.67
605.341	29854.09
605.698	30339.05
606.056	30563.22
606.413	30684.8
606.771	31179.02
607.128	31344.44
607.485	31357.78
607.843	31605.23
608.2	31999.79
608.557	32228.26
608.914	32335.38
609.272	32554.36
609.629	32901.69
609.986	33219.65
610.343	33273.88
610.7	33516.82
611.057	33702.35
611.414	34043.13
611.771	34249.9
612.127	34398.6
612.484	34576.22
612.841	34865.71
613.198	34930.56
613.554	35101.86
613.911	35467.27
614.267	35521.74
614.624	35607.83
614.98	35884.89
615.337	36394.48
615.693	36229.51
616.05	36350.64
616.406	36724.42
616.762	36763.06
617.118	36852.77
617.475	36963.05
617.831	37219.54
618.187	37325.98
618.543	37452.98
618.899	37750.38
619.255	37838.06
619.611	37832.18
619.967	38092.74
620.323	38278.05
620.678	38116.24
621.034	38186.98
621.39	38470.36
621.746	38325.73
622.101	38886.62
622.457	38761.2
622.812	38915.09
623.168	39113.96
623.523	39186.95
623.879	39388.07
624.234	39060.17
624.589	39287.74
624.945	39391.92
625.3	39575.41
625.655	39605.7
626.01	39754.84
626.365	39758.46
626.72	39847.72
627.075	39979.02
627.43	39908.96
627.785	40022.18
628.14	40190.77
628.495	40110.32
628.85	40091.78
629.205	40077.77
629.559	40339.46
629.914	40205.45
630.269	40412.23
630.623	40376.75
630.978	40315.73
631.332	40503.3
631.687	40538.78
632.041	40375.39
632.396	40494.71
632.75	40325.45
633.104	40480.7
633.459	40529.29
633.813	40373.59
634.167	40411.1
634.521	40420.36
634.875	40526.35
635.229	40678.66
635.583	40444.09
635.937	40555.05
636.291	40427.14
636.645	40496.07
636.999	40554.82
637.352	40586.91
637.706	40484.09
638.06	40623.52
638.413	40576.29
638.767	40604.54
639.121	40554.15
639.474	40320.48
639.828	40409.29
640.181	40508.72
640.534	40436.86
640.888	40311.67
641.241	40145.57
641.594	40272.57
641.947	40397.54
642.301	40294.49
642.654	40384.88
643.007	40478.44
643.36	40430.31
643.713	40253.14
644.066	40460.14
644.419	40234.38
644.771	40023.99
645.124	39617.67
645.477	39675.98
645.83	39297.46
646.182	39235.76
646.535	39268.76
646.888	39367.74
647.24	39104.47
647.593	39283.44
647.945	39134.07
648.298	39265.14
648.65	38842.33
649.002	38927.52
649.355	39227.63
649.707	39180.4
650.059	39294.52
650.411	39727.5
650.763	39786.03
651.115	40124.33
651.467	40028.51
651.819	39969.75
652.171	39960.26
652.523	39881.85
652.875	39805.92
653.227	39843.66
653.578	40137.89
653.93	39968.17
654.282	39828.97
654.633	39723.43
654.985	39893.82
655.337	39784.9
655.688	39793.26
656.039	40001.84
656.391	39635.53
656.742	39743.09
657.094	39776.09
657.445	39943.77
657.796	39744.45
658.147	39742.19
658.498	39624.23
658.849	39804.11
659.2	39729.99
659.551	39614.51
659.902	39756.65
660.253	39703.09
660.604	39708.97
660.955	39602.08
661.306	39679.59
661.656	39673.04
662.007	39596.43
662.358	39739.03
662.708	39646.6
663.059	39533.16
663.409	39386.72
663.76	39678.01
664.11	39602.31
664.461	39677.56
664.811	39704.45
665.161	39674.85
665.511	39677.56
665.862	39544.68
666.212	39498.58
666.562	39659.93
666.912	39626.94
667.262	39515.08
667.612	39499.48
667.962	39604.11
668.312	39580.84
668.662	39741.29
669.011	39760.27
669.361	39501.07
669.711	39408.41
670.06	39516.88
670.41	39381.3
670.76	39320.51
671.109	39504.23
671.459	39602.76
671.808	39405.02
672.157	39410.67
672.507	38918.93
672.856	39197.8
673.205	39300.62
673.554	39434.17
673.904	39199.83
674.253	39340.84
674.602	39228.76
674.951	38707.87
675.3	38604.14
675.649	39185.14
675.998	39046.84
676.346	39171.36
676.695	39181.98
677.044	38955.09
677.393	39078.48
677.741	39090.23
678.09	38973.85
678.438	38950.12
678.787	38946.28
679.135	39022.21
679.484	38691.82
679.832	38916.45
680.181	38604.59
680.529	38765.72
680.877	38776.57
681.225	38633.07
681.573	38852.04
681.922	38594.65
682.27	38442.11
682.618	38504.48
682.966	38303.13
683.314	38390.59
683.661	38255.22
684.009	38082.57
684.357	38138.16
684.705	38076.24
685.053	38178.61
685.4	38168.9
685.748	37864.05
686.095	37944.72
686.443	37705.41
686.79	37766.65
687.138	37740.66
687.485	37727.33
687.832	37666.76
688.18	37680.55
688.527	37539.08
688.874	37465.19
689.221	37397.39
689.568	37253.89
689.915	37078.08
690.262	37154.69
690.609	37055.71
690.956	36991.08
691.303	36952.88
691.65	36868.14
691.997	36747.24
692.344	36696.39
692.69	36549.73
693.037	36552.67
693.383	36308.38
693.73	36550.63
694.077	36220.7
694.423	36259.57
694.769	36022.29
695.116	35987.94
695.462	35939.35
695.808	35884.21
696.155	35823.42
696.501	35619.36
696.847	35637.21
697.193	35434.05
697.539	35524.67
697.885	35163.78
698.231	35136.89
698.577	35187.96
698.923	35200.16
699.269	34919.27
699.614	34724.69
699.96	34600.4
700.306	34810.57
700.651	34570.12
700.997	34365.83
701.342	34427.53
701.688	34322.9
702.033	34288.77
702.379	34140.98
702.724	34065.05
703.069	34278.15
703.415	33846.07
703.76	33789.8
704.105	33813.76
704.45	33754.32
704.795	33404.05
705.14	33484.95
705.485	33462.35
705.83	33335.35
706.175	33328.8
706.52	33342.58
706.865	33148.69
707.209	33124.06
707.554	33105.08
707.899	33045.19
708.243	32978.98
708.588	32716.84
708.932	32581.02
709.277	32617.86
709.621	32646.56
709.966	32395.04
710.31	32439.56
710.654	32126.8
710.998	32263.29
711.342	32320.92
711.687	32219.9
712.031	32019
712.375	31945.11
712.719	32021.49
713.063	31891.1
713.407	31852.68
713.75	31803.19
714.094	31878.89
714.438	31611.78
714.782	31596.87
715.125	31476.42
715.469	31629.86
715.812	31372.69
716.156	31214.96
716.499	31210.89
716.843	31316.2
717.186	31168.18
717.53	31241.85
717.873	31330.89
718.216	31217.67
718.559	31119.37
718.902	30931.35
719.246	31002.98
719.589	30820.62
719.932	30638.02
720.275	30709.21
720.617	30702.43
720.96	30614.97
721.303	30744.46
721.646	30662.65
721.989	30403.68
722.331	30578.36
722.674	30356.9
723.016	30334.53
723.359	30330.46
723.701	30436.9
724.044	30104.48
724.386	30024.93
724.729	30157.13
725.071	30021.09
725.413	30012.5
725.755	29956.46
726.097	29799.4
726.439	29805.28
726.782	29831.94
727.124	29919.62
727.465	29669.69
727.807	29653.87
728.149	29622.91
728.491	29564.38
728.833	29515.11
729.175	29615.45
729.516	29301.56
729.858	29322.35
730.199	29364.84
730.541	29336.59
730.882	29311.5
731.224	29407.55
731.565	29136.37
731.906	29106.08
732.248	29250.71
732.589	29013.21
732.93	28967.11
733.271	28881.01
733.612	29012.3
733.953	28831.97
734.294	28763.72
734.635	28846.66
734.976	28805.53
735.317	28709.71
735.658	28638.53
735.999	28707
736.339	28758.52
736.68	28759.2
737.021	28657.96
737.361	28652.09
737.702	28652.54
738.042	28594.23
738.383	28475.59
738.723	28525.08
739.063	28489.6
739.404	28454.58
739.744	28369.83
740.084	28235.37
740.424	28187.47
740.764	28244.64
741.104	28328.7
741.444	28106.79
741.784	27980.92
742.124	28129.61
742.464	28181.14
742.804	27945.66
743.143	27934.36
743.483	27904.31
743.823	27766.46
744.162	27822.95
744.502	27880.58
744.841	27691.21
745.181	27817.53
745.52	27553.58
745.86	27738.21
746.199	27735.73
746.538	27601.72
746.877	27636.07
747.216	27706.57
747.556	27612.56
747.895	27667.03
748.234	27424.32
748.573	27327.37
748.911	27524.43
749.25	27443.98
749.589	27286.7
749.928	27363.08
750.267	27479.91
750.605	27223.2
750.944	27327.37
751.283	27190.43
751.621	27270.43
751.96	27114.05
752.298	27121.28
752.636	27036.08
752.975	26984.33
753.313	26972.81
753.651	26983.65
753.989	26878.57
754.327	26961.51
754.666	26680.16
755.004	26817.78
755.342	26844.68
755.679	26755.19
756.017	26709.76
756.355	26614.17
756.693	26705.92
757.031	26636.55
757.368	26549.32
757.706	26353.39
758.044	26376.44
758.381	26462.54
