Data from hue_250_FLMS001491_00029.txt Node
Date: Tue Feb 07 16:00:46 GMT 2017
User: dcchb
Spectrometer: FLMS00149
Trigger mode: 0
Integration Time (sec): 2.000000E-2
Scans to average: 10
Electric dark correction enabled: true
Nonlinearity correction enabled: false
Boxcar width: 0
XAxis mode: Wavelengths
Number of Pixels in Spectrum: 2048
>>>>>Begin Spectral Data<<<<<
341.393	-17.16
341.776	-17.16
342.16	-17.16
342.543	-47.67
342.927	-70.94
343.31	-79.53
343.693	-68.46
344.077	-59.65
344.46	-54.22
344.843	-73.43
345.226	-42.7
345.61	-45.18
345.993	-18.97
346.376	10.86
346.759	11.09
347.142	23.74
347.525	29.62
347.908	79.11
348.291	70.52
348.674	90.18
349.057	127.02
349.44	132.89
349.823	128.82
350.206	160.01
350.588	184.19
350.971	194.13
351.354	209.27
351.737	235.71
352.119	243.62
352.502	245.43
352.884	287.92
353.267	284.75
353.65	280.01
354.032	298.76
354.414	299.44
354.797	311.19
355.179	317.07
355.562	340.57
355.944	323.4
356.326	321.14
356.709	314.81
357.091	305.09
357.473	348.48
357.855	331.76
358.238	332.89
358.62	313.68
359.002	322.49
359.384	350.97
359.766	336.73
360.148	336.73
360.53	330.63
360.912	295.15
361.294	317.07
361.676	329.05
362.057	320.68
362.439	318.2
362.821	309.38
363.203	320.91
363.584	311.19
363.966	305.54
364.348	320.91
364.729	334.47
365.111	313.68
365.493	313.45
365.874	322.04
366.256	302.15
366.637	335.6
367.019	298.76
367.4	308.03
367.781	307.35
368.163	304.64
368.544	318.42
368.925	309.61
369.306	322.72
369.688	299.89
370.069	293.57
370.45	320.23
370.831	301.25
371.212	318.88
371.593	307.58
371.974	326.11
372.355	312.1
372.736	297.86
373.117	307.12
373.498	316.84
373.879	308.93
374.26	303.51
374.641	314.36
375.021	305.54
375.402	339.21
375.783	312.77
376.163	309.84
376.544	323.62
376.925	338.99
377.305	319.1
377.686	305.99
378.066	315.49
378.447	331.98
378.827	318.42
379.208	326.33
379.588	327.24
379.968	319.55
380.349	329.95
380.729	336.28
381.109	340.12
381.489	327.69
381.87	347.35
382.25	317.52
382.63	358.87
383.01	324.75
383.39	342.38
383.77	353
384.15	341.47
384.53	334.24
384.91	334.69
385.29	348.03
385.67	350.06
386.049	337.63
386.429	355.71
386.809	344.19
387.189	343.73
387.568	349.84
387.948	352.32
388.328	379.89
388.707	362.94
389.087	349.84
389.466	357.29
389.846	376.5
390.225	355.94
390.605	364.75
390.984	343.06
391.363	369.72
391.743	390.96
392.122	383.73
392.501	378.31
392.881	380.57
393.26	369.04
393.639	367.24
394.018	368.82
394.397	390.74
394.776	406.33
395.155	378.76
395.534	393.45
395.913	410.85
396.292	384.64
396.671	395.48
397.05	398.65
397.429	414.69
397.808	401.81
398.186	393.22
398.565	396.16
398.944	388.03
399.323	402.26
399.701	396.61
400.08	423.05
400.458	411.3
400.837	417.63
401.215	408.14
401.594	419.21
401.972	415.14
402.351	443.39
402.729	427.57
403.107	446.78
403.486	440.23
403.864	431.64
404.242	420.34
404.62	433.9
404.999	454.01
405.377	462.83
405.755	463.05
406.133	431.19
406.511	461.92
406.889	456.5
407.267	453.56
407.645	467.35
408.023	488.59
408.401	486.1
408.779	506.22
409.156	495.59
409.534	496.72
409.912	512.77
410.29	510.51
410.667	507.57
411.045	527.23
411.422	535.59
411.8	550.51
412.178	544.18
412.555	551.64
412.933	563.62
413.31	553.9
413.687	573.56
414.065	583.73
414.442	570.17
414.819	575.37
415.197	581.92
415.574	604.07
415.951	613.33
416.328	621.47
416.705	611.98
417.082	617.85
417.46	645.19
417.837	637.96
418.214	650.62
418.591	654.01
418.967	651.75
419.344	676.61
419.721	683.61
420.098	681.13
420.475	678.19
420.852	670.5
421.228	700.11
421.605	687.23
421.982	699.43
422.358	714.8
422.735	747.11
423.111	716.83
423.488	745.31
423.864	749.82
424.241	756.6
424.617	776.72
424.994	791.18
425.37	786.89
425.746	818.3
426.123	830.95
426.499	832.31
426.875	837.73
427.251	843.61
427.627	845.87
428.003	877.05
428.379	891.74
428.756	883.83
429.132	890.84
429.507	923.83
429.883	919.76
430.259	923.83
430.635	940.33
431.011	934.45
431.387	971.06
431.763	990.5
432.138	968.58
432.514	994.34
432.89	1022.59
433.265	1028.46
433.641	1022.36
434.016	1049.03
434.392	1072.08
434.767	1101.68
435.143	1093.77
435.518	1115.92
435.894	1152.98
436.269	1138.06
436.644	1162.24
437.02	1199.08
437.395	1196.59
437.77	1198.63
438.145	1210.15
438.52	1235.69
438.895	1272.52
439.271	1240.43
439.646	1286.08
440.021	1302.13
440.395	1334.44
440.77	1315.46
441.145	1351.39
441.52	1344.39
441.895	1387.55
442.27	1382.35
442.645	1370.15
443.019	1381.45
443.394	1389.36
443.769	1415.57
444.143	1405.4
444.518	1467.55
444.892	1420.32
445.267	1470.71
445.641	1496.7
446.016	1471.39
446.39	1537.37
446.764	1504.83
447.139	1504.83
447.513	1490.14
447.887	1501.67
448.262	1522.46
448.636	1535.79
449.01	1562.91
449.384	1571.95
449.758	1614.43
450.132	1579.41
450.506	1587.99
450.88	1631.61
451.254	1628.67
451.628	1639.07
452.002	1674.32
452.376	1675.9
452.75	1675.45
453.123	1705.05
453.497	1731.72
453.871	1747.99
454.244	1775.33
454.618	1785.5
454.992	1796.58
455.365	1807.88
455.739	1832.06
456.112	1870.25
456.486	1856.69
456.859	1891.49
457.232	1917.93
457.606	1924.26
457.979	1954.31
458.352	1969.45
458.725	2018.72
459.099	2014.42
459.472	2064.59
459.845	2078.15
460.218	2061.2
460.591	2100.98
460.964	2114.08
461.337	2156.79
461.71	2161.54
462.083	2199.96
462.456	2212.61
462.829	2216.9
463.201	2279.05
463.574	2255.32
463.947	2273.85
464.32	2320.86
464.692	2353.4
465.065	2373.06
465.438	2385.71
465.81	2416.9
466.183	2431.14
466.555	2523.34
466.928	2501.64
467.3	2485.82
467.672	2531.7
468.045	2608.53
468.417	2585.93
468.789	2609.44
469.161	2693.5
469.534	2673.62
469.906	2723.56
470.278	2780.51
470.65	2806.95
471.022	2840.39
471.394	2927.39
471.766	2882.88
472.138	2945.47
472.51	2973.27
472.882	3039.48
473.253	3018.92
473.625	3087.16
473.997	3118.35
474.369	3139.59
474.74	3169.87
475.112	3228.18
475.484	3263.66
475.855	3305.01
476.227	3375.07
476.598	3436.08
476.97	3458
477.341	3546.59
477.713	3562.86
478.084	3564.89
478.455	3656.19
478.827	3679.01
479.198	3777.77
479.569	3785.23
479.94	3896.41
480.311	3944.09
480.682	4001.49
481.053	4109.51
481.424	4133.01
481.795	4130.98
482.166	4182.28
482.537	4269.28
482.908	4327.13
483.279	4371.88
483.65	4429.5
484.021	4541.82
484.391	4549.95
484.762	4588.14
485.133	4578.2
485.503	4607.58
485.874	4764.86
486.244	4774.35
486.615	4862.94
486.985	4937.29
487.356	4999.2
487.726	4991.75
488.097	5129.37
488.467	5142.03
488.837	5252.08
489.207	5273.77
489.578	5345.86
489.948	5371.85
490.318	5441.23
490.688	5467.22
491.058	5532.98
491.428	5579.75
491.798	5638.06
492.168	5727.32
492.538	5728.68
492.908	5812.29
493.278	5873.53
493.648	5849.13
494.017	5962.34
494.387	5954.66
494.757	5983.13
495.126	6090.48
495.496	6076.92
495.866	6129.57
496.235	6134.99
496.605	6214.54
496.974	6266.97
497.344	6337.25
497.713	6300.41
498.082	6405.72
498.452	6401.88
498.821	6451.14
499.19	6457.47
499.559	6435.33
499.928	6489.34
500.298	6536.34
500.667	6610.24
501.036	6552.84
501.405	6639.16
501.774	6646.39
502.143	6707.18
502.512	6718.71
502.88	6774.3
503.249	6768.88
503.618	6807.74
503.987	6830.57
504.356	6810.46
504.724	6855.65
505.093	6884.8
505.462	6898.59
505.83	6952.6
506.199	6944.92
506.567	7043.9
506.936	7012.03
507.304	7087.96
507.672	7195.31
508.041	7140.39
508.409	7186.49
508.777	7250.9
509.145	7204.12
509.514	7191.01
509.882	7264.46
510.25	7328.41
510.618	7273.95
510.986	7325.47
511.354	7386.71
511.722	7471
512.09	7416.54
512.458	7433.94
512.826	7546.03
513.193	7499.03
513.561	7522.98
513.929	7579.7
514.297	7578.57
514.664	7612.7
515.032	7716.2
515.4	7654.73
515.767	7688.4
516.135	7679.36
516.502	7678
516.869	7784.67
517.237	7752.13
517.604	7735.86
517.972	7757.55
518.339	7760.71
518.706	7812.01
519.073	7792.8
519.44	7871.9
519.808	7923.87
520.175	7926.36
520.542	8007.26
520.909	8012.01
521.276	7960.71
521.643	7997.09
522.009	8006.81
522.376	8064.89
522.743	8120.25
523.11	8194.15
523.477	8189.86
523.843	8168.16
524.21	8239.57
524.577	8263.07
524.943	8248.38
525.31	8284.99
525.676	8323.86
526.043	8361.38
526.409	8355.05
526.776	8385.56
527.142	8372.22
527.508	8429.17
527.874	8475.05
528.241	8499.9
528.607	8509.85
528.973	8581.48
529.339	8553.91
529.705	8569.51
530.071	8620.13
530.437	8544.65
530.803	8638.66
531.169	8719.11
531.535	8654.93
531.901	8662.84
532.267	8651.31
532.632	8731.54
532.998	8678.88
533.364	8727.24
533.73	8729.05
534.095	8752.78
534.461	8775.38
534.826	8740.35
535.192	8773.57
535.557	8776.73
535.923	8734.25
536.288	8731.76
536.653	8824.87
537.019	8770.18
537.384	8758.43
537.749	8734.25
538.114	8785.55
538.479	8757.07
538.845	8786.22
539.21	8773.57
539.575	8787.58
539.94	8746.68
540.305	8833.68
540.67	8810.86
541.034	8853.34
541.399	8831.87
541.764	8844.3
542.129	8726.34
542.494	8766.56
542.858	8777.18
543.223	8851.31
543.587	8880.23
543.952	8815.83
544.316	8798.65
544.681	8765.66
545.045	8834.81
545.41	8874.81
545.774	8808.6
546.138	8800.69
546.503	8845.88
546.867	8807.47
547.231	8919.33
547.595	8856.5
547.959	8794.59
548.324	8818.31
548.688	8802.27
549.052	8852.66
549.416	8890.18
549.779	8816.51
550.143	8783.96
550.507	8889.5
550.871	8806.34
551.235	8790.52
551.599	8881.36
551.962	8869.16
552.326	8892.21
552.689	8906.67
553.053	8835.94
553.417	8795.04
553.78	8938.54
554.143	8895.83
554.507	8897.86
554.87	8922.49
555.234	8949.16
555.597	8930.17
555.96	8974.47
556.323	8999.78
556.686	8873.91
557.05	9028.25
557.413	8989.61
557.776	9053.56
558.139	9031.64
558.502	9097.4
558.865	9047.23
559.228	9072.54
559.59	9058.76
559.953	9093.11
560.316	9235.03
560.679	9111.19
561.041	9111.41
561.404	9160.45
561.767	9212.65
562.129	9195.93
562.492	9234.8
562.854	9290.39
563.217	9271.18
563.579	9299.43
563.941	9379.65
564.304	9385.98
564.666	9418.3
565.028	9406.77
565.39	9352.31
565.753	9492.87
566.115	9489.26
566.477	9552.08
566.839	9527.45
567.201	9535.81
567.563	9569.71
567.925	9642.92
568.287	9611.29
568.648	9632.3
569.01	9687.67
569.372	9659.42
569.734	9670.95
570.095	9741.68
570.457	9805.63
570.819	9789.59
571.18	9775.35
571.542	9860.09
571.903	9859.42
572.265	9860.55
572.626	9877.27
572.987	9895.8
573.349	9950.71
573.71	10003.37
574.071	9903.26
574.432	10014.21
574.794	10075
575.155	10052.63
575.516	10034.1
575.877	10113.42
576.238	10123.14
576.599	10109.35
576.96	10185.51
577.32	10168.56
577.681	10200.65
578.042	10234.55
578.403	10252.63
578.763	10237.71
579.124	10292.4
579.485	10346.18
579.845	10378.72
580.206	10295.56
580.566	10359.06
580.927	10392.74
581.287	10507.08
581.648	10360.42
582.008	10466.41
582.368	10417.59
582.728	10471.38
583.089	10434.77
583.449	10469.34
583.809	10444.49
584.169	10547.99
584.529	10574.88
584.889	10642.67
585.249	10537.82
585.609	10551.15
585.969	10545.95
586.329	10571.94
586.688	10612.62
587.048	10644.71
587.408	10582.79
587.768	10612.62
588.127	10596.35
588.487	10647.64
588.846	10727.42
589.206	10643.35
589.565	10717.47
589.925	10704.37
590.284	10796.57
590.643	10668.43
591.003	10740.52
591.362	10833.4
591.721	10820.75
592.08	10768.32
592.44	10830.24
592.799	10876.34
593.158	10897.13
593.517	10861.42
593.876	10816.45
594.235	10740.75
594.593	10858.94
594.952	10837.02
595.311	10823.23
595.67	10910.46
596.029	10912.27
596.387	10885.83
596.746	10909.56
597.104	10839.96
597.463	10841.54
597.822	10896
598.18	10842.21
598.538	10888.09
598.897	10914.98
599.255	10870.91
599.613	11030.23
599.972	10988.88
600.33	10973.28
600.688	10953.85
601.046	10966.51
601.404	11084.02
601.762	10976.22
602.12	11033.4
602.478	11086.95
602.836	11041.31
603.194	10964.02
603.552	11001.31
603.91	11029.55
604.268	11096.45
604.625	10978.26
604.983	11044.7
605.341	11040.18
605.698	11105.26
606.056	11171.25
606.413	11084.47
606.771	11106.16
607.128	11152.49
607.485	11165.6
607.843	11137.12
608.2	11115.88
608.557	11190.23
608.914	11091.47
609.272	11216.44
609.629	11202.66
609.986	11229.55
610.343	11201.3
610.7	11272.94
611.057	11206.27
611.414	11180.96
611.771	11315.87
612.127	11292.82
612.484	11273.84
612.841	11375.76
613.198	11263.22
613.554	11304.12
613.911	11346.16
614.267	11371.47
614.624	11319.94
614.98	11347.29
615.337	11358.59
615.693	11350.45
616.05	11384.12
616.406	11514.51
616.762	11387.74
617.118	11425.93
617.475	11392.93
617.831	11474.74
618.187	11520.39
618.543	11549.31
618.899	11477
619.255	11474.06
619.611	11488.53
619.967	11485.59
620.323	11502.31
620.678	11481.07
621.034	11505.47
621.39	11492.14
621.746	11498.24
622.101	11613.49
622.457	11449.2
622.812	11545.7
623.168	11529.88
623.523	11548.86
623.879	11601.74
624.234	11463.67
624.589	11528.98
624.945	11491.01
625.3	11517.9
625.655	11557
626.01	11512.03
626.365	11442.88
626.72	11501.18
627.075	11440.84
627.43	11472.93
627.785	11490.33
628.14	11421.41
628.495	11449.43
628.85	11458.24
629.205	11462.99
629.559	11470
629.914	11346.16
630.269	11333.95
630.623	11384.12
630.978	11301.86
631.332	11387.06
631.687	11413.5
632.041	11386.16
632.396	11424.35
632.75	11366.49
633.104	11229.1
633.459	11270.68
633.813	11302.99
634.167	11315.87
634.521	11262.32
634.875	11256.89
635.229	11246.05
635.583	11232.26
635.937	11207.86
636.291	11255.76
636.645	11242.2
636.999	11228.65
637.352	11213.5
637.706	11112.04
638.06	11126.73
638.413	11105.26
638.767	11085.37
639.121	11148.42
639.474	10988.65
639.828	11072.49
640.181	11066.16
640.534	11140.06
640.888	11030.46
641.241	11008.54
641.594	10989.33
641.947	10991.36
642.301	11013.74
642.654	10942.1
643.007	10996.56
643.36	10966.73
643.713	10955.43
644.066	10931.93
644.419	10945.26
644.771	10873.4
645.124	10760.64
645.477	10712.5
645.83	10681.09
646.182	10672.5
646.535	10614.42
646.888	10575.56
647.24	10495.11
647.593	10545.5
647.945	10620.3
648.298	10507.76
648.65	10543.92
649.002	10424.37
649.355	10488.55
649.707	10504.82
650.059	10525.61
650.411	10632.28
650.763	10719.05
651.115	10830.92
651.467	10813.52
651.819	10731.03
652.171	10820.29
652.523	10761.09
652.875	10654.65
653.227	10650.58
653.578	10824.36
653.93	10755.89
654.282	10670.02
654.633	10633.18
654.985	10662.11
655.337	10697.36
655.688	10747.3
656.039	10709.79
656.391	10698.26
656.742	10712.73
657.094	10690.58
657.445	10694.2
657.796	10710.24
658.147	10646.06
658.498	10714.76
658.849	10661.65
659.2	10604.93
659.551	10691.94
659.902	10662.56
660.253	10632.05
660.604	10730.58
660.955	10685.61
661.306	10689.9
661.656	10644.25
662.007	10713.4
662.358	10660.98
662.708	10781.43
663.059	10728.09
663.409	10705.04
663.76	10747.98
664.11	10665.5
664.461	10735.78
664.811	10714.53
665.161	10605.84
665.511	10664.37
665.862	10619.17
666.212	10736.68
666.562	10732.61
666.912	10735.55
667.262	10699.17
667.612	10684.03
667.962	10674.54
668.312	10657.59
668.662	10742.33
669.011	10604.93
669.361	10645.16
669.711	10596.57
670.06	10643.8
670.41	10580.75
670.76	10612.84
671.109	10670.69
671.459	10607.64
671.808	10666.63
672.157	10625.27
672.507	10568.32
672.856	10543.92
673.205	10635.67
673.554	10594.09
673.904	10503.92
674.253	10646.51
674.602	10569
674.951	10439.06
675.3	10312.74
675.649	10502.79
675.998	10500.53
676.346	10463.02
676.695	10608.1
677.044	10479.06
677.393	10436.12
677.741	10458.95
678.09	10426.63
678.438	10463.02
678.787	10412.62
679.135	10377.82
679.484	10401.55
679.832	10393.19
680.181	10302.12
680.529	10382.79
680.877	10261.44
681.225	10282.23
681.573	10359.74
681.922	10259.18
682.27	10197.03
682.618	10201.1
682.966	10192.06
683.314	10173.08
683.661	10231.16
684.009	10103.48
684.357	10162.91
684.705	10119.75
685.053	10075.91
685.4	10090.14
685.748	9949.13
686.095	10022.12
686.443	10017.15
686.79	10024.61
687.138	10004.27
687.485	9968.57
687.832	10006.3
688.18	9971.05
688.527	9934.44
688.874	9867.33
689.221	9856.03
689.568	9828
689.915	9837.27
690.262	9815.8
690.609	9761.79
690.956	9733.09
691.303	9733.77
691.65	9681.57
691.997	9640.21
692.344	9580.1
692.69	9612.42
693.037	9602.47
693.383	9486.09
693.73	9576.26
694.077	9517.28
694.423	9513.89
694.769	9409.71
695.116	9383.95
695.462	9367.68
695.808	9298.98
696.155	9336.49
696.501	9236.61
696.847	9224.86
697.193	9232.54
697.539	9228.47
697.885	9167.23
698.231	9083.39
698.577	9112.32
698.923	9130.85
699.269	9044.07
699.614	8977.63
699.96	8991.42
700.306	8945.77
700.651	8947.8
700.997	8854.47
701.342	8891.53
701.688	8879.1
702.033	8833.45
702.379	8846.56
702.724	8750.07
703.069	8800.91
703.415	8610.41
703.76	8689.05
704.105	8693.57
704.45	8635.72
704.795	8567.92
705.14	8556.63
705.485	8480.47
705.83	8480.24
706.175	8475.27
706.52	8476.4
706.865	8403.86
707.209	8417.87
707.554	8340.81
707.899	8434.82
708.243	8326.57
708.588	8298.1
708.932	8283.64
709.277	8346.46
709.621	8296.07
709.966	8242.28
710.31	8236.41
710.654	8173.36
710.998	8210.19
711.342	8185.56
711.687	8130.2
712.031	8043.64
712.375	8103.76
712.719	8136.3
713.063	8082.74
713.407	8166.13
713.75	8086.58
714.094	8049.52
714.438	8028.73
714.782	8059.46
715.125	8023.31
715.469	8040.25
715.812	7983.98
716.156	7899.24
716.499	7954.38
716.843	7936.53
717.186	7897.89
717.53	7953.48
717.873	7902.86
718.216	7826.02
718.559	7813.59
718.902	7785.35
719.246	7798.91
719.589	7836.42
719.932	7745.35
720.275	7807.49
720.617	7756.87
720.96	7738.12
721.303	7754.84
721.646	7774.95
721.989	7697.44
722.331	7750.32
722.674	7669.87
723.016	7678.68
723.359	7692.92
723.701	7681.85
724.044	7648.17
724.386	7591.68
724.729	7660.38
725.071	7634.62
725.413	7634.39
725.755	7591.68
726.097	7572.92
726.439	7534.73
726.782	7538.8
727.124	7599.14
727.465	7484.34
727.807	7531.12
728.149	7532.02
728.491	7515.3
728.833	7562.08
729.175	7522.53
729.516	7445.24
729.858	7505.35
730.199	7533.15
730.541	7480.72
730.882	7465.13
731.224	7506.03
731.565	7420.61
731.906	7454.28
732.248	7498.8
732.589	7393.72
732.93	7452.7
733.271	7457.9
733.612	7401.18
733.953	7453.15
734.294	7416.77
734.635	7399.59
734.976	7469.87
735.317	7447.5
735.658	7472.13
735.999	7438.69
736.339	7454.96
736.68	7471
737.021	7391.91
737.361	7391.68
737.702	7444.56
738.042	7351.91
738.383	7429.88
738.723	7456.54
739.063	7362.53
739.404	7433.49
739.744	7394.17
740.084	7397.11
740.424	7453.6
740.764	7397.11
741.104	7453.15
741.444	7449.31
741.784	7440.72
742.124	7491.12
742.464	7464.22
742.804	7497.22
743.143	7457.67
743.483	7487.73
743.823	7469.87
744.162	7526.37
744.502	7528.18
744.841	7494.51
745.181	7617.67
745.52	7483.43
745.86	7528.18
746.199	7588.74
746.538	7592.81
746.877	7638.68
747.216	7689.3
747.556	7711.22
747.895	7722.97
748.234	7724.33
748.573	7786.48
748.911	7813.82
749.25	7812.92
749.589	7840.26
749.928	7919.81
750.267	7943.31
750.605	7956.42
750.944	8063.08
751.283	8056.53
751.621	8091.1
751.96	8138.78
752.298	8241.83
752.636	8294.94
752.975	8327.03
753.313	8318.21
753.651	8409.28
753.989	8456.74
754.327	8578.55
754.666	8629.62
755.004	8724.3
755.342	8786
755.679	8837.52
756.017	8942.38
756.355	9003.62
756.693	9070.51
757.031	9218.3
757.368	9281.8
757.706	9321.12
758.044	9460.1
758.381	9557.73
758.719	9613.09
759.056	9662.13
759.394	9791.17
759.731	9842.47
760.068	9972.18
760.405	10037.04
760.743	10192.29
761.08	10290.37
761.417	10388.89
761.754	10495.56
762.091	10621.88
762.428	10609
762.765	10687.64
763.102	10813.29
