Data from hue_00_FLMS001491_41.txt Node
Date: Mon Feb 06 15:29:45 GMT 2017
User: dcchb
Spectrometer: FLMS00149
Trigger mode: 0
Integration Time (sec): 2.000000E-2
Scans to average: 10
Electric dark correction enabled: true
Nonlinearity correction enabled: false
Boxcar width: 0
XAxis mode: Wavelengths
Number of Pixels in Spectrum: 2048
>>>>>Begin Spectral Data<<<<<
341.393	-6.84
341.776	-6.84
342.16	-6.84
342.543	-53.16
342.927	-61.52
343.31	-67.63
343.693	-65.82
344.077	-75.76
344.46	-76.21
344.843	-42.77
345.226	-44.12
345.61	-27.63
345.993	-26.95
346.376	-31.47
346.759	24.12
347.142	34.97
347.525	48.53
347.908	59.38
348.291	66.38
348.674	114.06
349.057	110.9
349.44	139.15
349.823	141.18
350.206	158.58
350.588	181.63
350.971	206.27
351.354	236.77
351.737	237.9
352.119	238.13
352.502	249.2
352.884	263.89
353.267	281.97
353.65	281.97
354.032	303.89
354.414	295.53
354.797	327.17
355.179	312.03
355.562	326.26
355.944	320.39
356.326	321.29
356.709	318.35
357.091	339.82
357.473	368.75
357.855	333.95
358.238	331.23
358.62	335.53
359.002	324.91
359.384	343.89
359.766	345.25
360.148	356.32
360.53	343.21
360.912	336.88
361.294	335.98
361.676	346.15
362.057	341.86
362.439	332.82
362.821	316.77
363.203	324.45
363.584	335.75
363.966	313.61
364.348	321.29
364.729	329.2
365.111	317
365.493	327.17
365.874	310.9
366.256	298.01
366.637	314.96
367.019	298.92
367.4	314.96
367.781	311.8
368.163	301.63
368.544	318.81
368.925	329.2
369.306	298.47
369.688	315.42
370.069	305.7
370.45	321.29
370.831	305.02
371.212	312.7
371.593	326.94
371.974	330.1
372.355	329.43
372.736	324
373.117	301.63
373.498	295.75
373.879	300.5
374.26	310.67
374.641	308.64
375.021	309.09
375.402	293.5
375.783	331.91
376.163	319.48
376.544	330.78
376.925	295.75
377.305	298.92
377.686	329.88
378.066	329.2
378.447	337.56
378.827	321.07
379.208	346.15
379.588	321.07
379.968	335.98
380.349	351.8
380.729	322.65
381.109	349.99
381.489	331.23
381.87	328.3
382.25	328.07
382.63	354.74
383.01	337.34
383.39	340.73
383.77	350.22
384.15	349.09
384.53	330.78
384.91	321.52
385.29	338.92
385.67	326.49
386.049	348.41
386.429	330.33
386.809	343.21
387.189	340.5
387.568	355.41
387.948	348.63
388.328	338.92
388.707	346.38
389.087	361.29
389.466	338.47
389.846	360.39
390.225	342.76
390.605	356.77
390.984	353.83
391.363	373.72
391.743	355.64
392.122	366.04
392.501	377.33
392.881	380.5
393.26	374.85
393.639	357.22
394.018	383.89
394.397	345.02
394.776	380.05
395.155	363.78
395.534	375.3
395.913	368.97
396.292	378.24
396.671	383.89
397.05	408.97
397.429	385.02
397.808	353.38
398.186	375.98
398.565	377.33
398.944	386.6
399.323	388.41
399.701	369.43
400.08	393.38
400.458	380.5
400.837	390.44
401.215	394.06
401.594	389.31
401.972	399.26
402.351	384.79
402.729	405.36
403.107	387.5
403.486	404.68
403.864	401.74
404.242	395.19
404.62	417.11
404.999	404.45
405.377	371.23
405.755	406.26
406.133	416.43
406.511	414.85
406.889	413.04
407.267	411.91
407.645	413.27
408.023	433.6
408.401	433.83
408.779	421.4
409.156	432.7
409.534	425.47
409.912	439.48
410.29	437.22
410.667	413.27
411.045	445.36
411.422	441.51
411.8	465.92
412.178	461.4
412.555	474.06
412.933	451.23
413.31	454.17
413.687	477.67
414.065	453.72
414.442	476.54
414.819	459.82
415.197	452.81
415.574	448.29
415.951	477.9
416.328	467.95
416.705	503.66
417.082	495.75
417.46	465.02
417.837	502.3
418.214	510.21
418.591	492.59
418.967	507.5
419.344	516.09
419.721	514.96
420.098	509.53
420.475	512.7
420.852	507.95
421.228	522.64
421.605	513.83
421.982	528.29
422.358	511.79
422.735	510.89
423.111	547.95
423.488	527.84
423.864	535.75
424.241	551.34
424.617	526.71
424.994	544.79
425.37	544.79
425.746	548.86
426.123	553.6
426.499	538.23
426.875	566.71
427.251	539.82
427.627	588.85
428.003	597.67
428.379	581.4
428.756	582.3
429.132	560.61
429.507	562.64
429.883	580.49
430.259	616.42
430.635	601.96
431.011	613.94
431.387	620.72
431.763	638.8
432.138	607.39
432.514	626.59
432.89	606.71
433.265	649.87
433.641	631.57
434.016	649.87
434.392	667.27
434.767	647.84
435.143	659.14
435.518	666.82
435.894	670.66
436.269	698.91
436.644	695.52
437.02	685.35
437.395	672.47
437.77	684.9
438.145	709.53
438.52	727.38
438.895	726.25
439.271	714.05
439.646	704.33
440.021	720.15
440.395	712.02
440.77	736.2
441.145	719.92
441.52	766.03
441.895	744.78
442.27	754.05
442.645	760.38
443.019	756.99
443.394	750.88
443.769	764.67
444.143	757.21
444.518	760.6
444.892	761.73
445.267	765.8
445.641	781.62
446.016	790.66
446.39	778
446.764	825.01
447.139	776.65
447.513	816.65
447.887	782.3
448.262	814.16
448.636	784.78
449.01	802.86
449.384	839.92
449.758	831.33
450.132	809.41
450.506	833.59
450.88	818.23
451.254	852.35
451.628	850.54
452.002	843.99
452.376	854.84
452.75	850.32
453.123	878.79
453.497	879.92
453.871	877.43
454.244	878.11
454.618	879.92
454.992	903.42
455.365	915.63
455.739	941.16
456.112	904.55
456.486	961.73
456.859	968.28
457.232	958.79
457.606	971.22
457.979	939.58
458.352	965.57
458.725	991.1
459.099	979.8
459.472	997.43
459.845	994.95
460.218	1035.85
460.591	1026.13
460.964	1042.4
461.337	1056.64
461.71	1068.16
462.083	1045.79
462.456	1086.24
462.829	1082.4
463.201	1083.98
463.574	1101.38
463.947	1088.05
464.32	1133.25
464.692	1155.17
465.065	1118.56
465.438	1189.52
465.81	1175.96
466.183	1160.36
466.555	1207.6
466.928	1220.25
467.3	1223.87
467.672	1246.69
468.045	1267.48
468.417	1261.38
468.789	1262.51
469.161	1288.95
469.534	1312.45
469.906	1321.94
470.278	1323.98
470.65	1356.07
471.022	1366.91
471.394	1406.23
471.766	1404.88
472.138	1430.64
472.51	1443.97
472.882	1439.45
473.253	1479.9
473.625	1526.01
473.997	1511.77
474.369	1559
474.74	1580.47
475.112	1619.79
475.484	1625.89
475.855	1643.52
476.227	1672.89
476.598	1718.77
476.97	1745.43
477.341	1777.3
477.713	1806
478.084	1810.74
478.455	1833.34
478.827	1836.05
479.198	1910.18
479.569	1931.19
479.94	1972.77
480.311	2003.51
480.682	2003.28
481.053	2088.7
481.424	2129.61
481.795	2156.95
482.166	2178.42
482.537	2181.58
482.908	2233.78
483.279	2255.25
483.65	2301.35
484.021	2367.56
484.391	2419.99
484.762	2426.77
485.133	2437.62
485.503	2492.53
485.874	2539.54
486.244	2518.52
486.615	2591.06
486.985	2669.93
487.356	2670.16
487.726	2700.21
488.097	2748.57
488.467	2789.7
488.837	2854.33
489.207	2884.16
489.578	2917.83
489.948	2960.32
490.318	2971.84
490.688	2994.67
491.058	3075.57
491.428	3087.32
491.798	3165.51
492.168	3190.37
492.538	3177.04
492.908	3240.76
493.278	3266.75
493.648	3328.44
494.017	3371.38
494.387	3355.34
494.757	3422.23
495.126	3459.06
495.496	3487.54
495.866	3507.87
496.235	3543.35
496.605	3543.58
496.974	3559.17
497.344	3617.02
497.713	3597.36
498.082	3700.86
498.452	3685.27
498.821	3702.45
499.19	3738.15
499.559	3786.28
499.928	3759.84
500.298	3825.83
500.667	3831.93
501.036	3889.33
501.405	3878.71
501.774	3907.19
502.143	3950.57
502.512	3961.87
502.88	3996.45
503.249	3943.34
503.618	3998.71
503.987	4035.32
504.356	4056.56
504.724	4038.71
505.093	4028.09
505.462	4115.09
505.83	4090.68
506.199	4126.16
506.567	4186.5
506.936	4196.67
507.304	4222.88
507.672	4223.79
508.041	4272.83
508.409	4296.33
508.777	4310.34
509.145	4354.86
509.514	4361.41
509.882	4368.42
510.25	4352.6
510.618	4390.34
510.986	4414.06
511.354	4427.85
511.722	4469.2
512.09	4510.11
512.458	4471.92
512.826	4556.43
513.193	4514.18
513.561	4497.23
513.929	4566.6
514.297	4590.11
514.664	4587.39
515.032	4605.25
515.4	4705.36
515.767	4645.92
516.135	4700.16
516.502	4652.25
516.869	4742.64
517.237	4666.71
517.604	4708.07
517.972	4726.82
518.339	4769.54
518.706	4772.25
519.073	4802.08
519.44	4842.53
519.808	4808.18
520.175	4832.58
520.542	4910.77
520.909	4916.88
521.276	4898.35
521.643	4956.65
522.009	4963.65
522.376	4992.35
522.743	5029.19
523.11	5051.34
523.477	5033.03
523.843	5104.22
524.21	5103.09
524.577	5176.08
524.943	5185.34
525.31	5196.64
525.676	5224.89
526.043	5216.98
526.409	5250.2
526.776	5292.91
527.142	5384.89
527.508	5373.59
527.874	5390.76
528.241	5433.7
528.607	5419.91
528.973	5504.21
529.339	5483.42
529.705	5514.6
530.071	5622.62
530.437	5591.66
530.803	5635.28
531.169	5673.01
531.535	5623.3
531.901	5647.7
532.267	5658.33
532.632	5694.94
532.998	5760.47
533.364	5757.98
533.73	5786.91
534.095	5842.05
534.461	5842.28
534.826	5811.54
535.192	5866.23
535.557	5923.4
535.923	5924.99
536.288	5923.86
536.653	5958.43
537.019	5965.89
537.384	5997.53
537.749	6108.94
538.114	6102.38
538.479	6075.49
538.845	6095.15
539.21	6111.65
539.575	6154.36
539.94	6223.28
540.305	6214.24
540.67	6201.14
541.034	6227.8
541.399	6266.22
541.764	6278.42
542.129	6302.38
542.494	6336.73
542.858	6362.94
543.223	6375.14
543.587	6403.16
543.952	6440
544.316	6451.07
544.681	6439.77
545.045	6571.75
545.41	6585.53
545.774	6559.77
546.138	6514.57
546.503	6583.05
546.867	6627.34
547.231	6678.41
547.595	6692.87
547.959	6669.37
548.324	6727.45
548.688	6718.64
549.052	6771.29
549.416	6797.96
549.779	6781.23
550.143	6811.52
550.507	6825.53
550.871	6849.03
551.235	6824.17
551.599	6917.28
551.962	6959.53
552.326	6943.94
552.689	6993.66
553.053	6959.53
553.417	7036.82
553.78	7066.65
554.143	7135.8
554.507	7100.1
554.87	7081.57
555.234	7217.61
555.597	7148.23
555.96	7192.07
556.323	7184.16
556.686	7231.39
557.05	7281.33
557.413	7239.53
557.776	7283.59
558.139	7295.57
558.502	7355.23
558.865	7394.55
559.228	7399.07
559.59	7505.73
559.953	7453.53
560.316	7480.42
560.679	7532.85
561.041	7526.53
561.404	7570.59
561.767	7587.31
562.129	7593.42
562.492	7726.75
562.854	7668.44
563.217	7686.97
563.579	7765.39
563.941	7738.72
564.304	7834.31
564.666	7847.42
565.028	7826.86
565.39	7755.9
565.753	7875.22
566.115	7877.02
566.477	7962.22
566.839	7973.75
567.201	8013.29
567.563	8029.11
567.925	8120.63
568.287	8077.02
568.648	8099.62
569.01	8100.75
569.372	8161.76
569.734	8174.42
570.095	8238.37
570.457	8279.27
570.819	8301.42
571.18	8323.79
571.542	8343
571.903	8405.37
572.265	8458.48
572.626	8446.95
572.987	8578.7
573.349	8573.96
573.71	8613.28
574.071	8656.44
574.432	8710.45
574.794	8800.62
575.155	8822.08
575.516	8841.29
575.877	8879.71
576.238	8940.73
576.599	9099.37
576.96	9099.82
577.32	9222.98
577.681	9228.85
578.042	9328.74
578.403	9345.23
578.763	9465.46
579.124	9574.38
579.485	9698.67
579.845	9836.52
580.206	9819.35
580.566	9988.38
580.927	10038.32
581.287	10251.65
581.648	10286.23
582.008	10468.82
582.368	10626.1
582.728	10712.2
583.089	10817.06
583.449	10949.94
583.809	11117.39
584.169	11264.05
584.529	11449.13
584.889	11656.13
585.249	11806.86
585.609	11871.95
585.969	12107.87
586.329	12367.75
586.688	12609.1
587.048	12822.88
587.408	12945.59
587.768	13152.14
588.127	13409.76
588.487	13570.66
588.846	13832.12
589.206	14026.47
589.565	14268.49
589.925	14492.44
590.284	14768.14
590.643	14932.66
591.003	15279.77
591.362	15502.59
591.721	15836.14
592.08	16009.92
592.44	16347.31
592.799	16576.23
593.158	16894.41
593.517	17184.8
593.876	17423.89
594.235	17717.44
594.593	17967.83
594.952	18295.96
595.311	18411.89
595.67	18849.39
596.029	19262.04
596.387	19388.36
596.746	19745.19
597.104	19987.89
597.463	20225.85
597.822	20615.9
598.18	20794.42
598.538	21135.88
598.897	21447.97
599.255	21572.71
599.613	22222.64
599.972	22279.81
600.33	22599.58
600.688	22828.95
601.046	23170.86
601.404	23475.94
601.762	23677.29
602.12	24106.88
602.478	24382.35
602.836	24573.08
603.194	24794.55
603.552	25035.44
603.91	25302.56
604.268	25558.37
604.625	25791.81
604.983	25975.76
605.341	26105.92
605.698	26589.75
606.056	26926.92
606.413	27067.48
606.771	27276.51
607.128	27656.62
607.485	27775.71
607.843	27998.98
608.2	28279.43
608.557	28630.83
608.914	28718.96
609.272	29086.64
609.629	29272.85
609.986	29487.98
610.343	29514.42
610.7	30122.99
611.057	30239.37
611.414	30366.15
611.771	30477.33
612.127	30701.06
612.484	30858.57
612.841	31119.8
613.198	31180.82
613.554	31477.31
613.911	31753.01
614.267	31977.63
614.624	31958.2
614.98	32322.48
615.337	32516.15
615.693	32534.91
616.05	32661.68
616.406	32994.78
616.762	32994.33
617.118	33183.7
617.475	33242.23
617.831	33443.36
618.187	33545.5
618.543	33896.91
618.899	34204.47
619.255	34030.91
619.611	34289.66
619.967	34448.08
620.323	34573.72
620.678	34479.71
621.034	34642.87
621.39	34734.85
621.746	34868.18
622.101	35169.19
622.457	35142.07
622.812	35130.77
623.168	35422.51
623.523	35478.33
623.879	35640.36
624.234	35479.69
624.589	35748.83
624.945	35745.44
625.3	35890.3
625.655	35890.75
626.01	35912.9
626.365	35928.72
626.72	36037.41
627.075	36127.81
627.43	36128.26
627.785	36081.25
628.14	36362.83
628.495	36455.26
628.85	36316.28
629.205	36364.41
629.559	36691.63
629.914	36492.32
630.269	36786.77
630.623	36564.41
630.978	36576.38
631.332	36831.97
631.687	36889.14
632.041	36746.77
632.396	36777.06
632.75	36801.91
633.104	36787
633.459	36660.22
633.813	36861.57
634.167	36857.28
634.521	36687.11
634.875	36749.49
635.229	36827.22
635.583	36648.47
635.937	36881.23
636.291	36784.74
636.645	36701.35
636.999	36794.68
637.352	36981.12
637.706	36870.16
638.06	36890.95
638.413	36820.9
638.767	36843.72
639.121	36903.38
639.474	36562.82
639.828	36778.19
640.181	36831.74
640.534	36863.16
640.888	36709.03
641.241	36536.61
641.594	36729.83
641.947	36842.14
642.301	36759.43
642.654	36813.44
643.007	36776.6
643.36	36663.61
643.713	36702.03
644.066	36862.7
644.419	36586.55
644.771	36250.06
645.124	36076.51
645.477	36012.78
645.83	35847.59
646.182	35666.12
646.535	35557.2
646.888	35748.83
647.24	35543.42
647.593	35621.15
647.945	35620.48
648.298	35484.89
648.65	35384.78
649.002	35400.14
649.355	35581.83
649.707	35453.7
650.059	35647.82
650.411	36105.21
650.763	36023.86
651.115	36540.45
651.467	36392.88
651.819	36353.56
652.171	36283.51
652.523	36196.05
652.875	36182.27
653.227	36077.86
653.578	36323.28
653.93	36329.84
654.282	36154.47
654.633	36058.43
654.985	36139.33
655.337	36225.21
655.688	36159.44
656.039	36173.68
656.391	35954.25
656.742	35928.26
657.094	36067.02
657.445	36196.73
657.796	35996.29
658.147	36007.58
658.498	36090.97
658.849	36099.33
659.2	36141.14
659.551	35965.33
659.902	36196.73
660.253	36001.48
660.604	36081.25
660.955	35889.62
661.306	36057.53
661.656	35955.83
662.007	35880.81
662.358	35984.99
662.708	35944.08
663.059	36009.62
663.409	35692.79
663.76	35909.96
664.11	35883.52
664.461	35982.5
664.811	35915.84
665.161	35979.34
665.511	35850.53
665.862	35822.05
666.212	35968.72
666.562	36001.71
666.912	35846.91
667.262	35977.75
667.612	35968.04
667.962	35919.9
668.312	35828.38
668.662	36002.84
669.011	35878.77
669.361	35833.8
669.711	35931.43
670.06	35849.62
670.41	35872.9
670.76	35603.53
671.109	35917.42
671.459	35902.95
671.808	35743.64
672.157	35726.91
672.507	35653.24
672.856	35574.6
673.205	35595.84
673.554	35664.32
673.904	35573.02
674.253	35768.27
674.602	35529.86
674.951	35126.7
675.3	35004.45
675.649	35640.81
675.998	35428.84
676.346	35630.19
676.695	35623.87
677.044	35284.89
677.393	35567.82
677.741	35546.35
678.09	35356.53
678.438	35346.58
678.787	35459.8
679.135	35342.07
679.484	35108.17
679.832	35223.65
680.181	35095.74
680.529	35112.69
680.877	35064.78
681.225	35117.89
681.573	35354.27
681.922	35085.8
682.27	34834.96
682.618	34929.87
682.966	34806.26
683.314	34887.84
683.661	34879.7
684.009	34650.56
684.357	34642.87
684.705	34541.18
685.053	34639.94
685.4	34525.36
685.748	34455.76
686.095	34356.33
686.443	34201.76
686.79	34214.19
687.138	34279.04
687.485	34329.66
687.832	34079.5
688.18	34140.06
688.527	33983.46
688.874	34023.46
689.221	34045.83
689.568	33796.34
689.915	33666.4
690.262	33615.33
690.609	33552.28
690.956	33531.72
691.303	33443.13
691.65	33225.96
691.997	33356.35
692.344	33100.09
692.69	33088.57
693.037	33226.64
693.383	33020.54
693.73	33095.34
694.077	32911.17
694.423	32890.15
694.769	32643.15
695.116	32574
695.462	32586.21
695.808	32379.88
696.155	32542.36
696.501	32264.86
696.847	32314.35
697.193	32206.55
697.539	32208.81
697.885	32081.59
698.231	31875.26
698.577	31731.54
698.923	31679.11
699.269	31722.5
699.614	31436.86
699.96	31426.46
700.306	31427.37
700.651	31280.02
700.997	31268.73
701.342	31111.44
701.688	31051.33
702.033	31093.14
702.379	31009.98
702.724	30930.2
703.069	30946.7
703.415	30616.77
703.76	30613.38
704.105	30599.36
704.45	30507.16
704.795	30454.74
705.14	30359.37
705.485	30382.42
705.83	30308.3
706.175	30260.84
706.52	30194.63
706.865	30022.2
707.209	30007.29
707.554	29903.34
707.899	29991.02
708.243	29799.39
708.588	29657.47
708.932	29602.78
709.277	29491.15
709.621	29524.36
709.966	29333.64
710.31	29364.6
710.654	29182.45
710.998	29188.78
711.342	29169.35
711.687	29187.2
712.031	28961.67
712.375	28930.26
712.719	28982.23
713.063	28939.75
713.407	28910.82
713.75	28744.95
714.094	28706.76
714.438	28636.03
714.782	28799.64
715.125	28547.22
715.469	28518.06
715.812	28442.13
716.156	28320.1
716.499	28338.63
716.843	28386.54
717.186	28111.97
717.53	28299.99
717.873	28286.66
718.216	28248.01
718.559	28090.28
718.902	27949.04
719.246	27973.22
719.589	27845.31
719.932	27749.72
720.275	27702.04
720.617	27674.02
720.96	27633.57
721.303	27769.61
721.646	27657.3
721.989	27399.9
722.331	27579.78
722.674	27481.25
723.016	27488.03
723.359	27436.96
723.701	27439.45
724.044	27240.36
724.386	27174.82
724.729	27347.7
725.071	27184.54
725.413	27100.7
725.755	27127.82
726.097	27000.82
726.439	26880.14
726.782	26905.9
727.124	26905.9
727.465	26850.76
727.807	26838.56
728.149	26770.77
728.491	26708.85
728.833	26722.63
729.175	26618
729.516	26608.51
729.858	26566.93
730.199	26575.29
730.541	26559.25
730.882	26486.93
731.224	26551.34
731.565	26434.05
731.906	26464.33
732.248	26339.59
732.589	26268.86
732.93	26103.66
733.271	26220.95
733.612	26071.35
733.953	26150.67
734.294	26143.44
734.635	26070.22
734.976	26063.89
735.317	25971.69
735.658	25851.47
735.999	25931.47
736.339	25826.38
736.68	25978.02
737.021	25805.37
737.361	25685.82
737.702	25844.46
738.042	25672.49
738.383	25714.52
738.723	25793.62
739.063	25610.57
739.404	25644.92
739.744	25595.88
740.084	25466.62
740.424	25551.36
740.764	25370.35
741.104	25508.43
741.444	25304.14
741.784	25282.67
742.124	25246.96
742.464	25277.92
742.804	25172.16
743.143	25221.88
743.483	25157.25
743.823	25029.12
744.162	24999.51
744.502	25069.57
744.841	24950.25
745.181	24990.25
745.52	24952.51
745.86	25027.31
746.199	24937.82
746.538	24819.63
746.877	24915.45
747.216	24845.17
747.556	24811.72
747.895	24817.82
748.234	24687.66
748.573	24611.95
748.911	24569.24
749.25	24633.42
749.589	24533.31
749.928	24499.19
750.267	24588
750.605	24513.88
750.944	24317.04
751.283	24358.85
751.621	24367.66
751.96	24345.52
752.298	24370.6
752.636	24226.43
752.975	24057.62
753.313	24004.96
753.651	24204.5
753.989	24068.92
754.327	23991.4
754.666	23919.31
755.004	23929.48
755.342	23855.14
755.679	23807.91
756.017	23769.26
756.355	23788.24
756.693	23702.82
757.031	23692.43
757.368	23579.44
757.706	23498.31
758.044	23474.13
758.381	23367.46
758.719	23418.99
759.056	23431.42
759.394	23332.21
759.731	23155.49
760.068	23186.45
760.405	23023.07
760.743	23019.9
761.08	23047.7
