Data from hue_30_FLMS001491_21.txt Node
Date: Mon Feb 06 15:04:55 GMT 2017
User: dcchb
Spectrometer: FLMS00149
Trigger mode: 0
Integration Time (sec): 2.000000E-2
Scans to average: 10
Electric dark correction enabled: true
Nonlinearity correction enabled: false
Boxcar width: 0
XAxis mode: Wavelengths
Number of Pixels in Spectrum: 2048
>>>>>Begin Spectral Data<<<<<
341.393	-11.78
341.776	-11.78
342.16	-11.78
342.543	-83.42
342.927	-61.95
343.31	-67.82
343.693	-50.42
344.077	-62.4
344.46	-49.29
344.843	-70.31
345.226	-46.81
345.61	-32.57
345.993	-1.16
346.376	-12.46
346.759	3.36
347.142	23.7
347.525	52.63
347.908	46.75
348.291	71.61
348.674	93.3
349.057	101.89
349.44	119.06
349.823	149.12
350.206	164.26
350.588	195.22
350.971	198.38
351.354	226.41
351.737	233.19
352.119	241.55
352.502	261.89
352.884	283.58
353.267	279.06
353.65	299.17
354.032	287.65
354.414	293.98
354.797	306.18
355.179	304.14
355.562	321.09
355.944	321.09
356.326	365.39
356.709	363.58
357.091	368.55
357.473	338.27
357.855	326.52
358.238	352.96
358.62	342.79
359.002	347.08
359.384	357.25
359.766	338.49
360.148	354.99
360.53	326.74
360.912	346.63
361.294	332.62
361.676	339.62
362.057	323.58
362.439	343.69
362.821	308.44
363.203	344.37
363.584	322.22
363.966	324.71
364.348	327.87
364.729	324.48
365.111	322.45
365.493	323.35
365.874	319.29
366.256	327.42
366.637	317.25
367.019	341.88
367.4	317.25
367.781	318.16
368.163	319.06
368.544	328.55
368.925	297.37
369.306	293.98
369.688	299.62
370.069	313.18
370.45	315.67
370.831	288.78
371.212	311.15
371.593	321.55
371.974	313.18
372.355	307.99
372.736	319.06
373.117	284.48
373.498	326.06
373.879	315.67
374.26	314.54
374.641	325.61
375.021	314.09
375.402	332.39
375.783	334.43
376.163	339.17
376.544	352.96
376.925	313.41
377.305	334.65
377.686	332.62
378.066	340.08
378.447	341.43
378.827	345.5
379.208	356.8
379.588	321.32
379.968	343.24
380.349	342.79
380.729	336.46
381.109	349.79
381.489	350.7
381.87	311.6
382.25	340.75
382.63	332.17
383.01	338.72
383.39	320.87
383.77	344.37
384.15	352.96
384.53	333.52
384.91	344.37
385.29	338.95
385.67	353.18
386.049	359.96
386.429	349.57
386.809	355.44
387.189	347.08
387.568	338.27
387.948	359.74
388.328	351.37
388.707	363.13
389.087	376.01
389.466	364.26
389.846	350.7
390.225	359.96
390.605	359.96
390.984	366.74
391.363	366.74
391.743	366.74
392.122	383.46
392.501	378.27
392.881	369
393.26	367.19
393.639	381.66
394.018	373.75
394.397	381.88
394.776	352.96
395.155	375.33
395.534	393.18
395.913	403.35
396.292	400.87
396.671	393.18
397.05	380.75
397.429	387.08
397.808	387.31
398.186	397.7
398.565	406.29
398.944	402.22
399.323	411.26
399.701	386.18
400.08	399.28
400.458	402
400.837	393.18
401.215	419.17
401.594	412.39
401.972	405.38
402.351	403.12
402.729	380.53
403.107	418.94
403.486	413.52
403.864	426.4
404.242	428.44
404.62	409.45
404.999	416.01
405.377	413.29
405.755	416.23
406.133	421.88
406.511	447.42
406.889	435.21
407.267	431.37
407.645	441.32
408.023	428.44
408.401	469.11
408.779	437.47
409.156	438.83
409.534	442.22
409.912	456.23
410.29	436.8
410.667	487.19
411.045	451.94
411.422	449.9
411.8	481.99
412.178	462.78
412.555	449.9
412.933	466.17
413.31	466.63
413.687	472.73
414.065	485.16
414.442	486.06
414.819	484.03
415.197	484.7
415.574	487.87
415.951	493.07
416.328	496
416.705	507.98
417.082	504.37
417.46	504.14
417.837	504.37
418.214	518.83
418.591	541.88
418.967	501.2
419.344	511.14
419.721	511.37
420.098	511.6
420.475	518.15
420.852	532.61
421.228	535.78
421.605	550.92
421.982	547.3
422.358	566.96
422.735	549.34
423.111	526.74
423.488	563.35
423.864	560.63
424.241	562.44
424.617	549.79
424.994	566.74
425.37	555.66
425.746	578.71
426.123	578.26
426.499	591.82
426.875	583.01
427.251	594.08
427.627	601.76
428.003	601.99
428.379	600.86
428.756	616.45
429.132	645.15
429.507	627.3
429.883	623.23
430.259	608.32
430.635	645.15
431.011	644.93
431.387	616
431.763	658.26
432.138	639.73
432.514	646.06
432.89	633.4
433.265	655.32
433.641	656
434.016	659.62
434.392	699.16
434.767	696.68
435.143	672.95
435.518	698.03
435.894	700.29
436.269	711.59
436.644	707.98
437.02	723.12
437.395	720.4
437.77	733.06
438.145	723.34
438.52	719.5
438.895	745.26
439.271	737.81
439.646	746.84
440.021	753.17
440.395	758.82
440.77	766.05
441.145	754.98
441.52	763.34
441.895	773.96
442.27	808.76
442.645	774.87
443.019	779.84
443.394	797.24
443.769	789.1
444.143	782.55
444.518	808.99
444.892	818.26
445.267	836.56
445.641	839.72
446.016	822.55
446.39	826.62
446.764	802.44
447.139	848.09
447.513	850.8
447.887	845.15
448.262	844.7
448.636	858.71
449.01	847.41
449.384	865.26
449.758	875.65
450.132	874.98
450.506	865.26
450.88	865.49
451.254	883.79
451.628	885.82
452.002	913.85
452.376	914.52
452.75	886.95
453.123	924.69
453.497	924.69
453.871	945.71
454.244	944.58
454.618	946.16
454.992	972.15
455.365	967.63
455.739	989.32
456.112	973.96
456.486	974.86
456.859	999.72
457.232	1032.49
457.606	1040.85
457.979	1027.74
458.352	1070
458.725	1050.11
459.099	1060.73
459.472	1080.17
459.845	1056.67
460.218	1114.29
460.591	1092.15
460.964	1091.92
461.337	1120.17
461.71	1149.32
462.083	1163.11
462.456	1179.38
462.829	1204.01
463.201	1198.58
463.574	1174.86
463.947	1201.3
464.32	1229.54
464.692	1236.78
465.065	1266.15
465.438	1290.33
465.81	1297.79
466.183	1304.12
466.555	1330.33
466.928	1321.52
467.3	1357.45
467.672	1363.55
468.045	1381.63
468.417	1390.22
468.789	1420.05
469.161	1426.6
469.534	1441.52
469.906	1445.81
470.278	1477.9
470.65	1498.01
471.022	1531.46
471.394	1586.37
471.766	1591.12
472.138	1604.68
472.51	1648.29
472.882	1635.86
473.253	1702.53
473.625	1713.37
473.997	1729.87
474.369	1759.25
474.74	1800.15
475.112	1815.52
475.484	1900.71
475.855	1909.53
476.227	1945.46
476.598	1971.9
476.97	2015.51
477.341	2032.01
477.713	2077.21
478.084	2104.1
478.455	2155.4
478.827	2173.25
479.198	2276.97
479.569	2254.15
479.94	2357.2
480.311	2386.12
480.682	2457.08
481.053	2521.26
481.424	2566.68
481.795	2601.71
482.166	2651.43
482.537	2689.17
482.908	2790.18
483.279	2810.29
483.65	2869.73
484.021	2930.74
484.391	3005.09
484.762	3026.33
485.133	3081.92
485.503	3136.61
485.874	3229.04
486.244	3297.74
486.615	3342.93
486.985	3406.44
487.356	3524.4
487.726	3518.98
488.097	3615.92
488.467	3596.26
488.837	3734.34
489.207	3800.78
489.578	3844.39
489.948	3933.2
490.318	4011.39
490.688	4007.78
491.058	4101.78
491.428	4199.64
491.798	4259.29
492.168	4339.97
492.538	4385.62
492.908	4443.7
493.278	4511.04
493.648	4514.43
494.017	4628.1
494.387	4676.91
494.757	4756.91
495.126	4817.02
495.496	4889.33
495.866	4839.62
496.235	4983.8
496.605	5041.42
496.974	5080.97
497.344	5129.55
497.713	5185.6
498.082	5205.48
498.452	5316.67
498.821	5339.04
499.19	5382.66
499.559	5387.4
499.928	5508.08
500.298	5516.89
500.667	5550.56
501.036	5586.49
501.405	5635.53
501.774	5643.89
502.143	5735.64
502.512	5791.23
502.88	5841.63
503.249	5910.55
503.618	5879.82
503.987	5954.84
504.356	5953.04
504.724	5987.16
505.093	6067.38
505.462	6096.08
505.83	6096.31
506.199	6226.7
506.567	6221.05
506.936	6270.09
507.304	6351.67
507.672	6361.84
508.041	6368.84
508.409	6423.98
508.777	6464.66
509.145	6535.39
509.514	6539.01
509.882	6572
510.25	6547.37
510.618	6644.77
510.986	6650.19
511.354	6722.73
511.722	6762.51
512.09	6790.3
512.458	6822.62
512.826	6896.97
513.193	6983.52
513.561	6945.78
513.929	6982.39
514.297	6986
514.664	7051.54
515.032	7083.63
515.4	7094.93
515.767	7159.56
516.135	7176.73
516.502	7154.81
516.869	7229.61
517.237	7249.95
517.604	7216.05
517.972	7310.06
518.339	7288.82
518.706	7367.24
519.073	7393.45
519.44	7469.38
519.808	7536.04
520.175	7537.17
520.542	7601.81
520.909	7679.77
521.276	7649.94
521.643	7652.2
522.009	7708.47
522.376	7806.77
522.743	7809.71
523.11	7844.96
523.477	7932.64
523.843	7977.84
524.21	8018.07
524.577	8011.06
524.943	8116.59
525.31	8113.88
525.676	8182.81
526.043	8236.82
526.409	8285.63
526.776	8308.91
527.142	8392.52
527.508	8376.7
527.874	8519.07
528.241	8534.21
528.607	8530.14
528.973	8601.1
529.339	8624.38
529.705	8712.96
530.071	8745.96
530.437	8755.67
530.803	8812.85
531.169	8869.12
531.535	8905.5
531.901	8917.03
532.267	8978.94
532.632	9045.61
532.998	9002.45
533.364	9060.75
533.73	9071.6
534.095	9152.5
534.461	9232.05
534.826	9259.16
535.192	9254.42
535.557	9340.74
535.923	9367.64
536.288	9316.79
536.653	9413.51
537.019	9418.48
537.384	9489.44
537.749	9539.61
538.114	9523.34
538.479	9572.6
538.845	9611.7
539.21	9629.1
539.575	9700.51
539.94	9757
540.305	9784.8
540.67	9839.94
541.034	9830
541.399	9880.62
541.764	9958.58
542.129	9999.93
542.494	10008.97
542.858	10039.26
543.223	10053.04
543.587	10128.52
543.952	10149.08
544.316	10184.79
544.681	10220.04
545.045	10349.98
545.41	10385.01
545.774	10326.71
546.138	10368.29
546.503	10424.33
546.867	10429.53
547.231	10558.11
547.595	10560.82
547.959	10543.88
548.324	10684.89
548.688	10716.53
549.052	10698.45
549.416	10762.4
549.779	10766.69
550.143	10756.98
550.507	10889.85
550.871	10868.84
551.235	10956.52
551.599	10961.49
551.962	11016.41
552.326	11075.39
552.689	11070.42
553.053	11017.08
553.417	11057.99
553.78	11245.1
554.143	11148.61
554.507	11160.58
554.87	11209.62
555.234	11344.53
555.597	11306.57
555.96	11393.34
556.323	11386.34
556.686	11382.27
557.05	11461.59
557.413	11459.11
557.776	11570.06
558.139	11620.01
558.502	11615.26
558.865	11733.67
559.228	11723.96
559.59	11754.69
559.953	11773.67
560.316	11848.93
560.679	11860.68
561.041	11914.69
561.404	11976.15
561.767	12174.57
562.129	11975.93
562.492	12081.24
562.854	12115.81
563.217	12177.28
563.579	12157.17
563.941	12281.68
564.304	12316.94
564.666	12337.73
565.028	12362.36
565.39	12437.38
565.753	12482.81
566.115	12476.48
566.477	12613.88
566.839	12558.96
567.201	12685.06
567.563	12693.88
567.925	12736.81
568.287	12738.17
568.648	12828.11
569.01	12960.31
569.372	12904.04
569.734	12943.81
570.095	13073.98
570.457	13148.55
570.819	13102.68
571.18	13147.2
571.542	13239.17
571.903	13223.8
572.265	13373.41
572.626	13447.75
572.987	13473.52
573.349	13538.15
573.71	13622.89
574.071	13783.56
574.432	13779.95
574.794	13886.61
575.155	13923.22
575.516	14039.6
575.877	14097.23
576.238	14188.53
576.599	14307.62
576.96	14324.57
577.32	14418.35
577.681	14565.24
578.042	14724.56
578.403	14830.99
578.763	14931.56
579.124	15001.39
579.485	15212.23
579.845	15325.9
580.206	15481.15
580.566	15645.66
580.927	15774.92
581.287	15923.62
581.648	16012.21
582.008	16286.78
582.368	16468.01
582.728	16696.03
583.089	16719.76
583.449	16953.65
583.809	17157.26
584.169	17479.96
584.529	17619.62
584.889	17883.57
585.249	18063.23
585.609	18156.1
585.969	18602.65
586.329	18631.57
586.688	18876.31
587.048	19147.94
587.408	19326.92
587.768	19557.88
588.127	19919.9
588.487	20142.94
588.846	20555.82
589.206	20639.66
589.565	20929.36
589.925	21349.92
590.284	21520.31
590.643	21845.05
591.003	22201.65
591.362	22502.88
591.721	22632.6
592.08	22974.06
592.44	23372.46
592.799	23532.69
593.158	23797.76
593.517	24271.65
593.876	24450.18
594.235	24689.49
594.593	25004.06
594.952	25331.28
595.311	25552.29
595.67	25918.61
596.029	26266.63
596.387	26575.09
596.746	26900.28
597.104	27060.05
597.463	27379.82
597.822	27726.02
598.18	27954.49
598.538	28144.99
598.897	28697.97
599.255	28637.18
599.613	29351.97
599.972	29427.22
600.33	29695.24
600.688	29921.9
601.046	30287.99
601.404	30672.16
601.762	30805.72
602.12	31182.2
602.478	31347.4
602.836	31705.35
603.194	31682.98
603.552	32036.19
603.91	32178.56
604.268	32559.79
604.625	32716.63
604.983	33079.78
605.341	33133.11
605.698	33566.77
606.056	33750.27
606.413	34053.54
606.771	34216.47
607.128	34420.76
607.485	34488.56
607.843	34712.73
608.2	35137.35
608.557	35367.4
608.914	35454.41
609.272	35881.51
609.629	35977.33
609.986	36264.33
610.343	36406.02
610.7	36611.44
611.057	36692.57
611.414	37002.16
611.771	36994.48
612.127	37455.48
612.484	37410.06
612.841	37693.67
613.198	37808.7
613.554	37867.22
613.911	38201.91
614.267	38218.63
614.624	38391.28
614.98	38629.46
615.337	38903.36
615.693	38912.17
616.05	39097.7
616.406	39374.3
616.762	39287.3
617.118	39407.3
617.475	39553.28
617.831	39792.6
618.187	39868.3
618.543	40164.11
618.899	40421.51
619.255	40489.08
619.611	40456.31
619.967	40665.34
620.323	40842.29
620.678	40709.18
621.034	40801.16
621.39	40791.67
621.746	40857.65
622.101	41434.59
622.457	41127.93
622.812	41205.89
623.168	41431.88
623.523	41487.69
623.879	41691.3
624.234	41470.29
624.589	41682.72
624.945	41769.95
625.3	41854.01
625.655	41792.55
626.01	41966.55
626.365	42055.36
626.72	42067.11
627.075	41952.31
627.43	42101.01
627.785	42051.3
628.14	42204.96
628.495	42204.96
628.85	42206.77
629.205	42188.47
629.559	42447.22
629.914	42324.73
630.269	42357.5
630.623	42314.34
630.978	42208.81
631.332	42519.31
631.687	42606.99
632.041	42526.99
632.396	42521.34
632.75	42346.65
633.104	42519.31
633.459	42354.79
633.813	42308.69
634.167	42369.03
634.521	42467.1
634.875	42501
635.229	42437.5
635.583	42240.44
635.937	42381
636.291	42285.19
636.645	42215.13
636.999	42243.38
637.352	42499.87
637.706	42160.45
638.06	42394.11
638.413	42444.28
638.767	42281.35
639.121	42341.68
639.474	42118.19
639.828	42202.93
640.181	42230.27
640.534	42295.58
640.888	42099.43
641.241	42087.45
641.594	42171.74
641.947	42225.3
642.301	42087.9
642.654	42164.74
643.007	42117.28
643.36	42192.76
643.713	41982.6
644.066	42216.94
644.419	41830.51
644.771	41664.86
645.124	41311.65
645.477	41219.9
645.83	40986.01
646.182	40942.85
646.535	40906.01
646.888	40868.28
647.24	40620.82
647.593	40920.48
647.945	40890.65
648.298	40683.65
648.65	40612.01
649.002	40646.36
649.355	40646.36
649.707	40705.34
650.059	40866.47
650.411	41370.18
650.763	41230.75
651.115	41653.79
651.467	41561.14
651.819	41613.34
652.171	41547.35
652.523	41365.89
652.875	41341.03
653.227	41146.23
653.578	41479.33
653.93	41446.34
654.282	41240.47
654.633	41104.88
654.985	41265.78
655.337	41230.75
655.688	41390.97
656.039	41494.7
656.391	41129.29
656.742	41188.04
657.094	41179
657.445	41330.41
657.796	41159.79
658.147	41046.58
658.498	41141.49
658.849	41032.34
659.2	41118.44
659.551	40991.89
659.902	41215.16
660.253	41175.16
660.604	41106.69
660.955	40999.57
661.306	41186.91
661.656	40983.07
662.007	40987.82
662.358	40946.24
662.708	41036.18
663.059	41049.29
663.409	40699.69
663.76	40938.1
664.11	41009.97
664.461	40979.01
664.811	40948.95
665.161	40873.25
665.511	40940.82
665.862	40960.48
666.212	40992.57
666.562	41163.41
666.912	40885
667.262	40914.83
667.612	40843.64
667.962	40881.61
668.312	40903.98
668.662	41000.7
669.011	40928.84
669.361	40854.49
669.711	40883.64
670.06	40892.91
670.41	40694.49
670.76	40704.66
671.109	40846.81
671.459	40806.81
671.808	40636.87
672.157	40800.48
672.507	40456.08
672.856	40522.3
673.205	40643.87
673.554	40603.2
673.904	40456.54
674.253	40648.85
674.602	40649.07
674.951	39988.75
675.3	39837.57
675.649	40438.23
675.998	40339.93
676.346	40444.56
676.695	40529.53
677.044	40175.64
677.393	40220.61
677.741	40378.12
678.09	40310.55
678.438	40134.28
678.787	40302.41
679.135	40243.89
679.484	40043.89
679.832	40224.45
680.181	39903.33
680.529	40112.82
680.877	40064.46
681.225	39937.45
681.573	40211.34
681.922	39796.67
682.27	39720.06
682.618	39694.52
682.966	39631.7
683.314	39771.13
683.661	39649.78
684.009	39492.04
684.357	39346.51
684.705	39316.9
685.053	39335.89
685.4	39294.98
685.748	39139.73
686.095	39027.42
686.443	38865.39
686.79	38796.24
687.138	39110.13
687.485	38950.36
687.832	38808.44
688.18	38855.9
688.527	38556.47
688.874	38633.08
689.221	38621.56
689.568	38439.64
689.915	38325.52
690.262	38284.61
690.609	38257.72
690.956	38102.25
691.303	38036.71
691.65	38014.57
691.997	37875.13
692.344	37673.56
692.69	37681.69
693.037	37629.04
693.383	37417.97
693.73	37427.69
694.077	37222.95
694.423	37309.5
694.769	37038.77
695.116	37043.74
695.462	37008.94
695.808	36904.76
696.155	36932.33
696.501	36735.05
696.847	36879.45
697.193	36502.97
697.539	36563.53
697.885	36332.12
698.231	36209.64
698.577	36146.14
698.923	36100.27
699.269	36033.15
699.614	35902.76
699.96	35728.75
700.306	35883.77
700.651	35621.18
700.997	35511.35
701.342	35533.73
701.688	35371.7
702.033	35303.22
702.379	35363.11
702.724	35138.93
703.069	35244.02
703.415	34837.02
703.76	34940.07
704.105	34836.34
704.45	34768.55
704.795	34600.42
705.14	34393.19
705.485	34477.03
705.83	34309.8
706.175	34371.05
706.52	34188.68
706.865	34087.66
707.209	33980.55
707.554	33883.15
707.899	34102.13
708.243	33936.93
708.588	33865.97
708.932	33533.55
709.277	33629.6
709.621	33505.98
709.966	33398.42
710.31	33400
710.654	33230.06
710.998	33328.59
711.342	33219.21
711.687	33094.47
712.031	32994.36
712.375	32817.64
712.719	32939.22
713.063	32832.33
713.407	32930.41
713.75	32671.88
714.094	32726.57
714.438	32514.82
714.782	32598.66
715.125	32478.89
715.469	32440.02
715.812	32281.61
716.156	32091.11
716.499	32260.14
716.843	32173.82
717.186	31935.4
717.53	32230.76
717.873	32085.68
718.216	32008.62
718.559	31907.83
718.902	31641.85
719.246	31819.93
719.589	31677.33
719.932	31629.42
720.275	31518.69
720.617	31458.13
720.96	31431.01
721.303	31473.04
721.646	31388.3
721.989	31162.99
722.331	31232.37
722.674	31181.75
723.016	31215.87
723.359	31197.8
723.701	31115.76
724.044	30957.58
724.386	30783.34
724.729	30898.59
725.071	30848.65
725.413	30818.82
725.755	30798.03
726.097	30721.42
726.439	30409.79
726.782	30650.01
727.124	30677.81
727.465	30513.52
727.807	30494.09
728.149	30308.1
728.491	30337.93
728.833	30432.84
729.175	30334.99
729.516	30140.42
729.858	30107.65
730.199	30103.36
730.541	30120.54
730.882	29954.89
731.224	30220.42
731.565	29986.98
731.906	29928
732.248	29960.77
732.589	29885.97
732.93	29698.17
733.271	29796.7
733.612	29821.56
733.953	29737.72
734.294	29581.57
734.635	29578.86
734.976	29560.78
735.317	29452.98
735.658	29561.45
735.999	29520.55
736.339	29254.34
736.68	29399.42
737.021	29305.64
737.361	29213.21
737.702	29302.7
738.042	29218.41
738.383	29170.96
738.723	29164.18
739.063	29029.26
739.404	29078.98
739.744	29081.24
740.084	28832.66
740.424	29009.83
740.764	28848.7
741.104	28909.95
741.444	28735.49
741.784	28649.84
742.124	28864.98
742.464	28586.34
742.804	28551.09
743.143	28524.42
743.483	28597.86
743.823	28337.76
744.162	28432.67
744.502	28490.07
744.841	28434.7
745.181	28461.82
745.52	28364.2
745.86	28331.88
746.199	28300.7
746.538	28214.82
746.877	28264.09
747.216	28253.69
747.556	28171.21
747.895	28251.66
748.234	28067.48
748.573	27988.16
748.911	27966.92
749.25	27960.14
749.589	27810.31
749.928	27860.71
750.267	27793.59
750.605	27712.69
750.944	27758.79
751.283	27636.08
751.621	27685.8
751.96	27535.07
752.298	27481.28
752.636	27575.29
752.975	27357.44
753.313	27267.5
753.651	27386.82
753.989	27215.08
754.327	27182.76
754.666	27043.1
755.004	27132.37
755.342	27199.26
755.679	27029.54
756.017	26952.71
756.355	27053.5
756.693	26844.01
757.031	26853.95
757.368	26671.13
757.706	26612.15
758.044	26606.05
758.381	26738.7
758.719	26594.53
759.056	26486.51
