Data from hue_250_FLMS001491_00097.txt Node
Date: Tue Feb 07 16:01:46 GMT 2017
User: dcchb
Spectrometer: FLMS00149
Trigger mode: 0
Integration Time (sec): 2.000000E-2
Scans to average: 10
Electric dark correction enabled: true
Nonlinearity correction enabled: false
Boxcar width: 0
XAxis mode: Wavelengths
Number of Pixels in Spectrum: 2048
>>>>>Begin Spectral Data<<<<<
341.393	-6.64
341.776	-6.64
342.16	-6.64
342.543	-57.26
342.927	-77.82
343.31	-84.6
343.693	-55
344.077	-74.89
344.46	-60.65
344.843	-47.77
345.226	-44.38
345.61	-25.39
345.993	-16.36
346.376	-29.91
346.759	14.6
347.142	33.59
347.525	49.18
347.908	46.24
348.291	78.78
348.674	109.97
349.057	106.58
349.44	132.34
349.823	133.47
350.206	130.99
350.588	160.14
350.971	207.82
351.354	204.43
351.737	217.99
352.119	235.39
352.502	240.59
352.884	248.5
353.267	282.39
353.65	276.74
354.032	279.23
354.414	280.36
354.797	287.82
355.179	299.79
355.562	302.51
355.944	288.72
356.326	329.85
356.709	329.4
357.091	309.74
357.473	319.68
357.855	326.46
358.238	314.03
358.62	318.1
359.002	301.6
359.384	323.75
359.766	319.68
360.148	315.39
360.53	319
360.912	305.9
361.294	302.51
361.676	304.99
362.057	309.06
362.439	300.92
362.821	311.55
363.203	317.87
363.584	330.98
363.966	295.5
364.348	312.22
364.729	282.62
365.111	297.08
365.493	310.19
365.874	302.96
366.256	302.96
366.637	302.05
367.019	295.73
367.4	288.27
367.781	296.63
368.163	293.01
368.544	288.95
368.925	296.18
369.306	300.25
369.688	307.93
370.069	296.4
370.45	286.46
370.831	305.67
371.212	293.47
371.593	304.31
371.974	302.05
372.355	299.79
372.736	290.3
373.117	314.48
373.498	320.13
373.879	295.73
374.26	287.82
374.641	306.35
375.021	300.02
375.402	313.58
375.783	302.05
376.163	309.51
376.544	295.5
376.925	332.34
377.305	313.58
377.686	303.18
378.066	314.48
378.447	339.57
378.827	329.17
379.208	310.87
379.588	326.91
379.968	314.26
380.349	331.66
380.729	310.42
381.109	310.87
381.489	316.52
381.87	326.23
382.25	327.14
382.63	345.22
383.01	331.88
383.39	335.95
383.77	329.4
384.15	343.64
384.53	309.96
384.91	323.07
385.29	350.64
385.67	336.18
386.049	326.23
386.429	345.44
386.809	330.98
387.189	343.64
387.568	337.08
387.948	343.41
388.328	350.19
388.707	342.96
389.087	342.28
389.466	351.77
389.846	349.51
390.225	351.09
390.605	369.62
390.984	364.88
391.363	351.77
391.743	377.53
392.122	359.68
392.501	356.97
392.881	382.96
393.26	377.31
393.639	361.71
394.018	365.1
394.397	355.16
394.776	377.98
395.155	384.31
395.534	360.81
395.913	387.48
396.292	379.79
396.671	348.61
397.05	365.1
397.429	373.46
397.808	368.95
398.186	395.61
398.565	403.29
398.944	371.66
399.323	371.43
399.701	385.22
400.08	371.66
400.458	391.54
400.837	410.53
401.215	387.7
401.594	394.48
401.972	414.59
402.351	394.26
402.729	433.35
403.107	421.15
403.486	414.59
403.864	419.11
404.242	423.41
404.62	417.53
404.999	421.15
405.377	426.8
405.755	419.79
406.133	431.54
406.511	423.18
406.889	443.29
407.267	457.76
407.645	442.62
408.023	427.47
408.401	464.08
408.779	464.31
409.156	469.96
409.534	468.83
409.912	462.95
410.29	480.81
410.667	464.76
411.045	481.71
411.422	503.18
411.8	490.75
412.178	510.86
412.555	497.98
412.933	530.3
413.31	533.46
413.687	546.12
414.065	552.22
414.442	529.17
414.819	551.77
415.197	557.64
415.574	558.54
415.951	576.62
416.328	575.27
416.705	587.47
417.082	573.91
417.46	594.25
417.837	595.83
418.214	593.35
418.591	585.66
418.967	614.59
419.344	620.24
419.721	645.55
420.098	636.06
420.475	647.36
420.852	641.93
421.228	624.76
421.605	664.76
421.982	667.69
422.358	659.56
422.735	688.03
423.111	712.44
423.488	714.92
423.864	700.46
424.241	716.28
424.617	747.47
424.994	732.55
425.37	748.37
425.746	748.82
426.123	773.45
426.499	759.67
426.875	774.58
427.251	790.18
427.627	789.27
428.003	827.24
428.379	834.02
428.756	842.83
429.132	840.12
429.507	870.4
429.883	847.58
430.259	902.49
430.635	878.08
431.011	891.87
431.387	894.81
431.763	908.14
432.138	938.87
432.514	947.46
432.89	959.89
433.265	953.11
433.641	986.1
434.016	1026.33
434.392	998.53
434.767	1034.92
435.143	1055.71
435.518	1065.2
435.894	1055.03
436.269	1073.56
436.644	1096.84
437.02	1107
437.395	1133.67
437.77	1135.48
438.145	1152.2
438.52	1156.04
438.895	1208.02
439.271	1192.2
439.646	1205.31
440.021	1224.97
440.395	1256.38
440.77	1264.74
441.145	1262.93
441.52	1266.1
441.895	1295.47
442.27	1288.47
442.645	1328.92
443.019	1333.67
443.394	1336.38
443.769	1368.24
444.143	1329.37
444.518	1357.85
444.892	1367.56
445.267	1359.88
445.641	1434
446.016	1432.87
446.39	1438.97
446.764	1425.19
447.139	1445.53
447.513	1411.18
447.887	1457.05
448.262	1485.3
448.636	1461.57
449.01	1501.12
449.384	1510.38
449.758	1506.09
450.132	1518.97
450.506	1548.12
450.88	1564.62
451.254	1521.46
451.628	1550.16
452.002	1599.87
452.376	1596.94
452.75	1619.99
453.123	1625.41
453.497	1639.87
453.871	1652.08
454.244	1672.41
454.618	1702.47
454.992	1713.99
455.365	1695.69
455.739	1754.22
456.112	1749.25
456.486	1784.28
456.859	1784.5
457.232	1815.69
457.606	1822.01
457.979	1836.93
458.352	1919.64
458.725	1896.59
459.099	1888
459.472	1938.17
459.845	1940.43
460.218	1959.64
460.591	1969.13
460.964	1997.38
461.337	2047.09
461.71	2065.85
462.083	2069.01
462.456	2082.57
462.829	2071.95
463.201	2135
463.574	2150.14
463.947	2181.33
464.32	2201.89
464.692	2215.45
465.065	2235.79
465.438	2260.65
465.81	2297.48
466.183	2309.91
466.555	2319.4
466.928	2359.63
467.3	2358.72
467.672	2407.54
468.045	2434.2
468.417	2451.6
468.789	2486.86
469.161	2511.94
469.534	2542
469.906	2581.09
470.278	2550.13
470.65	2610.69
471.022	2662.22
471.394	2670.58
471.766	2749
472.138	2773.63
472.51	2781.76
472.882	2855.66
473.253	2876.45
473.625	2895.66
473.997	2956.45
474.369	2958.93
474.74	3008.65
475.112	3062.66
475.484	3037.12
475.855	3170
476.227	3163.22
476.598	3222.2
476.97	3270.11
477.341	3327.29
477.713	3344.46
478.084	3386.27
478.455	3468.07
478.827	3479.15
479.198	3601.85
479.569	3568.41
479.94	3691.57
480.311	3673.72
480.682	3718.69
481.053	3791.45
481.424	3854.96
481.795	3900.38
482.166	3930.66
482.537	3983.77
482.908	4041.84
483.279	4115.06
483.65	4153.03
484.021	4190.54
484.391	4267.15
484.762	4296.53
485.133	4315.96
485.503	4379.01
485.874	4478.22
486.244	4455.84
486.615	4551.43
486.985	4590.53
487.356	4626.69
487.726	4695.39
488.097	4814.7
488.467	4825.1
488.837	4916.62
489.207	4903.74
489.578	4997.3
489.948	5005.43
490.318	5084.98
490.688	5106.67
491.058	5155.49
491.428	5204.75
491.798	5274.58
492.168	5290.62
492.538	5345.54
492.908	5364.52
493.278	5390.28
493.648	5485.65
494.017	5568.13
494.387	5565.19
494.757	5649.71
495.126	5678.18
495.496	5671.63
495.866	5684.06
496.235	5731.74
496.605	5718.63
496.974	5802.47
497.344	5772.42
497.713	5872.76
498.082	5929.93
498.452	5941.45
498.821	5956.37
499.19	6008.34
499.559	6023.26
499.928	6044.28
500.298	6060.77
500.667	6128.34
501.036	6101.9
501.405	6138.28
501.774	6115.46
502.143	6159.98
502.512	6196.36
502.88	6261.45
503.249	6236.81
503.618	6274.33
503.987	6300.31
504.356	6315.46
504.724	6328.34
505.093	6340.09
505.462	6427.32
505.83	6416.92
506.199	6487.88
506.567	6516.35
506.936	6507.31
507.304	6512.51
507.672	6607.2
508.041	6566.3
508.409	6611.72
508.777	6624.15
509.145	6649.91
509.514	6700.08
509.882	6696.46
510.25	6688.33
510.618	6696.01
510.986	6736.46
511.354	6737.82
511.722	6798.61
512.09	6850.36
512.458	6838.61
512.826	6844.71
513.193	6890.58
513.561	6903.91
513.929	6914.08
514.297	6947.98
514.664	6942.56
515.032	6966.96
515.4	6972.16
515.767	7024.36
516.135	7011.48
516.502	6945.5
516.869	7047.19
517.237	7093.97
517.604	7046.28
517.972	7115.21
518.339	7105.72
518.706	7112.04
519.073	7091.03
519.44	7111.82
519.808	7194.75
520.175	7195.21
520.542	7249.44
520.909	7236.79
521.276	7265.26
521.643	7303.45
522.009	7226.17
522.376	7319.95
522.743	7317.46
523.11	7342.1
523.477	7396.56
523.843	7310.91
524.21	7426.84
524.577	7456.44
524.943	7441.75
525.31	7426.84
525.676	7485.37
526.043	7542.09
526.409	7479.49
526.776	7613.95
527.142	7533.95
527.508	7566.95
527.874	7608.75
528.241	7573.28
528.607	7592.26
528.973	7632.71
529.339	7625.93
529.705	7688.98
530.071	7702.54
530.437	7674.29
530.803	7653.95
531.169	7739.6
531.535	7684.46
531.901	7721.52
532.267	7710.22
532.632	7747.28
532.998	7787.96
533.364	7756.55
533.73	7756.55
534.095	7781.41
534.461	7716.55
534.826	7726.49
535.192	7780.05
535.557	7741.41
535.923	7763.55
536.288	7737.11
536.653	7762.87
537.019	7710.9
537.384	7716.1
537.749	7774.17
538.114	7740.5
538.479	7732.59
538.845	7746.38
539.21	7745.7
539.575	7722.42
539.94	7664.12
540.305	7659.37
540.67	7663.44
541.034	7740.28
541.399	7667.74
541.764	7675.87
542.129	7672.26
542.494	7666.38
542.858	7659.15
543.223	7615.08
543.587	7691.46
543.952	7620.51
544.316	7676.55
544.681	7627.51
545.045	7649.21
545.41	7650.56
545.774	7632.26
546.138	7636.1
546.503	7590.9
546.867	7625.25
547.231	7608.08
547.595	7630.22
547.959	7567.63
548.324	7573.95
548.688	7573.28
549.052	7566.95
549.416	7571.92
549.779	7521.3
550.143	7591.81
550.507	7569.43
550.871	7491.7
551.235	7517.68
551.599	7534.41
551.962	7485.59
552.326	7498.02
552.689	7502.32
553.053	7470.68
553.417	7496.44
553.78	7551.58
554.143	7463.67
554.507	7479.49
554.87	7505.93
555.234	7554.07
555.597	7502.54
555.96	7543.45
556.323	7528.08
556.686	7512.49
557.05	7526.72
557.413	7520.4
557.776	7528.3
558.139	7594.74
558.502	7549.77
558.865	7591.81
559.228	7561.75
559.59	7607.62
559.953	7586.83
560.316	7553.84
560.679	7591.58
561.041	7637.23
561.404	7650.56
561.767	7666.15
562.129	7614.86
562.492	7656.89
562.854	7638.13
563.217	7703.67
563.579	7737.56
563.941	7716.32
564.304	7716.55
564.666	7737.11
565.028	7766.49
565.39	7798.13
565.753	7841.97
566.115	7788.86
566.477	7774.63
566.839	7825.02
567.201	7862.76
567.563	7872.7
567.925	7887.62
568.287	7874.74
568.648	7900.95
569.01	7901.85
569.372	7957.22
569.734	7967.62
570.095	7976.43
570.457	7986.6
570.819	8042.64
571.18	7994.51
571.542	8107.05
571.903	8128.06
572.265	8069.53
572.626	8136.65
572.987	8090.55
573.349	8185.24
573.71	8117.22
574.071	8173.03
574.432	8212.13
574.794	8248.96
575.155	8255.74
575.516	8170.55
575.877	8239.47
576.238	8262.52
576.599	8309.08
576.96	8270.21
577.32	8276.99
577.681	8325.8
578.042	8398.79
578.403	8375.74
578.763	8401.95
579.124	8381.62
579.485	8454.16
579.845	8458
580.206	8434.5
580.566	8397.21
580.927	8445.34
581.287	8481.95
581.648	8463.42
582.008	8540.48
582.368	8480.82
582.728	8569.86
583.089	8526.24
583.449	8571.44
583.809	8586.36
584.169	8569.18
584.529	8629.52
584.889	8674.04
585.249	8602.17
585.609	8614.83
585.969	8718.56
586.329	8594.27
586.688	8673.36
587.048	8645.56
587.408	8668.84
587.768	8677.65
588.127	8693.47
588.487	8632.91
588.846	8757.2
589.206	8688.95
589.565	8683.3
589.925	8834.71
590.284	8722.62
590.643	8729.86
591.003	8841.49
591.362	8840.13
591.721	8796.29
592.08	8843.52
592.44	8866.35
592.799	8890.53
593.158	8818.21
593.517	8888.95
593.876	8831.55
594.235	8882.17
594.593	8824.77
594.952	8879.91
595.311	8833.58
595.67	8888.95
596.029	8926.23
596.387	8875.84
596.746	8934.37
597.104	8861.15
597.463	8868.61
597.822	8942.28
598.18	8869.06
598.538	8897.31
598.897	8921.71
599.255	8827.25
599.613	9044.2
599.972	8932.79
600.33	9034.71
600.688	8930.53
601.046	8924.43
601.404	8995.84
601.762	9008.72
602.12	8984.76
602.478	9009.85
602.836	9018.89
603.194	9010.53
603.552	8952.45
603.91	9018.66
604.268	8968.04
604.625	8969.85
604.983	9046.91
605.341	8984.99
605.698	9051.65
606.056	9035.38
606.413	9082.39
606.771	9050.3
607.128	8996.51
607.485	9034.71
607.843	9051.2
608.2	9086.23
608.557	9135.72
608.914	9046.68
609.272	9156.74
609.629	9098.43
609.986	9140.24
610.343	9146.34
610.7	9137.53
611.057	9141.82
611.414	9206
611.771	9235.15
612.127	9213.68
612.484	9248.26
612.841	9187.7
613.198	9183.18
613.554	9186.57
613.911	9197.19
614.267	9221.59
614.624	9257.98
614.98	9280.12
615.337	9326.45
615.693	9296.85
616.05	9278.54
616.406	9291.2
616.762	9271.54
617.118	9279.22
617.475	9291.65
617.831	9267.47
618.187	9293.68
618.543	9358.09
618.899	9398.76
619.255	9324.87
619.611	9333.91
619.967	9415.71
620.323	9382.04
620.678	9375.94
621.034	9263.63
621.39	9351.31
621.746	9351.99
622.101	9476.28
622.457	9307.69
622.812	9384.75
623.168	9444.64
623.523	9388.14
623.879	9366.67
624.234	9383.62
624.589	9402.15
624.945	9390.18
625.3	9429.72
625.655	9379.1
626.01	9416.62
626.365	9377.75
626.72	9414.13
627.075	9387.24
627.43	9329.61
627.785	9355.83
628.14	9415.49
628.495	9383.62
628.85	9318.77
629.205	9351.08
629.559	9384.08
629.914	9317.41
630.269	9322.83
630.623	9280.35
630.978	9312.21
631.332	9345.21
631.687	9308.6
632.041	9281.03
632.396	9274.7
632.75	9197.87
633.104	9261.59
633.459	9207.81
633.813	9177.3
634.167	9213.68
634.521	9150.18
634.875	9221.37
635.229	9191.76
635.583	9079.9
635.937	9179.56
636.291	9194.48
636.645	9090.3
636.999	9090.98
637.352	9103.86
637.706	9066.8
638.06	9092.33
638.413	9100.47
638.767	8992.45
639.121	9060.69
639.474	9020.02
639.828	9076.29
640.181	9010.75
640.534	8980.92
640.888	8958.78
641.241	8922.62
641.594	8962.62
641.947	8981.37
642.301	8936.4
642.654	8942.73
643.007	9040.36
643.36	8955.84
643.713	8849.63
644.066	8890.53
644.419	8807.37
644.771	8838.55
645.124	8768.27
645.477	8730.08
645.83	8703.42
646.182	8641.72
646.535	8642.17
646.888	8609.41
647.24	8672.23
647.593	8640.37
647.945	8662.96
648.298	8543.65
648.65	8613.02
649.002	8569.18
649.355	8576.19
649.707	8548.39
650.059	8642.17
650.411	8787.48
650.763	8762.85
651.115	8843.07
651.467	8800.59
651.819	8822.96
652.171	8793.58
652.523	8748.84
652.875	8795.39
653.227	8727.37
653.578	8832.23
653.93	8779.8
654.282	8822.96
654.633	8694.83
654.985	8742.51
655.337	8780.25
655.688	8790.87
656.039	8826.58
656.391	8699.57
656.742	8735.73
657.094	8690.76
657.445	8801.94
657.796	8757.43
658.147	8744.77
658.498	8756.97
658.849	8729.4
659.2	8767.59
659.551	8739.57
659.902	8756.07
660.253	8752
660.604	8782.51
660.955	8754.26
661.306	8750.65
661.656	8742.96
662.007	8743.41
662.358	8766.24
662.708	8756.97
663.059	8787.25
663.409	8693.25
663.76	8816.41
664.11	8784.09
664.461	8781.15
664.811	8818.89
665.161	8810.76
665.511	8739.12
665.862	8751.1
666.212	8821.6
666.562	8783.87
666.912	8822.51
667.262	8779.12
667.612	8786.58
667.962	8813.47
668.312	8750.87
668.662	8852.11
669.011	8792.9
669.361	8745.22
669.711	8740.48
670.06	8758.78
670.41	8743.19
670.76	8706.58
671.109	8733.02
671.459	8677.88
671.808	8630.2
672.157	8707.26
672.507	8678.78
672.856	8603.53
673.205	8653.25
673.554	8710.19
673.904	8655.05
674.253	8673.59
674.602	8667.26
674.951	8570.09
675.3	8517.66
675.649	8639.69
675.998	8664.32
676.346	8654.6
676.695	8634.04
677.044	8573.48
677.393	8544.78
677.741	8623.64
678.09	8536.87
678.438	8542.97
678.787	8514.95
679.135	8484.89
679.484	8528.05
679.832	8514.95
680.181	8514.95
680.529	8539.8
680.877	8432.91
681.225	8514.72
681.573	8480.14
681.922	8435.4
682.27	8448.51
682.618	8417.32
682.966	8448.05
683.314	8448.05
683.661	8403.08
684.009	8331
684.357	8334.39
684.705	8257.78
685.053	8335.97
685.4	8307.95
685.748	8266.82
686.095	8238.34
686.443	8244.9
686.79	8216.65
687.138	8233.37
687.485	8213.48
687.832	8136.42
688.18	8159.7
688.527	8070.89
688.874	8109.31
689.221	8009.65
689.568	8097.56
689.915	8060.49
690.262	8044
690.609	8080.61
690.956	7941.85
691.303	7966.94
691.65	7905.7
691.997	7921.74
692.344	7936.66
692.69	7847.84
693.037	7918.13
693.383	7780.5
693.73	7826.6
694.077	7750.9
694.423	7727.17
694.769	7762.87
695.116	7686.72
695.462	7690.79
695.808	7620.05
696.155	7672.71
696.501	7626.38
696.847	7572.15
697.193	7496.67
697.539	7504.35
697.885	7496.22
698.231	7469.78
698.577	7415.54
698.923	7349.1
699.269	7390
699.614	7298.03
699.96	7323.56
700.306	7338.93
700.651	7277.46
700.997	7226.17
701.342	7278.82
701.688	7271.14
702.033	7204.25
702.379	7274.75
702.724	7181.65
703.069	7130.8
703.415	7131.48
703.76	7068.66
704.105	7094.64
704.45	7047.87
704.795	7000.18
705.14	6999.05
705.485	6982.78
705.83	6979.84
706.175	6919.28
706.52	6915.21
706.865	6921.09
707.209	6911.37
707.554	6881.32
707.899	6872.95
708.243	6837.93
708.588	6793.18
708.932	6739.17
709.277	6741.43
709.621	6768.78
709.966	6688.55
710.31	6763.13
710.654	6669.8
710.998	6676.8
711.342	6694.43
711.687	6633.87
712.031	6593.19
712.375	6624.6
712.719	6602.45
713.063	6620.76
713.407	6608.56
713.75	6562.23
714.094	6592.06
714.438	6568.78
714.782	6552.29
715.125	6552.96
715.469	6527.88
715.812	6503.93
716.156	6417.37
716.499	6449.46
716.843	6455.11
717.186	6439.52
717.53	6444.49
717.873	6518.61
718.216	6466.64
718.559	6404.27
718.902	6372.63
719.246	6354.32
719.589	6343.25
719.932	6314.55
720.275	6338.96
720.617	6306.64
720.96	6357.94
721.303	6373.98
721.646	6363.82
721.989	6292.63
722.331	6298.05
722.674	6268.45
723.016	6287.43
723.359	6274.1
723.701	6231.16
724.044	6238.17
724.386	6231.62
724.729	6214.44
725.071	6199.07
725.413	6225.06
725.755	6232.52
726.097	6195.46
726.439	6190.94
726.782	6204.72
727.124	6174.22
727.465	6155.46
727.807	6165.63
728.149	6145.29
728.491	6139.41
728.833	6143.71
729.175	6163.59
729.516	6145.52
729.858	6190.03
730.199	6180.09
730.541	6111.62
730.882	6147.1
731.224	6187.55
731.565	6089.7
731.906	6110.49
732.248	6129.47
732.589	6096.25
732.93	6093.54
733.271	6112.3
733.612	6114.1
733.953	6121.11
734.294	6116.59
734.635	6122.69
734.976	6104.84
735.317	6103.48
735.658	6068.91
735.999	6103.48
736.339	6049.7
736.68	6132.41
737.021	6054.67
737.361	6102.13
737.702	6119.3
738.042	6101
738.383	6110.04
738.723	6188.91
739.063	6135.12
739.404	6107.33
739.744	6119.75
740.084	6114.78
740.424	6164.05
740.764	6145.74
741.104	6174.89
741.444	6123.14
741.784	6100.32
742.124	6176.02
742.464	6187.78
742.804	6174.22
743.143	6193.2
743.483	6197.72
743.823	6199.07
744.162	6236.36
744.502	6218.51
744.841	6200.88
745.181	6289.47
745.52	6249.92
745.86	6318.17
746.199	6278.17
746.538	6371.95
746.877	6416.92
747.216	6412.4
747.556	6446.3
747.895	6475.9
748.234	6473.64
748.573	6531.72
748.911	6539.63
749.25	6639.97
749.589	6633.19
749.928	6720.19
750.267	6742.11
750.605	6753.64
750.944	6823.69
751.283	6853.97
751.621	6897.59
751.96	6970.13
752.298	7001.31
752.636	7052.16
752.975	7121.31
753.313	7130.8
753.651	7258.48
753.989	7260.74
754.327	7408.76
754.666	7414.86
755.004	7486.05
755.342	7643.33
755.679	7664.12
756.017	7727.62
756.355	7874.51
756.693	7970.33
757.031	7989.54
757.368	8062.75
757.706	8135.75
758.044	8250.32
758.381	8367.6
758.719	8464.55
759.056	8568.5
759.394	8627.94
759.731	8736.86
760.068	8851.66
760.405	8920.58
760.743	8991.54
761.08	9110.41
761.417	9239.22
761.754	9274.25
762.091	9455.94
762.428	9535.26
762.765	9606.89
763.102	9742.71
763.438	9734.12
763.775	9839.88
764.112	10058.18
764.449	10060.44
764.785	10206.88
765.122	10190.83
765.458	10374.78
765.795	10414.33
766.131	10545.85
766.467	10609.81
766.804	10692.06
767.14	10759.63
767.476	10915.56
767.812	10939.06
768.148	11075.56
768.485	11034.43
768.821	11146.74
769.157	11178.6
769.492	11240.07
