Data from hue_00_FLMS001491_27.txt Node
Date: Mon Feb 06 15:29:29 GMT 2017
User: dcchb
Spectrometer: FLMS00149
Trigger mode: 0
Integration Time (sec): 2.000000E-2
Scans to average: 10
Electric dark correction enabled: true
Nonlinearity correction enabled: false
Boxcar width: 0
XAxis mode: Wavelengths
Number of Pixels in Spectrum: 2048
>>>>>Begin Spectral Data<<<<<
341.393	-35.2
341.776	-35.2
342.16	-35.2
342.543	-61.86
342.927	-72.03
343.31	-75.42
343.693	-62.77
344.077	-66.83
344.46	-64.8
344.843	-60.73
345.226	-64.35
345.61	-17.57
345.993	-7.85
346.376	-1.53
346.759	27.85
347.142	28.76
347.525	37.8
347.908	35.99
348.291	77.79
348.674	101.07
349.057	112.6
349.44	131.8
349.823	134.52
350.206	186.72
350.588	206.83
350.971	207.28
351.354	218.81
351.737	219.49
352.119	253.84
352.502	260.84
352.884	267.62
353.267	286.6
353.65	296.09
354.032	325.92
354.414	311.23
354.797	329.31
355.179	344
355.562	319.82
355.944	330.67
356.326	322.08
356.709	344
357.091	317.56
357.473	340.84
357.855	341.29
358.238	323.89
358.62	340.61
359.002	358.69
359.384	328.41
359.766	344.68
360.148	331.12
360.53	343.78
360.912	332.48
361.294	335.41
361.676	356.66
362.057	335.64
362.439	327.51
362.821	329.09
363.203	319.6
363.584	303.1
363.966	322.08
364.348	331.57
364.729	327.28
365.111	285.25
365.493	321.63
365.874	320.5
366.256	326.6
366.637	339.26
367.019	323.21
367.4	301.97
367.781	342.42
368.163	306.26
368.544	311.69
368.925	323.89
369.306	322.08
369.688	310.1
370.069	289.77
370.45	307.62
370.831	320.5
371.212	326.15
371.593	325.02
371.974	324.79
372.355	314.62
372.736	319.6
373.117	324.12
373.498	311.91
373.879	332.48
374.26	319.37
374.641	325.02
375.021	326.6
375.402	322.99
375.783	326.38
376.163	309.88
376.544	323.66
376.925	323.66
377.305	348.3
377.686	301.74
378.066	318.69
378.447	326.83
378.827	301.74
379.208	328.41
379.588	329.09
379.968	346.71
380.349	336.77
380.729	334.96
381.109	322.99
381.489	351.69
381.87	343.32
382.25	328.18
382.63	362.53
383.01	345.58
383.39	356.88
383.77	341.52
384.15	354.17
384.53	356.88
384.91	353.95
385.29	358.24
385.67	331.12
386.049	357.56
386.429	346.49
386.809	357.56
387.189	361.85
387.568	348.07
387.948	341.06
388.328	352.14
388.707	373.83
389.087	353.72
389.466	367.05
389.846	361.4
390.225	362.08
390.605	358.47
390.984	362.76
391.363	359.14
391.743	362.08
392.122	371.57
392.501	379.48
392.881	343.32
393.26	362.08
393.639	375.87
394.018	365.92
394.397	385.81
394.776	384.45
395.155	382.42
395.534	366.15
395.913	369.31
396.292	396.43
396.671	380.16
397.05	379.03
397.429	383.1
397.808	388.52
398.186	379.71
398.565	407.73
398.944	393.94
399.323	398.01
399.701	409.54
400.08	407.05
400.458	393.27
400.837	385.36
401.215	411.35
401.594	386.71
401.972	403.89
402.351	391.23
402.729	400.95
403.107	388.07
403.486	414.96
403.864	424.45
404.242	397.79
404.62	409.31
404.999	416.99
405.377	420.84
405.755	412.25
406.133	436.66
406.511	428.07
406.889	432.59
407.267	399.82
407.645	441.63
408.023	444.56
408.401	440.5
408.779	446.15
409.156	432.59
409.534	434.4
409.912	440.27
410.29	437.79
410.667	449.76
411.045	443.89
411.422	482.53
411.8	466.94
412.178	477.56
412.555	456.99
412.933	453.83
413.31	455.64
413.687	464.45
414.065	475.98
414.442	494.05
414.819	500.16
415.197	478.91
415.574	493.6
415.951	495.18
416.328	487.73
416.705	492.47
417.082	501.06
417.46	489.08
417.837	502.19
418.214	522.3
418.591	504
418.967	528.63
419.344	534.51
419.721	522.75
420.098	516.43
420.475	518.91
420.852	534.73
421.228	511.91
421.605	544.67
421.982	517.56
422.358	562.53
422.735	551.23
423.111	539.03
423.488	551
423.864	560.72
424.241	562.08
424.617	562.3
424.994	562.75
425.37	580.61
425.746	567.5
426.123	572.24
426.499	558.46
426.875	582.87
427.251	616.09
427.627	577.44
428.003	593.04
428.379	597.33
428.756	591.23
429.132	602.53
429.507	633.49
429.883	623.54
430.259	600.49
430.635	633.03
431.011	636.88
431.387	646.82
431.763	646.37
432.138	645.24
432.514	638.46
432.89	638.91
433.265	651.79
433.641	683.2
434.016	656.76
434.392	695.41
434.767	682.3
435.143	684.11
435.518	673.71
435.894	715.74
436.269	701.51
436.644	725.91
437.02	702.41
437.395	687.27
437.77	743.31
438.145	715.07
438.52	738.12
438.895	744.22
439.271	751.22
439.646	743.09
440.021	753.48
440.395	768.85
440.77	728.17
441.145	750.32
441.52	755.29
441.895	781.28
442.27	778.79
442.645	786.93
443.019	809.3
443.394	777.89
443.769	804.33
444.143	781.73
444.518	794.61
444.892	803.65
445.267	809.07
445.641	796.87
446.016	819.92
446.39	806.14
446.764	825.35
447.139	841.39
447.513	828.28
447.887	822.41
448.262	835.29
448.636	827.38
449.01	833.71
449.384	822.86
449.758	858.56
450.132	859.69
450.506	823.76
450.88	853.14
451.254	864.89
451.628	887.49
452.002	907.15
452.376	907.83
452.75	909.64
453.123	888.17
453.497	927.04
453.871	919.58
454.244	952.57
454.618	934.72
454.992	926.36
455.365	942.4
455.739	957.09
456.112	955.96
456.486	983.99
456.859	995.06
457.232	967.94
457.606	969.07
457.979	984.66
458.352	991.22
458.725	1028.96
459.099	1042.97
459.472	1064.44
459.845	1054.27
460.218	1062.18
460.591	1035.28
460.964	1048.84
461.337	1096.3
461.71	1091.55
462.083	1117.09
462.456	1121.83
462.829	1119.8
463.201	1143.3
463.574	1155.28
463.947	1196.41
464.32	1160.25
464.692	1186.24
465.065	1188.05
465.438	1224.88
465.81	1258.1
466.183	1223.75
466.555	1271.44
466.928	1265.56
467.3	1297.42
467.672	1300.59
468.045	1318.67
468.417	1328.84
468.789	1347.82
469.161	1341.72
469.534	1347.37
469.906	1383.07
470.278	1402.28
470.65	1435.05
471.022	1451.77
471.394	1423.97
471.766	1451.09
472.138	1473.92
472.51	1516.85
472.882	1549.39
473.253	1561.15
473.625	1560.02
473.997	1576.29
474.369	1619.67
474.74	1631.88
475.112	1652.44
475.484	1672.55
475.855	1691.76
476.227	1719.33
476.598	1762.72
476.97	1774.47
477.341	1838.88
477.713	1889.95
478.084	1871.87
478.455	1912.1
478.827	1928.82
479.198	1989.83
479.569	1997.97
479.94	2053.34
480.311	2061.7
480.682	2118.87
481.053	2166.78
481.424	2202.26
481.795	2234.57
482.166	2226.44
482.537	2302.37
482.908	2365.87
483.279	2354.34
483.65	2402.03
484.021	2480.44
484.391	2503.72
484.762	2526.54
485.133	2547.56
485.503	2591.63
485.874	2637.28
486.244	2697.84
486.615	2711.17
486.985	2741
487.356	2800.66
487.726	2832.75
488.097	2878.17
488.467	2931.28
488.837	2974.44
489.207	3028.9
489.578	3037.04
489.948	3069.58
490.318	3108
490.688	3153.42
491.058	3189.58
491.428	3234.55
491.798	3283.13
492.168	3309.35
492.538	3331.04
492.908	3396.58
493.278	3435.9
493.648	3407.88
494.017	3473.64
494.387	3504.6
494.757	3533.07
495.126	3556.57
495.496	3605.84
495.866	3638.6
496.235	3681.32
496.605	3680.64
496.974	3717.47
497.344	3778.94
497.713	3810.8
498.082	3866.17
498.452	3853.29
498.821	3875.21
499.19	3885.6
499.559	3912.95
499.928	3929.67
500.298	4009.22
500.667	4040.18
501.036	4004.24
501.405	4030.91
501.774	4031.36
502.143	4112.04
502.512	4114.98
502.88	4171.02
503.249	4183.9
503.618	4179.16
503.987	4184.81
504.356	4243.33
504.724	4270.23
505.093	4309.1
505.462	4270.9
505.83	4272.71
506.199	4322.88
506.567	4379.15
506.936	4378.25
507.304	4463.44
507.672	4450.33
508.041	4454.63
508.409	4522.88
508.777	4481.75
509.145	4484.68
509.514	4510.45
509.882	4587.05
510.25	4585.7
510.618	4612.59
510.986	4629.31
511.354	4584.12
511.722	4651.46
512.09	4745.69
512.458	4700.05
512.826	4711.35
513.193	4730.1
513.561	4756.77
513.929	4786.37
514.297	4812.59
514.664	4840.61
515.032	4880.38
515.4	4870.66
515.767	4866.37
516.135	4897.33
516.502	4901.62
516.869	4902.53
517.237	4915.18
517.604	4954.05
517.972	5002.64
518.339	5008.29
518.706	5009.87
519.073	5014.61
519.44	5037.66
519.808	5123.76
520.175	5082.86
520.542	5115.4
520.909	5156.98
521.276	5118.11
521.643	5235.17
522.009	5212.8
522.376	5231.56
522.743	5271.78
523.11	5294.15
523.477	5334.61
523.843	5388.62
524.21	5421.83
524.577	5452.57
524.943	5436.52
525.31	5502.74
525.676	5552.23
526.043	5565.11
526.409	5592.45
526.776	5640.59
527.142	5640.59
527.508	5623.64
527.874	5667.03
528.241	5750.19
528.607	5717.65
528.973	5762.62
529.339	5772.33
529.705	5780.47
530.071	5837.19
530.437	5884.87
530.803	5908.38
531.169	5922.84
531.535	5979.79
531.901	5948.37
532.267	5993.57
532.632	6078.31
532.998	6050.74
533.364	6056.62
533.73	6076.73
534.095	6168.03
534.461	6184.75
534.826	6179.78
535.192	6193.57
535.557	6237.41
535.923	6293.68
536.288	6261.13
536.653	6330.51
537.019	6270.63
537.384	6392.43
537.749	6399.66
538.114	6381.13
538.479	6415.03
538.845	6437.63
539.21	6426.55
539.575	6481.92
539.94	6486.67
540.305	6547.68
540.67	6551.97
541.034	6530.96
541.399	6562.14
541.764	6608.7
542.129	6703.16
542.494	6636.27
542.858	6695.7
543.223	6696.38
543.587	6783.15
543.952	6823.61
544.316	6849.59
544.681	6834.91
545.045	6876.94
545.41	6897.05
545.774	6953.77
546.138	6955.35
546.503	6997.61
546.867	6958.29
547.231	7059.76
547.595	7044.17
547.959	7065.63
548.324	7083.49
548.688	7106.54
549.052	7100.21
549.416	7157.61
549.779	7123.03
550.143	7202.35
550.507	7239.41
550.871	7244.61
551.235	7312.18
551.599	7324.38
551.962	7337.94
552.326	7376.36
552.689	7416.36
553.053	7397.15
553.417	7455.45
553.78	7521.89
554.143	7474.21
554.507	7497.26
554.87	7527.32
555.234	7590.14
555.597	7579.74
555.96	7640.08
556.323	7681.21
556.686	7593.76
557.05	7688.89
557.413	7740.19
557.776	7782.45
558.139	7742.9
558.502	7739.29
558.865	7812.51
559.228	7876.23
559.59	7943.12
559.953	7860.64
560.316	7937.25
560.679	7954.65
561.041	7967.53
561.404	8071.48
561.767	8087.98
562.129	8032.39
562.492	8140.41
562.854	8120.75
563.217	8108.77
563.579	8210.46
563.941	8233.51
564.304	8248.43
564.666	8272.61
565.028	8374.75
565.39	8372.27
565.753	8339.72
566.115	8367.29
566.477	8449.33
566.839	8387.18
567.201	8459.72
567.563	8461.98
567.925	8563.9
568.287	8588.98
568.648	8605.03
569.01	8651.13
569.372	8744.91
569.734	8706.04
570.095	8740.62
570.457	8845.47
570.819	8849.54
571.18	8842.99
571.542	8930.22
571.903	8922.76
572.265	8968.18
572.626	9068.74
572.987	9103.09
573.349	9102.87
573.71	9196.2
574.071	9212.02
574.432	9227.84
574.794	9345.57
575.155	9384.67
575.516	9385.35
575.877	9524.1
576.238	9523.2
576.599	9569.07
576.96	9711.21
577.32	9722.06
577.681	9836.63
578.042	9933.58
578.403	9979
578.763	9999.34
579.124	10103.29
579.485	10259.22
579.845	10398.65
580.206	10419.44
580.566	10544.41
580.927	10677.06
581.287	10795.03
581.648	10770.62
582.008	11073.44
582.368	11151.85
582.728	11275.24
583.089	11433.65
583.449	11534.67
583.809	11736.47
584.169	11890.82
584.529	11981.21
584.889	12249.45
585.249	12345.27
585.609	12583.45
585.969	12780.06
586.329	12972.82
586.688	13124.46
587.048	13312.7
587.408	13537.55
587.768	13739.81
588.127	13998.78
588.487	14142.28
588.846	14481.71
589.206	14549.5
589.565	14895.03
589.925	15193.1
590.284	15431.97
590.643	15638.52
591.003	15920.32
591.362	16181.1
591.721	16465.61
592.08	16658.15
592.44	16979.27
592.799	17212.03
593.158	17575.19
593.517	17849.98
593.876	18079.36
594.235	18362.51
594.593	18656.06
594.952	18963.17
595.311	19217.63
595.67	19505.98
596.029	19920.21
596.387	20204.5
596.746	20457.37
597.104	20596.13
597.463	20937.81
597.822	21327.18
598.18	21594.52
598.538	21844.23
598.897	22233.37
599.255	22295.52
599.613	22975.5
599.972	23019.11
600.33	23371.87
600.688	23554.69
601.046	23991.52
601.404	24248.01
601.762	24506.3
602.12	24896.35
602.478	25127.53
602.836	25334.08
603.194	25547.18
603.552	25828.53
603.91	26076.66
604.268	26469.87
604.625	26570.88
604.983	27071.89
605.341	27045.67
605.698	27474.14
606.056	27685.43
606.413	27776.95
606.771	28269.37
607.128	28487.22
607.485	28660.77
607.843	28886.08
608.2	29280.19
608.557	29422.11
608.914	29522.44
609.272	29970.79
609.629	30167.85
609.986	30423.89
610.343	30490.33
610.7	30849.87
611.057	31009.64
611.414	31070.65
611.771	31484.2
612.127	31737.08
612.484	31859.56
612.841	32102.04
613.198	32117.86
613.554	32426.32
613.911	32693.43
614.267	32728.46
614.624	32983.6
614.98	33157.38
615.337	33536.8
615.693	33442.34
616.05	33698.61
616.406	33922.78
616.762	33980.41
617.118	34098.37
617.475	34195.54
617.831	34410.45
618.187	34760.27
618.543	34819.25
618.899	34989.19
619.255	35052.02
619.611	34993.03
619.967	35339.24
620.323	35624.88
620.678	35501.72
621.034	35469.41
621.39	35647.25
621.746	35715.73
622.101	36254.7
622.457	36041.37
622.812	36197.07
623.168	36408.59
623.523	36481.58
623.879	36555.93
624.234	36383.96
624.589	36688.81
624.945	36787.79
625.3	36915.7
625.655	36928.35
626.01	36944.17
626.365	37296.93
626.72	37135.8
627.075	37240.66
627.43	37329.7
627.785	37353.65
628.14	37321.11
628.495	37514.55
628.85	37372.86
629.205	37375.8
629.559	37655.11
629.914	37604.94
630.269	37677.48
630.623	37635.9
630.978	37589.12
631.332	37791.38
631.687	37928.32
632.041	37660.54
632.396	37763.13
632.75	37672.51
633.104	37834.54
633.459	37738.95
633.813	37752.06
634.167	37665.96
634.521	37764.26
634.875	37772.85
635.229	37843.58
635.583	37700.08
635.937	37868.67
636.291	37656.24
636.645	37882
636.999	37612.4
637.352	37913.41
637.706	37627.09
638.06	37884.71
638.413	37758.16
638.767	37806.29
639.121	37898.04
639.474	37640.42
639.828	37687.43
640.181	37874.77
640.534	37738.05
640.888	37755.67
641.241	37647.88
641.594	37625.06
641.947	37961.32
642.301	37751.61
642.654	37709.57
643.007	37627.32
643.36	37680.2
643.713	37643.13
644.066	37796.12
644.419	37573.31
644.771	37401.33
645.124	37023.04
645.477	36988.24
645.83	36724.06
646.182	36661.69
646.535	36599.32
646.888	36676.15
647.24	36333.11
647.593	36615.82
647.945	36634.57
648.298	36492.88
648.65	36450.4
649.002	36373.11
649.355	36463.96
649.707	36446.33
650.059	36631.86
650.411	37002.7
650.763	37156.82
651.115	37379.64
651.467	37378.28
651.819	37389.36
652.171	37224.39
652.523	37167.67
652.875	37245.18
653.227	37044.51
653.578	37224.84
653.93	37143.49
654.282	37009.25
654.633	36929.03
654.985	37015.35
655.337	36946.43
655.688	37001.8
656.039	37103.26
656.391	36868.47
656.742	37032.3
657.094	36975.13
657.445	37024.85
657.796	37018.74
658.147	36810.61
658.498	36895.58
658.849	37029.59
659.2	36968.35
659.551	36903.49
659.902	37039.08
660.253	36924.06
660.604	37066.43
660.955	36700.33
661.306	36931.97
661.656	36876.15
662.007	36840.9
662.358	36871.86
662.708	36821.69
663.059	36878.41
663.409	36670.05
663.76	36881.8
664.11	36921.12
664.461	36849.71
664.811	36897.62
665.161	36783.95
665.511	36774.46
665.862	36950.27
666.212	36869.37
666.562	36992.3
666.912	36774
667.262	36865.08
667.612	36737.85
667.962	36748.24
668.312	36751.18
668.662	37029.14
669.011	36751.63
669.361	36712.99
669.711	36723.38
670.06	36672.31
670.41	36711.86
670.76	36685.87
671.109	36778.3
671.459	36642.48
671.808	36519.77
672.157	36653.1
672.507	36393.45
672.856	36492.2
673.205	36539.66
673.554	36589.38
673.904	36469.83
674.253	36680
674.602	36525.88
674.951	36075.94
675.3	35847.02
675.649	36378.53
675.998	36378.99
676.346	36320.46
676.695	36545.08
677.044	36285.2
677.393	36400.46
677.741	36276.16
678.09	36183.51
678.438	36115.04
678.787	36252.66
679.135	36171.76
679.484	36036.62
679.832	36036.4
680.181	35940.13
680.529	36197.3
680.877	36100.58
681.225	36047.02
681.573	36146
681.922	35733.81
682.27	35786.23
682.618	35785.78
682.966	35701.49
683.314	35727.25
683.661	35816.06
684.009	35515.05
684.357	35401.61
684.705	35429.63
685.053	35464.21
685.4	35494.04
685.748	35211.11
686.095	35365.91
686.443	35113.03
686.79	35111.22
687.138	35176.08
687.485	35150.77
687.832	34941.96
688.18	35003.88
688.527	34880.72
688.874	34763.89
689.221	34847.95
689.568	34702.87
689.915	34577
690.262	34620.84
690.609	34526.61
690.956	34266.73
691.303	34280.96
691.65	34221.08
691.997	34170.01
692.344	33827.19
692.69	33963.46
693.037	33934.08
693.383	33671.49
693.73	33711.26
694.077	33646.86
694.423	33526.18
694.769	33516.69
695.116	33345.62
695.462	33393.98
695.808	33317.37
696.155	33303.14
696.501	32985.18
696.847	33176.36
697.193	32899.98
697.539	32956.93
697.885	32879.19
698.231	32630.84
698.577	32753.55
698.923	32590.61
699.269	32389.94
699.614	32279.21
699.96	32334.35
700.306	32387.23
700.651	32164.86
700.997	32065.65
701.342	32079.44
701.688	32040.8
702.033	31839.67
702.379	31818.88
702.724	31655.27
703.069	31787.7
703.415	31448.95
703.76	31397.42
704.105	31428.38
704.45	31424.54
704.795	31234.72
705.14	31206.47
705.485	31058.67
705.83	31018
706.175	31000.15
706.52	30847.16
706.865	30716.31
707.209	30722.86
707.554	30615.07
707.899	30664.79
708.243	30470.89
708.588	30527.16
708.932	30337.56
709.277	30246.04
709.621	30324
709.966	30107.74
710.31	30190.22
710.654	29886.5
710.998	29915.2
711.342	29941.42
711.687	29899.16
712.031	29703.91
712.375	29627.07
712.719	29719.28
713.063	29617.36
713.407	29737.13
713.75	29568.54
714.094	29458.04
714.438	29380.53
714.782	29511.14
715.125	29262.11
715.469	29303.47
715.812	29136.47
716.156	28896.47
716.499	28991.61
716.843	29085.85
717.186	28877.04
717.53	29026.64
717.873	28990.93
718.216	28777.38
718.559	28700.09
718.902	28483.38
719.246	28665.29
719.589	28619.42
719.932	28548.91
720.275	28466.88
720.617	28454
720.96	28426.43
721.303	28294.45
721.646	28356.83
721.989	28310.05
722.331	28348.01
722.674	28193.21
723.016	28231.63
723.359	28207
723.701	28150.95
724.044	28009.94
724.386	27922.71
724.729	27961.58
725.071	27884.97
725.413	27896.5
725.755	27788.25
726.097	27679.33
726.439	27555.72
726.782	27580.57
727.124	27658.99
727.465	27479.79
727.807	27431.88
728.149	27537.64
728.491	27422.39
728.833	27506.68
729.175	27340.58
729.516	27256.29
729.858	27259.45
730.199	27060.36
730.541	27155.5
730.882	27131.77
731.224	27274.37
731.565	27012.68
731.906	26988.05
732.248	27133.58
732.589	26919.12
732.93	26884.55
733.271	26768.62
733.612	26955.96
733.953	27062.62
734.294	26638.45
734.635	26675.74
734.976	26763.42
735.317	26588.96
735.658	26602.29
735.999	26527.95
736.339	26468.51
736.68	26647.27
737.021	26504.67
737.361	26348.52
737.702	26518
738.042	26328.18
738.383	26265.13
738.723	26467.16
739.063	26195.75
739.404	26262.64
739.744	26167.96
740.084	26071.46
740.424	26182.64
740.764	25955.53
741.104	26050.9
741.444	25912.82
741.784	25785.37
742.124	25933.61
742.464	25762.77
742.804	25877.79
743.143	25772.94
743.483	25722.09
743.823	25645.03
744.162	25692.04
744.502	25726.39
744.841	25528.88
745.181	25716.67
745.52	25502.21
745.86	25571.36
746.199	25446.62
746.538	25553.96
746.877	25497.24
747.216	25534.07
747.556	25426.05
747.895	25358.71
748.234	25169.79
748.573	25307.87
748.911	25183.8
749.25	25123.01
749.589	25108.55
749.928	25077.14
750.267	25119.4
750.605	24986.07
750.944	25012.51
751.283	24920.31
751.621	24931.15
751.96	24833.75
752.298	24889.57
752.636	24921.44
752.975	24741.78
753.313	24642.35
753.651	24822.45
753.989	24540.43
754.327	24544.27
754.666	24454.55
755.004	24357.61
755.342	24455.01
755.679	24436.7
756.017	24293.66
756.355	24219.76
756.693	24187.9
757.031	24129.82
757.368	23983.38
757.706	24043.49
758.044	23936.38
758.381	23988.35
758.719	23849.37
759.056	23895.93
759.394	23748.58
759.731	23561.24
760.068	23669.04
760.405	23405.09
760.743	23502.04
761.08	23508.82
