Data from hue_50_FLMS001491_54.txt Node
Date: Mon Feb 06 15:10:32 GMT 2017
User: dcchb
Spectrometer: FLMS00149
Trigger mode: 0
Integration Time (sec): 2.000000E-2
Scans to average: 10
Electric dark correction enabled: true
Nonlinearity correction enabled: false
Boxcar width: 0
XAxis mode: Wavelengths
Number of Pixels in Spectrum: 2048
>>>>>Begin Spectral Data<<<<<
341.393	11.69
341.776	11.69
342.16	11.69
342.543	-61.75
342.927	-55.42
343.31	-69.66
343.693	-68.53
344.077	-61.75
344.46	-70.56
344.843	-44.58
345.226	-36.21
345.61	-28.98
345.993	8.3
346.376	4.92
346.759	10.79
347.142	13.28
347.525	60.05
347.908	57.34
348.291	48.98
348.674	76.55
349.057	100.05
349.44	130.11
349.823	164.01
350.206	143.89
350.588	197.23
350.971	212.59
351.354	243.33
351.737	235.87
352.119	245.81
352.502	274.74
352.884	284.68
353.267	294.17
353.65	288.52
354.032	300.05
354.414	314.06
354.797	327.17
355.179	329.43
355.562	328.52
355.944	330.78
356.326	325.36
356.709	344.34
357.091	327.39
357.473	333.72
357.855	351.35
358.238	351.8
358.62	359.26
359.002	341.4
359.384	335.53
359.766	354.74
360.148	358.58
360.53	353.15
360.912	326.94
361.294	344.34
361.676	334.4
362.057	332.82
362.439	342.08
362.821	342.53
363.203	339.14
363.584	312.7
363.966	336.21
364.348	336.21
364.729	327.62
365.111	304.12
365.493	317.45
365.874	294.4
366.256	337.34
366.637	324.45
367.019	334.62
367.4	311.35
367.781	302.76
368.163	315.87
368.544	335.75
368.925	302.31
369.306	321.07
369.688	312.48
370.069	327.84
370.45	316.77
370.831	331.69
371.212	320.84
371.593	315.87
371.974	324.45
372.355	330.33
372.736	330.56
373.117	339.37
373.498	320.84
373.879	295.75
374.26	317.9
374.641	334.62
375.021	311.12
375.402	319.03
375.783	319.71
376.163	324
376.544	316.55
376.925	343.44
377.305	333.95
377.686	332.82
378.066	337.34
378.447	334.62
378.827	328.3
379.208	335.98
379.588	326.94
379.968	320.84
380.349	321.74
380.729	333.95
381.109	352.7
381.489	342.99
381.87	332.59
382.25	342.99
382.63	327.39
383.01	335.98
383.39	330.33
383.77	329.65
384.15	356.09
384.53	346.38
384.91	351.8
385.29	348.18
385.67	354.74
386.049	348.86
386.429	327.84
386.809	349.54
387.189	342.53
387.568	348.41
387.948	341.18
388.328	345.47
388.707	342.76
389.087	377.56
389.466	376.66
389.846	369.65
390.225	366.04
390.605	364
390.984	325.58
391.363	373.04
391.743	348.41
392.122	367.39
392.501	364.91
392.881	358.13
393.26	352.48
393.639	361.29
394.018	376.66
394.397	368.97
394.776	362.87
395.155	351.35
395.534	334.85
395.913	381.18
396.292	366.71
396.671	390.22
397.05	376.2
397.429	380.72
397.808	369.65
398.186	375.3
398.565	377.11
398.944	382.76
399.323	386.6
399.701	371.23
400.08	407.84
400.458	402.42
400.837	383.21
401.215	398.8
401.594	378.24
401.972	382.76
402.351	369.65
402.729	414.62
403.107	386.15
403.486	418.92
403.864	404.23
404.242	387.05
404.62	402.19
404.999	408.29
405.377	421.63
405.755	390.44
406.133	411.91
406.511	403.55
406.889	432.02
407.267	406.71
407.645	398.13
408.023	415.3
408.401	426.82
408.779	437.45
409.156	434.06
409.534	425.24
409.912	421.4
410.29	427.05
410.667	429.99
411.045	438.58
411.422	434.06
411.8	427.95
412.178	433.83
412.555	450.1
412.933	448.29
413.31	441.06
413.687	458.91
414.065	447.39
414.442	453.72
414.819	447.39
415.197	478.57
415.574	472.47
415.951	468.63
416.328	486.26
416.705	464.34
417.082	470.44
417.46	491
417.837	473.38
418.214	468.86
418.591	492.36
418.967	453.49
419.344	498.91
419.721	495.52
420.098	466.6
420.475	485.58
420.852	498.69
421.228	499.82
421.605	505.69
421.982	487.84
422.358	507.5
422.735	484.9
423.111	501.85
423.488	499.37
423.864	519.93
424.241	515.64
424.617	510.21
424.994	504.79
425.37	508.4
425.746	524.45
426.123	536.88
426.499	529.42
426.875	535.97
427.251	542.3
427.627	531.68
428.003	543.66
428.379	559.02
428.756	537.1
429.132	543.21
429.507	541.17
429.883	557.89
430.259	542.3
430.635	560.38
431.011	589.76
431.387	565.35
431.763	592.92
432.138	575.07
432.514	587.27
432.89	580.72
433.265	608.06
433.641	604.22
434.016	600.83
434.392	623.66
434.767	617.55
435.143	599.93
435.518	626.82
435.894	616.88
436.269	624.56
436.644	624.56
437.02	624.11
437.395	632.7
437.77	637.89
438.145	641.73
438.52	640.83
438.895	645.12
439.271	664.56
439.646	649.87
440.021	682.41
440.395	645.12
440.77	683.99
441.145	682.86
441.52	678.34
441.895	662.75
442.27	663.2
442.645	694.39
443.019	682.64
443.394	685.58
443.769	700.49
444.143	704.78
444.518	735.07
444.892	726.25
445.267	702.75
445.641	711.34
446.016	727.83
446.39	726.7
446.764	723.99
447.139	723.09
447.513	720.6
447.887	725.35
448.262	735.07
448.636	739.81
449.01	743.2
449.384	760.15
449.758	761.73
450.132	754.27
450.506	773.03
450.88	781.62
451.254	752.01
451.628	793.82
452.002	757.21
452.376	796.76
452.75	782.07
453.123	789.53
453.497	792.92
453.871	818.23
454.244	817.78
454.618	822.07
454.992	846.93
455.365	854.38
455.739	855.74
456.112	862.75
456.486	857.55
456.859	867.04
457.232	894.16
457.606	876.98
457.979	881.95
458.352	905
458.725	904.1
459.099	909.3
459.472	915.63
459.845	953.14
460.218	941.84
460.591	961.73
460.964	963.99
461.337	966.92
461.71	972.35
462.083	984.78
462.456	1007.6
462.829	1019.35
463.201	1040.59
463.574	1027.26
463.947	1034.72
464.32	1080.14
464.692	1079.24
465.065	1088.73
465.438	1095.73
465.81	1144.77
466.183	1128.95
466.555	1114.94
466.928	1137.99
467.3	1165.34
467.672	1178.9
468.045	1229.97
468.417	1232.45
468.789	1248.72
469.161	1252.34
469.534	1283.75
469.906	1308.16
470.278	1342.73
470.65	1340.02
471.022	1362.62
471.394	1424.31
471.766	1416.63
472.138	1450.75
472.51	1475.84
472.882	1501.37
473.253	1547.7
473.625	1542.73
473.997	1617.53
474.369	1613.46
474.74	1648.49
475.112	1669.5
475.484	1716.73
475.855	1754.25
476.227	1822.04
476.598	1857.3
476.97	1884.41
477.341	1944.98
477.713	2023.62
478.084	2031.75
478.455	2113.33
478.827	2179.1
479.198	2236.95
479.569	2266.78
479.94	2339.54
480.311	2400.33
480.682	2454.12
481.053	2572.31
481.424	2627.9
481.795	2648.01
482.166	2741.57
482.537	2833.54
482.908	2906.99
483.279	3005.06
483.65	3074.44
484.021	3207.09
484.391	3250.25
484.762	3290.7
485.133	3451.6
485.503	3499.96
485.874	3623.8
486.244	3715.55
486.615	3855.44
486.985	3919.84
487.356	4053.17
487.726	4125.71
488.097	4261.53
488.467	4356.21
488.837	4484.57
489.207	4629.43
489.578	4709.2
489.948	4829.2
490.318	4943.77
490.688	5059.25
491.058	5142.86
491.428	5262.18
491.798	5423.08
492.168	5555.96
492.538	5651.55
492.908	5799.34
493.278	5993.91
493.648	6042.04
494.017	6200.01
494.387	6290.85
494.757	6347.12
495.126	6534.01
495.496	6639.77
495.866	6776.26
496.235	6922.7
496.605	6956.37
496.974	7107.55
497.344	7202.01
497.713	7348
498.082	7456.24
498.452	7682.68
498.821	7738.27
499.19	7806.29
499.559	7940.75
499.928	8053.97
500.298	8251.93
500.667	8300.52
501.036	8367.86
501.405	8532.15
501.774	8584.58
502.143	8694.63
502.512	8843.1
502.88	8958.35
503.249	8956.54
503.618	9110.21
503.987	9186.37
504.356	9409.87
504.724	9464.78
505.093	9586.58
505.462	9627.71
505.83	9735.96
506.199	9909.97
506.567	10065.89
506.936	10001.71
507.304	10301.37
507.672	10203.07
508.041	10408.94
508.409	10543.4
508.777	10600.79
509.145	10730.28
509.514	10744.52
509.882	10877.62
510.25	10982.25
510.618	11041.91
510.986	11136.83
511.354	11274
511.722	11384.95
512.09	11565.97
512.458	11490.26
512.826	11697.04
513.193	11708.34
513.561	11824.27
513.929	11957.14
514.297	12073.98
514.664	12188.78
515.032	12290.24
515.4	12327.3
515.767	12485.72
516.135	12556.9
516.502	12469.9
516.869	12719.16
517.237	12789.21
517.604	12793.73
517.972	13036.66
518.339	13038.92
518.706	13156.21
519.073	13219.26
519.44	13258.58
519.808	13440.04
520.175	13506.71
520.542	13637.78
520.909	13696.53
521.276	13758.23
521.643	13938.11
522.009	14057.2
522.376	14173.58
522.743	14220.36
523.11	14316.86
523.477	14480.69
523.843	14575.83
524.21	14727.24
524.577	14854.47
524.943	14890.63
525.31	15010.62
525.676	15159.09
526.043	15270.73
526.409	15259.43
526.776	15440.44
527.142	15492.42
527.508	15591.4
527.874	15741
528.241	15831.39
528.607	15915.01
528.973	16110.48
529.339	16060.76
529.705	16236.13
530.071	16390.47
530.437	16418.04
530.803	16552.05
531.169	16541.66
531.535	16686.74
531.901	16834.53
532.267	16768.77
532.632	16941.87
532.998	17012.6
533.364	17034.07
533.73	17204.01
534.095	17237.91
534.461	17307.29
534.826	17463.21
535.192	17473.61
535.557	17593.38
535.923	17579.59
536.288	17632.47
536.653	17863.88
537.019	17805.8
537.384	17916.08
537.749	17926.48
538.114	17926.03
538.479	18089.64
538.845	18238.11
539.21	18178.22
539.575	18289.41
539.94	18312.23
540.305	18480.59
540.67	18418.22
541.034	18440.59
541.399	18648.94
541.764	18662.5
542.129	18794.7
542.494	18711.09
542.858	18900.46
543.223	18857.98
543.587	19116.73
543.952	18965.55
544.316	19116.95
544.681	19173.45
545.045	19285.09
545.41	19407.12
545.774	19364.18
546.138	19399.66
546.503	19526.66
546.867	19454.57
547.231	19741.8
547.595	19669.48
547.959	19807.33
548.324	19872.42
548.688	19944.73
549.052	19928.01
549.416	19996.93
549.779	20137.49
550.143	20100.88
550.507	20284.38
550.871	20363.93
551.235	20356.92
551.599	20553.75
551.962	20452.29
552.326	20506.52
552.689	20699.29
553.053	20586.97
553.417	20681.89
553.78	21050.24
554.143	20884.14
554.507	20993.97
554.87	20982.44
555.234	21203
555.597	21191.25
555.96	21252.04
556.323	21392.83
556.686	21309.67
557.05	21524.8
557.413	21525.03
557.776	21601.86
558.139	21744.23
558.502	21674.4
558.865	21856.54
559.228	22161.39
559.59	22079.36
559.953	22142.86
560.316	22327.04
560.679	22342.41
561.041	22615.85
561.404	22617.65
561.767	22835.73
562.129	22749.4
562.492	22883.64
562.854	22972.9
563.217	22982.62
563.579	23054.48
563.941	23162.05
564.304	23301.48
564.666	23469.61
565.028	23497.4
565.39	23726.1
565.753	23703.05
566.115	23825.08
566.477	23775.82
566.839	23864.4
567.201	24157.95
567.563	24088.35
567.925	24199.31
568.287	24277.95
568.648	24300.32
569.01	24489.92
569.372	24552.52
569.734	24524.27
570.095	24805.39
570.457	24955.45
570.819	24971.26
571.18	24940.76
571.542	25123.35
571.903	25247.87
572.265	25320.18
572.626	25570.12
572.987	25438.82
573.349	25568.31
573.71	25662.77
574.071	25750.68
574.432	25818.02
574.794	26063.89
575.155	25995.87
575.516	25887.4
575.877	26120.39
576.238	26283.32
576.599	26340.04
576.96	26375.75
577.32	26460.94
577.681	26598.34
578.042	26652.35
578.403	26731.22
578.763	26738.22
579.124	26967.6
579.485	27036.75
579.845	27194.71
580.206	27143.86
580.566	27301.15
580.927	27353.57
581.287	27680.57
581.648	27542.72
582.008	27645.32
582.368	27643.74
582.728	27829.95
583.089	27933.45
583.449	28097.51
583.809	28217.96
584.169	28250.95
584.529	28275.58
584.889	28589.02
585.249	28407.78
585.609	28497.95
585.969	28791.05
586.329	28820.43
586.688	28926.41
587.048	28883.48
587.408	29058.61
587.768	29117.37
588.127	29118.73
588.487	29229.46
588.846	29485.95
589.206	29410.47
589.565	29586.28
589.925	29790.12
590.284	29795.09
590.643	29896.33
591.003	30064.46
591.362	30127.06
591.721	30201.86
592.08	30374.96
592.44	30473.72
592.799	30522.08
593.158	30554.17
593.517	30690.66
593.876	30867.83
594.235	30832.58
594.593	30927.04
594.952	31105.79
595.311	31018.79
595.67	31292.45
596.029	31514.82
596.387	31556.18
596.746	31602.95
597.104	31629.17
597.463	31522.05
597.822	31845.89
598.18	31695.38
598.538	31838.65
598.897	32053.79
599.255	31966.33
599.613	32289.26
599.972	32277.06
600.33	32410.39
600.688	32223.05
601.046	32679.08
601.404	32737.16
601.762	32642.25
602.12	32878.63
602.478	33047.21
602.836	32885.18
603.194	32909.36
603.552	33072.29
603.91	33009.25
604.268	33293.08
604.625	33170.14
604.983	33371.72
605.341	33232.29
605.698	33515.22
606.056	33691.49
606.413	33515.22
606.771	33891.93
607.128	33790.02
607.485	33703.46
607.843	33815.1
608.2	34020.52
608.557	34291.7
608.914	34062.55
609.272	34288.76
609.629	34463.44
609.986	34552.48
610.343	34338.48
610.7	34737.79
611.057	34635.42
611.414	34733.27
611.771	34850.78
612.127	34838.35
612.484	34931.23
612.841	34887.16
613.198	35086.25
613.554	34966.93
613.911	35350.65
614.267	35350.88
614.624	35278.79
614.98	35387.49
615.337	35640.81
615.693	35492.34
616.05	35556.07
616.406	35799
616.762	35649.4
617.118	35655.28
617.475	35749.96
617.831	35887.36
618.187	36015.72
618.543	36036.96
618.899	36112.21
619.255	36186.79
619.611	36067.24
619.967	36354.69
620.323	36314.02
620.678	36250.97
621.034	36224.3
621.39	36205.55
621.746	36321.93
622.101	36646.89
622.457	36408.48
622.812	36583.16
623.168	36678.53
623.523	36551.07
623.879	36743.84
624.234	36497.51
624.589	36673.56
624.945	36871.52
625.3	36836.26
625.655	36739.09
626.01	36891.4
626.365	36824.29
626.72	36763.04
627.075	36831.74
627.43	36809.37
627.785	36669.04
628.14	36782.48
628.495	36924.85
628.85	36883.27
629.205	36822.03
629.559	37005.07
629.914	36875.36
630.269	36845.53
630.623	36884.85
630.978	36830.61
631.332	36984.06
631.687	36930.27
632.041	36879.2
632.396	36994.68
632.75	36895.47
633.104	36955.13
633.459	36742.93
633.813	36684.63
634.167	36650.51
634.521	36775.02
634.875	36771.86
635.229	36728.92
635.583	36617.29
635.937	36640.34
636.291	36521.24
636.645	36596.04
636.999	36529.83
637.352	36670.39
637.706	36478.76
638.06	36514.69
638.413	36581.13
638.767	36409.38
639.121	36552.88
639.474	36304.75
639.828	36386.56
640.181	36361.25
640.534	36469.49
640.888	36326.67
641.241	36186.56
641.594	36337.29
641.947	36427.46
642.301	36198.31
642.654	36337.52
643.007	36221.59
643.36	36037.87
643.713	36269.27
644.066	36195.83
644.419	36199.22
644.771	35869.96
645.124	35617.54
645.477	35450.54
645.83	35378.22
646.182	35085.35
646.535	35051.45
646.888	35114.73
647.24	34877.44
647.593	35160.83
647.945	35049.42
648.298	34979.59
648.65	34946.14
649.002	34733.27
649.355	34982.75
649.707	34768.75
650.059	35049.42
650.411	35509.29
650.763	35457.77
651.115	35787.48
651.467	35660.47
651.819	35653.7
652.171	35492.8
652.523	35408.5
652.875	35585.22
653.227	35381.84
653.578	35526.24
653.93	35563.98
654.282	35345.45
654.633	35263.65
654.985	35263.2
655.337	35479.69
655.688	35315.4
656.039	35546.13
656.391	35133.03
656.742	35166.7
657.094	35275.4
657.445	35389.07
657.796	35145.46
658.147	35158.34
658.498	35118.34
658.849	35363.53
659.2	35148.62
659.551	35113.37
659.902	35372.57
660.253	35220.94
660.604	35289.64
660.955	34997.67
661.306	35163.99
661.656	35147.04
662.007	35185.23
662.358	35160.6
662.708	35220.94
663.059	35142.97
663.409	34944.34
663.76	35167.38
664.11	35160.6
664.461	35178.23
664.811	35053.94
665.161	35151.34
665.511	35034.05
665.862	35039.47
666.212	35257.77
666.562	35109.75
666.912	34974.17
667.262	34959.93
667.612	34942.75
667.962	34988.4
668.312	34929.19
668.662	35007.16
669.011	34955.41
669.361	34984.11
669.711	34908.86
670.06	34930.78
670.41	34920.38
670.76	34797.45
671.109	34816.43
671.459	34755.87
671.808	34761.52
672.157	34759.03
672.507	34707.73
672.856	34762.65
673.205	34697.34
673.554	34704.12
673.904	34663.21
674.253	34903.21
674.602	34670.9
674.951	34286.95
675.3	34077.92
675.649	34545.25
675.998	34592.93
676.346	34658.69
676.695	34706.38
677.044	34341.87
677.393	34615.76
677.741	34559.26
678.09	34471.81
678.438	34309.32
678.787	34420.73
679.135	34450.56
679.484	34284.01
679.832	34447.4
680.181	34223
680.529	34235.2
680.877	34277.23
681.225	34151.81
681.573	34380.51
681.922	34117.69
682.27	34128.09
682.618	34193.62
682.966	33957.02
683.314	34027.07
683.661	33876.11
684.009	33736.01
684.357	33733.07
684.705	33738.49
685.053	33719.28
685.4	33507.99
685.748	33518.84
686.095	33519.51
686.443	33343.47
686.79	33348.22
687.138	33317.03
687.485	33368.56
687.832	33169.92
688.18	33303.93
688.527	33140.99
688.874	33051.96
689.221	33032.07
689.568	32889.47
689.915	32823.71
690.262	32847.22
690.609	32590.05
690.956	32653.77
691.303	32633.44
691.65	32456.04
691.997	32432.31
692.344	32372.2
692.69	32362.93
693.037	32366.1
693.383	31987.8
693.73	32181.7
694.077	31921.82
694.423	32019.21
694.769	31774.48
695.116	31795.49
695.462	31799.11
695.808	31755.49
696.155	31740.8
696.501	31426.46
696.847	31464.65
697.193	31232.79
697.539	31260.14
697.885	31151.67
698.231	31030.31
698.577	30947.38
698.923	30878.68
699.269	30897.44
699.614	30680.27
699.96	30701.51
700.306	30633.71
700.651	30489.76
700.997	30384.91
701.342	30378.81
701.688	30189.43
702.033	30299.94
702.379	30308.75
702.724	30193.73
703.069	30169.09
703.415	29929.1
703.76	29827.41
704.105	29851.59
704.45	29803.68
704.795	29665.6
705.14	29544.03
705.485	29565.49
705.83	29421.09
706.175	29423.35
706.52	29346.52
706.865	29274.65
707.209	29263.81
707.554	29175.67
707.899	29283.47
708.243	29072.4
708.588	28927.77
708.932	28778.85
709.277	28833.76
709.621	28749.02
709.966	28560.55
710.31	28601.9
710.654	28442.81
710.998	28542.92
711.342	28462.25
711.687	28428.35
712.031	28414.79
712.375	28214.79
712.719	28312.19
713.063	28134.8
713.407	28387.45
713.75	27964.41
714.094	28005.76
714.438	27978.87
714.782	28042.14
715.125	27868.14
715.469	27862.04
715.812	27721.02
716.156	27626.56
716.499	27556.06
716.843	27663.85
717.186	27537.07
717.53	27563.96
717.873	27596.96
718.216	27422.73
718.559	27325.33
718.902	27107.93
719.246	27220.92
719.589	27078.78
719.932	26991.1
720.275	27165.33
720.617	27114.03
720.96	26961.95
721.303	26963.53
721.646	26891.67
721.989	26783.42
722.331	26863.42
722.674	26714.5
723.016	26779.58
723.359	26686.02
723.701	26738.45
724.044	26504.11
724.386	26434.28
724.729	26579.58
725.071	26435.18
725.413	26395.63
725.755	26382.07
726.097	26302.98
726.439	26199.93
726.782	26332.58
727.124	26306.82
727.465	26156.77
727.807	26104.12
728.149	26129.88
728.491	26060.95
728.833	26217.79
729.175	26036.32
729.516	25923.78
729.858	25877.91
730.199	25968.07
730.541	25938.92
730.882	25874.74
731.224	25821.64
731.565	25810.11
731.906	25790
732.248	25700.74
732.589	25611.7
732.93	25409.22
733.271	25532.83
733.612	25515.88
733.953	25537.35
734.294	25416
734.635	25384.81
734.976	25361.76
735.317	25305.72
735.658	25212.61
735.999	25257.13
736.339	25235.21
736.68	25206.96
737.021	25140.3
737.361	24988.66
737.702	25136.46
738.042	25020.08
738.383	25066.4
738.723	25010.36
739.063	24980.08
739.404	24872.28
739.744	24837.48
740.084	24773.98
740.424	24931.94
740.764	24702.34
741.104	24892.85
741.444	24777.82
741.784	24597.04
742.124	24640.65
742.464	24591.16
742.804	24547.55
743.143	24392.52
743.483	24413.09
743.823	24373.99
744.162	24465.06
744.502	24446.08
744.841	24268.91
745.181	24284.5
745.52	24194.11
745.86	24368.57
746.199	24158.86
746.538	24121.12
746.877	24249.93
747.216	24178.52
747.556	24070.27
747.895	24157.05
748.234	23949.6
748.573	23907.56
748.911	23947.79
749.25	23944.62
749.589	23767
749.928	23776.95
750.267	23828.24
750.605	23762.48
750.944	23629.15
751.283	23563.17
751.621	23658.76
751.96	23461.02
752.298	23457.18
752.636	23610.85
752.975	23248.82
753.313	23407.01
753.651	23439.78
753.989	23366.33
754.327	23213.12
754.666	23082.5
755.004	23007.93
755.342	23145.78
755.679	23037.76
756.017	22937.19
756.355	22958.89
756.693	22845.9
757.031	22925.44
757.368	22651.55
