Data from hue_24_FLMS001491_00049.txt Node
Date: Tue Feb 07 17:12:20 GMT 2017
User: dcchb
Spectrometer: FLMS00149
Trigger mode: 0
Integration Time (sec): 2.000000E-2
Scans to average: 10
Electric dark correction enabled: true
Nonlinearity correction enabled: false
Boxcar width: 0
XAxis mode: Wavelengths
Number of Pixels in Spectrum: 2048
>>>>>Begin Spectral Data<<<<<
341.393	-4.79
341.776	-4.79
342.16	-4.79
342.543	-69.65
342.927	-55.86
343.31	-71.23
343.693	-61.96
344.077	-75.75
344.46	-61.06
344.843	-47.95
345.226	-47.72
345.61	-40.72
345.993	-19.48
346.376	12.84
346.759	-0.95
347.142	20.52
347.525	36.57
347.908	73.18
348.291	72.95
348.674	103.46
349.057	107.3
349.44	101.88
349.823	135.55
350.206	152.95
350.588	181.42
350.971	232.27
351.354	218.48
351.737	241.53
352.119	230.69
352.502	265.49
352.884	263.91
353.267	285.83
353.65	292.15
354.032	289.44
354.414	296.67
354.797	309.78
355.179	339.61
355.562	323.56
355.944	338.93
356.326	322.44
356.709	342.32
357.091	334.19
357.473	347.52
357.855	341.87
358.238	354.52
358.62	337.8
359.002	354.07
359.384	332.83
359.766	354.07
360.148	334.19
360.53	355.65
360.912	315.66
361.294	338.48
361.676	325.15
362.057	327.41
362.439	317.69
362.821	317.01
363.203	328.31
363.584	312.49
363.966	323.11
364.348	312.72
364.729	329.21
365.111	305.49
365.493	313.62
365.874	324.02
366.256	337.35
366.637	322.44
367.019	314.98
367.4	322.89
367.781	314.3
368.163	323.34
368.544	324.69
368.925	309.55
369.306	320.18
369.688	332.15
370.069	333.96
370.45	303
370.831	321.98
371.212	304.36
371.593	306.62
371.974	316.33
372.355	318.59
372.736	320.85
373.117	319.72
373.498	303.9
373.879	319.27
374.26	300.97
374.641	337.58
375.021	305.49
375.402	310.68
375.783	336.9
376.163	320.63
376.544	325.37
376.925	356.78
377.305	324.02
377.686	310.23
378.066	328.99
378.447	297.12
378.827	327.41
379.208	308.2
379.588	331.25
379.968	344.58
380.349	337.12
380.729	340.29
381.109	336.22
381.489	337.12
381.87	353.39
382.25	351.13
382.63	343.9
383.01	334.86
383.39	360.17
383.77	341.19
384.15	325.82
384.53	343.45
384.91	335.32
385.29	340.51
385.67	333.06
386.049	359.72
386.429	368.76
386.809	363.79
387.189	368.54
387.568	365.82
387.948	370.57
388.328	344.13
388.707	369.44
389.087	358.14
389.466	367.41
389.846	368.54
390.225	383
390.605	367.18
390.984	350.46
391.363	355.43
391.743	366.73
392.122	350.91
392.501	379.38
392.881	387.97
393.26	365.82
393.639	388.2
394.018	382.09
394.397	391.13
394.776	394.52
395.155	381.64
395.534	380.06
395.913	394.98
396.292	401.53
396.671	397.91
397.05	425.48
397.429	390
397.808	404.47
398.186	393.39
398.565	395.2
398.944	409.44
399.323	397.91
399.701	391.13
400.08	414.64
400.458	423.22
400.837	414.18
401.215	395.65
401.594	399.27
401.972	420.74
402.351	384.35
402.729	405.14
403.107	433.17
403.486	411.02
403.864	415.31
404.242	426.39
404.62	435.43
404.999	437.91
405.377	421.19
405.755	425.26
406.133	415.77
406.511	415.99
406.889	420.29
407.267	449.89
407.645	426.39
408.023	425.03
408.401	449.21
408.779	467.06
409.156	442.21
409.534	446.27
409.912	453.05
410.29	470.91
410.667	482.88
411.045	450.79
411.422	446.05
411.8	456.67
412.178	460.96
412.555	488.31
412.933	463.9
413.31	478.36
413.687	490.79
414.065	484.92
414.442	480.17
414.819	488.53
415.197	513.62
415.574	498.93
415.951	505.48
416.328	518.81
416.705	496.67
417.082	508.19
417.46	519.49
417.837	531.02
418.214	500.96
418.591	525.14
418.967	500.51
419.344	512.71
419.721	531.24
420.098	528.98
420.475	535.99
420.852	554.07
421.228	543.9
421.605	553.62
421.982	529.66
422.358	555.42
422.735	555.2
423.111	557.91
423.488	556.78
423.864	553.16
424.241	582.09
424.617	573.05
424.994	561.52
425.37	567.4
425.746	560.85
426.123	569.21
426.499	602.65
426.875	558.14
427.251	610.11
427.627	583.67
428.003	592.94
428.379	622.99
428.756	602.43
429.132	623.22
429.507	630.22
429.883	613.05
430.259	618.47
430.635	637.68
431.011	633.16
431.387	636.78
431.763	644.23
432.138	658.47
432.514	664.8
432.89	670.45
433.265	671.13
433.641	695.98
434.016	674.06
434.392	706.61
434.767	677.23
435.143	692.59
435.518	698.24
435.894	692.14
436.269	722.42
436.644	695.08
437.02	735.76
437.395	749.99
437.77	735.08
438.145	719.49
438.52	746.6
438.895	755.64
439.271	767.85
439.646	741.18
440.021	765.59
440.395	770.33
440.77	791.58
441.145	797.45
441.52	799.26
441.895	799.26
442.27	803.33
442.645	794.51
443.019	793.61
443.394	792.48
443.769	832.03
444.143	789.77
444.518	801.97
444.892	825.02
445.267	809.88
445.641	824.57
446.016	839.26
446.39	850.33
446.764	860.5
447.139	869.54
447.513	855.3
447.887	869.77
448.262	873.38
448.636	872.7
449.01	889.88
449.384	872.7
449.758	880.61
450.132	918.13
450.506	910.44
450.88	889.43
451.254	885.36
451.628	898.24
452.002	919.03
452.376	931.01
452.75	933.04
453.123	936.88
453.497	953.15
453.871	973.72
454.244	997.45
454.618	1006.48
454.992	998.8
455.365	991.34
455.739	1019.82
456.112	1020.5
456.486	1044.9
456.859	1034.51
457.232	1081.06
457.606	1071.12
457.979	1061.62
458.352	1077.9
458.725	1089.65
459.099	1100.95
459.472	1085.58
459.845	1116.99
460.218	1140.72
460.591	1141.4
460.964	1145.01
461.337	1184.11
461.71	1172.13
462.083	1211.9
462.456	1199.7
462.829	1191.11
463.201	1218
463.574	1244.22
463.947	1251.45
464.32	1267.04
464.692	1286.7
465.065	1292.58
465.438	1297.78
465.81	1319.02
466.183	1338
466.555	1361.5
466.928	1366.93
467.3	1382.75
467.672	1396.31
468.045	1441.73
468.417	1434.27
468.789	1418.23
469.161	1486.7
469.534	1483.53
469.906	1496.64
470.278	1504.32
470.65	1513.14
471.022	1566.7
471.394	1591.33
471.766	1580.03
472.138	1629.29
472.51	1668.16
472.882	1698.22
473.253	1676.98
473.625	1748.84
473.997	1755.39
474.369	1789.74
474.74	1794.94
475.112	1837.42
475.484	1898.44
475.855	1929.62
476.227	1912.68
476.598	1984.76
476.97	2003.07
477.341	2051.43
477.713	2095.95
478.084	2096.63
478.455	2164.65
478.827	2176.17
479.198	2236.06
479.569	2248.49
479.94	2298.43
480.311	2370.52
480.682	2372.55
481.053	2453.23
481.424	2501.13
481.795	2525.09
482.166	2567.57
482.537	2616.84
482.908	2683.95
483.279	2683.73
483.65	2732.54
484.021	2812.31
484.391	2856.38
484.762	2865.19
485.133	2907.45
485.503	2954.68
485.874	3053.66
486.244	3089.37
486.615	3164.62
486.985	3200.78
487.356	3255.47
487.726	3302.47
488.097	3374.78
488.467	3361.23
488.837	3488.23
489.207	3485.52
489.578	3560.77
489.948	3622.46
490.318	3631.73
490.688	3682.35
491.058	3739.97
491.428	3771.38
491.798	3865.39
492.168	3939.06
492.538	3935.45
492.908	3984.49
493.278	4052.73
493.648	4096.12
494.017	4087.31
494.387	4161.66
494.757	4221.32
495.126	4294.08
495.496	4312.61
495.866	4345.83
496.235	4357.58
496.605	4431.71
496.974	4450.69
497.344	4484.13
497.713	4552.61
498.082	4559.61
498.452	4622.21
498.821	4649.55
499.19	4637.8
499.559	4727.29
499.928	4744.92
500.298	4767.74
500.667	4803.22
501.036	4821.98
501.405	4840.51
501.774	4859.04
502.143	4930.45
502.512	4962.31
502.88	4991.24
503.249	5012.26
503.618	5014.29
503.987	5030.33
504.356	5109.43
504.724	5092.71
505.093	5143.1
505.462	5165.25
505.83	5163.66
506.199	5257.9
506.567	5321.85
506.936	5311.91
507.304	5374.96
507.672	5371.57
508.041	5418.35
508.409	5467.84
508.777	5492.47
509.145	5508.97
509.514	5483.43
509.882	5517.55
510.25	5589.19
510.618	5595.29
510.986	5635.97
511.354	5619.02
511.722	5739.24
512.09	5738.56
512.458	5694.05
512.826	5760.71
513.193	5729.07
513.561	5821.73
513.929	5860.37
514.297	5865.79
514.664	5965
515.032	5971.1
515.4	5972.91
515.767	5969.29
516.135	6029.63
516.502	5993.92
516.869	6062.62
517.237	6083.87
517.604	6054.04
517.972	6119.12
518.339	6186.01
518.706	6182.39
519.073	6172.68
519.44	6224.65
519.808	6273.69
520.175	6279.79
520.542	6305.55
520.909	6366.34
521.276	6348.94
521.643	6446.79
522.009	6435.95
522.376	6454.93
522.743	6490.41
523.11	6548.26
523.477	6571.76
523.843	6611.76
524.21	6658.77
524.577	6744.64
524.943	6741.48
525.31	6706.9
525.676	6798.2
526.043	6884.07
526.409	6871.42
526.776	6957.74
527.142	7015.37
527.508	6955.71
527.874	7054.91
528.241	7067.12
528.607	7057.17
528.973	7137.62
529.339	7099.21
529.705	7187.57
530.071	7313.44
530.437	7255.36
530.803	7384.17
531.169	7478.63
531.535	7373.32
531.901	7403.15
532.267	7413.1
532.632	7469.14
532.998	7510.95
533.364	7574.45
533.73	7545.07
534.095	7669.36
534.461	7712.52
534.826	7737.38
535.192	7785.97
535.557	7887.21
535.923	7848.11
536.288	7848.34
536.653	7919.75
537.019	7921.78
537.384	7949.81
537.749	7961.33
538.114	7939.41
538.479	7981.22
538.845	8054.21
539.21	8055.79
539.575	8053.76
539.94	8095.34
540.305	8149.12
540.67	8170.36
541.034	8190.93
541.399	8319.06
541.764	8244.94
542.129	8340.98
542.494	8304.37
542.858	8402.9
543.223	8300.98
543.587	8481.99
543.952	8474.99
544.316	8473.18
544.681	8453.75
545.045	8560.41
545.41	8561.54
545.774	8624.14
546.138	8669.79
546.503	8615.78
546.867	8712.04
547.231	8780.74
547.595	8774.87
547.959	8787.3
548.324	8785.72
548.688	8864.13
549.052	8892.38
549.416	8940.06
549.779	8987.52
550.143	8921.53
550.507	9046.05
550.871	9040.17
551.235	9038.36
551.599	9105.48
551.962	9138.7
552.326	9148.87
552.689	9153.62
553.053	9201.75
553.417	9183.9
553.78	9306.15
554.143	9304.8
554.507	9317.45
554.87	9389.09
555.234	9395.87
555.597	9331.01
555.96	9409.43
556.323	9505.47
556.686	9489.88
557.05	9553.6
557.413	9611.91
557.776	9622.08
558.139	9702.3
558.502	9732.58
558.865	9723.09
559.228	9824.78
559.59	9728.97
559.953	9792.02
560.316	9904.78
560.679	9920.6
561.041	9945.01
561.404	10002.41
561.767	10034.5
562.129	10009.86
562.492	10130.31
562.854	10087.83
563.217	10123.99
563.579	10201.05
563.941	10268.84
564.304	10223.87
564.666	10280.37
565.028	10315.84
565.39	10388.39
565.753	10373.92
566.115	10371.89
566.477	10486.69
566.839	10557.87
567.201	10559
567.563	10533.69
567.925	10654.14
568.287	10679.68
568.648	10617.31
569.01	10772.1
569.372	10800.35
569.734	10753.8
570.095	10916.73
570.457	10932.78
570.819	10998.76
571.18	10968.26
571.542	11016.17
571.903	11064.07
572.265	11188.14
572.626	11229.94
572.987	11290.28
573.349	11223.39
573.71	11354.01
574.071	11349.04
574.432	11429.71
574.794	11594.91
575.155	11500.9
575.516	11610.73
575.877	11658.18
576.238	11716.03
576.599	11853.43
576.96	11912.64
577.32	11902.7
577.681	12045.06
578.042	12104.72
578.403	12154.89
578.763	12321.67
579.124	12384.04
579.485	12538.84
579.845	12667.2
580.206	12791.94
580.566	12812.5
580.927	13029.67
581.287	13176.79
581.648	13179.27
582.008	13509.43
582.368	13538.13
582.728	13676.21
583.089	13886.82
583.449	13980.61
583.809	14106.48
584.169	14396.64
584.529	14485.23
584.889	14746.46
585.249	14880.24
585.609	14932.22
585.969	15378.31
586.329	15447.46
586.688	15668.47
587.048	15904.85
587.408	16096.26
587.768	16262.13
588.127	16512.07
588.487	16705.06
588.846	17160.86
589.206	17210.35
589.565	17519.05
589.925	17881.07
590.284	18079.48
590.643	18220.04
591.003	18657.32
591.362	18957.43
591.721	19225.44
592.08	19474.02
592.44	19796.05
592.799	20074.23
593.158	20365.3
593.517	20639.64
593.876	21048.67
594.235	21149.91
594.593	21617.69
594.952	21963.45
595.311	22007.06
595.67	22484.34
596.029	22794.39
596.387	23086.58
596.746	23348.04
597.104	23678.66
597.463	23920.91
597.822	24363.61
598.18	24470.5
598.538	24812.64
598.897	25295.56
599.255	25355.68
599.613	26102.32
599.972	26130.57
600.33	26448.98
600.688	26677
601.046	27085.12
601.404	27415.28
601.762	27713.81
602.12	28086.68
602.478	28405.31
602.836	28547.68
603.194	28676.72
603.552	29060.44
603.91	29164.84
604.268	29693.64
604.625	29791.94
604.983	30254.08
605.341	30311.7
605.698	30755.53
606.056	31114.39
606.413	31218.8
606.771	31665.79
607.128	31912.79
607.485	31951.66
607.843	32148.72
608.2	32633
608.557	32939.66
608.914	32955.25
609.272	33414.9
609.629	33658.96
609.986	34006.52
610.343	34183.47
610.7	34401.09
611.057	34611.93
611.414	34726.73
611.771	34937.34
612.127	35264.79
612.484	35372.59
612.841	35614.16
613.198	35666.36
613.554	36034.49
613.911	36381.83
614.267	36462.95
614.624	36574.59
614.98	36767.8
615.337	37038.08
615.693	37112.65
616.05	37293.89
616.406	37715.35
616.762	37653.2
617.118	37744.73
617.475	37977.26
617.831	38283.02
618.187	38301.78
618.543	38490.02
618.899	38861.31
619.255	38924.81
619.611	38930.91
619.967	39205.71
620.323	39445.02
620.678	39396.89
621.034	39344.91
621.39	39508.98
621.746	39570.89
622.101	40163.42
622.457	39845.01
622.812	40011.79
623.168	40392.12
623.523	40471.21
623.879	40634.6
624.234	40393.92
624.589	40664.88
624.945	40766.8
625.3	40840.92
625.655	40800.69
626.01	41043.4
626.365	40986.45
626.72	41028.94
627.075	41124.3
627.43	41046.11
627.785	41170.17
628.14	41389.83
628.495	41437.29
628.85	41378.08
629.205	41329.04
629.559	41647.9
629.914	41343.28
630.269	41519.32
630.623	41526.1
630.978	41571.97
631.332	41751.18
631.687	41802.93
632.041	41857.16
632.396	41866.88
632.75	41678.41
633.104	41903.26
633.459	41751.63
633.813	41759.54
634.167	41905.52
634.521	41888.35
634.875	41906.43
635.229	41992.3
635.583	41777.84
635.937	41907.1
636.291	41851.96
636.645	41990.04
636.999	41830.72
637.352	41989.59
637.706	41869.37
638.06	42071.39
638.413	41988.01
638.767	41827.33
639.121	41888.8
639.474	41692.42
639.828	41818.29
640.181	41857.61
640.534	41820.78
640.888	41682.7
641.241	41651.07
641.594	41614.68
641.947	41778.07
642.301	41786.88
642.654	41796.6
643.007	41826.43
643.36	41931.96
643.713	41856.03
644.066	42051.28
644.419	41558.64
644.771	41497.85
645.124	41165.88
645.477	41111.42
645.83	40910.97
646.182	40751.43
646.535	40569.96
646.888	40656.74
647.24	40578.55
647.593	40805.89
647.945	40688.38
648.298	40492.68
648.65	40518.89
649.002	40390.53
649.355	40525.22
649.707	40549.63
650.059	40776.29
650.411	41141.02
650.763	41246.56
651.115	41506.44
651.467	41408.59
651.819	41472.31
652.171	41271.87
652.523	41457.85
652.875	41331.98
653.227	41174.92
653.578	41434.35
653.93	41358.19
654.282	41338.76
654.633	41158.2
654.985	41133.34
655.337	41278.65
655.688	41220.34
656.039	41562.03
656.391	41011.53
656.742	41205.88
657.094	41237.52
657.445	41394.8
657.796	41284.75
658.147	41138.76
658.498	41142.6
658.849	41258.53
659.2	41250.17
659.551	41169.95
659.902	41296.27
660.253	41203.17
660.604	41121.14
660.955	41036.62
661.306	41179.21
661.656	41064.41
662.007	41178.54
662.358	41041.82
662.708	41129.72
663.059	41042.72
663.409	40878.43
663.76	41267.12
664.11	41225.77
664.461	41293.11
664.811	41177.41
665.161	41120.46
665.511	40903.74
665.862	41076.39
666.212	41078.88
666.562	41059.44
666.912	40965.21
667.262	41026.68
667.612	41037.52
667.962	41174.24
668.312	40898.54
668.662	41127.46
669.011	40984.87
669.361	41042.49
669.711	40921.59
670.06	40944.64
670.41	40747.36
670.76	40827.36
671.109	40750.52
671.459	40830.3
671.808	40663.07
672.157	40857.64
672.507	40583.3
672.856	40768.38
673.205	40839.56
673.554	40997.75
673.904	40825.32
674.253	40897.87
674.602	40777.87
674.951	40350.99
675.3	40092.91
675.649	40709.85
675.998	40735.16
676.346	40619.68
676.695	40710.98
677.044	40457.2
677.393	40515.5
677.741	40612.9
678.09	40440.7
678.438	40374.94
678.787	40513.24
679.135	40589.62
679.484	40197.32
679.832	40417.65
680.181	40182.86
680.529	40341.27
680.877	40140.6
681.225	40133.82
681.573	40348.5
681.922	40005.01
682.27	39914.39
682.618	39991.22
682.966	39848.18
683.314	39913.48
683.661	39882.98
684.009	39584.91
684.357	39668.07
684.705	39548.07
685.053	39632.36
685.4	39583.78
685.748	39383.78
686.095	39440.95
686.443	39416.77
686.79	39208.42
687.138	39351.92
687.485	39305.59
687.832	39177.91
688.18	39186.27
688.527	38902.66
688.874	39076.44
689.221	38807.75
689.568	38807.75
689.915	38648.43
690.262	38838.26
690.609	38649.11
690.956	38530.24
691.303	38525.95
691.65	38259.74
691.997	38233.75
692.344	38074.66
692.69	38076.02
693.037	38044.16
693.383	37677.16
693.73	37829.92
694.077	37666.76
694.423	37591.06
694.769	37630.38
695.116	37519.2
695.462	37503.15
695.808	37312.87
696.155	37383.38
696.501	37067.46
696.847	37085.54
697.193	36891.87
697.539	37062.26
697.885	36647.58
698.231	36664.08
698.577	36667.02
698.923	36580.46
699.269	36497.98
699.614	36324.2
699.96	36262.51
700.306	36205.56
700.651	36106.13
700.997	35896.87
701.342	35849.86
701.688	35949.97
702.033	35785.68
702.379	35627.04
702.724	35571.45
703.069	35775.74
703.415	35310.22
703.76	35326.49
704.105	35286.49
704.45	35348.41
704.795	35067.51
705.14	35011.01
705.485	34904.58
705.83	34858.02
706.175	34767.41
706.52	34787.29
706.865	34608.31
707.209	34620.52
707.554	34601.08
707.899	34598.6
708.243	34405.38
708.588	34348.21
708.932	34114.99
709.277	34035.67
709.621	34167.42
709.966	33845.17
710.31	33913.64
710.654	33541.9
710.998	33666.19
711.342	33676.59
711.687	33642.46
712.031	33453.99
712.375	33423.03
712.719	33478.85
713.063	33385.97
713.407	33451.73
713.75	33244.06
714.094	33273.21
714.438	33064.4
714.782	33150.95
715.125	33043.38
715.469	32954.57
715.812	32881.13
716.156	32612.89
716.499	32709.83
716.843	32783.95
717.186	32564.3
717.53	32703.96
717.873	32669.16
718.216	32594.58
718.559	32489.72
718.902	32150.07
719.246	32339.45
719.589	32242.27
719.932	32133.58
720.275	32095.61
720.617	32073.69
720.96	32003.18
721.303	32004.54
721.646	32105.78
721.989	31805.45
722.331	31948.72
722.674	31755.51
723.016	31759.35
723.359	31651.78
723.701	31661.95
724.044	31465.8
724.386	31311
724.729	31590.54
725.071	31494.5
725.413	31358
725.755	31244.56
726.097	31238.23
726.439	31059.48
726.782	31078.91
727.124	31186.03
727.465	31040.05
727.807	31054.96
728.149	30987.84
728.491	30875.53
728.833	30894.96
729.175	30813.84
729.516	30767.96
729.858	30629.66
730.199	30710.79
730.541	30600.06
730.882	30509.21
731.224	30659.72
731.565	30510.79
731.906	30504.24
732.248	30429.21
732.589	30401.42
732.93	30247.52
733.271	30304.7
733.612	30160.29
733.953	30308.77
734.294	30226.06
734.635	30071.48
734.976	30190.58
735.317	30030.13
735.658	29968.89
735.999	29933.86
736.339	29993.52
736.68	29960.98
737.021	30029.22
737.361	29800.98
737.702	29954.65
738.042	29802.56
738.383	29714.43
738.723	29756.69
739.063	29644.38
739.404	29702.91
739.744	29664.49
740.084	29535.23
740.424	29504.94
740.764	29370.48
741.104	29541.78
741.444	29396.7
741.784	29260.88
742.124	29380.88
742.464	29379.98
742.804	29117.84
743.143	29059.31
743.483	29135.24
743.823	29100.89
744.162	29021.57
744.502	29097.72
744.841	29014.56
745.181	29011.4
745.52	28909.48
745.86	28924.39
746.199	28900.21
746.538	28838.3
746.877	28892.31
747.216	29008.23
747.556	28791.52
747.895	28828.8
748.234	28695.7
748.573	28658.19
748.911	28543.39
749.25	28669.49
749.589	28403.5
749.928	28514.24
750.267	28600.34
750.605	28495.03
750.944	28407.8
751.283	28323.73
751.621	28445.76
751.96	28194.24
752.298	28186.11
752.636	28173.68
752.975	28029.5
753.313	28036.28
753.651	28142.27
753.989	27832.45
754.327	27805.1
754.666	27758.55
755.004	27846.01
755.342	27891.65
755.679	27744.76
756.017	27519.91
756.355	27646.24
756.693	27532.57
757.031	27544.09
757.368	27374.15
757.706	27329.63
758.044	27196.53
758.381	27386.81
758.719	27330.54
759.056	27161.05
759.394	27088.96
