Data from hue_330_FLMS001491_5.txt Node
Date: Mon Feb 06 15:44:48 GMT 2017
User: dcchb
Spectrometer: FLMS00149
Trigger mode: 0
Integration Time (sec): 2.000000E-2
Scans to average: 10
Electric dark correction enabled: true
Nonlinearity correction enabled: false
Boxcar width: 0
XAxis mode: Wavelengths
Number of Pixels in Spectrum: 2048
>>>>>Begin Spectral Data<<<<<
341.393	2.53
341.776	2.53
342.16	2.53
342.543	-54.42
342.927	-82.89
343.31	-74.98
343.693	-82.67
344.077	-70.24
344.46	-44.93
344.843	-49.67
345.226	-46.96
345.61	-19.62
345.993	-17.13
346.376	-16.68
346.759	16.77
347.142	22.41
347.525	26.71
347.908	56.09
348.291	59.7
348.674	114.16
349.057	127.04
349.44	118.23
349.823	154.84
350.206	178.12
350.588	190.32
350.971	208.4
351.354	225.35
351.737	225.57
352.119	245.23
352.502	256.31
352.884	285.91
353.267	279.36
353.65	303.09
354.032	286.14
354.414	290.2
354.797	324.1
355.179	331.56
355.562	326.59
355.944	331.33
356.326	327.72
356.709	336.08
357.091	332.46
357.473	327.27
357.855	330.66
358.238	358.9
358.62	335.4
359.002	351.45
359.384	337.89
359.766	349.64
360.148	343.54
360.53	343.31
360.912	338.79
361.294	328.85
361.676	324.78
362.057	349.64
362.439	332.91
362.821	328.17
363.203	322.97
363.584	311.22
363.966	338.34
364.348	329.98
364.729	326.59
365.111	330.88
365.493	318
365.874	316.42
366.256	316.87
366.637	316.64
367.019	334.04
367.4	325.91
367.781	310.32
368.163	317.55
368.544	322.07
368.925	314.61
369.306	330.43
369.688	306.25
370.069	322.75
370.45	289.75
370.831	317.32
371.212	320.71
371.593	331.79
371.974	307.38
372.355	316.19
372.736	303.09
373.117	322.75
373.498	327.04
373.879	317.1
374.26	315.29
374.641	308.28
375.021	324.55
375.402	328.62
375.783	328.62
376.163	329.07
376.544	327.49
376.925	320.26
377.305	332.01
377.686	343.76
378.066	347.6
378.447	337.66
378.827	345.8
379.208	331.56
379.588	324.33
379.968	326.81
380.349	348.96
380.729	323.2
381.109	334.72
381.489	342.18
381.87	336.76
382.25	359.81
382.63	334.27
383.01	352.8
383.39	345.12
383.77	323.42
384.15	339.47
384.53	329.07
384.91	348.28
385.29	346.47
385.67	354.61
386.049	353.48
386.429	344.21
386.809	357.77
387.189	367.26
387.568	358.23
387.948	347.83
388.328	381.5
388.707	355.06
389.087	366.81
389.466	355.06
389.846	368.85
390.225	349.86
390.605	349.64
390.984	376.3
391.363	369.98
391.743	382.18
392.122	383.31
392.501	364.55
392.881	361.84
393.26	367.94
393.639	367.72
394.018	366.81
394.397	379.92
394.776	398.22
395.155	382.41
395.534	376.76
395.913	350.32
396.292	395.96
396.671	379.92
397.05	402.74
397.429	393.25
397.808	395.74
398.186	398.45
398.565	393.03
398.944	403.2
399.323	398.45
399.701	396.19
400.08	381.05
400.458	397.55
400.837	414.49
401.215	417.21
401.594	396.87
401.972	419.47
402.351	411.78
402.729	428.73
403.107	398.45
403.486	393.93
403.864	417.21
404.242	424.89
404.62	422.18
404.999	417.66
405.377	430.77
405.755	429.41
406.133	442.06
406.511	446.36
406.889	426.47
407.267	421.5
407.645	457.43
408.023	465.57
408.401	444.78
408.779	484.1
409.156	477.54
409.534	478.67
409.912	476.19
410.29	456.98
410.667	485
411.045	483.42
411.422	497.43
411.8	495.17
412.178	496.07
412.555	506.47
412.933	508.73
413.31	525.68
413.687	508.5
414.065	508.5
414.442	526.58
414.819	515.51
415.197	534.04
415.574	518.67
415.951	521.84
416.328	578.78
416.705	557.09
417.082	573.13
417.46	577.88
417.837	597.99
418.214	592.34
418.591	579.69
418.967	598.9
419.344	593.47
419.721	614.94
420.098	606.81
420.475	612
420.852	641.83
421.228	633.7
421.605	616.75
421.982	631.66
422.358	639.35
422.735	633.25
423.111	669.63
423.488	664.21
423.864	642.06
424.241	682.06
424.617	684.32
424.994	672.12
425.37	685.45
425.746	698.78
426.123	722.96
426.499	706.24
426.875	743.98
427.251	721.83
427.627	741.04
428.003	731.32
428.379	769.06
428.756	753.02
429.132	763.19
429.507	759.57
429.883	772.23
430.259	804.32
430.635	789.85
431.011	803.86
431.387	806.35
431.763	823.98
432.138	830.98
432.514	834.14
432.89	804.32
433.265	849.06
433.641	869.4
434.016	858.78
434.392	895.61
434.767	900.36
435.143	882.28
435.518	904.65
435.894	905.78
436.269	929.28
436.644	920.47
437.02	930.41
437.395	943.07
437.77	964.08
438.145	981.94
438.52	966.8
438.895	972.67
439.271	983.52
439.646	1001.37
440.021	990.52
440.395	1015.16
440.77	974.25
441.145	1010.41
441.52	1040.92
441.895	1001.6
442.27	1026.68
442.645	1031.43
443.019	1025.33
443.394	1045.89
443.769	1053.57
444.143	1063.52
444.518	1062.16
444.892	1044.53
445.267	1057.87
445.641	1081.82
446.016	1054.7
446.39	1088.38
446.764	1098.54
447.139	1086.57
447.513	1066.46
447.887	1101.26
448.262	1089.51
448.636	1100.13
449.01	1146.68
449.384	1102.39
449.758	1139
450.132	1129.28
450.506	1148.03
450.88	1143.97
451.254	1126.11
451.628	1146.9
452.002	1169.73
452.376	1185.32
452.75	1183.74
453.123	1160.69
453.497	1189.39
453.871	1173.12
454.244	1216.96
454.618	1202.5
454.992	1218.09
455.365	1229.61
455.739	1214.7
456.112	1269.16
456.486	1290.18
456.859	1268.03
457.232	1252.66
457.606	1276.62
457.979	1298.54
458.352	1286.11
458.725	1318.88
459.099	1319.33
459.472	1369.5
459.845	1353
460.218	1336.96
460.591	1359.55
460.964	1380.12
461.337	1403.4
461.71	1397.97
462.083	1423.06
462.456	1432.1
462.829	1436.39
463.201	1449.27
463.574	1436.84
463.947	1480.23
464.32	1498.31
464.692	1481.13
465.065	1501.92
465.438	1521.13
465.81	1554.35
466.183	1555.03
466.555	1567.91
466.928	1587.12
467.3	1594.58
467.672	1595.71
468.045	1609.72
468.417	1600.9
468.789	1645.65
469.161	1690.39
469.534	1655.14
469.906	1706.66
470.278	1699.43
470.65	1706.44
471.022	1743.27
471.394	1750.5
471.766	1778.3
472.138	1784.85
472.51	1845.19
472.882	1853.1
473.253	1862.59
473.625	1871.86
473.997	1891.52
474.369	1944.17
474.74	1947.34
475.112	1983.04
475.484	1988.46
475.855	1992.08
476.227	2042.93
476.598	2087.22
476.97	2087.9
477.341	2164.28
477.713	2154.56
478.084	2200.66
478.455	2227.78
478.827	2251.96
479.198	2277.95
479.569	2281.56
479.94	2306.87
480.311	2324.95
480.682	2379.41
481.053	2397.95
481.424	2469.13
481.795	2473.65
482.166	2538.28
482.537	2523.59
482.908	2587.09
483.279	2588.22
483.65	2625.06
484.021	2644.04
484.391	2711.61
484.762	2731.04
485.133	2707.32
485.503	2750.48
485.874	2796.8
486.244	2827.31
486.615	2872.96
486.985	2919.97
487.356	2917.03
487.726	2943.24
488.097	2959.29
488.467	3034.09
488.837	3107.53
489.207	3137.81
489.578	3117.7
489.948	3122.45
490.318	3198.38
490.688	3203.35
491.058	3247.41
491.428	3273.85
491.798	3310.46
492.168	3368.99
492.538	3363.12
492.908	3377.81
493.278	3438.6
493.648	3445.38
494.017	3489.89
494.387	3488.09
494.757	3571.02
495.126	3543.23
495.496	3568.99
495.866	3600.63
496.235	3633.39
496.605	3659.61
496.974	3670.23
497.344	3731.47
497.713	3735.99
498.082	3729.66
498.452	3759.49
498.821	3787.29
499.19	3832.03
499.559	3763.11
499.928	3820.05
500.298	3803.33
500.667	3884.01
501.036	3872.48
501.405	3899.6
501.774	3928.53
502.143	3921.75
502.512	3960.84
502.88	3973.27
503.249	3981.41
503.618	4067.28
503.987	3999.26
504.356	4035.42
504.724	4062.08
505.093	4050.11
505.462	4065.02
505.83	4082.65
506.199	4099.6
506.567	4173.94
506.936	4114.96
507.304	4204
507.672	4184.79
508.041	4232.47
508.409	4230.21
508.777	4276.31
509.145	4294.62
509.514	4312.7
509.882	4290.78
510.25	4322.19
510.618	4314.28
510.986	4354.28
511.354	4413.94
511.722	4376.2
512.09	4381.62
512.458	4397.89
512.826	4457.1
513.193	4424.11
513.561	4452.58
513.929	4491.9
514.297	4544.33
514.664	4519.7
515.032	4526.7
515.4	4535.97
515.767	4560.83
516.135	4609.64
516.502	4536.87
516.869	4590.88
517.237	4619.36
517.604	4602.18
517.972	4640.82
518.339	4611.45
518.706	4653.25
519.073	4700.71
519.44	4654.38
519.808	4772.8
520.175	4675.4
520.542	4739.13
520.909	4742.97
521.276	4739.35
521.643	4826.13
522.009	4809.86
522.376	4886.69
522.743	4835.4
523.11	4860.03
523.477	4898.67
523.843	4959.01
524.21	4969.63
524.577	4983.41
524.943	5022.51
525.31	5002.17
525.676	5038.33
526.043	5074.49
526.409	5109.29
526.776	5145.67
527.142	5185.22
527.508	5180.92
527.874	5221.37
528.241	5232
528.607	5230.41
528.973	5313.35
529.339	5262.95
529.705	5290.52
530.071	5319.22
530.437	5336.4
530.803	5357.87
531.169	5403.29
531.535	5449.62
531.901	5430.18
532.267	5464.98
532.632	5526.45
532.998	5541.37
533.364	5555.15
533.73	5565.77
534.095	5589.5
534.461	5633.79
534.826	5679.67
535.192	5664.07
535.557	5691.87
535.923	5700.46
536.288	5698.2
536.653	5761.92
537.019	5800.79
537.384	5794.01
537.749	5785.65
538.114	5825.43
538.479	5849.61
538.845	5891.41
539.21	5873.79
539.575	5908.81
539.94	5934.8
540.305	5980.68
540.67	5986.78
541.034	6022.93
541.399	6024.52
541.764	6126.43
542.129	6091.41
542.494	6140.9
542.858	6156.26
543.223	6161.69
543.587	6231.52
543.952	6191.07
544.316	6278.07
544.681	6210.5
545.045	6270.16
545.41	6327.56
545.774	6282.14
546.138	6334.11
546.503	6353.77
546.867	6373.66
547.231	6457.73
547.595	6460.89
547.959	6469.48
548.324	6528.01
548.688	6531.17
549.052	6507.89
549.416	6535.46
549.779	6582.02
550.143	6583.6
550.507	6594.45
550.871	6603.71
551.235	6555.58
551.599	6726.42
551.962	6754.22
552.326	6751.28
552.689	6724.61
553.053	6723.03
553.417	6756.7
553.78	6860.2
554.143	6823.14
554.507	6847.32
554.87	6868.34
555.234	6871.05
555.597	6894.32
555.96	6871.73
556.323	6960.09
556.686	6958.28
557.05	7014.1
557.413	7036.47
557.776	6993.53
558.139	7019.29
558.502	7050.48
558.865	7031.72
559.228	7126.18
559.59	7151.94
559.953	7120.31
560.316	7179.06
560.679	7235.56
561.041	7279.4
561.404	7278.5
561.767	7283.01
562.129	7303.13
562.492	7361.43
562.854	7352.62
563.217	7364.37
563.579	7355.78
563.941	7449.56
564.304	7394.2
564.666	7497.92
565.028	7494.08
565.39	7471.03
565.753	7571.82
566.115	7628.99
566.477	7611.59
566.839	7615.89
567.201	7702.21
567.563	7655.21
567.925	7706.05
568.287	7723.23
568.648	7777.01
569.01	7791.48
569.372	7913.51
569.734	7875.54
570.095	7874.41
570.457	7990.57
570.819	7933.85
571.18	8005.48
571.542	8072.82
571.903	8097.23
572.265	8129.09
572.626	8155.53
572.987	8187.17
573.349	8262.88
573.71	8309.65
574.071	8355.75
574.432	8388.97
574.794	8465.13
575.155	8503.77
575.516	8583.09
575.877	8563.21
576.238	8664.45
576.599	8791.45
576.96	8766.82
577.32	8869.87
577.681	8914.61
578.042	9005.23
578.403	9114.6
578.763	9175.85
579.124	9225.11
579.485	9310.08
579.845	9443.64
580.206	9540.81
580.566	9604.31
580.927	9753.91
581.287	9807.69
581.648	9990.74
582.008	10174.24
582.368	10239.32
582.728	10426.89
583.089	10517.05
583.449	10682.93
583.809	10908.68
584.169	11034.55
584.529	11190.26
584.889	11406.52
585.249	11457.59
585.609	11731.49
585.969	11940.29
586.329	12111.59
586.688	12406.5
587.048	12564.91
587.408	12803.1
587.768	13006.03
588.127	13238.34
588.487	13413.02
588.846	13763.52
589.206	13865.21
589.565	14092.78
589.925	14400.12
590.284	14622.03
590.643	14961.91
591.003	15244.16
591.362	15512.63
591.721	15770.02
592.08	15975.22
592.44	16275.09
592.799	16608.19
593.158	16820.84
593.517	17068.29
593.876	17555.29
594.235	17627.6
594.593	17934.26
594.952	18322.27
595.311	18590.74
595.67	18851.75
596.029	19219.88
596.387	19564.95
596.746	19851.72
597.104	20087.65
597.463	20417.58
597.822	20700.74
598.18	20926.72
598.538	21301.18
598.897	21623.2
599.255	21710.88
599.613	22337.53
599.972	22444.88
600.33	22729.84
600.688	22917.18
601.046	23337.28
601.404	23662.25
601.762	23878.96
602.12	24224.94
602.478	24362.34
602.836	24719.84
603.194	24749.22
603.552	25270.79
603.91	25372.48
604.268	25833.71
604.625	25906.48
604.983	26310.31
605.341	26431.21
605.698	26736.29
606.056	27124.07
606.413	27180.34
606.771	27532.43
607.128	27857.39
607.485	27921.12
607.843	28113.2
608.2	28520.65
608.557	28887.19
608.914	28871.37
609.272	29206.51
609.629	29563.56
609.986	29850.1
610.343	29783.21
610.7	30292.81
611.057	30320.6
611.414	30476.98
611.771	30761.72
612.127	30991.09
612.484	31258.66
612.841	31500.23
613.198	31469.5
613.554	31714.91
613.911	31950.61
614.267	32213.21
614.624	32267.89
614.98	32354.22
615.337	32692.97
615.693	32776.58
616.05	32991.94
616.406	33297.92
616.762	33262.67
617.118	33340.41
617.475	33531.14
617.831	33911.69
618.187	33820.17
618.543	34169.77
618.899	34403.66
619.255	34458.35
619.611	34467.16
619.967	34861.72
620.323	34920.48
620.678	34868.73
621.034	35018.1
621.39	35022.17
621.746	35238.66
622.101	35660.35
622.457	35393.69
622.812	35539.45
623.168	35794.13
623.523	35825.77
623.879	36056.5
624.234	35847.91
624.589	36000.23
624.945	36228.69
625.3	36339.43
625.655	36405.41
626.01	36454.9
626.365	36482.25
626.72	36550.27
627.075	36571.74
627.43	36695.57
627.785	36684.95
628.14	36715.69
628.495	36858.96
628.85	36866.87
629.205	36878.17
629.559	37107.09
629.914	37027.77
630.269	37074.77
630.623	37104.38
630.978	36995.68
631.332	37248.33
631.687	37262.34
632.041	37209.01
632.396	37278.61
632.75	37296.69
633.104	37360.64
633.459	37198.84
633.813	37388.21
634.167	37321.09
634.521	37388.66
634.875	37425.72
635.229	37353.64
635.583	37228.89
635.937	37301.43
636.291	37302.79
636.645	37329.46
636.999	37288.33
637.352	37454.42
637.706	37225.73
638.06	37311.6
638.413	37364.48
638.767	37314.32
639.121	37341.89
639.474	37060.99
639.828	37356.8
640.181	37253.75
640.534	37311.6
640.888	37215.11
641.241	37025.74
641.594	37210.59
641.947	37354.77
642.301	37129.46
642.654	37270.93
643.007	37259.18
643.36	37186.64
643.713	37251.49
644.066	37324.94
644.419	37285.62
644.771	36926.98
645.124	36617.61
645.477	36465.3
645.83	36423.72
646.182	36151.86
646.535	36191.63
646.888	36141.46
647.24	36008.36
647.593	36268.02
647.945	36163.61
648.298	36139.43
648.65	35918.87
649.002	36098.75
649.355	36130.84
649.707	35926.78
650.059	36175.59
650.411	36536.26
650.763	36603.6
651.115	36903.7
651.467	36790.04
651.819	37077.71
652.171	36880.88
652.523	36726.31
652.875	36748.91
653.227	36573.09
653.578	36957.04
653.93	36731.05
654.282	36608.12
654.633	36657.38
654.985	36636.59
655.337	36564.05
655.688	36701.9
656.039	36708.23
656.391	36466.65
656.742	36546.2
657.094	36611.96
657.445	36707.55
657.796	36576.26
658.147	36588.91
658.498	36468.01
658.849	36679.76
659.2	36695.8
659.551	36420.33
659.902	36607.67
660.253	36439.76
660.604	36638.4
660.955	36494.9
661.306	36568.8
661.656	36416.49
662.007	36352.76
662.358	36502.13
662.708	36573.09
663.059	36419.65
663.409	36303.95
663.76	36473.43
664.11	36541.68
664.461	36401.12
664.811	36389.14
665.161	36496.26
665.511	36420.1
665.862	36545.52
666.212	36516.6
666.562	36542.81
666.912	36469.82
667.262	36502.81
667.612	36383.49
667.962	36414.23
668.312	36275.47
668.662	36434.11
669.011	36396.15
669.361	36252.65
669.711	36268.24
670.06	36274.57
670.41	36200.9
670.76	36195.25
671.109	36286.77
671.459	36283.61
671.808	36243.61
672.157	36307.79
672.507	36124.06
672.856	36056.27
673.205	36242.71
673.554	36300.1
673.904	36172.65
674.253	36391.63
674.602	36098.3
674.951	35755.26
675.3	35522.05
675.649	36107.12
675.998	36074.12
676.346	36166.32
676.695	36182.14
677.044	35858.76
677.393	35941.24
677.741	36142.37
678.09	35963.16
678.438	35880.91
678.787	35977.4
679.135	35920.45
679.484	35727.92
679.832	35965.42
680.181	35772.66
680.529	35804.52
680.877	35767.69
681.225	35749.84
681.573	35808.59
681.922	35544.19
682.27	35517.98
682.618	35463.74
682.966	35350.53
683.314	35566.79
683.661	35412.22
684.009	35301.49
684.357	35182.85
684.705	35227.82
685.053	35179.23
685.4	35092.9
685.748	35059.91
686.095	34934.04
686.443	34870.54
686.79	34754.61
687.138	34829.64
687.485	34805.68
687.832	34742.63
688.18	34546.25
688.527	34656.53
688.874	34530.89
689.221	34426.26
689.568	34476.2
689.915	34373.38
690.262	34362.08
690.609	34304
690.956	34075.53
691.303	34087.73
691.65	33899.49
691.997	33958.25
692.344	33713.96
692.69	33756.67
693.037	33752.83
693.383	33471.48
693.73	33668.08
694.077	33308.55
694.423	33500.4
694.769	33226.74
695.116	33286.17
695.462	33024.48
695.808	33164.82
696.155	33050.47
696.501	32817.94
696.847	32853.19
697.193	32628.79
697.539	32668.79
697.885	32537.94
698.231	32343.15
698.577	32380.21
698.923	32333.2
699.269	32222.47
699.614	32026.54
699.96	32039.88
700.306	32024.96
700.651	31940.67
700.997	31943.84
701.342	31768.25
701.688	31779.09
702.033	31644.86
702.379	31669.94
702.724	31496.84
703.069	31623.17
703.415	31235.38
703.76	31343.63
704.105	31298.65
704.45	31173.23
704.795	31045.1
705.14	30941.6
705.485	30879.46
705.83	30693.47
706.175	30755.17
706.52	30671.78
706.865	30613.93
707.209	30605.57
707.554	30457.55
707.899	30505
708.243	30400.6
708.588	30376.87
708.932	30076.54
709.277	30071.34
709.621	29995.86
709.966	29946.6
710.31	30067.73
710.654	29809.43
710.998	29860.27
711.342	29817.11
711.687	29626.38
712.031	29679.94
712.375	29421.42
712.719	29527.85
713.063	29461.87
713.407	29564.01
713.75	29430.91
714.094	29316.11
714.438	29239.5
714.782	29205.15
715.125	29093.51
715.469	29088.54
715.812	28943.24
716.156	28978.04
716.499	28863.46
716.843	29003.8
717.186	28627.99
717.53	28860.07
717.873	28740.53
718.216	28725.39
718.559	28508.22
718.902	28402.23
719.246	28531.72
719.589	28355
719.932	28268.45
720.275	28328.79
720.617	28299.64
720.96	28135.12
721.303	28225.51
721.646	28169.02
721.989	27996.59
722.331	28009.93
722.674	28149.58
723.016	27965.86
723.359	28037.5
723.701	28063.71
724.044	27836.15
724.386	27635.02
724.729	27747.34
725.071	27693.1
725.413	27682.7
725.755	27641.12
726.097	27578.3
726.439	27529.49
726.782	27399.77
727.124	27545.53
727.465	27402.26
727.807	27362.94
728.149	27301.7
728.491	27225.09
728.833	27174.24
729.175	27144.64
729.516	27120.01
729.858	27135.15
730.199	27239.1
730.541	27048.82
730.882	27038.88
731.224	27148.26
731.565	26845.44
731.906	26936.96
732.248	26834.14
732.589	26743.97
732.93	26709.17
733.271	26649.29
733.612	26721.15
733.953	26736.51
734.294	26502.85
734.635	26521.15
734.976	26513.47
735.317	26395.51
735.658	26433.92
735.999	26346.92
736.339	26394.6
736.68	26408.61
737.021	26304.66
737.361	26156.87
737.702	26280.03
738.042	26188.05
738.383	26106.47
738.723	26233.48
739.063	26068.06
739.404	26087.72
739.744	25987.16
740.084	25854.96
740.424	25887.72
740.764	25876.88
741.104	25946.7
741.444	25768.63
741.784	25721.4
742.124	25782.64
742.464	25736.99
742.804	25635.75
743.143	25568.18
743.483	25566.6
743.823	25470.56
744.162	25486.38
744.502	25430.56
744.841	25285.25
745.181	25522.31
745.52	25371.13
745.86	25280.06
746.199	25262.2
746.538	25274.63
746.877	25295.42
747.216	25189.44
747.556	25137.23
747.895	25226.72
748.234	25071.93
748.573	25108.99
748.911	25040.06
749.25	24977.01
749.589	24882.1
749.928	24891.14
750.267	24884.59
750.605	24827.19
750.944	24716.68
751.283	24702.9
751.621	24650.24
751.96	24677.81
752.298	24552.62
752.636	24507.19
752.975	24421.77
753.313	24323.24
753.651	24482.79
753.989	24341.78
754.327	24226.75
754.666	24159.41
755.004	24090.71
755.342	24213.19
755.679	24134.55
756.017	24062.91
756.355	24127.32
756.693	23945.18
757.031	23906.76
757.368	23756.48
757.706	23755.58
758.044	23804.39
758.381	23732.75
758.719	23664.05
759.056	23622.7
759.394	23462.48
759.731	23359.65
760.068	23412.08
