Data from hue_70_FLMS001491_48.txt Node
Date: Mon Feb 06 15:20:58 GMT 2017
User: dcchb
Spectrometer: FLMS00149
Trigger mode: 0
Integration Time (sec): 2.000000E-2
Scans to average: 10
Electric dark correction enabled: true
Nonlinearity correction enabled: false
Boxcar width: 0
XAxis mode: Wavelengths
Number of Pixels in Spectrum: 2048
>>>>>Begin Spectral Data<<<<<
341.393	-17.09
341.776	-17.09
342.16	-17.09
342.543	-61.61
342.927	-48.5
343.31	-65.9
343.693	-61.61
344.077	-63.87
344.46	-61.83
344.843	-52.57
345.226	-51.89
345.61	-41.5
345.993	-35.62
346.376	10.71
346.759	24.04
347.142	39.86
347.525	49.12
347.908	50.03
348.291	63.59
348.674	93.64
349.057	103.81
349.44	135
349.823	145.84
350.206	152.4
350.588	205.28
350.971	192.62
351.354	221.77
351.737	237.59
352.119	258.84
352.502	263.35
352.884	251.6
353.267	299.51
353.65	287.53
354.032	307.65
354.414	318.72
354.797	294.31
355.179	313.52
355.562	333.86
355.944	322.56
356.326	334.09
356.709	322.34
357.091	336.8
357.473	325.73
357.855	338.38
358.238	321.88
358.62	324.14
359.002	338.15
359.384	357.59
359.766	341.32
360.148	334.09
360.53	335.9
360.912	337.93
361.294	336.57
361.676	335.22
362.057	326.4
362.439	317.14
362.821	329.57
363.203	330.7
363.584	315.78
363.966	305.16
364.348	323.24
364.729	318.72
365.111	316.91
365.493	297.48
365.874	320.53
366.256	301.55
366.637	320.3
367.019	310.59
367.4	314.2
367.781	315.78
368.163	312.17
368.544	316.23
368.925	313.52
369.306	323.69
369.688	305.16
370.069	304.71
370.45	311.94
370.831	312.17
371.212	325.05
371.593	309.23
371.974	321.66
372.355	313.07
372.736	308.78
373.117	330.92
373.498	312.62
373.879	305.84
374.26	317.14
374.641	313.52
375.021	324.6
375.402	313.07
375.783	324.82
376.163	310.36
376.544	316.91
376.925	338.15
377.305	322.11
377.686	320.53
378.066	323.69
378.447	334.54
378.827	329.79
379.208	324.6
379.588	322.11
379.968	326.18
380.349	325.27
380.729	319.17
381.109	323.01
381.489	330.02
381.87	327.08
382.25	335.44
382.63	354.43
383.01	334.77
383.39	315.56
383.77	320.3
384.15	351.04
384.53	336.35
384.91	332.28
385.29	328.21
385.67	316.23
386.049	348.78
386.429	348.32
386.809	354.43
387.189	352.62
387.568	346.06
387.948	368.44
388.328	363.69
388.707	372.96
389.087	327.31
389.466	354.2
389.846	343.13
390.225	367.98
390.605	353.07
390.984	342.45
391.363	374.54
391.743	363.24
392.122	361.66
392.501	350.13
392.881	365.95
393.26	372.96
393.639	359.85
394.018	359.85
394.397	361.21
394.776	348.55
395.155	394.65
395.534	382.9
395.913	359.62
396.292	382.22
396.671	373.41
397.05	382
397.429	362.79
397.808	378.61
398.186	367.31
398.565	342.45
398.944	376.12
399.323	396.01
399.701	389.23
400.08	402.33
400.458	380.64
400.837	387.65
401.215	367.31
401.594	399.85
401.972	395.1
402.351	400.53
402.729	383.58
403.107	399.4
403.486	398.04
403.864	389.45
404.242	396.46
404.62	394.2
404.999	406.63
405.377	380.19
405.755	421.54
406.133	399.62
406.511	419.51
406.889	410.7
407.267	404.59
407.645	412.73
408.023	422.67
408.401	417.93
408.779	412.96
409.156	435.33
409.534	422.22
409.912	423.58
410.29	445.27
410.667	430.81
411.045	428.32
411.422	445.27
411.8	427.64
412.178	443.24
412.555	445.72
412.933	451.15
413.31	455.44
413.687	461.32
414.065	451.15
414.442	439.4
414.819	469
415.197	454.08
415.574	464.93
415.951	459.06
416.328	475.55
416.705	476.46
417.082	462.9
417.46	473.97
417.837	480.07
418.214	488.66
418.591	488.89
418.967	474.87
419.344	489.11
419.721	483.91
420.098	485.27
420.475	496.57
420.852	503.8
421.228	520.07
421.605	500.18
421.982	502.67
422.358	505.16
422.735	504.48
423.111	525.49
423.488	487.76
423.864	527.08
424.241	536.34
424.617	541.54
424.994	515.33
425.37	531.6
425.746	546.51
426.123	522.78
426.499	553.52
426.875	558.04
427.251	539.73
427.627	569.34
428.003	556.68
428.379	539.96
428.756	574.53
429.132	575.21
429.507	599.62
429.883	584.25
430.259	592.61
430.635	576.11
431.011	569.56
431.387	614.31
431.763	575.89
432.138	601.42
432.514	624.93
432.89	584.25
433.265	636.68
433.641	638.26
434.016	627.19
434.392	639.16
434.767	632.84
435.143	658.6
435.518	664.02
435.894	648.88
436.269	625.83
436.644	660.86
437.02	663.12
437.395	660.63
437.77	663.8
438.145	679.84
438.52	668.99
438.895	678.71
439.271	686.62
439.646	714.87
440.021	695.66
440.395	702.44
440.77	683.46
441.145	696.56
441.52	727.98
441.895	716.9
442.27	728.43
442.645	719.16
443.019	743.79
443.394	747.64
443.769	752.38
444.143	722.78
444.518	733.17
444.892	750.12
445.267	751.25
445.641	748.77
446.016	754.87
446.39	770.91
446.764	774.75
447.139	762.32
447.513	780.4
447.887	756.68
448.262	759.84
448.636	779.05
449.01	801.87
449.384	789.44
449.758	805.04
450.132	803.91
450.506	823.11
450.88	821.31
451.254	806.39
451.628	837.12
452.002	876.45
452.376	851.59
452.75	880.29
453.123	852.27
453.497	885.26
453.871	875.54
454.244	878.71
454.618	886.84
454.992	866.5
455.365	898.14
455.739	932.26
456.112	928.65
456.486	927.52
456.859	934.52
457.232	948.99
457.606	956.9
457.979	960.96
458.352	971.81
458.725	976.33
459.099	995.09
459.472	998.02
459.845	996.44
460.218	1016.78
460.591	1040.74
460.964	1034.63
461.337	1051.81
461.71	1070.79
462.083	1089.32
462.456	1096.1
462.829	1096.1
463.201	1149.66
463.574	1128.87
463.947	1167.06
464.32	1154.86
464.692	1165.03
465.065	1218.81
465.438	1193.05
465.81	1219.71
466.183	1219.49
466.555	1251.58
466.928	1272.14
467.3	1274.63
467.672	1308.75
468.045	1352.37
468.417	1361.63
468.789	1350.11
469.161	1363.66
469.534	1412.48
469.906	1432.36
470.278	1453.83
470.65	1452.93
471.022	1463.32
471.394	1534.06
471.766	1579.7
472.138	1589.42
472.51	1631.23
472.882	1685.69
473.253	1703.54
473.625	1725.24
473.997	1799.13
474.369	1816.08
474.74	1816.53
475.112	1863.76
475.484	1934.27
475.855	1939.02
476.227	2006.36
476.598	2096.3
476.97	2077.32
477.341	2183.3
477.713	2169.52
478.084	2270.08
478.455	2336.29
478.827	2403.19
479.198	2487.7
479.569	2521.15
479.94	2630.52
480.311	2644.31
480.682	2716.62
481.053	2847.02
481.424	2927.01
481.795	2995.49
482.166	3064.18
482.537	3128.82
482.908	3237.74
483.279	3346.66
483.65	3413.33
484.021	3516.6
484.391	3604.06
484.762	3707.11
485.133	3766.09
485.503	3902.36
485.874	4072.52
486.244	4136.47
486.615	4268.9
486.985	4369.01
487.356	4514.32
487.726	4577.37
488.097	4787.53
488.467	4887.19
488.837	4992.5
489.207	5127.41
489.578	5269.55
489.948	5319.94
490.318	5540.73
490.688	5568.3
491.058	5748.41
491.428	5886.26
491.798	6002.19
492.168	6208.06
492.538	6248.96
492.908	6427.26
493.278	6594.94
493.648	6704.32
494.017	6846.46
494.387	7043.52
494.757	7113.8
495.126	7285.09
495.496	7401.25
495.866	7448.02
496.235	7624.52
496.605	7857.73
496.974	8019.76
497.344	8115.8
497.713	8263.6
498.082	8397.6
498.452	8482.57
498.821	8592.18
499.19	8733.19
499.559	8887.99
499.928	9003.46
500.298	9098.83
500.667	9237.36
501.036	9279.84
501.405	9485.71
501.774	9573.62
502.143	9659.49
502.512	9818.58
502.88	9960.73
503.249	10068.97
503.618	10176.54
503.987	10346.03
504.356	10409.53
504.724	10533.82
505.093	10683.87
505.462	10700.14
505.83	10762.06
506.199	10981.72
506.567	11141.94
506.936	11139
507.304	11301.93
507.672	11490.63
508.041	11525.88
508.409	11633.9
508.777	11789.83
509.145	11908.47
509.514	11938.08
509.882	12115.25
510.25	12185.3
510.618	12310.72
510.986	12374
511.354	12493.09
511.722	12599.75
512.09	12773.99
512.458	12751.84
512.826	12935.79
513.193	12968.78
513.561	13139.85
513.929	13157.03
514.297	13359.06
514.664	13474.98
515.032	13500.07
515.4	13681.53
515.767	13681.08
516.135	13795.65
516.502	13799.95
516.869	13999.49
517.237	14010.11
517.604	14046.5
517.972	14267.05
518.339	14323.78
518.706	14312.93
519.073	14390.21
519.44	14592.02
519.808	14633.37
520.175	14730.77
520.542	14961.5
520.909	14967.83
521.276	14929.64
521.643	15102.51
522.009	15198.33
522.376	15260.7
522.743	15439.68
523.11	15563.74
523.477	15641.26
523.843	15743.17
524.21	15859.78
524.577	15940.68
524.943	15977.07
525.31	16124.86
525.676	16226.1
526.043	16323.05
526.409	16347.9
526.776	16541.57
527.142	16563.27
527.508	16605.3
527.874	16796.25
528.241	16805.07
528.607	16844.84
528.973	16916.02
529.339	16999.19
529.705	17068.79
530.071	17231.5
530.437	17326.18
530.803	17286.18
531.169	17398.05
531.535	17423.13
531.901	17472.62
532.267	17513.52
532.632	17595.55
532.998	17582
533.364	17651.15
533.73	17665.16
534.095	17822.44
534.461	17789.9
534.826	17926.62
535.192	17885.26
535.557	18014.53
535.923	18027.63
536.288	18092.94
536.653	18099.72
537.019	18035.99
537.384	18052.49
537.749	18190.79
538.114	18153.96
538.479	18111.25
538.845	18308.98
539.21	18207.52
539.575	18287.97
539.94	18315.08
540.305	18385.14
540.67	18226.5
541.034	18417
541.399	18349.88
541.764	18388.98
542.129	18456.77
542.494	18395.76
542.858	18498.13
543.223	18601.4
543.587	18517.34
543.952	18586.26
544.316	18609.31
544.681	18460.16
545.045	18664.9
545.41	18649.09
545.774	18714.17
546.138	18742.87
546.503	18776.77
546.867	18715.98
547.231	18781.51
547.595	18779.03
547.959	18904.45
548.324	18802.08
548.688	18794.39
549.052	18863.77
549.416	18859.93
549.779	18757.11
550.143	18855.41
550.507	18946.03
550.871	19004.33
551.235	18951.68
551.599	19099.47
551.962	19024.44
552.326	19095.18
552.689	19007.04
553.053	19092.24
553.417	19004.1
553.78	19273.02
554.143	19140.37
554.507	19181.05
554.87	19239.13
555.234	19338.79
555.597	19244.1
555.96	19321.38
556.323	19386.24
556.686	19348.95
557.05	19402.29
557.413	19473.7
557.776	19559.8
558.139	19604.99
558.502	19577.42
558.865	19617.87
559.228	19675.73
559.59	19821.03
559.953	19788.49
560.316	19925.44
560.679	19944.42
561.041	19897.64
561.404	20005.89
561.767	20060.12
562.129	20039.33
562.492	20152.78
562.854	20239.78
563.217	20235.71
563.579	20249.5
563.941	20379.44
564.304	20507.34
564.666	20541.69
565.028	20562.03
565.39	20507.12
565.753	20598.87
566.115	20621.92
566.477	20796.83
566.839	20716.38
567.201	20925.64
567.563	20916.37
567.925	21053.99
568.287	21044.96
568.648	21007.22
569.01	21060.32
569.372	21241.79
569.734	21147.78
570.095	21281.79
570.457	21396.36
570.819	21413.31
571.18	21388.9
571.542	21432.97
571.903	21431.61
572.265	21526.98
572.626	21544.38
572.987	21583.92
573.349	21669.57
573.71	21695.79
574.071	21720.19
574.432	21770.13
574.794	21888.1
575.155	21889
575.516	21782.56
575.877	21941.43
576.238	21972.61
576.599	22053.97
576.96	21979.39
577.32	22063.69
577.681	22141.2
578.042	22274.98
578.403	22202.21
578.763	22232.72
579.124	22272.27
579.485	22236.11
579.845	22270.23
580.206	22229.56
580.566	22225.04
580.927	22295.77
581.287	22361.08
581.648	22298.48
582.008	22362.43
582.368	22239.05
582.728	22451.47
583.089	22421.19
583.449	22287.41
583.809	22415.99
584.169	22386.16
584.529	22356.56
584.889	22480.17
585.249	22363.79
585.609	22272.72
585.969	22473.84
586.329	22281.53
586.688	22350.68
587.048	22402.43
587.408	22292.15
587.768	22286.28
588.127	22338.48
588.487	22270.69
588.846	22404.92
589.206	22253.28
589.565	22341.64
589.925	22376.9
590.284	22396.56
590.643	22426.16
591.003	22363.11
591.362	22457.57
591.721	22354.3
592.08	22316.33
592.44	22375.32
592.799	22404.69
593.158	22341.19
593.517	22362.89
593.876	22440.4
594.235	22301.19
594.593	22403.56
594.952	22418.7
595.311	22335.77
595.67	22363.79
596.029	22511.58
596.387	22552.71
596.746	22597.91
597.104	22373.28
597.463	22445.82
597.822	22420.96
598.18	22335.99
598.538	22317.01
598.897	22484.92
599.255	22232.04
599.613	22594.52
599.972	22549.55
600.33	22549.77
600.688	22450.57
601.046	22585.48
601.404	22597.46
601.762	22493.28
602.12	22733.05
602.478	22632.48
602.836	22600.39
603.194	22602.43
603.552	22612.6
603.91	22554.97
604.268	22640.62
604.625	22607.63
604.983	22585.03
605.341	22551.36
605.698	22572.15
606.056	22695.53
606.413	22702.09
606.771	22746.61
607.128	22814.63
607.485	22765.36
607.843	22756.77
608.2	22827.28
608.557	22999.71
608.914	22824.8
609.272	23002.42
609.629	22953.15
609.986	23005.13
610.343	22930.1
610.7	23246.71
611.057	22952.93
611.414	23100.27
611.771	23180.04
612.127	23176.42
612.484	23196.54
612.841	23446.25
613.198	23220.27
613.554	23136.2
613.911	23383.88
614.267	23253.71
614.624	23341.17
614.98	23346.82
615.337	23368.74
615.693	23507.72
616.05	23374.61
616.406	23554.27
616.762	23500.03
617.118	23555.62
617.475	23554.04
617.831	23587.94
618.187	23611.44
618.543	23570.54
618.899	23631.55
619.255	23549.3
619.611	23707.03
619.967	23773.92
620.323	23920.13
620.678	23742.96
621.034	23686.47
621.39	23626.58
621.746	23551.33
622.101	23955.84
622.457	23706.58
622.812	23689.63
623.168	23863.41
623.523	23782.96
623.879	23943.86
624.234	23805.11
624.589	23819.35
624.945	23820.48
625.3	23926.69
625.655	23998.55
626.01	23935.27
626.365	24008.49
626.72	23912.68
627.075	23913.58
627.43	23855.95
627.785	23851.89
628.14	23866.12
628.495	23876.07
628.85	23887.82
629.205	23716.52
629.559	23881.72
629.914	23855.5
630.269	23906.12
630.623	23730.31
630.978	23809.18
631.332	23914.26
631.687	23826.8
632.041	23772.34
632.396	23762.17
632.75	23714.04
633.104	23686.02
633.459	23683.98
633.813	23618.22
634.167	23669.29
634.521	23742.96
634.875	23649.86
635.229	23640.14
635.583	23642.4
635.937	23479.02
636.291	23490.09
636.645	23491.44
636.999	23569.41
637.352	23523.08
637.706	23430.43
638.06	23466.59
638.413	23539.58
638.767	23368.51
639.121	23400.37
639.474	23264.11
639.828	23270.43
640.181	23338.68
640.534	23397.89
640.888	23336.19
641.241	23252.58
641.594	23275.18
641.947	23223.65
642.301	23198.12
642.654	23355.63
643.007	23205.8
643.36	23238.8
643.713	23112.47
644.066	23240.83
644.419	22977.33
644.771	23027.05
645.124	22718.81
645.477	22709.77
645.83	22522.88
646.182	22597.46
646.535	22454.41
646.888	22466.84
647.24	22331.7
647.593	22509.55
647.945	22482.66
648.298	22378.03
648.65	22378.25
649.002	22286.96
649.355	22469.1
649.707	22278.14
650.059	22350.23
650.411	22800.62
650.763	22630
651.115	22974.62
651.467	22828.64
651.819	22931.46
652.171	22850.56
652.523	22817.34
652.875	22735.08
653.227	22625.25
653.578	22840.16
653.93	22787.28
654.282	22698.92
654.633	22724.68
654.985	22691.69
655.337	22824.57
655.688	22722.88
656.039	22868.18
656.391	22593.84
656.742	22612.15
657.094	22591.13
657.445	22768.75
657.796	22801.07
658.147	22692.37
658.498	22735.31
658.849	22738.02
659.2	22727.4
659.551	22713.39
659.902	22788.64
660.253	22777.56
660.604	22708.64
660.955	22624.57
661.306	22714.06
661.656	22738.47
662.007	22680.84
662.358	22789.99
662.708	22673.39
663.059	22621.64
663.409	22634.74
663.76	22811.24
664.11	22705.93
664.461	22670.9
664.811	22719.26
665.161	22672.26
665.511	22691.24
665.862	22746.83
666.212	22711.13
666.562	22804.91
666.912	22735.76
667.262	22755.64
667.612	22715.65
667.962	22741.86
668.312	22690.11
668.662	22929.88
669.011	22720.39
669.361	22664.57
669.711	22740.73
670.06	22631.58
670.41	22651.92
670.76	22659.15
671.109	22716.32
671.459	22689.88
671.808	22707.74
672.157	22624.35
672.507	22587.51
672.856	22494.86
673.205	22591.36
673.554	22582.77
673.904	22518.59
674.253	22555.88
674.602	22570.34
674.951	22187.98
675.3	22080.86
675.649	22474.07
675.998	22415.09
676.346	22460.74
676.695	22518.36
677.044	22212.83
677.393	22422.55
677.741	22424.35
678.09	22346.84
678.438	22250.8
678.787	22266.62
679.135	22251.03
679.484	22214.64
679.832	22133.29
680.181	22053.29
680.529	22192.27
680.877	22142.1
681.225	22107.07
681.573	22343
681.922	21980.52
682.27	22099.39
682.618	21919.51
682.966	21888.55
683.314	21912.05
683.661	21918.15
684.009	21833.18
684.357	21800.42
684.705	21668.22
685.053	21792.51
685.4	21648.56
685.748	21526.3
686.095	21522.46
686.443	21450.59
686.79	21376.92
687.138	21490.82
687.485	21390.93
687.832	21426.41
688.18	21347.32
688.527	21222.13
688.874	21254.89
689.221	21190.04
689.568	21147.55
689.915	21105.29
690.262	21061.9
690.609	20914.79
690.956	20841.12
691.303	20938.97
691.65	20728.13
691.997	20781.69
692.344	20629.82
692.69	20646.55
693.037	20603.61
693.383	20397.97
693.73	20546.44
694.077	20410.17
694.423	20375.59
694.769	20284.07
695.116	20240.23
695.462	20158.2
695.808	20169.05
696.155	20062.38
696.501	19960.24
696.847	20027.81
697.193	19856.06
697.539	19895.83
697.885	19617.65
698.231	19641.38
698.577	19624.43
698.923	19634.6
699.269	19488.61
699.614	19454.94
699.96	19428.5
700.306	19315.28
700.651	19301.95
700.997	19269.41
701.342	19187.38
701.688	19120.26
702.033	19070.32
702.379	19110.09
702.724	18986.48
703.069	18988.74
703.415	18763.89
703.76	18811.34
704.105	18795.75
704.45	18675.3
704.795	18577.22
705.14	18550.11
705.485	18508.52
705.83	18440.5
706.175	18506.72
706.52	18385.14
706.865	18304.01
707.209	18239.83
707.554	18300.39
707.899	18298.81
708.243	18090.91
708.588	18106.05
708.932	18027.86
709.277	17906.73
709.621	17945.83
709.966	17920.74
710.31	17763.46
710.654	17828.32
710.998	17812.27
711.342	17727.98
711.687	17692.5
712.031	17582.67
712.375	17568.21
712.719	17614.08
713.063	17525.73
713.407	17610.02
713.75	17478.27
714.094	17464.71
714.438	17414.54
714.782	17364.15
715.125	17222.23
715.469	17366.86
715.812	17262.91
716.156	17162.35
716.499	17146.3
716.843	17148.56
717.186	17050.03
717.53	17101.33
717.873	17156.47
718.216	17002.35
718.559	16887.1
718.902	16825.86
719.246	16890.94
719.589	16916.93
719.932	16826.76
720.275	16843.94
720.617	16716.71
720.96	16802.35
721.303	16722.81
721.646	16750.15
721.989	16627.9
722.331	16661.79
722.674	16704.28
723.016	16674.9
723.359	16613.21
723.701	16605.3
724.044	16391.74
724.386	16557.16
724.729	16544.28
725.071	16492.31
725.413	16558.29
725.755	16471.06
726.097	16361.91
726.439	16344.51
726.782	16377.06
727.124	16443.72
727.465	16281.46
727.807	16371.86
728.149	16267.91
728.491	16257.96
728.833	16334.8
729.175	16239.88
729.516	16156.72
729.858	16229.94
730.199	16184.07
730.541	16197.85
730.882	16144.74
731.224	16274.69
731.565	16134.8
731.906	16095.25
732.248	16098.42
732.589	16100
732.93	16076.5
733.271	15982.26
733.612	16130.28
733.953	16062.26
734.294	15976.84
734.635	15972.77
734.976	16101.81
735.317	15992.43
735.658	15998.08
735.999	15992.21
736.339	15938.42
736.68	16059.1
737.021	15901.81
737.361	15906.33
737.702	16041.7
738.042	16078.08
738.383	16022.71
738.723	15973.9
739.063	15974.81
739.404	15947.24
739.744	15942.04
740.084	15938.42
740.424	15932.77
740.764	15936.16
741.104	15978.2
741.444	15901.14
741.784	15956.5
742.124	15930.51
742.464	15944.52
742.804	16025.43
743.143	15979.55
743.483	16074.69
743.823	15932.32
744.162	15959.21
744.502	15987.24
744.841	15954.69
745.181	16154.69
745.52	16087.12
745.86	16073.79
746.199	16076.27
746.538	16086.44
746.877	16154.91
747.216	16222.94
747.556	16221.13
747.895	16278.75
748.234	16231.3
748.573	16304.51
748.911	16310.84
749.25	16342.48
749.589	16364.85
749.928	16393.1
750.267	16513.55
750.605	16456.6
750.944	16477.62
751.283	16607.33
751.621	16556.71
751.96	16575.92
752.298	16648.69
752.636	16784.73
752.975	16795.8
753.313	16873.31
753.651	16966.87
753.989	16968.23
754.327	17065.4
754.666	16951.5
755.004	17179.52
755.342	17273.98
755.679	17345.17
756.017	17317.6
756.355	17443.92
756.693	17450.7
757.031	17676.46
