Data from hue_110_FLMS001491_00062.txt Node
Date: Tue Feb 07 17:01:39 GMT 2017
User: dcchb
Spectrometer: FLMS00149
Trigger mode: 0
Integration Time (sec): 2.000000E-2
Scans to average: 10
Electric dark correction enabled: true
Nonlinearity correction enabled: false
Boxcar width: 0
XAxis mode: Wavelengths
Number of Pixels in Spectrum: 2048
>>>>>Begin Spectral Data<<<<<
341.393	-4.75
341.776	-4.75
342.16	-4.75
342.543	-46.1
342.927	-84.52
343.31	-72.54
343.693	-76.38
344.077	-80.22
344.46	-71.18
344.843	-63.05
345.226	-42.03
345.61	-29.83
345.993	-10.85
346.376	-26.89
346.759	19.89
347.142	35.71
347.525	44.74
347.908	94.91
348.291	74.35
348.674	85.87
349.057	117.51
349.44	131.52
349.823	143.05
350.206	170.84
350.588	216.04
350.971	202.25
351.354	204.97
351.737	234.8
352.119	258.52
352.502	263.27
352.884	272.99
353.267	271.86
353.65	273.21
354.032	287.68
354.414	305.3
354.797	291.74
355.179	318.18
355.562	316.38
355.944	325.64
356.326	326.32
356.709	328.35
357.091	315.02
357.473	333.55
357.855	335.58
358.238	328.8
358.62	360.67
359.002	338.97
359.384	338.52
359.766	342.82
360.148	341.91
360.53	345.08
360.912	333.55
361.294	345.08
361.676	325.19
362.057	330.39
362.439	335.58
362.821	322.25
363.203	333.55
363.584	308.92
363.966	332.42
364.348	326.32
364.729	318.64
365.111	331.06
365.493	305.75
365.874	309.14
366.256	311.86
366.637	297.62
367.019	306.43
367.4	313.89
367.781	315.7
368.163	317.05
368.544	317.51
368.925	322.03
369.306	320.67
369.688	289.26
370.069	312.31
370.45	284.29
370.831	301.46
371.212	313.89
371.593	310.5
371.974	315.92
372.355	314.34
372.736	314.57
373.117	292.2
373.498	302.36
373.879	313.44
374.26	318.64
374.641	323.38
375.021	334
375.402	313.66
375.783	318.41
376.163	323.16
376.544	347.79
376.925	320.44
377.305	315.47
377.686	310.95
378.066	318.86
378.447	314.34
378.827	323.83
379.208	319.54
379.588	339.65
379.968	348.92
380.349	343.04
380.729	328.13
381.109	357.96
381.489	368.58
381.87	339.2
382.25	332.42
382.63	343.72
383.01	332.42
383.39	341.46
383.77	338.97
384.15	361.57
384.53	335.36
384.91	350.05
385.29	351.86
385.67	357.5
386.049	358.63
386.429	367.67
386.809	374.91
387.189	363.15
387.568	355.02
387.948	358.41
388.328	353.21
388.707	355.24
389.087	355.02
389.466	358.41
389.846	378.07
390.225	359.09
390.605	376.71
390.984	362.48
391.363	375.58
391.743	375.58
392.122	384.4
392.501	374.91
392.881	380.33
393.26	372.65
393.639	390.72
394.018	358.86
394.397	379.65
394.776	383.72
395.155	373.55
395.534	358.86
395.913	380.1
396.292	389.37
396.671	406.77
397.05	385.3
397.429	385.3
397.808	412.42
398.186	402.02
398.565	388.24
398.944	388.46
399.323	404.28
399.701	409.25
400.08	401.12
400.458	392.08
400.837	401.12
401.215	413.77
401.594	404.06
401.972	407.22
402.351	436.82
402.729	435.02
403.107	415.13
403.486	419.2
403.864	412.64
404.242	429.82
404.62	415.36
404.999	431.18
405.377	435.92
405.755	416.26
406.133	445.41
406.511	418.07
406.889	448.58
407.267	421.23
407.645	448.35
408.023	453.55
408.401	429.37
408.779	439.76
409.156	446.54
409.534	470.95
409.912	473.89
410.29	442.7
410.667	471.85
411.045	466.65
411.422	481.57
411.8	463.72
412.178	485.18
412.555	480.21
412.933	470.27
413.31	508.01
413.687	479.76
414.065	498.07
414.442	504.62
414.819	496.48
415.197	499.65
415.574	498.29
415.951	526.09
416.328	496.71
416.705	514.79
417.082	513.88
417.46	505.52
417.837	540.1
418.214	542.13
418.591	532.64
418.967	510.27
419.344	535.58
419.721	562.25
420.098	565.86
420.475	566.76
420.852	557.73
421.228	570.61
421.605	555.69
421.982	578.97
422.358	563.38
422.735	565.63
423.111	559.99
423.488	587.33
423.864	601.11
424.241	589.59
424.617	588.69
424.994	597.27
425.37	607.89
425.746	629.36
426.123	623.26
426.499	603.6
426.875	605.63
427.251	628.68
427.627	626.65
428.003	624.39
428.379	624.62
428.756	644.5
429.132	650.38
429.507	643.82
429.883	663.26
430.259	671.62
430.635	681.11
431.011	671.62
431.387	671.62
431.763	719.08
432.138	698.06
432.514	712.98
432.89	714.11
433.265	700.32
433.641	725.18
434.016	724.95
434.392	734.67
434.767	739.64
435.143	721.56
435.518	748
435.894	752.97
436.269	758.62
436.644	768.34
437.02	783.48
437.395	780.77
437.77	772.64
438.145	785.29
438.52	828
438.895	794.33
439.271	802.46
439.646	832.97
440.021	855.12
440.395	844.5
440.77	824.16
441.145	827.1
441.52	877.27
441.895	877.27
442.27	851.95
442.645	855.12
443.019	895.34
443.394	874.33
443.769	875.68
444.143	897.38
444.518	902.58
444.892	892.63
445.267	920.43
445.641	920.65
446.016	938.96
446.39	928.34
446.764	936.7
447.139	925.17
447.513	957.26
447.887	928.34
448.262	970.14
448.636	976.25
449.01	964.27
449.384	982.12
449.758	999.52
450.132	989.13
450.506	997.94
450.88	1008.34
451.254	1030.03
451.628	1004.95
452.002	1013.08
452.376	1045.62
452.75	1030.71
453.123	1046.07
453.497	1053.08
453.871	1081.55
454.244	1103.93
454.618	1066.86
454.992	1103.93
455.365	1136.47
455.739	1161.1
456.112	1152.74
456.486	1152.29
456.859	1177.37
457.232	1197.93
457.606	1178.95
457.979	1213.75
458.352	1213.53
458.725	1251.94
459.099	1253.98
459.472	1287.42
459.845	1278.38
460.218	1296.92
460.591	1328.55
460.964	1323.81
461.337	1365.39
461.71	1348.89
462.083	1406.74
462.456	1404.71
462.829	1400.87
463.201	1419.4
463.574	1449
463.947	1454.2
464.32	1476.57
464.692	1498.72
465.065	1535.33
465.438	1566.96
465.81	1601.77
466.183	1621.88
466.555	1643.12
466.928	1654.42
467.3	1657.36
467.672	1691.93
468.045	1704.59
468.417	1748.2
468.789	1758.15
469.161	1803.57
469.534	1803.12
469.906	1902.77
470.278	1911.59
470.65	1923.57
471.022	1980.51
471.394	1995.43
471.766	2023.9
472.138	2089.44
472.51	2103.22
472.882	2146.84
473.253	2211.69
473.625	2268.41
473.997	2336.66
474.369	2326.94
474.74	2370.33
475.112	2444.46
475.484	2522.19
475.855	2588.86
476.227	2605.13
476.598	2719.02
476.97	2733.71
477.341	2802.64
477.713	2883.31
478.084	2929.64
478.455	3007.83
478.827	3086.25
479.198	3222.51
479.569	3238.56
479.94	3398.78
480.311	3464.77
480.682	3533.69
481.053	3678.1
481.424	3753.8
481.795	3848.71
482.166	3978.2
482.537	4036.5
482.908	4152.43
483.279	4211.64
483.65	4365.08
484.021	4485.98
484.391	4594
484.762	4711.51
485.133	4747.67
485.503	4937.27
485.874	5046.87
486.244	5199.19
486.615	5313.31
486.985	5521.21
487.356	5590.81
487.726	5689.57
488.097	5902.9
488.467	6012.95
488.837	6152.61
489.207	6280.96
489.578	6514.4
489.948	6567.96
490.318	6737.9
490.688	6802.76
491.058	6974.73
491.428	7126.37
491.798	7329.52
492.168	7504.44
492.538	7596.64
492.908	7786.24
493.278	7951.88
493.648	8062.39
494.017	8244.3
494.387	8352.77
494.757	8444.52
495.126	8613.78
495.496	8748.47
495.866	8865.08
496.235	9037.73
496.605	9126.99
496.974	9260.1
497.344	9439.53
497.713	9532.63
498.082	9633.65
498.452	9750.25
498.821	9909.8
499.19	9920.19
499.559	10188.88
499.928	10231.37
500.298	10371.25
500.667	10538.71
501.036	10541.42
501.405	10663.67
501.774	10716.78
502.143	10892.14
502.512	10989.99
502.88	11145.24
503.249	11145.7
503.618	11299.36
503.987	11399.25
504.356	11496.65
504.724	11602.63
505.093	11641.28
505.462	11789.52
505.83	11774.83
506.199	11880.14
506.567	12125.1
506.936	12133.69
507.304	12259.56
507.672	12331.65
508.041	12333.46
508.409	12535.72
508.777	12630.18
509.145	12615.71
509.514	12705.2
509.882	12782.04
510.25	12820.91
510.618	12885.99
510.986	12911.3
511.354	13131.86
511.722	13215.25
512.09	13295.02
512.458	13210.27
512.826	13356.48
513.193	13502.24
513.561	13422.02
513.929	13573.43
514.297	13645.52
514.664	13653.65
515.032	13765.51
515.4	13810.48
515.767	13832.86
516.135	13958.95
516.502	13837.38
516.869	14029.69
517.237	14078.5
517.604	14002.8
517.972	14138.84
518.339	14236.01
518.706	14281.66
519.073	14236.46
519.44	14330.47
519.808	14433.29
520.175	14416.34
520.542	14603.23
520.909	14609.56
521.276	14591.48
521.643	14631.71
522.009	14739.5
522.376	14804.58
522.743	14802.55
523.11	14941.53
523.477	15014.29
523.843	14944.47
524.21	14999.83
524.577	15133.84
524.943	15218.36
525.31	15229.66
525.676	15257.9
526.043	15313.27
526.409	15381.52
526.776	15478.92
527.142	15395.75
527.508	15572.02
527.874	15437.56
528.241	15605.92
528.607	15491.34
528.973	15633.04
529.339	15573.6
529.705	15667.38
530.071	15696.54
530.437	15663.09
530.803	15736.99
531.169	15811.56
531.535	15710.32
531.901	15755.52
532.267	15720.26
532.632	15805.01
532.998	15821.5
533.364	15717.78
533.73	15708.74
534.095	15887.04
534.461	15845.91
534.826	15831.45
535.192	15883.2
535.557	15866.48
535.923	15820.83
536.288	15882.52
536.653	15802.75
537.019	15741.73
537.384	15736.76
537.749	15759.81
538.114	15707.38
538.479	15674.16
538.845	15674.62
539.21	15619.25
539.575	15589.87
539.94	15605.01
540.305	15692.24
540.67	15662.19
541.034	15631.68
541.399	15637.33
541.764	15489.31
542.129	15511.46
542.494	15522.08
542.858	15545.58
543.223	15382.42
543.587	15391.01
543.952	15376.54
544.316	15393.27
544.681	15344.23
545.045	15315.3
545.41	15386.04
545.774	15331.57
546.138	15254.29
546.503	15235.08
546.867	15172.71
547.231	15240.28
547.595	15263.55
547.959	15205.02
548.324	15074.63
548.688	15152.14
549.052	15135.42
549.416	15136.1
549.779	15049.77
550.143	15010.23
550.507	15071.69
550.871	15046.61
551.235	14945.82
551.599	14996.22
551.962	14904.92
552.326	14959.61
552.689	14972.04
553.053	14865.82
553.417	14880.06
553.78	14942.88
554.143	14808.65
554.507	14839.84
554.87	14804.36
555.234	14927.97
555.597	14840.29
555.96	14834.64
556.323	14837.35
556.686	14765.94
557.05	14828.08
557.413	14718.26
557.776	14797.58
558.139	14777.01
558.502	14794.41
558.865	14712.38
559.228	14835.54
559.59	14799.61
559.953	14816.11
560.316	14910.57
560.679	14919.16
561.041	14823.34
561.404	14885.94
561.767	14845.94
562.129	14874.86
562.492	14935.2
562.854	14931.81
563.217	14880.96
563.579	14932.94
563.941	14946.95
564.304	15008.64
564.666	14995.54
565.028	15015.88
565.39	15008.19
565.753	15035.08
566.115	15087.96
566.477	15011.81
566.839	15165.48
567.201	15184.01
567.563	15115.76
567.925	15231.92
568.287	15304.46
568.648	15132.48
569.01	15212.26
569.372	15266.27
569.734	15282.31
570.095	15296.32
570.457	15318.92
570.819	15346.49
571.18	15257.68
571.542	15344.68
571.903	15346.26
572.265	15366.15
572.626	15365.25
572.987	15376.09
573.349	15473.49
573.71	15514.39
574.071	15373.38
574.432	15400.72
574.794	15541.51
575.155	15505.36
575.516	15422.87
575.877	15433.27
576.238	15548.29
576.599	15445.92
576.96	15480.5
577.32	15523.89
577.681	15642.3
578.042	15555.75
578.403	15627.39
578.763	15638.01
579.124	15603.88
579.485	15639.81
579.845	15593.04
580.206	15609.53
580.566	15569.53
580.927	15624.9
581.287	15545.58
581.648	15579.7
582.008	15655.18
582.368	15599.59
582.728	15559.36
583.089	15488.41
583.449	15586.48
583.809	15543.32
584.169	15555.3
584.529	15526.37
584.889	15569.99
585.249	15506.03
585.609	15431.68
585.969	15509.87
586.329	15478.92
586.688	15456.09
587.048	15470.55
587.408	15449.76
587.768	15408.63
588.127	15362.99
588.487	15453.83
588.846	15468.75
589.206	15382.42
589.565	15377.9
589.925	15466.26
590.284	15415.41
590.643	15355.08
591.003	15495.19
591.362	15479.82
591.721	15386.94
592.08	15401.18
592.44	15436.43
592.799	15340.16
593.158	15450.89
593.517	15373.83
593.876	15392.59
594.235	15292.71
594.593	15308.07
594.952	15310.78
595.311	15209.77
595.67	15386.71
596.029	15346.49
596.387	15358.24
596.746	15345.59
597.104	15307.62
597.463	15167.06
597.822	15279.82
598.18	15263.78
598.538	15231.01
598.897	15291.8
599.255	15181.75
599.613	15395.53
599.972	15215.42
600.33	15256.55
600.688	15240.5
601.046	15340.61
601.404	15270.78
601.762	15337.9
602.12	15311.24
602.478	15359.82
602.836	15317.11
603.194	15168.19
603.552	15258.36
603.91	15200.05
604.268	15246.38
604.625	15221.29
604.983	15257.45
605.341	15221.75
605.698	15406.37
606.056	15310.33
606.413	15230.11
606.771	15336.77
607.128	15318.69
607.485	15216.32
607.843	15228.53
608.2	15339.48
608.557	15333.38
608.914	15271.01
609.272	15388.75
609.629	15318.24
609.986	15384.45
610.343	15366.83
610.7	15488.41
611.057	15427.16
611.414	15286.6
611.771	15412.93
612.127	15424.23
612.484	15445.92
612.841	15438.69
613.198	15471.46
613.554	15509.42
613.911	15591.45
614.267	15525.24
614.624	15487.05
614.98	15581.29
615.337	15731.34
615.693	15580.38
616.05	15508.29
616.406	15705.8
616.762	15569.31
617.118	15608.63
617.475	15545.13
617.831	15679.59
618.187	15633.26
618.543	15754.84
618.899	15711.45
619.255	15740.38
619.611	15680.94
619.967	15743.54
620.323	15805.91
620.678	15680.49
621.034	15677.1
621.39	15715.97
621.746	15736.54
622.101	15763.65
622.457	15658.12
622.812	15719.13
623.168	15732.02
623.523	15752.13
623.879	15816.76
624.234	15733.6
624.589	15693.82
624.945	15715.74
625.3	15709.64
625.655	15716.2
626.01	15801.39
626.365	15801.17
626.72	15693.82
627.075	15776.76
627.43	15732.69
627.785	15667.38
628.14	15665.12
628.495	15737.89
628.85	15693.15
629.205	15685.46
629.559	15766.82
629.914	15654.5
630.269	15539.93
630.623	15533.83
630.978	15513.72
631.332	15677.33
631.687	15699.02
632.041	15627.84
632.396	15627.61
632.75	15456.99
633.104	15571.57
633.459	15472.36
633.813	15429.42
634.167	15453.38
634.521	15532.02
634.875	15342.65
635.229	15418.13
635.583	15289.77
635.937	15327.05
636.291	15288.86
636.645	15425.13
636.999	15259.26
637.352	15344.68
637.706	15320.95
638.06	15294.06
638.413	15269.88
638.767	15268.53
639.121	15328.41
639.474	15100.85
639.828	15182.2
640.181	15147.62
640.534	15112.6
640.888	15196.21
641.241	15071.47
641.594	15148.53
641.947	15114.4
642.301	15048.19
642.654	15073.5
643.007	15176.1
643.36	15096.55
643.713	15082.77
644.066	15131.35
644.419	14988.31
644.771	14914.41
645.124	14851.81
645.477	14782.21
645.83	14690.69
646.182	14704.47
646.535	14679.39
646.888	14675.77
647.24	14552.39
647.593	14599.39
647.945	14540.18
648.298	14534.76
648.65	14466.96
649.002	14544.02
649.355	14601.42
649.707	14562.78
650.059	14557.13
650.411	14809.1
650.763	14796.67
651.115	14896.33
651.467	14925.94
651.819	14889.1
652.171	14809.33
652.523	14793.51
652.875	14866.73
653.227	14713.74
653.578	14886.39
653.93	14906.73
654.282	14801.64
654.633	14756.67
654.985	14894.75
655.337	14727.3
655.688	14870.57
656.039	14817.69
656.391	14770.23
656.742	14835.09
657.094	14858.59
657.445	15011.58
657.796	14923.45
658.147	14818.37
658.498	14846.84
658.849	14821.53
659.2	14850.46
659.551	14858.59
659.902	14825.6
660.253	14796
660.604	14942.66
660.955	14809.78
661.306	14877.12
661.656	14901.98
662.007	14848.2
662.358	14876.9
662.708	14857.24
663.059	14862.66
663.409	14801.42
663.76	14909.21
664.11	14918.03
664.461	14881.19
664.811	14910.57
665.161	14899.04
665.511	14917.8
665.862	14937.46
666.212	14931.81
666.562	14972.04
666.912	14900.85
667.262	14893.17
667.612	14831.25
667.962	14928.2
668.312	14952.83
668.662	15016.1
669.011	14840.97
669.361	14893.62
669.711	14830.8
670.06	14878.93
670.41	14797.35
670.76	14821.76
671.109	14885.48
671.459	14822.21
671.808	14823.79
672.157	14861.76
672.507	14798.71
672.856	14759.39
673.205	14813.62
673.554	14827.86
673.904	14720.74
674.253	14823.11
674.602	14815.88
674.951	14521.43
675.3	14489.34
675.649	14792.15
675.998	14614.3
676.346	14695.21
676.695	14740.86
677.044	14559.17
677.393	14637.36
677.741	14644.13
678.09	14647.75
678.438	14585.38
678.787	14589.22
679.135	14541.54
679.484	14465.83
679.832	14478.49
680.181	14455.21
680.529	14461.77
680.877	14447.3
681.225	14440.52
681.573	14517.36
681.922	14350.81
682.27	14354.65
682.618	14362.11
682.966	14300.87
683.314	14280.98
683.661	14294.09
684.009	14198.72
684.357	14156.24
684.705	14154.66
685.053	14086.41
685.4	14132.06
685.748	14067.43
686.095	14075.56
686.443	14040.08
686.79	14005.96
687.138	13988.56
687.485	14010.93
687.832	13984.72
688.18	13951.72
688.527	13818.39
688.874	13798.28
689.221	13747.89
689.568	13745.85
689.915	13689.13
690.262	13768.9
690.609	13581.34
690.956	13519.19
691.303	13556.48
691.65	13503.83
691.997	13510.15
692.344	13342.7
692.69	13377.5
693.037	13332.76
693.383	13200.1
693.73	13322.59
694.077	13158.3
694.423	13140.45
694.769	13068.36
695.116	13098.19
695.462	13039.21
695.808	12953.56
696.155	13066.78
696.501	12908.36
696.847	12903.16
697.193	12802.15
697.539	12771.87
697.885	12721.7
698.231	12715.15
698.577	12693.9
698.923	12611.19
699.269	12507.92
699.614	12494.13
699.96	12420.46
700.306	12407.58
700.651	12350.64
700.997	12382.27
701.342	12297.3
701.688	12312.9
702.033	12259.11
702.379	12172.11
702.724	12161.49
703.069	12128.04
703.415	12036.29
703.76	11951.55
704.105	11947.48
704.45	11930.31
704.795	11887.82
705.14	11822.97
705.485	11785.68
705.83	11740.93
706.175	11730.54
706.52	11627.94
706.865	11640.15
707.209	11618.23
707.554	11611.45
707.899	11582.97
708.243	11434.05
708.588	11518.57
708.932	11413.49
709.277	11403.32
709.621	11426.37
709.966	11288.74
710.31	11375.52
710.654	11256.65
710.998	11269.99
711.342	11199.03
711.687	11235.18
712.031	11154.28
712.375	11155.41
712.719	11124.45
713.063	11142.31
713.407	11177.11
713.75	11119.93
714.094	11037.9
714.438	11003.1
714.782	10985.7
715.125	10959.03
715.469	11014.63
715.812	10902.99
716.156	10891.24
716.499	10866.15
716.843	10921.75
717.186	10899.6
717.53	10892.37
717.873	10893.5
718.216	10816.66
718.559	10799.04
718.902	10731.7
719.246	10782.77
719.589	10728.31
719.932	10666.61
720.275	10753.62
720.617	10722.66
720.96	10652.38
721.303	10682.2
721.646	10677.23
721.989	10647.86
722.331	10755.42
722.674	10621.42
723.016	10586.16
723.359	10562.89
723.701	10629.33
724.044	10500.74
724.386	10522.89
724.729	10591.59
725.071	10501.42
725.413	10500.74
725.755	10510.68
726.097	10460.97
726.439	10393.85
726.782	10412.38
727.124	10485.37
727.465	10433.17
727.807	10418.03
728.149	10419.39
728.491	10417.58
728.833	10377.13
729.175	10410.35
729.516	10411.48
729.858	10416
730.199	10405.38
730.541	10365.15
730.882	10425.04
731.224	10406.28
731.565	10380.74
731.906	10397.24
732.248	10417.13
732.589	10356.11
732.93	10323.34
733.271	10303.91
733.612	10374.19
733.953	10299.16
734.294	10320.86
734.635	10340.52
734.976	10292.61
735.317	10221.88
735.658	10334.64
735.999	10311.37
736.339	10327.64
736.68	10332.84
737.021	10307.3
737.361	10292.61
737.702	10360.86
738.042	10368.31
738.383	10284.93
738.723	10344.13
739.063	10336.68
739.404	10437.01
739.744	10397.47
740.084	10369.22
740.424	10392.72
740.764	10446.96
741.104	10429.1
741.444	10439.73
741.784	10423.45
742.124	10394.98
742.464	10435.21
742.804	10472.04
743.143	10466.62
743.483	10514.75
743.823	10511.36
744.162	10612.6
744.502	10607.18
744.841	10587.52
745.181	10646.95
745.52	10594.52
745.86	10725.14
746.199	10735.54
746.538	10835.87
746.877	10827.06
747.216	10918.13
747.556	10985.02
747.895	11002.2
748.234	11002.87
748.573	11077
748.911	11062.31
749.25	11186.6
749.589	11215.75
749.928	11307.27
750.267	11422.75
750.605	11508.62
750.944	11555.85
751.283	11596.53
751.621	11726.25
751.96	11799.24
752.298	11851.21
752.636	11985.67
752.975	12119.46
753.313	12140.92
753.651	12336.85
753.989	12300.69
754.327	12506.11
754.666	12625.2
755.004	12690.74
755.342	12829.27
755.679	12947.68
756.017	13076.49
