Data from hue_110_FLMS001491_00033.txt Node
Date: Tue Feb 07 17:01:13 GMT 2017
User: dcchb
Spectrometer: FLMS00149
Trigger mode: 0
Integration Time (sec): 2.000000E-2
Scans to average: 10
Electric dark correction enabled: true
Nonlinearity correction enabled: false
Boxcar width: 0
XAxis mode: Wavelengths
Number of Pixels in Spectrum: 2048
>>>>>Begin Spectral Data<<<<<
341.393	-10.9
341.776	-10.9
342.16	-10.9
342.543	-45.48
342.927	-64.46
343.31	-64.69
343.693	-73.05
344.077	-65.82
344.46	-71.02
344.843	-65.59
345.226	-44.12
345.61	-28.98
345.993	-35.76
346.376	8.76
346.759	26.16
347.142	14.86
347.525	43.78
347.908	54.41
348.291	81.07
348.674	108.19
349.057	111.8
349.44	125.36
349.823	140.28
350.206	159.49
350.588	185.02
350.971	227.28
351.354	234.29
351.737	236.32
352.119	250.56
352.502	260.05
352.884	281.29
353.267	295.08
353.65	284
354.032	309.77
354.414	326.49
354.797	319.26
355.179	316.55
355.562	318.81
355.944	325.36
356.326	338.92
356.709	349.76
357.091	333.49
357.473	344.12
357.855	349.09
358.238	350.44
358.62	355.64
359.002	340.95
359.384	365.58
359.766	333.49
360.148	351.12
360.53	356.54
360.912	321.52
361.294	344.34
361.676	322.19
362.057	335.08
362.439	358.13
362.821	342.08
363.203	319.71
363.584	338.24
363.966	335.98
364.348	327.17
364.729	319.03
365.111	332.14
365.493	311.57
365.874	302.76
366.256	315.42
366.637	335.3
367.019	325.36
367.4	323.78
367.781	325.81
368.163	323.78
368.544	312.25
368.925	319.26
369.306	335.75
369.688	312.93
370.069	349.09
370.45	325.58
370.831	324.91
371.212	335.98
371.593	307.51
371.974	315.64
372.355	318.13
372.736	314.06
373.117	335.75
373.498	310.44
373.879	313.16
374.26	310.22
374.641	319.26
375.021	317.22
375.402	325.13
375.783	321.74
376.163	362.65
376.544	334.85
376.925	326.26
377.305	341.18
377.686	321.29
378.066	337.56
378.447	337.34
378.827	341.63
379.208	349.76
379.588	340.5
379.968	340.95
380.349	357.45
380.729	323.55
381.109	356.54
381.489	346.15
381.87	334.62
382.25	321.97
382.63	347.5
383.01	346.15
383.39	322.42
383.77	350.44
384.15	358.8
384.53	367.84
384.91	362.42
385.29	355.41
385.67	357.45
386.049	361.74
386.429	367.62
386.809	364.68
387.189	362.65
387.568	355.87
387.948	355.41
388.328	360.16
388.707	369.43
389.087	363.32
389.466	361.97
389.846	363.1
390.225	376.43
390.605	392.7
390.984	364.45
391.363	387.28
391.743	378.92
392.122	366.04
392.501	385.7
392.881	393.61
393.26	377.33
393.639	354.28
394.018	384.79
394.397	389.09
394.776	396.54
395.155	382.08
395.534	402.87
395.913	385.24
396.292	404.9
396.671	411.23
397.05	399.71
397.429	394.06
397.808	410.1
398.186	404.23
398.565	398.8
398.944	405.13
399.323	428.18
399.701	409.65
400.08	418.46
400.458	405.81
400.837	412.59
401.215	393.61
401.594	422.31
401.972	427.05
402.351	418.92
402.729	428.18
403.107	416.66
403.486	443.55
403.864	433.83
404.242	428.18
404.62	433.38
404.999	426.6
405.377	439.48
405.755	474.73
406.133	427.95
406.511	457.11
406.889	439.71
407.267	448.52
407.645	471.12
408.023	458.46
408.401	460.04
408.779	469.08
409.156	469.54
409.534	451.23
409.912	491.23
410.29	492.36
410.667	472.93
411.045	479.25
411.422	455.3
411.8	481.74
412.178	482.19
412.555	512.47
412.933	494.39
413.31	498.24
413.687	501.85
414.065	503.89
414.442	506.82
414.819	519.93
415.197	508.4
415.574	538.23
415.951	517.22
416.328	531.91
416.705	521.06
417.082	535.52
417.46	530.1
417.837	527.39
418.214	535.75
418.591	539.59
418.967	551.57
419.344	554.05
419.721	546.14
420.098	544.11
420.475	566.71
420.852	566.71
421.228	565.58
421.605	563.54
421.982	586.14
422.358	573.71
422.735	587.27
423.111	570.1
423.488	587.72
423.864	594.28
424.241	612.58
424.617	593.6
424.994	603.54
425.37	598.35
425.746	616.2
426.123	604
426.499	628.63
426.875	648.74
427.251	644.9
427.627	621.4
428.003	644.45
428.379	640.38
428.756	650.1
429.132	665.24
429.507	662.52
429.883	654.16
430.259	674.95
430.635	679.47
431.011	675.18
431.387	661.17
431.763	676.31
432.138	732.58
432.514	701.62
432.89	731
433.265	710.43
433.641	709.98
434.016	746.36
434.392	740.94
434.767	772.58
435.143	762.18
435.518	759.25
435.894	766.25
436.269	786.82
436.644	779.36
437.02	791.34
437.395	794.72
437.77	808.28
438.145	837.66
438.52	825.68
438.895	801.73
439.271	811.22
439.646	805.35
440.021	825.01
440.395	825.46
440.77	840.6
441.145	840.37
441.52	845.35
441.895	836.53
442.27	860.71
442.645	878.11
443.019	882.63
443.394	894.61
443.769	871.33
444.143	874.72
444.518	907.04
444.892	909.3
445.267	914.72
445.641	917.43
446.016	914.5
446.39	925.57
446.764	942.29
447.139	932.8
447.513	952.23
447.887	968.28
448.262	927.83
448.636	977.09
449.01	953.82
449.384	960.14
449.758	979.13
450.132	995.4
450.506	1009.86
450.88	1007.83
451.254	987.26
451.628	1012.57
452.002	1009.41
452.376	1031.33
452.75	1048.96
453.123	1030.65
453.497	1081.5
453.871	1079.46
454.244	1079.24
454.618	1078.56
454.992	1109.74
455.365	1111.33
455.739	1123.76
456.112	1150.65
456.486	1161.27
456.859	1209.18
457.232	1184.32
457.606	1179.57
457.979	1203.53
458.352	1210.99
458.725	1229.06
459.099	1264.54
459.472	1274.26
459.845	1296.41
460.218	1264.54
460.591	1313.36
460.964	1325.11
461.337	1350.19
461.71	1381.83
462.083	1371.21
462.456	1411.88
462.829	1391.09
463.201	1387.25
463.574	1426.57
463.947	1483.97
464.32	1471.09
464.692	1494.14
465.065	1507.93
465.438	1535.27
465.81	1580.47
466.183	1586.34
466.555	1606
466.928	1636.96
467.3	1632.67
467.672	1636.28
468.045	1722.16
468.417	1699.56
468.789	1737.75
469.161	1747.24
469.534	1791.99
469.906	1827.24
470.278	1859.1
470.65	1872.89
471.022	1929.84
471.394	1960.57
471.766	1950.63
472.138	2055.93
472.51	2100.68
472.882	2146.33
473.253	2168.7
473.625	2241.92
473.997	2261.35
474.369	2270.62
474.74	2342.48
475.112	2370.73
475.484	2441.91
475.855	2488.24
476.227	2570.72
476.598	2661.34
476.97	2696.82
477.341	2809.81
477.713	2870.83
478.084	2917.61
478.455	2978.85
478.827	3055
479.198	3162.12
479.569	3215.68
479.94	3313.53
480.311	3386.75
480.682	3477.14
481.053	3629.45
481.424	3748.55
481.795	3819.05
482.166	3831.26
482.537	3945.15
482.908	4102.89
483.279	4219.72
483.65	4308.3
484.021	4422.43
484.391	4558.92
484.762	4674.17
485.133	4759.59
485.503	4840.72
485.874	5044.78
486.244	5143.76
486.615	5293.59
486.985	5402.74
487.356	5583.3
487.726	5649.29
488.097	5859.9
488.467	5917.3
488.837	6128.14
489.207	6241.81
489.578	6413.33
489.948	6520.9
490.318	6706.66
490.688	6782.82
491.058	6995.69
491.428	7187.1
491.798	7301.45
492.168	7450.37
492.538	7551.38
492.908	7766.97
493.278	7926.29
493.648	7987.08
494.017	8216
494.387	8328.09
494.757	8444.24
495.126	8609.66
495.496	8685.36
495.866	8864.12
496.235	9027.5
496.605	9156.09
496.974	9252.58
497.344	9370.77
497.713	9575.74
498.082	9587.71
498.452	9796.3
498.821	9915.61
499.19	10028.15
499.559	10159.9
499.928	10240.13
500.298	10308.6
500.667	10535.03
501.036	10512.44
501.405	10625.43
501.774	10742.94
502.143	10916.72
502.512	11004.17
502.88	11117.39
503.249	11094.12
503.618	11298.18
503.987	11339.08
504.356	11464.95
504.724	11594.21
505.093	11673.31
505.462	11724.83
505.83	11934.09
506.199	11855
506.567	12104.48
506.936	12056.8
507.304	12263.12
507.672	12316.91
508.041	12408.43
508.409	12447.98
508.777	12585.15
509.145	12643.68
509.514	12691.36
509.882	12775.88
510.25	12848.87
510.618	12820.62
510.986	12925.71
511.354	13028.3
511.722	13132.71
512.09	13243.89
512.458	13163.44
512.826	13326.82
513.193	13452.25
513.561	13453.38
513.929	13437.56
514.297	13591.22
514.664	13729.53
515.032	13712.58
515.4	13805.46
515.767	13831.22
516.135	13941.95
516.502	13778.34
516.869	14003.19
517.237	14012.23
517.604	13931.78
517.972	14095.17
518.339	14195.95
518.706	14141.27
519.073	14170.42
519.44	14196.41
519.808	14312.34
520.175	14341.94
520.542	14533.57
520.909	14570.41
521.276	14504.65
521.643	14664.87
522.009	14546.68
522.376	14702.83
522.743	14626.68
523.11	14793.68
523.477	14858.99
523.843	14879.33
524.21	15052.2
524.577	14928.14
524.943	14954.13
525.31	15092.88
525.676	15214.01
526.043	15207.23
526.409	15214.01
526.776	15304.85
527.142	15275.47
527.508	15346.21
527.874	15397.5
528.241	15419.2
528.607	15373.78
528.973	15471.4
529.339	15428.01
529.705	15504.17
530.071	15452.19
530.437	15521.34
530.803	15542.13
531.169	15532.19
531.535	15494.68
531.901	15454.68
532.267	15515.69
532.632	15568.12
532.998	15525.41
533.364	15613.77
533.73	15554.34
534.095	15552.75
534.461	15550.04
534.826	15617.39
535.192	15575.35
535.557	15623.94
535.923	15554.56
536.288	15579.42
536.653	15583.94
537.019	15499.2
537.384	15468.01
537.749	15394.34
538.114	15478.86
538.479	15416.04
538.845	15413.55
539.21	15343.04
539.575	15304.63
539.94	15278.64
540.305	15348.69
540.67	15312.08
541.034	15408.8
541.399	15291.07
541.764	15191.86
542.129	15277.73
542.494	15198.87
542.858	15209.94
543.223	15152.77
543.587	15169.26
543.952	15127
544.316	15126.55
544.681	15025.99
545.045	14961.81
545.41	14952.32
545.774	14863.73
546.138	14980.57
546.503	14972.43
546.867	14801.81
547.231	14848.82
547.595	14834.81
547.959	14828.48
548.324	14786.9
548.688	14780.12
549.052	14672.78
549.416	14722.72
549.779	14683.63
550.143	14661.48
550.507	14658.77
550.871	14673.68
551.235	14664.87
551.599	14611.99
551.962	14605.66
552.326	14644.76
552.689	14634.36
553.053	14436.17
553.417	14429.85
553.78	14608.15
554.143	14491.77
554.507	14469.17
554.87	14409.28
555.234	14522.05
555.597	14412.67
555.96	14429.62
556.323	14370.41
556.686	14339.23
557.05	14420.36
557.413	14372.22
557.776	14416.29
558.139	14357.31
558.502	14310.53
558.865	14324.76
559.228	14369.74
559.59	14350.75
559.953	14314.6
560.316	14402.73
560.679	14426.23
561.041	14463.07
561.404	14392.33
561.767	14455.83
562.129	14434.14
562.492	14539.45
562.854	14438.21
563.217	14383.52
563.579	14401.15
563.941	14536.28
564.304	14492.22
564.666	14517.53
565.028	14504.87
565.39	14606.34
565.753	14586.68
566.115	14620.58
566.477	14663.51
566.839	14623.74
567.201	14635.49
567.563	14618.99
567.925	14650.41
568.287	14649.73
568.648	14622.16
569.01	14725.88
569.372	14755.94
569.734	14695.6
570.095	14795.71
570.457	14773.79
570.819	14723.85
571.18	14774.92
571.542	14827.35
571.903	14816.5
572.265	14884.07
572.626	14985.76
572.987	14861.02
573.349	14919.78
573.71	14912.32
574.071	14968.82
574.432	14993.45
574.794	15023.96
575.155	15011.3
575.516	14955.48
575.877	14988.7
576.238	15031.41
576.599	15047.01
576.96	14961.13
577.32	15007.23
577.681	14994.35
578.042	15019.21
578.403	15015.14
578.763	15007.91
579.124	15040.68
579.485	15176.04
579.845	15195.7
580.206	15085.65
580.566	15029.6
580.927	15016.5
581.287	15094.91
581.648	15035.93
582.008	15054.01
582.368	15034.35
582.728	15090.39
583.089	15054.24
583.449	15018.08
583.809	15098.08
584.169	15104.63
584.529	15066.21
584.889	15137.85
585.249	14980.34
585.609	14958.19
585.969	14983.05
586.329	14946.44
586.688	14971.98
587.048	14997.52
587.408	14863.06
587.768	14911.19
588.127	14993.45
588.487	14836.84
588.846	15068.47
589.206	14874.13
589.565	14957.06
589.925	14963.84
590.284	14893.79
590.643	14922.04
591.003	14834.36
591.362	14902.38
591.721	14921.36
592.08	14918.42
592.44	14891.76
592.799	14869.38
593.158	14880.23
593.517	14867.58
593.876	14821.7
594.235	14838.65
594.593	14842.04
594.952	14868.48
595.311	14762.49
595.67	14827.12
596.029	14899.21
596.387	14823.73
596.746	14796.62
597.104	14788.48
597.463	14722.04
597.822	14809.05
598.18	14701.03
598.538	14630.52
598.897	14833.9
599.255	14683.17
599.613	14936.95
599.972	14754.58
600.33	14784.64
600.688	14734.7
601.046	14804.98
601.404	14741.7
601.762	14784.19
602.12	14805.66
602.478	14839.78
602.836	14877.29
603.194	14743.06
603.552	14760.91
603.91	14712.55
604.268	14844.3
604.625	14786.45
604.983	14803.85
605.341	14756.39
605.698	14748.03
606.056	14849.27
606.413	14769.27
606.771	14872.55
607.128	14823.51
607.485	14840.01
607.843	14816.73
608.2	14974.47
608.557	14879.1
608.914	14825.77
609.272	14887.46
609.629	14938.31
609.986	14977.63
610.343	14869.84
610.7	15037.51
611.057	14972.21
611.414	14884.07
611.771	14964.97
612.127	14898.31
612.484	15024.18
612.841	15013.56
613.198	14990.28
613.554	14924.52
613.911	15058.53
614.267	15003.39
614.624	15031.41
614.98	15034.35
615.337	15110.05
615.693	15108.7
616.05	15076.84
616.406	15186.44
616.762	15102.6
617.118	15182.37
617.475	15193.44
617.831	15198.87
618.187	15165.87
618.543	15173.33
618.899	15225.08
619.255	15107.34
619.611	15268.24
619.967	15313.44
620.323	15291.52
620.678	15175.14
621.034	15205.42
621.39	15193.22
621.746	15211.29
622.101	15263.95
622.457	15172.43
622.812	15265.53
623.168	15246.77
623.523	15219.66
623.879	15297.39
624.234	15122.48
624.589	15206.78
624.945	15223.5
625.3	15218.98
625.655	15176.27
626.01	15216.72
626.365	15312.08
626.72	15374.68
627.075	15264.17
627.43	15241.8
627.785	15267.34
628.14	15317.51
628.495	15213.33
628.85	15253.55
629.205	15221.24
629.559	15260.33
629.914	15168.36
630.269	15120.68
630.623	15036.16
630.978	15006.78
631.332	15096.95
631.687	15145.31
632.041	15084.97
632.396	15152.54
632.75	15150.73
633.104	15054.46
633.459	15059.43
633.813	15066.44
634.167	15031.19
634.521	14953.45
634.875	15031.19
635.229	14995.26
635.583	14859.21
635.937	14962.94
636.291	14882.94
636.645	14926.56
636.999	14868.93
637.352	14905.54
637.706	14823.96
638.06	14864.19
638.413	14785.32
638.767	14781.48
639.121	14837.07
639.474	14648.6
639.828	14744.19
640.181	14767.69
640.534	14783.06
640.888	14685.21
641.241	14690.4
641.594	14719.1
641.947	14770.18
642.301	14593.91
642.654	14666.9
643.007	14714.13
643.36	14729.95
643.713	14586.9
644.066	14675.26
644.419	14506
644.771	14500.13
645.124	14427.36
645.477	14365.44
645.83	14338.1
646.182	14205.9
646.535	14122.74
646.888	14190.53
647.24	14157.76
647.593	14189.85
647.945	14193.47
648.298	14122.96
648.65	14072.34
649.002	14015.17
649.355	14082.74
649.707	14217.65
650.059	14099.01
650.411	14323.63
650.763	14410.19
651.115	14464.42
651.467	14410.64
651.819	14490.18
652.171	14480.01
652.523	14362.28
652.875	14499.9
653.227	14423.29
653.578	14437.53
653.93	14495.16
654.282	14387.59
654.633	14315.05
654.985	14375.16
655.337	14443.41
655.688	14493.12
656.039	14467.13
656.391	14420.58
656.742	14465.1
657.094	14415.16
657.445	14507.13
657.796	14428.49
658.147	14446.8
658.498	14434.59
658.849	14415.84
659.2	14391.88
659.551	14435.95
659.902	14475.5
660.253	14454.03
660.604	14473.69
660.955	14414.03
661.306	14440.24
661.656	14403.63
662.007	14433.24
662.358	14482.95
662.708	14590.75
663.059	14382.39
663.409	14356.85
663.76	14470.98
664.11	14550.97
664.461	14517.75
664.811	14458.09
665.161	14427.59
665.511	14370.87
665.862	14423.75
666.212	14517.53
666.562	14489.28
666.912	14480.01
667.262	14491.54
667.612	14467.59
667.962	14474.14
668.312	14420.81
668.662	14496.06
669.011	14444.76
669.361	14457.64
669.711	14491.77
670.06	14470.52
670.41	14434.59
670.76	14416.74
671.109	14389.4
671.459	14449.51
671.808	14393.01
672.157	14480.24
672.507	14320.02
672.856	14319.79
673.205	14331.09
673.554	14416.97
673.904	14261.94
674.253	14371.77
674.602	14382.39
674.951	14159.12
675.3	14096.07
675.649	14296.29
675.998	14266.24
676.346	14293.13
676.695	14276.86
677.044	14250.42
677.393	14236.41
677.741	14230.3
678.09	14231.21
678.438	14215.39
678.787	14169.51
679.135	14163.86
679.484	14090.42
679.832	14175.62
680.181	14013.59
680.529	14068.95
680.877	14022.4
681.225	14072.34
681.573	13974.49
681.922	13985.34
682.27	13919.13
682.618	13976.53
682.966	13880.48
683.314	13946.24
683.661	13827.6
684.009	13837.09
684.357	13882.74
684.705	13771.56
685.053	13762.75
685.4	13725.91
685.748	13689.98
686.095	13638.91
686.443	13614.95
686.79	13564.11
687.138	13680.04
687.485	13598.23
687.832	13546.25
688.18	13591.45
688.527	13377.44
688.874	13394.62
689.221	13326.37
689.568	13308.75
689.915	13277.56
690.262	13318.92
690.609	13224.23
690.956	13198.92
691.303	13125.47
691.65	13152.82
691.997	13050
692.344	13013.16
692.69	13001.64
693.037	13033.5
693.383	12890.45
693.73	12962.99
694.077	12906.27
694.423	12833.96
694.769	12783.56
695.116	12725.71
695.462	12725.94
695.808	12617.24
696.155	12671.25
696.501	12617.46
696.847	12543.79
697.193	12446.85
697.539	12526.39
697.885	12374.76
698.231	12399.84
698.577	12340.18
698.923	12323.01
699.269	12214.54
699.614	12177.7
699.96	12113.52
700.306	12115.33
700.651	12103.58
700.997	11972.51
701.342	11979.29
701.688	12014.99
702.033	11924.83
702.379	11896.35
702.724	11855.45
703.069	11763.93
703.415	11682.57
703.76	11710.82
704.105	11626.98
704.45	11591.05
704.795	11544.95
705.14	11503.82
705.485	11510.38
705.83	11434.9
706.175	11377.95
706.52	11420.66
706.865	11366.65
707.209	11410.72
707.554	11305.41
707.899	11315.8
708.243	11241.46
708.588	11168.24
708.932	11157.39
709.277	11179.08
709.621	11147.67
709.966	11012.54
710.31	11055.25
710.654	11057.96
710.998	11041.69
711.342	11031.74
711.687	10992.87
712.031	10908.13
712.375	10849.15
712.719	10940.22
713.063	10892.31
713.407	10899.09
713.75	10827.23
714.094	10802.82
714.438	10760.11
714.782	10798.76
715.125	10718.98
715.469	10684.41
715.812	10671.3
716.156	10612.55
716.499	10598.53
716.843	10664.75
717.186	10524.86
717.53	10552.43
717.873	10588.37
718.216	10578.65
718.559	10535.71
718.902	10478.99
719.246	10503.85
719.589	10486.45
719.932	10374.59
720.275	10406.45
720.617	10378.65
720.96	10360.35
721.303	10428.82
721.646	10343.4
721.989	10322.38
722.331	10366
722.674	10374.81
723.016	10345.89
723.359	10323.51
723.701	10288.94
724.044	10270.18
724.386	10251.88
724.729	10323.51
725.071	10261.14
725.413	10315.83
725.755	10221.82
726.097	10243.52
726.439	10195.61
726.782	10187.25
727.124	10248.04
727.465	10205.1
727.807	10196.29
728.149	10138.89
728.491	10118.1
728.833	10095.95
729.175	10125.55
729.516	10098.89
729.858	10104.76
730.199	10133.01
730.541	10095.27
730.882	10047.36
731.224	10133.24
731.565	9991.55
731.906	10109.06
732.248	10078.77
732.589	10069.96
732.93	10079.23
733.271	10022.5
733.612	10070.87
733.953	10102.5
734.294	10059.79
734.635	10072.67
734.976	10084.42
735.317	10020.7
735.658	10070.64
735.999	10083.29
736.339	10058.66
736.68	10117.19
737.021	10083.75
737.361	10057.53
737.702	10176.4
738.042	10119.23
738.383	10101.15
738.723	10130.75
739.063	10136.63
739.404	10140.24
739.744	10150.64
740.084	10200.35
740.424	10185.21
740.764	10216.17
741.104	10215.49
741.444	10196.74
741.784	10128.04
742.124	10213.69
742.464	10253.91
742.804	10299.33
743.143	10280.35
743.483	10323.29
743.823	10305.44
744.162	10334.36
744.502	10406.22
744.841	10384.3
745.181	10494.36
745.52	10410.97
745.86	10494.58
746.199	10499.33
746.538	10610.74
746.877	10662.71
747.216	10699.55
747.556	10689.15
747.895	10787
748.234	10876.27
748.573	10833.1
748.911	10921.24
749.25	10973.89
749.589	11081.01
749.928	11094.79
750.267	11259.53
750.605	11201.46
750.944	11322.13
751.283	11306.31
751.621	11520.54
751.96	11491.62
752.298	11636.25
752.636	11732.74
752.975	11753.31
753.313	11900.42
753.651	12039.63
753.989	12197.36
754.327	12247.53
754.666	12370.92
755.004	12572.27
755.342	12682.32
755.679	12779.49
756.017	12776.1
