Data from hue_24_FLMS001491_00015.txt Node
Date: Tue Feb 07 17:11:51 GMT 2017
User: dcchb
Spectrometer: FLMS00149
Trigger mode: 0
Integration Time (sec): 2.000000E-2
Scans to average: 10
Electric dark correction enabled: true
Nonlinearity correction enabled: false
Boxcar width: 0
XAxis mode: Wavelengths
Number of Pixels in Spectrum: 2048
>>>>>Begin Spectral Data<<<<<
341.393	-28.23
341.776	-28.23
342.16	-28.23
342.543	-67.33
342.927	-41.79
343.31	-68.23
343.693	-63.71
344.077	-54.67
344.46	-58.29
344.843	-53.09
345.226	-63.04
345.61	-18.74
345.993	-17.61
346.376	-7.67
346.759	23.97
347.142	19
347.525	17.87
347.908	64.19
348.291	79.33
348.674	95.83
349.057	104.87
349.44	132.89
349.823	143.06
350.206	153.46
350.588	175.38
350.971	206.56
351.354	238.43
351.737	244.75
352.119	248.82
352.502	256.28
352.884	280.46
353.267	279.78
353.65	290.18
354.032	317.75
354.414	319.55
354.797	332.21
355.179	313.68
355.562	333.79
355.944	322.27
356.326	325.2
356.709	344.86
357.091	326.79
357.473	364.07
357.855	346.22
358.238	341.25
358.62	352.55
359.002	334.69
359.384	343.06
359.766	336.5
360.148	345.32
360.53	357.07
360.912	330.85
361.294	317.07
361.676	353
362.057	340.12
362.439	338.08
362.821	315.26
363.203	315.26
363.584	326.11
363.966	304.64
364.348	324.3
364.729	317.29
365.111	322.27
365.493	314.81
365.874	317.97
366.256	315.71
366.637	308.03
367.019	314.58
367.4	315.03
367.781	314.36
368.163	318.65
368.544	321.36
368.925	330.17
369.306	336.28
369.688	315.03
370.069	308.93
370.45	296.05
370.831	298.31
371.212	326.33
371.593	310.29
371.974	314.58
372.355	337.18
372.736	310.29
373.117	325.88
373.498	317.52
373.879	320.23
374.26	339.89
374.641	312.77
375.021	308.03
375.402	339.44
375.783	338.54
376.163	336.5
376.544	318.88
376.925	316.16
377.305	344.19
377.686	339.67
378.066	336.05
378.447	334.24
378.827	325.66
379.208	324.75
379.588	325.43
379.968	304.64
380.349	329.72
380.729	360
381.109	353.23
381.489	336.5
381.87	345.77
382.25	350.97
382.63	339.21
383.01	358.42
383.39	354.13
383.77	364.07
384.15	364.52
384.53	349.61
384.91	356.16
385.29	358.87
385.67	339.67
386.049	343.28
386.429	339.67
386.809	351.87
387.189	381.7
387.568	357.29
387.948	346.22
388.328	368.37
388.707	361.36
389.087	357.52
389.466	381.92
389.846	385.31
390.225	363.85
390.605	367.24
390.984	368.14
391.363	373.11
391.743	367.24
392.122	389.83
392.501	362.04
392.881	393.9
393.26	414.47
393.639	382.83
394.018	376.28
394.397	382.83
394.776	392.77
395.155	387.12
395.534	384.86
395.913	405.65
396.292	412.66
396.671	392.77
397.05	393
397.429	388.03
397.808	389.38
398.186	409.27
398.565	415.6
398.944	394.13
399.323	411.08
399.701	413.11
400.08	413.79
400.458	402.04
400.837	403.62
401.215	419.66
401.594	390.96
401.972	400.68
402.351	420.57
402.729	425.09
403.107	434.58
403.486	436.39
403.864	428.93
404.242	436.16
404.62	439.78
404.999	428.93
405.377	442.71
405.755	435.71
406.133	430.74
406.511	440.91
406.889	458.53
407.267	444.3
407.645	444.52
408.023	471.41
408.401	449.27
408.779	448.59
409.156	468.48
409.534	466.22
409.912	464.63
410.29	488.14
410.667	477.06
411.045	489.94
411.422	478.87
411.8	480.23
412.178	480.91
412.555	501.7
412.933	475.48
413.31	491.53
413.687	521.13
414.065	492.43
414.442	487.01
414.819	512.32
415.197	527.01
415.574	529.94
415.951	506.89
416.328	532.43
416.705	513.67
417.082	521.81
417.46	516.16
417.837	546.89
418.214	542.82
418.591	537.85
418.967	551.64
419.344	542.6
419.721	573.56
420.098	543.05
420.475	556.16
420.852	560
421.228	561.81
421.605	559.1
421.982	585.54
422.358	584.86
422.735	567
423.111	568.59
423.488	565.87
423.864	571.98
424.241	610.85
424.617	589.15
424.994	600
425.37	598.64
425.746	610.39
426.123	608.81
426.499	607
426.875	633.44
427.251	647.68
427.627	624.63
428.003	631.18
428.379	658.75
428.756	650.17
429.132	631.18
429.507	673.89
429.883	644.06
430.259	669.38
430.635	657.4
431.011	667.57
431.387	681.58
431.763	717.06
432.138	691.3
432.514	719.09
432.89	717.28
433.265	728.36
433.641	726.1
434.016	737.4
434.392	734.91
434.767	731.29
435.143	717.51
435.518	783.95
435.894	774.91
436.269	780.33
436.644	774.23
437.02	769.71
437.395	765.42
437.77	817.62
438.145	797.28
438.52	823.04
438.895	810.39
439.271	813.33
439.646	845.87
440.021	830.05
440.395	837.96
440.77	832.31
441.145	843.38
441.52	852.2
441.895	826.21
442.27	895.36
442.645	856.04
443.019	845.19
443.394	861.69
443.769	861.91
444.143	883.15
444.518	885.19
444.892	875.02
445.267	880.44
445.641	904.17
446.016	921.35
446.39	912.76
446.764	918.86
447.139	904.62
447.513	909.82
447.887	886.32
448.262	934.68
448.636	925.64
449.01	938.52
449.384	943.72
449.758	946.88
450.132	943.72
450.506	952.08
450.88	980.78
451.254	983.72
451.628	992.08
452.002	991.85
452.376	1016.26
452.75	1003.6
453.123	1022.59
453.497	1001.8
453.871	1026.65
454.244	1089.7
454.618	1077.5
454.992	1064.84
455.365	1065.97
455.739	1094.22
456.112	1108.91
456.486	1101
456.859	1131.96
457.232	1130.38
457.606	1122.47
457.979	1159.08
458.352	1141.68
458.725	1186.42
459.099	1189.36
459.472	1190.04
459.845	1238.4
460.218	1235.69
460.591	1234.11
460.964	1242.02
461.337	1292.41
461.71	1298.74
462.083	1317.72
462.456	1312.52
462.829	1312.97
463.201	1336.48
463.574	1347.78
463.947	1379.19
464.32	1359.98
464.692	1383.48
465.065	1405.63
465.438	1435
465.81	1437.72
466.183	1485.85
466.555	1496.7
466.928	1500.09
467.3	1504.83
467.672	1532.4
468.045	1562.68
468.417	1566.07
468.789	1552.97
469.161	1589.35
469.534	1624.83
469.906	1664.83
470.278	1656.47
470.65	1693.98
471.022	1703.02
471.394	1739.18
471.766	1787.76
472.138	1795.67
472.51	1823.92
472.882	1829.34
473.253	1879.29
473.625	1891.26
473.997	1943.24
474.369	1930.81
474.74	1989.11
475.112	2016.01
475.484	2046.74
475.855	2105.5
476.227	2129.22
476.598	2183.01
476.97	2200.18
477.341	2246.96
477.713	2290.8
478.084	2282.89
478.455	2345.26
478.827	2411.48
479.198	2466.39
479.569	2499.61
479.94	2543.22
480.311	2566.5
480.682	2628.65
481.053	2679.49
481.424	2742.77
481.795	2791.13
482.166	2793.84
482.537	2891.46
482.908	2938.24
483.279	2971.01
483.65	3024.12
484.021	3071.57
484.391	3165.13
484.762	3152.02
485.133	3256.88
485.503	3241.51
485.874	3316.09
486.244	3346.59
486.615	3463.88
486.985	3451.45
487.356	3581.16
487.726	3647.83
488.097	3682.18
488.467	3722.4
488.837	3798.78
489.207	3830.87
489.578	3909.29
489.948	3972.79
490.318	4038.55
490.688	4029.96
491.058	4125.56
491.428	4150.19
491.798	4201.03
492.168	4303.86
492.538	4380.01
492.908	4378.88
493.278	4436.73
493.648	4474.7
494.017	4522.16
494.387	4573
494.757	4614.36
495.126	4722.6
495.496	4697.07
495.866	4746.78
496.235	4841.02
496.605	4880.79
496.974	4893.22
497.344	4972.76
497.713	4962.14
498.082	5011.18
498.452	5082.82
498.821	5120.11
499.19	5084.85
499.559	5140.9
499.928	5196.71
500.298	5236.94
500.667	5268.12
501.036	5309.25
501.405	5379.99
501.774	5384.73
502.143	5448.23
502.512	5459.31
502.88	5473.09
503.249	5484.62
503.618	5504.5
503.987	5512.86
504.356	5587.44
504.724	5645.52
505.093	5651.62
505.462	5686.19
505.83	5723.03
506.199	5791.73
506.567	5840.76
506.936	5844.83
507.304	5910.14
507.672	5883.25
508.041	5973.64
508.409	5998.95
508.777	5999.4
509.145	6045.73
509.514	6075.33
509.882	6054.77
510.25	6085.28
510.618	6148.55
510.986	6208.66
511.354	6230.81
511.722	6262.22
512.09	6329.57
512.458	6329.34
512.826	6378.38
513.193	6395.1
513.561	6445.49
513.929	6461.77
514.297	6468.77
514.664	6495.89
515.032	6525.49
515.4	6536.57
515.767	6625.15
516.135	6629.22
516.502	6529.56
516.869	6737.24
517.237	6718.48
517.604	6645.49
517.972	6746.5
518.339	6807.97
518.706	6793.73
519.073	6837.35
519.44	6827.18
519.808	6943.11
520.175	6939.49
520.542	6984.92
520.909	6963.22
521.276	7045.93
521.643	7084.8
522.009	7159.15
522.376	7193.27
522.743	7198.92
523.11	7223.55
523.477	7336.54
523.843	7402.08
524.21	7383.32
524.577	7436.65
524.943	7499.7
525.31	7500.83
525.676	7588.52
526.043	7634.62
526.409	7654.28
526.776	7781.28
527.142	7673.26
527.508	7767.95
527.874	7825.8
528.241	7854.95
528.607	7886.13
528.973	7983.98
529.339	7986.7
529.705	8061.95
530.071	8118.67
530.437	8121.16
530.803	8188.73
531.169	8263.75
531.535	8208.84
531.901	8210.42
532.267	8307.14
532.632	8329.29
532.998	8384.65
533.364	8387.82
533.73	8424.88
534.095	8512.78
534.461	8532.67
534.826	8603.63
535.192	8653.8
535.557	8656.06
535.923	8648.83
536.288	8724.53
536.653	8749.61
537.019	8713.68
537.384	8825.54
537.749	8804.53
538.114	8827.58
538.479	8878.42
538.845	8987.8
539.21	8924.75
539.575	8951.87
539.94	9003.39
540.305	9083.84
540.67	9092.2
541.034	9092.2
541.399	9129.27
541.764	9187.12
542.129	9236.38
542.494	9202.03
542.858	9265.31
543.223	9352.31
543.587	9433.21
543.952	9402.48
544.316	9451.97
544.681	9423.27
545.045	9513.89
545.41	9550.5
545.774	9609.25
546.138	9528.13
546.503	9632.53
546.867	9630.95
547.231	9725.18
547.595	9739.42
547.959	9752.98
548.324	9800.21
548.688	9840.21
549.052	9866.42
549.416	9917.04
549.779	9871.17
550.143	9924.5
550.507	10012.63
550.871	10061.9
551.235	10055.79
551.599	10152.52
551.962	10116.81
552.326	10154.32
552.689	10274.77
553.053	10189.58
553.417	10180.31
553.78	10329.69
554.143	10304.83
554.507	10326.52
554.87	10413.07
555.234	10542.79
555.597	10411.49
555.96	10482.68
556.323	10517.03
556.686	10512.05
557.05	10613.29
557.413	10608.55
557.776	10641.99
558.139	10646.97
558.502	10756.79
558.865	10701.88
559.228	10811.03
559.59	10768.09
559.953	10817.81
560.316	10959.05
560.679	10894.19
561.041	11025.94
561.404	11046.5
561.767	11126.95
562.129	11116.33
562.492	11229.1
562.854	11164.01
563.217	11235.88
563.579	11277.23
563.941	11350
564.304	11362.2
564.666	11382.77
565.028	11411.47
565.39	11487.17
565.753	11495.76
566.115	11614.62
566.477	11635.64
566.839	11658.92
567.201	11712.47
567.563	11747.28
567.925	11781.4
568.287	11796.31
568.648	11824.11
569.01	12007.38
569.372	12006.48
569.734	11970.55
570.095	12062.75
570.457	12102.52
570.819	12096.65
571.18	12158.79
571.542	12180.94
571.903	12232.46
572.265	12393.36
572.626	12377.54
572.987	12505.22
573.349	12483.3
573.71	12618.67
574.071	12575.95
574.432	12669.51
574.794	12755.61
575.155	12786.12
575.516	12774.59
575.877	12954.02
576.238	13037.86
576.599	13077.86
576.96	13114.02
577.32	13175.49
577.681	13364.86
578.042	13445.99
578.403	13507.46
578.763	13585.42
579.124	13653.89
579.485	13848.24
579.845	13950.38
580.206	13995.35
580.566	14185.18
580.927	14290.71
581.287	14401.22
581.648	14558.28
582.008	14713.75
582.368	14850.02
582.728	15037.13
583.089	15112.16
583.449	15294.53
583.809	15392.83
584.169	15647.74
584.529	15767.51
584.889	16060.38
585.249	16199.81
585.609	16269.64
585.969	16660.37
586.329	16785.11
586.688	16993.69
587.048	17173.57
587.408	17473.23
587.768	17700.79
588.127	18009.48
588.487	18083.61
588.846	18586.42
589.206	18652.41
589.565	18901.66
589.925	19130.58
590.284	19526.05
590.643	19685.37
591.003	20061.86
591.362	20461.85
591.721	20636.08
592.08	20885.57
592.44	21264.09
592.799	21560.8
593.158	21750.85
593.517	22059.32
593.876	22377.73
594.235	22603.04
594.593	22913.99
594.952	23294.32
595.311	23558.26
595.67	23852.04
596.029	24252.48
596.387	24585.13
596.746	24908.29
597.104	25106.25
597.463	25450.87
597.822	25844.08
598.18	26005.88
598.538	26310.96
598.897	26830.04
599.255	26766.77
599.613	27543.7
599.972	27544.15
600.33	28014.87
600.688	28275.2
601.046	28571.01
601.404	28903.66
601.762	29288.74
602.12	29679.69
602.478	29908.61
602.836	30186.11
603.194	30255.04
603.552	30683.95
603.91	30896.6
604.268	31269.93
604.625	31394.67
604.983	31614.78
605.341	31927.76
605.698	32411.82
606.056	32678.02
606.413	32765.48
606.771	33256.09
607.128	33442.3
607.485	33609.07
607.843	33796.87
608.2	34188.04
608.557	34616.96
608.914	34609.95
609.272	35059.43
609.629	35373.1
609.986	35528.8
610.343	35694.44
610.7	36052.85
611.057	36232.51
611.414	36401.77
611.771	36573.29
612.127	37012.83
612.484	37111.81
612.841	37360.16
613.198	37354.51
613.554	37651.91
613.911	38063.19
614.267	38116.53
614.624	38329.63
614.98	38431.77
615.337	38699.56
615.693	38861.82
616.05	38951.08
616.406	39348.36
616.762	39309.94
617.118	39524.17
617.475	39712.64
617.831	39874.9
618.187	40110.82
618.543	40229.24
618.899	40593.52
619.255	40657.7
619.611	40784.93
619.967	41107.18
620.323	41070.35
620.678	41117.35
621.034	41221.76
621.39	41256.1
621.746	41451.58
622.101	41725.7
622.457	41502.2
622.812	41742.65
623.168	41939.48
623.523	41982.19
623.879	42190.32
624.234	42213.14
624.589	42212.69
624.945	42356.64
625.3	42355.28
625.655	42615.16
626.01	42684.32
626.365	42694.26
626.72	42662.62
627.075	42709.63
627.43	42854.03
627.785	42894.71
628.14	42994.36
628.495	43019
628.85	43090.41
629.205	42999.34
629.559	43226.9
629.914	43045.44
630.269	43322.26
630.623	43404.3
630.978	43245.2
631.332	43442.26
631.687	43510.28
632.041	43311.87
632.396	43461.7
632.75	43436.39
633.104	43543.28
633.459	43423.51
633.813	43553.9
634.167	43511.86
634.521	43456.72
634.875	43649.26
635.229	43604.29
635.583	43416.73
635.937	43522.26
636.291	43510.51
636.645	43509.6
636.999	43391.64
637.352	43505.08
637.706	43436.61
638.06	43574.46
638.413	43677.96
638.767	43453.56
639.121	43716.38
639.474	43290.63
639.828	43522.03
640.181	43498.31
640.534	43537.4
640.888	43349.16
641.241	43217.41
641.594	43423.73
641.947	43377.86
642.301	43432.54
642.654	43431.41
643.007	43431.64
643.36	43409.49
643.713	43327.01
644.066	43564.07
644.419	43291.08
644.771	43043.18
645.124	42757.53
645.477	42631.66
645.83	42496.98
646.182	42238.9
646.535	42109.64
646.888	42178.57
647.24	42102.64
647.593	42394.83
647.945	42245.68
648.298	42055.18
648.65	42019.7
649.002	41969.08
649.355	42206.36
649.707	41973.6
650.059	42227.38
650.411	42756.18
650.763	42790.53
651.115	43210.4
651.467	42972.22
651.819	43032.78
652.171	42828.49
652.523	42777.42
652.875	42948.94
653.227	42809.96
653.578	42961.14
653.93	43089.05
654.282	42748.49
654.633	42706.24
654.985	42805.67
655.337	42809.51
655.688	42868.04
656.039	43002.95
656.391	42723.18
656.742	42768.38
657.094	42796.18
657.445	42875.04
657.796	42768.61
658.147	42683.19
658.498	42678.67
658.849	42850.19
659.2	42682.51
659.551	42638.22
659.902	42827.14
660.253	42688.84
660.604	42749.17
660.955	42580.82
661.306	42682.73
661.656	42547.82
662.007	42629.63
662.358	42639.57
662.708	42597.99
663.059	42573.13
663.409	42574.94
663.76	42743.3
664.11	42538.33
664.461	42647.03
664.811	42632.11
665.161	42582.17
665.511	42505.56
665.862	42558.22
666.212	42655.16
666.562	42540.36
666.912	42585.11
667.262	42498.33
667.612	42584.43
667.962	42501.72
668.312	42514.15
668.662	42663.07
669.011	42569.74
669.361	42607.26
669.711	42343.08
670.06	42350.09
670.41	42489.97
670.76	42420.37
671.109	42552.34
671.459	42422.85
671.808	42398.67
672.157	42400.26
672.507	42315.51
672.856	42152.8
673.205	42260.37
673.554	42294.5
673.904	42196.42
674.253	42430.31
674.602	42308.05
674.951	41710.78
675.3	41463.78
675.649	42134.95
675.998	42118.91
676.346	42138.79
676.695	42223.08
677.044	41865.81
677.393	42108.51
677.741	42264.89
678.09	42064.9
678.438	41972.47
678.787	42168.85
679.135	42012.02
679.484	41916.43
679.832	41902.19
680.181	41664.46
680.529	41881.17
680.877	41609.77
681.225	41711.46
681.573	41840.27
681.922	41598.69
682.27	41391.69
682.618	41599.37
682.966	41497.23
683.314	41480.28
683.661	41249.78
684.009	41073.74
684.357	41113.74
684.705	41017.47
685.053	41093.85
685.4	41066.05
685.748	40841.43
686.095	40836.23
686.443	40662
686.79	40603.01
687.138	40797.81
687.485	40822.67
687.832	40767.98
688.18	40686.63
688.527	40401.89
688.874	40407.31
689.221	40315.79
689.568	40202.35
689.915	40162.12
690.262	40153.76
690.609	40016.14
690.956	39989.7
691.303	39827.67
691.65	39752.87
691.997	39709.93
692.344	39444.63
692.69	39448.02
693.037	39330.96
693.383	39112.66
693.73	39235.82
694.077	38968.71
694.423	39050.74
694.769	38908.14
695.116	38750.18
695.462	38870.63
695.808	38674.48
696.155	38760.8
696.501	38321.04
696.847	38425.67
697.193	38235.39
697.539	38352
697.885	38159.91
698.231	37990.65
698.577	38021.16
698.923	38036.98
699.269	37816.87
699.614	37789.53
699.96	37490.1
700.306	37584.56
700.651	37521.74
700.997	37302.54
701.342	37309.32
701.688	37296.21
702.033	37154.07
702.379	37079.04
702.724	36954.97
703.069	37099.15
703.415	36631.59
703.76	36803.11
704.105	36776.67
704.45	36661.65
704.795	36371.49
705.14	36246.74
705.485	36170.14
705.83	36206.52
706.175	36202.23
706.52	36150.25
706.865	35933.53
707.209	35933.53
707.554	35813.54
707.899	35850.6
708.243	35536.25
708.588	35540.55
708.932	35326.32
709.277	35346.2
709.621	35333.32
709.966	35124.06
710.31	35225.08
710.654	34925.2
710.998	34951.64
711.342	34835.48
711.687	34870.51
712.031	34734.47
712.375	34649.72
712.719	34715.03
713.063	34557.75
713.407	34713.45
713.75	34372.44
714.094	34499.67
714.438	34371.31
714.782	34337.64
715.125	34193.69
715.469	34389.17
715.812	34065.79
716.156	33839.35
716.499	33879.58
716.843	33947.14
717.186	33803.42
717.53	33893.81
717.873	33823.98
718.216	33830.31
718.559	33660.6
718.902	33543.76
719.246	33610.66
719.589	33410.21
719.932	33317.33
720.275	33290.66
720.617	33303.77
720.96	33201.63
721.303	33192.59
721.646	33167.96
721.989	33004.12
722.331	33082.31
722.674	32936.32
723.016	32918.02
723.359	32805.93
723.701	32801.19
724.044	32673.96
724.386	32445.71
724.729	32606.16
725.071	32532.94
725.413	32623.34
725.755	32446.62
726.097	32307.19
726.439	32151.26
726.782	32171.15
727.124	32394.87
727.465	32138.6
727.807	32133.63
728.149	32179.51
728.491	32015.67
728.833	32148.1
729.175	31930.02
729.516	31909.91
729.858	31898.61
730.199	31928.67
730.541	31841.89
730.882	31685.96
731.224	31927.08
731.565	31636.92
731.906	31716.02
732.248	31595.57
732.589	31547.89
732.93	31323.71
733.271	31415.01
733.612	31353.31
733.953	31386.31
734.294	31374.56
734.635	31266.76
734.976	31375.69
735.317	31099.99
735.658	31066.32
735.999	31192.64
736.339	30882.14
736.68	31082.81
737.021	30925.98
737.361	30793.55
737.702	30971.18
738.042	30774.35
738.383	30790.62
738.723	30783.84
739.063	30794.68
739.404	30708.81
739.744	30664.97
740.084	30577.97
740.424	30700.45
740.764	30486.9
741.104	30611.19
741.444	30479.66
741.784	30251.87
742.124	30419.1
742.464	30303.85
742.804	30332.32
743.143	30185.89
743.483	30264.3
743.823	29927.59
744.162	30045.78
744.502	30211.42
744.841	30041.03
745.181	30094.36
745.52	29927.81
745.86	30025.44
746.199	29777.31
746.538	29855.73
746.877	29825.44
747.216	29868.38
747.556	29755.16
747.895	29740.25
748.234	29674.49
748.573	29534.6
748.911	29590.2
749.25	29596.75
749.589	29406.92
749.928	29504.55
750.267	29523.53
750.605	29550.65
750.944	29405.34
751.283	29223.2
751.621	29420.03
751.96	29149.76
752.298	29297.1
752.636	29171.68
752.975	28990.89
753.313	29069.53
753.651	29103.43
753.989	28759.48
754.327	28828.18
754.666	28782.99
755.004	28754.96
755.342	28792.03
755.679	28766.49
756.017	28567.17
756.355	28628.64
756.693	28458.7
757.031	28394.75
757.368	28477.46
757.706	28404.47
758.044	28170.8
758.381	28235.2
758.719	28183.23
759.056	28240.4
