Data from hue_110_FLMS001491_00066.txt Node
Date: Tue Feb 07 17:01:40 GMT 2017
User: dcchb
Spectrometer: FLMS00149
Trigger mode: 0
Integration Time (sec): 2.000000E-2
Scans to average: 10
Electric dark correction enabled: true
Nonlinearity correction enabled: false
Boxcar width: 0
XAxis mode: Wavelengths
Number of Pixels in Spectrum: 2048
>>>>>Begin Spectral Data<<<<<
341.393	0.42
341.776	0.42
342.16	0.42
342.543	-56.75
342.927	-68.73
343.31	-70.08
343.693	-97.65
344.077	-71.44
344.46	-49.52
344.843	-51.33
345.226	-34.83
345.61	-27.82
345.993	-22.4
346.376	-17.65
346.759	10.82
347.142	35.68
347.525	39.52
347.908	85.17
348.291	72.06
348.674	92.4
349.057	107.09
349.44	136.47
349.823	128.56
350.206	156.8
350.588	208.1
350.971	199.74
351.354	237.25
351.737	246.97
352.119	253.52
352.502	264.15
352.884	280.19
353.267	283.81
353.65	306.18
354.032	310.7
354.414	303.01
354.797	322
355.179	324.93
355.562	330.81
355.944	333.52
356.326	324.48
356.709	357.02
357.091	355.89
357.473	338.04
357.855	353.41
358.238	343.69
358.62	352.28
359.002	359.74
359.384	337.59
359.766	340.98
360.148	340.98
360.53	358.15
360.912	324.93
361.294	352.05
361.676	337.82
362.057	337.82
362.439	329
362.821	345.73
363.203	322
363.584	323.13
363.966	323.13
364.348	324.03
364.729	332.84
365.111	320.64
365.493	307.76
365.874	316.12
366.256	311.6
366.637	313.86
367.019	317.25
367.4	337.36
367.781	300.53
368.163	310.25
368.544	333.07
368.925	318.16
369.306	329.45
369.688	304.14
370.069	327.42
370.45	300.08
370.831	307.53
371.212	312.73
371.593	324.26
371.974	309.79
372.355	329.68
372.736	312.28
373.117	330.36
373.498	302.79
373.879	322.9
374.26	342.34
374.641	313.86
375.021	315.44
375.402	338.49
375.783	309.34
376.163	338.49
376.544	361.54
376.925	329
377.305	321.09
377.686	335.78
378.066	326.97
378.447	305.5
378.827	328.32
379.208	333.52
379.588	312.28
379.968	348.89
380.349	336.91
380.729	330.81
381.109	350.25
381.489	352.5
381.87	345.27
382.25	329.45
382.63	338.49
383.01	339.4
383.39	344.82
383.77	364.71
384.15	336.91
384.53	364.48
384.91	350.47
385.29	370.58
385.67	323.58
386.049	355.89
386.429	362.9
386.809	346.18
387.189	344.82
387.568	335.33
387.948	340.53
388.328	381.43
388.707	346.63
389.087	361.32
389.466	375.33
389.846	351.15
390.225	383.92
390.605	364.93
390.984	383.92
391.363	384.37
391.743	380.75
392.122	377.59
392.501	381.43
392.881	370.13
393.26	366.97
393.639	382.33
394.018	356.57
394.397	394.31
394.776	402.45
395.155	401.09
395.534	388.21
395.913	386.63
396.292	391.83
396.671	397.02
397.05	407.42
397.429	381.2
397.808	415.33
398.186	411.03
398.565	389.79
398.944	397.48
399.323	413.52
399.701	411.49
400.08	400.19
400.458	411.03
400.837	393.63
401.215	408.55
401.594	380.98
401.972	391.15
402.351	412.84
402.729	420.3
403.107	427.08
403.486	424.82
403.864	428.44
404.242	415.1
404.62	428.89
404.999	456.91
405.377	437.25
405.755	459.62
406.133	455.55
406.511	446.74
406.889	466.17
407.267	435.21
407.645	441.09
408.023	450.81
408.401	440.41
408.779	460.07
409.156	459.62
409.534	472.73
409.912	461.88
410.29	476.8
410.667	487.64
411.045	469.34
411.422	483.12
411.8	459.62
412.178	478.38
412.555	481.77
412.933	486.96
413.31	525.83
413.687	517.25
414.065	498.26
414.442	515.89
414.819	504.59
415.197	514.76
415.574	513.18
415.951	517.02
416.328	541.65
416.705	516.57
417.082	509.56
417.46	521.54
417.837	535.1
418.214	533.07
418.591	555.21
418.967	540.75
419.344	554.99
419.721	533.07
420.098	529
420.475	544.36
420.852	566.96
421.228	550.47
421.605	560.63
421.982	568.54
422.358	596.79
422.735	584.59
423.111	567.87
423.488	558.15
423.864	587.75
424.241	594.76
424.617	592.5
424.994	576.68
425.37	605.15
425.746	607.87
426.123	595.44
426.499	630.24
426.875	614.19
427.251	603.35
427.627	634.08
428.003	618.03
428.379	643.8
428.756	630.92
429.132	633.4
429.507	667.07
429.883	663.68
430.259	667.52
430.635	677.02
431.011	693.96
431.387	663.01
431.763	706.39
432.138	689.9
432.514	700.07
432.89	713.4
433.265	720.4
433.641	718.82
434.016	731.03
434.392	742.55
434.767	755.21
435.143	730.12
435.518	760.63
435.894	740.29
436.269	772.38
436.644	771.93
437.02	775.32
437.395	747.3
437.77	794.53
438.145	792.72
438.52	808.54
438.895	806.5
439.271	802.44
439.646	832.27
440.021	826.39
440.395	819.16
440.77	825.03
441.145	832.04
441.52	874.07
441.895	870.01
442.27	874.3
442.645	875.2
443.019	879.04
443.394	878.82
443.769	886.95
444.143	903.68
444.518	876.33
444.892	889.21
445.267	908.42
445.641	891.7
446.016	944.81
446.39	935.54
446.764	926.95
447.139	938.25
447.513	952.26
447.887	952.26
448.262	939.38
448.636	962.43
449.01	982.77
449.384	945.03
449.758	955.43
450.132	978.48
450.506	983
450.88	1008.31
451.254	1012.15
451.628	1028.87
452.002	1017.57
452.376	1016.89
452.75	1049.44
453.123	1051.47
453.497	1073.84
453.871	1049.21
454.244	1065.03
454.618	1100.28
454.992	1116.1
455.365	1116.33
455.739	1143.67
456.112	1164.46
456.486	1180.05
456.859	1153.39
457.232	1182.77
457.606	1201.3
457.979	1222.54
458.352	1237.91
458.725	1234.97
459.099	1219.15
459.472	1259.6
459.845	1305.25
460.218	1314.29
460.591	1315.64
460.964	1340.05
461.337	1374.62
461.71	1389.54
462.083	1391.12
462.456	1377.79
462.829	1368.52
463.201	1404.45
463.574	1423.66
463.947	1466.37
464.32	1504.34
464.692	1503.44
465.065	1549.31
465.438	1543.89
465.81	1573.04
466.183	1568.97
466.555	1611
466.928	1613.04
467.3	1642.87
467.672	1681.06
468.045	1714.28
468.417	1704.79
468.789	1759.7
469.161	1793.6
469.534	1811.9
469.906	1868.85
470.278	1890.32
470.65	1903.42
471.022	1963.76
471.394	1983.65
471.766	2036.98
472.138	2057.77
472.51	2116.3
472.882	2120.14
473.253	2203.76
473.625	2229.07
473.997	2271.32
474.369	2341.61
474.74	2388.61
475.112	2414.82
475.484	2486.23
475.855	2567.36
476.227	2565.55
476.598	2677.64
476.97	2702.95
477.341	2808.94
477.713	2843.96
478.084	2912.89
478.455	3015.26
478.827	3068.37
479.198	3187.91
479.569	3216.16
479.94	3344.52
480.311	3426.55
480.682	3458.41
481.053	3578.86
481.424	3717.61
481.795	3778.86
482.166	3858.4
482.537	3972.97
482.908	4129.81
483.279	4195.12
483.65	4332.74
484.021	4445.5
484.391	4562.11
484.762	4643.47
485.133	4736.8
485.503	4823.8
485.874	5027.41
486.244	5115.77
486.615	5265.82
486.985	5371.13
487.356	5503.56
487.726	5640.05
488.097	5798.01
488.467	5948.97
488.837	6063.77
489.207	6208.62
489.578	6353.03
489.948	6478.67
490.318	6681.83
490.688	6704.2
491.058	6938.09
491.428	7073.91
491.798	7168.82
492.168	7480.9
492.538	7472.54
492.908	7688.36
493.278	7865.98
493.648	7968.35
494.017	8092.87
494.387	8232.98
494.757	8384.61
495.126	8482.46
495.496	8646.3
495.866	8704.6
496.235	8879.74
496.605	9033.86
496.974	9124.25
497.344	9274.76
497.713	9382.1
498.082	9541.64
498.452	9666.38
498.821	9765.36
499.19	9886.27
499.559	9987.51
499.928	10053.27
500.298	10235.41
500.667	10401.73
501.036	10447.15
501.405	10507.94
501.774	10572.58
502.143	10786.35
502.512	10832.91
502.88	10968.95
503.249	10997.87
503.618	11210.98
503.987	11179.11
504.356	11355.38
504.724	11467.24
505.093	11503.85
505.462	11525.77
505.83	11702.71
506.199	11804.41
506.567	11940.45
506.936	11922.6
507.304	12175.92
507.672	12107.22
508.041	12215.47
508.409	12288.46
508.777	12391.51
509.145	12461.56
509.514	12530.49
509.882	12581.11
510.25	12710.6
510.618	12728.45
510.986	12795.34
511.354	12867.66
511.722	13015.67
512.09	13067.88
512.458	13137.03
512.826	13225.61
513.193	13276.91
513.561	13383.35
513.929	13398.26
514.297	13480.52
514.664	13618.6
515.032	13562.1
515.4	13617.01
515.767	13644.58
516.135	13823.11
516.502	13597.13
516.869	13884.13
517.237	13962.99
517.604	13937.23
517.972	13981.53
518.339	14021.98
518.706	14068.53
519.073	14076.66
519.44	14139.71
519.808	14294.74
520.175	14153.05
520.542	14354.17
520.909	14440.27
521.276	14423.55
521.643	14382.19
522.009	14513.26
522.376	14546.48
522.743	14565.01
523.11	14667.16
523.477	14806.59
523.843	14849.3
524.21	15003.87
524.577	14985.11
524.943	14973.36
525.31	14990.76
525.676	15040.03
526.043	15151.66
526.409	15195.05
526.776	15218.55
527.142	15187.82
527.508	15225.79
527.874	15371.32
528.241	15364.31
528.607	15333.81
528.973	15469.62
529.339	15357.31
529.705	15468.72
530.071	15509.62
530.437	15540.58
530.803	15498.77
531.169	15552.11
531.535	15542.61
531.901	15548.26
532.267	15568.15
532.632	15560.92
532.998	15612.22
533.364	15695.6
533.73	15702.16
534.095	15582.84
534.461	15589.84
534.826	15656.74
535.192	15635.04
535.557	15651.76
535.923	15647.24
536.288	15622.61
536.653	15671.65
537.019	15485.67
537.384	15577.42
537.749	15589.17
538.114	15501.49
538.479	15530.86
538.845	15537.64
539.21	15395.95
539.575	15461.26
539.94	15342.39
540.305	15428.72
540.67	15349.17
541.034	15474.37
541.399	15432.11
541.764	15315.73
542.129	15308.27
542.494	15315.5
542.858	15247.48
543.223	15278.21
543.587	15244.54
543.952	15232.34
544.316	15242.96
544.681	15202.96
545.045	15163.87
545.41	15192.57
545.774	15150.31
546.138	15111.66
546.503	15052.91
546.867	15026.24
547.231	15009.29
547.595	15047.03
547.959	15027.15
548.324	15011.1
548.688	14954.83
549.052	14974.27
549.416	14885.46
549.779	14892.01
550.143	14781.05
550.507	14801.62
550.871	14820.15
551.235	14811.79
551.599	14799.36
551.962	14781.96
552.326	14689.08
552.689	14734.27
553.053	14624.22
553.417	14631.9
553.78	14737.21
554.143	14610.66
554.507	14716.19
554.87	14584.45
555.234	14680.26
555.597	14646.14
555.96	14609.08
556.323	14631.23
556.686	14563.43
557.05	14684.56
557.413	14594.16
557.776	14589.64
558.139	14631
558.502	14626.93
558.865	14542.19
559.228	14635.29
559.59	14567.5
559.953	14605.24
560.316	14707.83
560.679	14643.43
561.041	14622.19
561.404	14731.34
561.767	14723.65
562.129	14642.98
562.492	14767.04
562.854	14762.75
563.217	14696.76
563.579	14723.43
563.941	14714.61
564.304	14729.98
564.666	14787.15
565.028	14755.06
565.39	14802.07
565.753	14757.32
566.115	14798.23
566.477	14846.14
566.839	14933.14
567.201	14988.05
567.563	14939.69
567.925	15034.15
568.287	14962.74
568.648	14997.32
569.01	15018.33
569.372	15034.83
569.734	14984.44
570.095	15051.55
570.457	14999.58
570.819	15039.12
571.18	15034.83
571.542	15135.39
571.903	15144.43
572.265	15142.17
572.626	15203.87
572.987	15153.02
573.349	15210.87
573.71	15292.45
574.071	15178.78
574.432	15152.12
574.794	15246.8
575.155	15247.71
575.516	15193.02
575.877	15271.89
576.238	15255.39
576.599	15340.13
576.96	15363.41
577.32	15331.09
577.681	15395.73
578.042	15417.42
578.403	15284.32
578.763	15226.46
579.124	15310.08
579.485	15350.98
579.845	15416.74
580.206	15317.08
580.566	15335.61
580.927	15325.44
581.287	15375.16
581.648	15198.44
582.008	15379.23
582.368	15294.26
582.728	15280.7
583.089	15334.26
583.449	15265.56
583.809	15306.24
584.169	15290.64
584.529	15278.21
584.889	15371.77
585.249	15302.62
585.609	15160.93
585.969	15312.56
586.329	15248.38
586.688	15342.39
587.048	15268.72
587.408	15112.34
587.768	15210.19
588.127	15157.09
588.487	15057.88
588.846	15188.95
589.206	15180.59
589.565	15197.76
589.925	15185.34
590.284	15133.36
590.643	15128.39
591.003	15143.08
591.362	15216.75
591.721	15210.42
592.08	15092
592.44	15115.28
592.799	15089.07
593.158	15109.63
593.517	15111.89
593.876	15091.33
594.235	15064.66
594.593	15056.3
594.952	15119.35
595.311	15066.47
595.67	15094.26
596.029	15115.73
596.387	15087.94
596.746	15110.76
597.104	15062.85
597.463	15043.19
597.822	15065.56
598.18	15045.9
598.538	15006.13
598.897	14937.43
599.255	14976.3
599.613	15011.1
599.972	15034.38
600.33	15028.28
600.688	15000.71
601.046	14970.2
601.404	15165.67
601.762	15186.24
602.12	15067.15
602.478	15068.28
602.836	15032.12
603.194	14913.7
603.552	15043.87
603.91	14963.42
604.268	15092.91
604.625	14949.64
604.983	15136.07
605.341	15043.87
605.698	15057.88
606.056	15093.81
606.413	15037.54
606.771	15074.38
607.128	15072.8
607.485	14971.56
607.843	15016.53
608.2	15131.1
608.557	15128.84
608.914	15113.47
609.272	15042.97
609.629	15182.4
609.986	15045
610.343	15087.48
610.7	15152.34
611.057	15158.44
611.414	15210.65
611.771	15186.69
612.127	15228.5
612.484	15227.14
612.841	15289.74
613.198	15194.15
613.554	15211.78
613.911	15277.76
614.267	15289.29
614.624	15257.42
614.98	15252.45
615.337	15372.45
615.693	15372.45
616.05	15341.72
616.406	15448.83
616.762	15396.63
617.118	15302.85
617.475	15387.59
617.831	15491.99
618.187	15397.53
618.543	15436.4
618.899	15491.32
619.255	15452.22
619.611	15424.88
619.967	15509.85
620.323	15490.19
620.678	15466.46
621.034	15432.11
621.39	15386.01
621.746	15455.38
622.101	15593.69
622.457	15503.52
622.812	15468.72
623.168	15531.99
623.523	15510.07
623.879	15440.92
624.234	15470.53
624.589	15372.67
624.945	15476.85
625.3	15501.49
625.655	15442.5
626.01	15466.68
626.365	15509.85
626.72	15471.2
627.075	15493.12
627.43	15503.29
627.785	15343.52
628.14	15480.02
628.495	15419.91
628.85	15447.02
629.205	15411.54
629.559	15496.06
629.914	15388.95
630.269	15416.74
630.623	15398.89
630.978	15358.66
631.332	15412.45
631.687	15424.2
632.041	15341.26
632.396	15375.61
632.75	15323.41
633.104	15300.36
633.459	15272.79
633.813	15230.76
634.167	15238.44
634.521	15265.11
634.875	15215.39
635.229	15174.26
635.583	15115.51
635.937	15094.04
636.291	15137.65
636.645	15132
636.999	14965.91
637.352	15094.72
637.706	15049.07
638.06	15156.64
638.413	14988.73
638.767	15000.93
639.121	15026.47
639.474	14887.04
639.828	14977.21
640.181	14907.15
640.534	14966.13
640.888	14957.77
641.241	14828.06
641.594	14910.54
641.947	14872.12
642.301	14847.72
642.654	14873.93
643.007	14921.84
643.36	14857.21
643.713	14816.31
644.066	14907.38
644.419	14696.53
644.771	14673.48
645.124	14581.96
645.477	14603.43
645.83	14563.43
646.182	14485.47
646.535	14391.01
646.888	14301.29
647.24	14291.35
647.593	14379.25
647.945	14323.89
648.298	14311.23
648.65	14266.04
649.002	14251.12
649.355	14375.41
649.707	14392.36
650.059	14444.79
650.411	14497.9
650.763	14558.01
651.115	14729.75
651.467	14658.12
651.819	14683.2
652.171	14613.37
652.523	14593.71
652.875	14607.27
653.227	14567.95
653.578	14704.22
653.93	14669.42
654.282	14657.44
654.633	14455.41
654.985	14516.65
655.337	14586.48
655.688	14649.76
656.039	14714.84
656.391	14611.56
656.742	14587.38
657.094	14630.32
657.445	14688.4
657.796	14617.44
658.147	14639.81
658.498	14658.57
658.849	14640.04
659.2	14608.85
659.551	14627.61
659.902	14726.36
660.253	14601.17
660.604	14620.83
660.955	14620.15
661.306	14669.87
661.656	14651.34
662.007	14690.43
662.358	14649.53
662.708	14669.19
663.059	14647.5
663.409	14595.07
663.76	14730.43
664.11	14729.53
664.461	14667.83
664.811	14646.59
665.161	14750.09
665.511	14633.26
665.862	14666.48
666.212	14716.19
666.562	14769.53
666.912	14724.56
667.262	14621.06
667.612	14632.13
667.962	14617.67
668.312	14651.56
668.662	14810.2
669.011	14694.5
669.361	14725.91
669.711	14584.45
670.06	14661.06
670.41	14555.97
670.76	14606.37
671.109	14551
671.459	14705.12
671.808	14758.45
672.157	14642.07
672.507	14521.17
672.856	14556.88
673.205	14601.17
673.554	14625.35
673.904	14597.33
674.253	14577.67
674.602	14534.28
674.951	14313.72
675.3	14242.54
675.649	14430.78
675.998	14447.5
676.346	14447.73
676.695	14536.76
677.044	14378.35
677.393	14376.09
677.741	14473.04
678.09	14263.78
678.438	14292.03
678.787	14379.25
679.135	14296.77
679.484	14183.55
679.832	14272.59
680.181	14155.76
680.529	14338.35
680.877	14226.04
681.225	14174.51
681.573	14328.18
681.922	14154.4
682.27	14082.31
682.618	14110.79
682.966	14074.63
683.314	14106.49
683.661	14127.28
684.009	14002.09
684.357	13998.7
684.705	13941.53
685.053	13959.38
685.4	13867.86
685.748	13895.2
686.095	13855.65
686.443	13680.97
686.79	13769.33
687.138	13796.9
687.485	13764.36
687.832	13676.67
688.18	13772.72
688.527	13551.93
688.874	13599.61
689.221	13541.76
689.568	13515.55
689.915	13443.91
690.262	13467.41
690.609	13313.52
690.956	13375.44
691.303	13339.28
691.65	13356
691.997	13287.31
692.344	13181.32
692.69	13118.27
693.037	13127.76
693.383	13070.36
693.73	13061.78
694.077	12915.34
694.423	12983.13
694.769	12942.68
695.116	12898.62
695.462	12919.18
695.808	12724.61
696.155	12782.23
696.501	12719.64
696.847	12704.95
697.193	12568.23
697.539	12617.04
697.885	12542.47
698.231	12467.67
698.577	12427.67
698.923	12386.99
699.269	12353.77
699.614	12299.99
699.96	12246.88
700.306	12269.71
700.651	12235.81
700.997	12127.56
701.342	12077.62
701.688	12152.65
702.033	12022.03
702.379	12007.34
702.724	11887.79
703.069	11981.13
703.415	11869.49
703.76	11853.22
704.105	11847.8
704.45	11669.27
704.795	11695.48
705.14	11630.17
705.485	11660.23
705.83	11577.52
706.175	11635.15
706.52	11589.05
706.865	11524.87
707.209	11468.14
707.554	11417.75
707.899	11360.8
708.243	11391.99
708.588	11264.99
708.932	11237.42
709.277	11218.43
709.621	11354.25
709.966	11177.53
710.31	11191.77
710.654	11025.22
710.998	11097.31
711.342	11023.41
711.687	11026.8
712.031	11006.46
712.375	10987.48
712.719	10983.64
713.063	11009.63
713.407	10984.77
713.75	10883.08
714.094	10820.48
714.438	10907.71
714.782	10898.67
715.125	10756.53
715.469	10830.65
715.812	10768.05
716.156	10713.14
716.499	10734.38
716.843	10793.59
717.186	10650.54
717.53	10728.28
717.873	10724.89
718.216	10723.08
718.559	10604.89
718.902	10542.07
719.246	10621.61
719.589	10604.66
719.932	10539.81
720.275	10454.39
720.617	10517.44
720.96	10505.68
721.303	10518.11
721.646	10477.44
721.989	10357.21
722.331	10496.87
722.674	10429.98
723.016	10403.31
723.359	10439.7
723.701	10411.68
724.044	10380.49
724.386	10346.37
724.729	10348.17
725.071	10413.71
725.413	10374.16
725.755	10370.77
726.097	10274.73
726.439	10244.67
726.782	10235.18
727.124	10351.34
727.465	10328.06
727.807	10301.4
728.149	10226.37
728.491	10250.1
728.833	10263.43
729.175	10265.01
729.516	10146.6
729.858	10184.79
730.199	10263.43
730.541	10256.2
730.882	10222.08
731.224	10217.56
731.565	10165.13
731.906	10207.16
732.248	10199.03
732.589	10193.6
732.93	10108.18
733.271	10182.53
733.612	10197.67
733.953	10152.02
734.294	10191.12
734.635	10134.39
734.976	10189.99
735.317	10166.94
735.658	10139.82
735.999	10151.12
736.339	10165.81
736.68	10264.56
737.021	10201.96
737.361	10179.82
737.702	10224.79
738.042	10170.1
738.383	10148.41
738.723	10192.25
739.063	10165.58
739.404	10304.56
739.744	10284.67
740.084	10223.66
740.424	10268.85
740.764	10254.62
741.104	10290.1
741.444	10275.18
741.784	10281.06
742.124	10343.88
742.464	10294.62
742.804	10344.11
743.143	10320.83
743.483	10405.35
743.823	10397.89
744.162	10433.37
744.502	10375.74
744.841	10426.59
745.181	10531.45
745.52	10523.99
745.86	10588.62
746.199	10536.87
746.538	10607.38
746.877	10661.84
747.216	10770.31
747.556	10799.24
747.895	10884.43
748.234	10897.31
748.573	10963.53
748.911	10989.29
749.25	11079
749.589	11090.98
749.928	11101.83
750.267	11267.92
750.605	11296.17
750.944	11425.43
751.283	11493.68
751.621	11577.75
751.96	11579.78
752.298	11679.21
752.636	11802.37
752.975	11914.46
753.313	12006.44
753.651	12165.3
753.989	12159.65
754.327	12312.19
754.666	12415.92
755.004	12597.15
755.342	12603.48
755.679	12739.75
756.017	12933.42
756.355	13128.44
