Data from hue_70_FLMS001491_5.txt Node
Date: Mon Feb 06 15:19:59 GMT 2017
User: dcchb
Spectrometer: FLMS00149
Trigger mode: 0
Integration Time (sec): 2.000000E-2
Scans to average: 10
Electric dark correction enabled: true
Nonlinearity correction enabled: false
Boxcar width: 0
XAxis mode: Wavelengths
Number of Pixels in Spectrum: 2048
>>>>>Begin Spectral Data<<<<<
341.393	-10.96
341.776	-10.96
342.16	-10.96
342.543	-62.26
342.927	-68.36
343.31	-64.29
343.693	-77.63
344.077	-56.38
344.46	-70.85
344.843	-47.12
345.226	-47.12
345.61	-40.56
345.993	-3.73
346.376	-10.06
346.759	1.69
347.142	27
347.525	33.33
347.908	57.74
348.291	72.65
348.674	97.29
349.057	128.02
349.44	133.22
349.823	151.75
350.206	149.04
350.588	215.02
350.971	202.37
351.354	229.26
351.737	222.71
352.119	247.34
352.502	272.87
352.884	275.13
353.267	270.16
353.65	327.56
354.032	312.42
354.414	310.16
354.797	310.16
355.179	323.04
355.562	315.58
355.944	323.72
356.326	339.09
356.709	342.25
357.091	314.46
357.473	347
357.855	347.67
358.238	319.88
358.62	326.66
359.002	329.14
359.384	342.25
359.766	336.15
360.148	361.23
360.53	333.89
360.912	327.11
361.294	331.4
361.676	336.6
362.057	310.16
362.439	314.91
362.821	338.86
363.203	324.4
363.584	324.85
363.966	328.24
364.348	321.01
364.729	316.71
365.111	309.26
365.493	318.52
365.874	324.85
366.256	308.81
366.637	328.69
367.019	296.6
367.4	316.04
367.781	335.7
368.163	300.22
368.544	295.25
368.925	302.25
369.306	337.28
369.688	325.53
370.069	296.6
370.45	338.41
370.831	299.99
371.212	312.42
371.593	311.74
371.974	316.04
372.355	310.84
372.736	316.71
373.117	332.76
373.498	316.04
373.879	310.39
374.26	313.78
374.641	311.97
375.021	321.69
375.402	311.74
375.783	333.21
376.163	321.69
376.544	316.94
376.925	327.79
377.305	346.77
377.686	336.83
378.066	337.73
378.447	325.3
378.827	347.9
379.208	321.69
379.588	333.66
379.968	329.6
380.349	335.25
380.729	328.01
381.109	322.82
381.489	340.89
381.87	352.87
382.25	342.25
382.63	352.19
383.01	350.84
383.39	330.5
383.77	338.41
384.15	341.35
384.53	352.19
384.91	350.61
385.29	349.48
385.67	346.09
386.049	350.39
386.429	348.13
386.809	350.61
387.189	349.71
387.568	341.12
387.948	339.31
388.328	359.2
388.707	351.74
389.087	343.38
389.466	344.51
389.846	352.42
390.225	348.13
390.605	342.7
390.984	348.13
391.363	364.17
391.743	358.07
392.122	357.84
392.501	377.5
392.881	373.89
393.26	350.39
393.639	340.89
394.018	369.59
394.397	361.91
394.776	372.53
395.155	382.93
395.534	377.28
395.913	353.78
396.292	357.62
396.671	382.93
397.05	373.21
397.429	363.49
397.808	361.46
398.186	357.84
398.565	351.52
398.944	378.41
399.323	366.88
399.701	391.74
400.08	375.24
400.458	412.98
400.837	398.52
401.215	392.87
401.594	397.16
401.972	379.76
402.351	407.11
402.729	393.1
403.107	409.14
403.486	382.25
403.864	419.54
404.242	419.31
404.62	395.58
404.999	408.01
405.377	398.75
405.755	406.88
406.133	405.75
406.511	403.72
406.889	413.89
407.267	412.98
407.645	429.03
408.023	429.93
408.401	415.02
408.779	419.54
409.156	449.82
409.534	418.63
409.912	442.59
410.29	454.56
410.667	451.85
411.045	445.75
411.422	446.2
411.8	442.14
412.178	467.67
412.555	465.86
412.933	463.15
413.31	450.04
413.687	458.63
414.065	449.37
414.442	460.67
414.819	460.67
415.197	488.01
415.574	467.9
415.951	487.78
416.328	474
416.705	488.46
417.082	465.19
417.46	498.63
417.837	479.65
418.214	477.84
418.591	491.63
418.967	515.58
419.344	505.86
419.721	485.75
420.098	506.99
420.475	511.51
420.852	519.2
421.228	486.65
421.605	505.41
421.982	510.83
422.358	509.25
422.735	537.27
423.111	513.77
423.488	521
423.864	532.53
424.241	564.62
424.617	542.02
424.994	547.22
425.37	534.34
425.746	531.85
426.123	547.67
426.499	543.38
426.875	551.28
427.251	559.42
427.627	556.48
428.003	559.65
428.379	550.61
428.756	583.37
429.132	574.11
429.507	580.89
429.883	587.44
430.259	584.73
430.635	593.54
431.011	589.7
431.387	616.82
431.763	619.31
432.138	622.24
432.514	629.02
432.89	610.94
433.265	625.41
433.641	626.09
434.016	650.27
434.392	642.81
434.767	668.57
435.143	644.16
435.518	651.4
435.894	652.3
436.269	660.66
436.644	692.75
437.02	689.13
437.395	676.25
437.77	663.15
438.145	683.48
438.52	690.94
438.895	694.78
439.271	686.65
439.646	705.63
440.021	737.27
440.395	711.51
440.77	723.26
441.145	711.73
441.52	739.98
441.895	732.98
442.27	749.47
442.645	737.95
443.019	761.22
443.394	757.83
443.769	777.49
444.143	753.54
444.518	762.8
444.892	770.49
445.267	788.57
445.641	765.97
446.016	774.1
446.39	772.75
446.764	804.84
447.139	778.85
447.513	766.65
447.887	813.42
448.262	816.81
448.636	801
449.01	829.02
449.384	810.71
449.758	840.77
450.132	844.61
450.506	848.68
450.88	856.36
451.254	841.9
451.628	878.51
452.002	856.81
452.376	882.35
452.75	867.43
453.123	893.42
453.497	887.55
453.871	907.21
454.244	923.48
454.618	934.33
454.992	928.9
455.365	933.2
455.739	928.68
456.112	954.66
456.486	941.11
456.859	970.03
457.232	975.23
457.606	992.86
457.979	978.17
458.352	1002.8
458.725	1002.57
459.099	1028.56
459.472	1020.2
459.845	1069.92
460.218	1072.18
460.591	1078.73
460.964	1085.06
461.337	1131.38
461.71	1135.68
462.083	1144.49
462.456	1158.73
462.829	1146.52
463.201	1167.09
463.574	1200.31
463.947	1200.76
464.32	1219.06
464.692	1222.45
465.065	1215.67
465.438	1233.3
465.81	1276.24
466.183	1281.89
466.555	1299.06
466.928	1331.38
467.3	1333.19
467.672	1358.04
468.045	1394.88
468.417	1396.46
468.789	1418.61
469.161	1444.82
469.534	1465.84
469.906	1501.99
470.278	1490.02
470.65	1518.04
471.022	1584.7
471.394	1595.1
471.766	1628.09
472.138	1653.85
472.51	1699.05
472.882	1712.16
473.253	1738.82
473.625	1775.21
473.997	1824.7
474.369	1869.22
474.74	1911.7
475.112	1923.68
475.484	1989.89
475.855	2015.2
476.227	2080.74
476.598	2108.53
476.97	2189.89
477.341	2239.38
477.713	2271.92
478.084	2294.06
478.455	2415.87
478.827	2480.73
479.198	2527.5
479.569	2578.35
479.94	2666.48
480.311	2782.41
480.682	2818.57
481.053	2899.92
481.424	2985.35
481.795	3049.3
482.166	3136.75
482.537	3210.65
482.908	3350.53
483.279	3395.73
483.65	3484.32
484.021	3643.86
484.391	3679.79
484.762	3792.33
485.133	3864.19
485.503	3953.91
485.874	4101.02
486.244	4189.61
486.615	4275.93
486.985	4428.02
487.356	4561.57
487.726	4648.8
488.097	4826.2
488.467	4827.56
488.837	5065.06
489.207	5136.48
489.578	5317.94
489.948	5417.15
490.318	5515.9
490.688	5681.55
491.058	5790.92
491.428	5999.05
491.798	6075.66
492.168	6271.59
492.538	6400.62
492.908	6507.29
493.278	6671.35
493.648	6761.74
494.017	6935.98
494.387	7055.29
494.757	7215.97
495.126	7379.58
495.496	7478.79
495.866	7654.6
496.235	7783.86
496.605	7883.52
496.974	8069.96
497.344	8178.2
497.713	8233.12
498.082	8428.82
498.452	8566.89
498.821	8695.25
499.19	8791.75
499.559	8913.32
499.928	9038.07
500.298	9210.04
500.667	9345.63
501.036	9433.09
501.405	9587.43
501.774	9682.57
502.143	9826.97
502.512	9924.6
502.88	10109.68
503.249	10176.34
503.618	10255.21
503.987	10432.61
504.356	10528.88
504.724	10686.61
505.093	10738.81
505.462	10833.95
505.83	10963.67
506.199	11095.87
506.567	11287.95
506.936	11375.41
507.304	11553.71
507.672	11614.5
508.041	11736.53
508.409	11847.26
508.777	11940.82
509.145	12137.65
509.514	12153.92
509.882	12271.2
510.25	12357.08
510.618	12470.75
510.986	12485.21
511.354	12727.46
511.722	12913.45
512.09	12964.52
512.458	12958.87
512.826	13126.32
513.193	13216.26
513.561	13260.33
513.929	13474.11
514.297	13633.2
514.664	13663.26
515.032	13790.48
515.4	13869.13
515.767	13901.89
516.135	14031.83
516.502	14082.68
516.869	14278.16
517.237	14336.69
517.604	14315.89
517.972	14500.97
518.339	14579.84
518.706	14632.5
519.073	14669.33
519.44	14845.15
519.808	15042.2
520.175	14946.39
520.542	15188.41
520.909	15326.72
521.276	15263.89
521.643	15442.87
522.009	15582.75
522.376	15650.1
522.743	15712.47
523.11	15869.98
523.477	16071.1
523.843	16085.11
524.21	16326.46
524.577	16286.92
524.943	16384.99
525.31	16450.53
525.676	16613.46
526.043	16695.72
526.409	16819.56
526.776	16858.65
527.142	16951.76
527.508	17023.85
527.874	17122.15
528.241	17136.39
528.607	17243.28
528.973	17443.5
529.339	17461.12
529.705	17526.88
530.071	17635.58
530.437	17683.49
530.803	17903.6
531.169	17899.53
531.535	17819.53
531.901	17891.85
532.267	17989.24
532.632	18140.88
532.998	18117.83
533.364	18114.66
533.73	18243.48
534.095	18316.24
534.461	18304.04
534.826	18342.91
535.192	18435.56
535.557	18460.19
535.923	18485.05
536.288	18640.3
536.653	18624.93
537.019	18500.42
537.384	18673.29
537.749	18656.12
538.114	18773.4
538.479	18732.73
538.845	18826.96
539.21	18759.85
539.575	18870.58
539.94	18875.55
540.305	19028.09
540.67	18873.74
541.034	19010.69
541.399	18996.45
541.764	19019.73
542.129	19016.11
542.494	19136.78
542.858	19110.12
543.223	19141.3
543.587	19204.81
543.952	19175.88
544.316	19205.03
544.681	19258.59
545.045	19233.51
545.41	19390.79
545.774	19373.61
546.138	19435.08
546.503	19358.93
546.867	19314.86
547.231	19610.44
547.595	19382.2
547.959	19532.03
548.324	19404.12
548.688	19399.83
549.052	19512.82
549.416	19543.55
549.779	19467.62
550.143	19735.19
550.507	19664.91
550.871	19698.58
551.235	19742.87
551.599	19746.71
551.962	19762.53
552.326	19770.44
552.689	19907.39
553.053	19715.53
553.417	19808.41
553.78	20097.44
554.143	19902.87
554.507	19963.66
554.87	19997.78
555.234	20173.59
555.597	19953.26
555.96	20134.95
556.323	20101.96
556.686	20136.98
557.05	20200.94
557.413	20261.5
557.776	20350.76
558.139	20375.17
558.502	20374.04
558.865	20486.81
559.228	20521.61
559.59	20633.69
559.953	20472.12
560.316	20704.2
560.679	20669.17
561.041	20807.25
561.404	20980.8
561.767	20992.33
562.129	20868.04
562.492	21051.99
562.854	21121.14
563.217	21058.09
563.579	21197.3
563.941	21247.69
564.304	21279.33
564.666	21452.88
565.028	21419.21
565.39	21469.38
565.753	21529.49
566.115	21630.05
566.477	21672.76
566.839	21707.56
567.201	21840.89
567.563	21809.48
567.925	21886.77
568.287	22000.44
568.648	21969.48
569.01	22039.53
569.372	22216.93
569.734	22263.03
570.095	22207.66
570.457	22444.95
570.819	22324.5
571.18	22402.91
571.542	22491.95
571.903	22531.95
572.265	22623.47
572.626	22596.81
572.987	22679.06
573.349	22650.59
573.71	22680.87
574.071	22814.2
574.432	22791.38
574.794	23016
575.155	22983.24
575.516	22863.01
575.877	22983.69
576.238	22984.37
576.599	23004.71
576.96	23100.52
577.32	23081.54
577.681	23137.36
578.042	23307.52
578.403	23221.42
578.763	23232.04
579.124	23304.36
579.485	23256
579.845	23411.47
580.206	23343.23
580.566	23331.02
580.927	23445.6
581.287	23458.03
581.648	23362.21
582.008	23438.59
582.368	23451.93
582.728	23512.94
583.089	23441.3
583.449	23377.35
583.809	23510.23
584.169	23493.96
584.529	23379.16
584.889	23774.18
585.249	23451.25
585.609	23514.3
585.969	23531.25
586.329	23315.43
586.688	23583
587.048	23448.54
587.408	23459.16
587.768	23559.27
588.127	23415.54
588.487	23416.9
588.846	23535.09
589.206	23345.49
589.565	23357.24
589.925	23425.26
590.284	23408.54
590.643	23496.22
591.003	23567.85
591.362	23565.6
591.721	23582.77
592.08	23505.71
592.44	23631.58
592.799	23564.69
593.158	23458.71
593.517	23519.49
593.876	23507.52
594.235	23560.4
594.593	23373.51
594.952	23531.25
595.311	23524.47
595.67	23519.72
596.029	23703.9
596.387	23639.94
596.746	23638.14
597.104	23666.84
597.463	23542.54
597.822	23625.71
598.18	23599.72
598.538	23494.86
598.897	23664.8
599.255	23524.69
599.613	23799.49
599.972	23622.32
600.33	23717
600.688	23606.72
601.046	23730.56
601.404	23832.71
601.762	23759.26
602.12	23809.66
602.478	23968.75
602.836	23794.52
603.194	23788.19
603.552	23790.9
603.91	23699.83
604.268	23870.9
604.625	23839.94
604.983	23804.68
605.341	23778.24
605.698	23890.78
606.056	24067.5
606.413	23890.78
606.771	23988.41
607.128	23988.18
607.485	23972.36
607.843	24003.55
608.2	24100.04
608.557	24251.45
608.914	24107.73
609.272	24256.2
609.629	24317.89
609.986	24350.21
610.343	24278.34
610.7	24468.62
611.057	24404.67
611.414	24423.65
611.771	24382.07
612.127	24403.99
612.484	24497.77
612.841	24646.24
613.198	24550.43
613.554	24631.1
613.911	24648.28
614.267	24722.17
614.624	24767.37
614.98	24649.63
615.337	24778.9
615.693	24701.61
616.05	24684.44
616.406	24878.78
616.762	24843.08
617.118	24802.4
617.475	24868.61
617.831	24884.66
618.187	24914.71
618.543	24889.63
618.899	25042.39
619.255	25019.79
619.611	25009.85
619.967	25089.4
620.323	25166.46
620.678	25055.5
621.034	25069.74
621.39	25024.09
621.746	24984.99
622.101	25185.44
622.457	25110.64
622.812	25151.99
623.168	25233.12
623.523	25182.05
623.879	25284.42
624.234	25137.53
624.589	25226.12
624.945	25191.77
625.3	25284.65
625.655	25300.69
626.01	25180.69
626.365	25228.6
626.72	25322.39
627.075	25395.38
627.43	25302.05
627.785	25191.77
628.14	25304.53
628.495	25368.49
628.85	25327.58
629.205	25280.35
629.559	25378.88
629.914	25392.44
630.269	25338.43
630.623	25357.41
630.978	25269.28
631.332	25322.84
631.687	25278.09
632.041	25188.83
632.396	25192.9
632.75	25113.12
633.104	25175.72
633.459	25078.78
633.813	25152.22
634.167	24997.42
634.521	24976.18
634.875	25143.41
635.229	25069.06
635.583	24839.69
635.937	24971.21
636.291	24856.86
636.645	24918.1
636.999	24919.01
637.352	24987.48
637.706	24820.93
638.06	24757.65
638.413	24744.55
638.767	24736.86
639.121	24714.72
639.474	24682.18
639.828	24850.08
640.181	24832.68
640.534	24752
640.888	24758.33
641.241	24634.27
641.594	24629.75
641.947	24636.53
642.301	24614.61
642.654	24674.94
643.007	24610.31
643.36	24538.68
643.713	24617.77
644.066	24598.56
644.419	24476.53
644.771	24250.55
645.124	24129.65
645.477	24067.28
645.83	23999.93
646.182	23889.88
646.535	23782.09
646.888	23897.79
647.24	23823.22
647.593	23841.07
647.945	23738.25
648.298	23655.76
648.65	23714.29
649.002	23595.42
649.355	23736.66
649.707	23718.13
650.059	23662.99
650.411	24065.92
650.763	24116.09
651.115	24243.09
651.467	24178.69
651.819	24356.99
652.171	24226.14
652.523	24204.45
652.875	24168.74
653.227	23978.92
653.578	24124
653.93	24148.4
654.282	24008.07
654.633	24045.13
654.985	24081.51
655.337	24100.5
655.688	24092.59
656.039	24230.21
656.391	24003.32
656.742	24074.51
657.094	24062.76
657.445	24169.2
657.796	24094.17
658.147	24049.42
658.498	24040.38
658.849	24123.09
659.2	24067.95
659.551	24005.81
659.902	24121.74
660.253	24078.58
660.604	24114.06
660.955	23961.97
661.306	24114.73
661.656	24039.71
662.007	23989.31
662.358	24039.93
662.708	24079.48
663.059	24092.81
663.409	23991.35
663.76	24110.67
664.11	23972.82
664.461	24128.74
664.811	24219.82
665.161	24088.07
665.511	23997.9
665.862	24098.24
666.212	24083.1
666.562	24027.96
666.912	24058.69
667.262	23922.42
667.612	24045.13
667.962	24051.68
668.312	23965.81
668.662	24104.56
669.011	24048.29
669.361	24013.72
669.711	23911.57
670.06	23987.05
670.41	23978.24
670.76	23933.95
671.109	24010.1
671.459	23857.56
671.808	23884.46
672.157	24032.93
672.507	23774.18
672.856	23867.06
673.205	23889.88
673.554	23892.37
673.904	23782.09
674.253	23866.38
674.602	23877.23
674.951	23462.32
675.3	23455.77
675.649	23797.23
675.998	23684.91
676.346	23836.55
676.695	23784.12
677.044	23615.31
677.393	23708.87
677.741	23758.36
678.09	23660.28
678.438	23537.35
678.787	23636.1
679.135	23587.29
679.484	23443.79
679.832	23517.01
680.181	23413.51
680.529	23450.57
680.877	23413.06
681.225	23364.24
681.573	23456.22
681.922	23365.83
682.27	23275.21
682.618	23269.78
682.966	23142.78
683.314	23237.02
683.661	23159.96
684.009	23109.79
684.357	22994.31
684.705	23019.17
685.053	23003.58
685.4	22870.47
685.748	22752.74
686.095	22771.72
686.443	22791.6
686.79	22698.95
687.138	22771.04
687.485	22750.48
687.832	22646.52
688.18	22644.94
688.527	22539.63
688.874	22498.05
689.221	22458.96
689.568	22479.3
689.915	22375.57
690.262	22238.4
690.609	22234.78
690.956	22115.92
691.303	22152.3
691.65	21989.14
691.997	22001.79
692.344	21840.22
692.69	21911.4
693.037	21973.77
693.383	21601.58
693.73	21787.11
694.077	21672.54
694.423	21617.62
694.769	21578.98
695.116	21476.61
695.462	21460.34
695.808	21300.8
696.155	21480.45
696.501	21141.03
696.847	21209.27
697.193	21104.42
697.539	21116.39
697.885	20982.16
698.231	20869.17
698.577	20925.44
698.923	20790.75
699.269	20721.15
699.614	20661.94
699.96	20457.2
700.306	20571.32
700.651	20414.94
700.997	20423.98
701.342	20376.53
701.688	20427.82
702.033	20206.36
702.379	20222.63
702.724	20142.18
703.069	20234.61
703.415	20018.34
703.76	19948.29
704.105	20026.03
704.45	19923.43
704.795	19737.9
705.14	19656.32
705.485	19709.65
705.83	19586.26
706.175	19567.73
706.52	19524.35
706.865	19444.8
707.209	19410.22
707.554	19320.28
707.899	19351.24
708.243	19231.47
708.588	19283
708.932	19020.63
709.277	19063.79
709.621	19105.83
709.966	18888.88
710.31	18962.33
710.654	18716.23
710.998	18759.85
711.342	18839.39
711.687	18777.25
712.031	18654.09
712.375	18659.28
712.719	18668.1
713.063	18507.65
713.407	18631.26
713.75	18515.78
714.094	18538.83
714.438	18453.41
714.782	18421.1
715.125	18353.3
715.469	18407.76
715.812	18246.64
716.156	18208.67
716.499	18306.75
716.843	18238.73
717.186	18144.72
717.53	18278.28
717.873	18270.59
718.216	18127.55
718.559	18144.04
718.902	17963.48
719.246	18000.54
719.589	17989.7
719.932	17954.67
720.275	18002.13
720.617	17872.64
720.96	17909.7
721.303	17851.4
721.646	17753.77
721.989	17736.37
722.331	17758.52
722.674	17773.43
723.016	17699.08
723.359	17671.96
723.701	17670.61
724.044	17592.19
724.386	17541.57
724.729	17553.78
725.071	17515.13
725.413	17630.16
725.755	17557.17
726.097	17490.73
726.439	17297.51
726.782	17356.49
727.124	17441.69
727.465	17367.57
727.807	17333.67
728.149	17321.24
728.491	17330.05
728.833	17291.64
729.175	17286.44
729.516	17203.95
729.858	17241.02
730.199	17260
730.541	17265.87
730.882	17148.36
731.224	17241.02
731.565	17095.93
731.906	17074.69
732.248	17114.47
732.589	17133.45
732.93	17050.06
733.271	17104.07
733.612	17048.7
733.953	17076.27
734.294	17031.98
734.635	16957.63
734.976	16945.2
735.317	16970.74
735.658	16959.44
735.999	17004.41
736.339	16853
736.68	16963.73
737.021	16889.61
737.361	16841.7
737.702	16944.98
738.042	16930.29
738.383	16847.58
738.723	17046.44
739.063	16868.37
739.404	16986.33
739.744	16941.59
740.084	16933.45
740.424	16977.07
740.764	16907.69
741.104	16910.18
741.444	16862.04
741.784	16864.53
742.124	16916.05
742.464	16844.87
742.804	16944.07
743.143	16837.64
743.483	16843.51
743.823	16805.77
744.162	16846.9
744.502	16896.39
744.841	16855.71
745.181	16943.62
745.52	16979.1
745.86	17055.03
746.199	16880.35
746.538	17089.83
746.877	17085.31
747.216	17067.69
747.556	17101.58
747.895	17126.22
748.234	16978.2
748.573	17068.36
748.911	17181.36
749.25	17106.33
749.589	17210.96
749.928	17301.35
750.267	17289.15
750.605	17335.93
750.944	17277.4
751.283	17377.74
751.621	17434.46
751.96	17429.71
752.298	17542.93
752.636	17579.31
752.975	17653.43
753.313	17630.38
753.651	17790.38
753.989	17712.19
754.327	17794
754.666	17832.19
755.004	17923.26
755.342	18001.67
755.679	17975.23
756.017	17983.59
756.355	18210.71
756.693	18170.26
757.031	18281.89
