Data from hue_230_FLMS001491_00086.txt Node
Date: Tue Feb 07 16:37:51 GMT 2017
User: dcchb
Spectrometer: FLMS00149
Trigger mode: 0
Integration Time (sec): 2.000000E-2
Scans to average: 10
Electric dark correction enabled: true
Nonlinearity correction enabled: false
Boxcar width: 0
XAxis mode: Wavelengths
Number of Pixels in Spectrum: 2048
>>>>>Begin Spectral Data<<<<<
341.393	1.36
341.776	1.36
342.16	1.36
342.543	-79.09
342.927	-68.25
343.31	-54.46
343.693	-74.35
344.077	-67.57
344.46	-61.47
344.843	-60.56
345.226	-49.49
345.61	-36.38
345.993	-14.46
346.376	-13.33
346.759	11.3
347.142	48.59
347.525	42.71
347.908	61.69
348.291	85.2
348.674	83.61
349.057	98.98
349.44	132.65
349.823	130.62
350.206	140.11
350.588	209.03
350.971	192.76
351.354	200.22
351.737	237.06
352.119	250.39
352.502	264.4
352.884	248.58
353.267	272.99
353.65	285.87
354.032	296.49
354.414	301.69
354.797	307.56
355.179	320.9
355.562	306.43
355.944	312.99
356.326	325.87
356.709	330.16
357.091	316.83
357.473	350.73
357.855	319.31
358.238	333.78
358.62	348.69
359.002	353.66
359.384	330.39
359.766	345.98
360.148	345.98
360.53	329.48
360.912	327.45
361.294	321.35
361.676	322.93
362.057	329.93
362.439	308.01
362.821	328.58
363.203	316.6
363.584	304.4
363.966	309.14
364.348	305.75
364.729	312.99
365.111	302.82
365.493	323.61
365.874	315.7
366.256	311.63
366.637	306.43
367.019	289.71
367.4	303.95
367.781	285.64
368.163	319.31
368.544	310.27
368.925	297.17
369.306	300.33
369.688	287.45
370.069	317.28
370.45	312.31
370.831	326.77
371.212	305.98
371.593	309.14
371.974	332.42
372.355	299.43
372.736	299.88
373.117	309.82
373.498	302.59
373.879	309.14
374.26	289.94
374.641	293.78
375.021	321.57
375.402	296.94
375.783	294.91
376.163	342.36
376.544	293.33
376.925	332.87
377.305	327.67
377.686	322.48
378.066	301.91
378.447	319.54
378.827	315.92
379.208	321.57
379.588	316.6
379.968	325.64
380.349	310.5
380.729	320.9
381.109	324.06
381.489	331.52
381.87	332.87
382.25	332.65
382.63	337.39
383.01	337.62
383.39	326.77
383.77	333.55
384.15	334.45
384.53	350.05
384.91	360.44
385.29	323.83
385.67	343.04
386.049	335.36
386.429	337.17
386.809	355.47
387.189	333.1
387.568	336.71
387.948	355.7
388.328	345.3
388.707	347.11
389.087	324.96
389.466	366.54
389.846	357.05
390.225	350.27
390.605	349.6
390.984	352.76
391.363	342.14
391.743	364.96
392.122	381.46
392.501	359.09
392.881	365.19
393.26	375.58
393.639	376.94
394.018	350.73
394.397	394.11
394.776	362.93
395.155	359.31
395.534	388.46
395.913	401.57
396.292	375.58
396.671	387.56
397.05	382.14
397.429	376.71
397.808	388.92
398.186	391.18
398.565	420.55
398.944	395.92
399.323	405.87
399.701	390.27
400.08	378.97
400.458	400.44
400.837	405.87
401.215	415.36
401.594	405.19
401.972	395.47
402.351	406.99
402.729	402.93
403.107	394.79
403.486	417.39
403.864	421.23
404.242	421.23
404.62	435.47
404.999	425.07
405.377	435.47
405.755	444.73
406.133	431.4
406.511	418.75
406.889	425.98
407.267	433.43
407.645	451.51
408.023	439.54
408.401	477.73
408.779	472.08
409.156	446.99
409.534	475.92
409.912	465.07
410.29	481.57
410.667	492.19
411.045	494.68
411.422	481.8
411.8	502.81
412.178	507.11
412.555	516.14
412.933	534.9
413.31	531.06
413.687	560.44
414.065	574.9
414.442	573.77
414.819	548.46
415.197	554.11
415.574	587.56
415.951	598.4
416.328	569.7
416.705	571.06
417.082	591.17
417.46	604.73
417.837	622.13
418.214	640.89
418.591	606.54
418.967	611.28
419.344	613.77
419.721	616.93
420.098	644.95
420.475	647.21
420.852	652.86
421.228	679.53
421.605	690.83
421.982	695.35
422.358	686.08
422.735	701
423.111	700.09
423.488	687.67
423.864	715.46
424.241	748.91
424.617	766.08
424.994	765.63
425.37	775.8
425.746	759.3
426.123	784.39
426.499	822.8
426.875	795.69
427.251	818.28
427.627	849.02
428.003	836.81
428.379	863.25
428.756	843.59
429.132	843.37
429.507	892.18
429.883	875.46
430.259	883.37
430.635	905.29
431.011	914.78
431.387	934.21
431.763	932.86
432.138	953.42
432.514	971.95
432.89	981.67
433.265	1015.79
433.641	1018.73
434.016	1028.45
434.392	1051.27
434.767	1060.09
435.143	1067.99
435.518	1057.37
435.894	1122
436.269	1111.61
436.644	1115.45
437.02	1147.31
437.395	1176.92
437.77	1166.75
438.145	1227.99
438.52	1225.73
438.895	1232.28
439.271	1237.71
439.646	1260.08
440.021	1269.8
440.395	1282.68
440.77	1231.61
441.145	1292.4
441.52	1331.26
441.895	1336.91
442.27	1342.34
442.645	1366.29
443.019	1390.25
443.394	1401.55
443.769	1420.08
444.143	1404.93
444.518	1440.41
444.892	1406.97
445.267	1432.05
445.641	1434.99
446.016	1476.57
446.39	1481.54
446.764	1453.75
447.139	1487.64
447.513	1506.4
447.887	1514.76
448.262	1517.02
448.636	1528.1
449.01	1556.34
449.384	1539.17
449.758	1562.9
450.132	1583.01
450.506	1606.29
450.88	1595.44
451.254	1591.6
451.628	1616
452.002	1653.97
452.376	1675.44
452.75	1694.19
453.123	1662.1
453.497	1734.42
453.871	1727.19
454.244	1775.09
454.618	1757.24
454.992	1791.59
455.365	1786.17
455.739	1823
456.112	1823.91
456.486	1834.75
456.859	1874.08
457.232	1910.68
457.606	1890.8
457.979	1908.42
458.352	1956.33
458.725	1969.67
459.099	1971.7
459.472	1998.82
459.845	2025.71
460.218	2054.64
460.591	2059.61
460.964	2086.05
461.337	2104.58
461.71	2161.3
462.083	2159.27
462.456	2141.64
462.829	2143.67
463.201	2225.03
463.574	2233.61
463.947	2253.05
464.32	2291.92
464.692	2312.26
465.065	2327.85
465.438	2359.94
465.81	2359.03
466.183	2385.7
466.555	2435.87
466.928	2461.86
467.3	2459.37
467.672	2500.5
468.045	2503.21
468.417	2569.42
468.789	2580.72
469.161	2564.45
469.534	2651.23
469.906	2708.86
470.278	2717.89
470.65	2734.62
471.022	2789.76
471.394	2827.5
471.766	2862.3
472.138	2851.68
472.51	2898.68
472.882	2922.64
473.253	2940.04
473.625	3027.27
473.997	3053.48
474.369	3062.74
474.74	3108.84
475.112	3131.67
475.484	3236.75
475.855	3261.16
476.227	3256.86
476.598	3396.97
476.97	3371.21
477.341	3420.93
477.713	3465.9
478.084	3537.99
478.455	3587.7
478.827	3615.72
479.198	3686
479.569	3714.25
479.94	3787.47
480.311	3788.15
480.682	3907.24
481.053	3960.12
481.424	4010.29
481.795	4020.23
482.166	4063.17
482.537	4151.76
482.908	4212.77
483.279	4235.14
483.65	4268.14
484.021	4363.05
484.391	4417.74
484.762	4430.62
485.133	4469.49
485.503	4542.93
485.874	4581.57
486.244	4651.4
486.615	4729.59
486.985	4799.42
487.356	4844.17
487.726	4850.27
488.097	4987.67
488.467	4977.27
488.837	5007.1
489.207	5076.7
489.578	5145.18
489.948	5215
490.318	5265.62
490.688	5260.65
491.058	5336.58
491.428	5396.47
491.798	5421.33
492.168	5527.09
492.538	5532.74
492.908	5563.7
493.278	5631.04
493.648	5619.97
494.017	5719.85
494.387	5784.71
494.757	5779.51
495.126	5813.41
495.496	5829.45
495.866	5935.44
496.235	5946.06
496.605	5972.72
496.974	5959.39
497.344	6043.46
497.713	6029.67
498.082	6124.81
498.452	6146.96
498.821	6141.76
499.19	6190.8
499.559	6228.54
499.928	6219.5
500.298	6295.43
500.667	6298.59
501.036	6290.68
501.405	6310.12
501.774	6327.29
502.143	6407.97
502.512	6392.37
502.88	6405.03
503.249	6482.77
503.618	6473.28
503.987	6457.01
504.356	6510.56
504.724	6522.99
505.093	6624.23
505.462	6567.51
505.83	6601.18
506.199	6629.2
506.567	6682.08
506.936	6673.04
507.304	6740.84
507.672	6726.15
508.041	6754.4
508.409	6774.51
508.777	6814.51
509.145	6823.32
509.514	6831.91
509.882	6839.14
510.25	6892.93
510.618	6834.4
510.986	6871.91
511.354	6915.07
511.722	6925.24
512.09	6985.35
512.458	6997.78
512.826	7026.03
513.193	7057.22
513.561	7058.12
513.929	6991.23
514.297	7079.81
514.664	7155.07
515.032	7114.62
515.4	7197.78
515.767	7118.46
516.135	7210.43
516.502	7070.1
516.869	7216.99
517.237	7209.3
517.604	7168.4
517.972	7269.41
518.339	7222.63
518.706	7235.97
519.073	7211.56
519.44	7254.27
519.808	7267.83
520.175	7265.12
520.542	7250.66
520.909	7344.67
521.276	7321.62
521.643	7312.35
522.009	7393.48
522.376	7374.04
522.743	7359.35
523.11	7412.46
523.477	7440.03
523.843	7459.46
524.21	7450.88
524.577	7546.92
524.943	7529.07
525.31	7558.67
525.676	7567.71
526.043	7569.29
526.409	7579.91
526.776	7574.04
527.142	7560.25
527.508	7597.77
527.874	7636.41
528.241	7654.04
528.607	7544.43
528.973	7601.38
529.339	7588.28
529.705	7667.6
530.071	7675.5
530.437	7668.72
530.803	7604.09
531.169	7675.05
531.535	7644.32
531.901	7633.25
532.267	7647.03
532.632	7655.39
532.998	7656.52
533.364	7671.21
533.73	7639.8
534.095	7713.47
534.461	7689.52
534.826	7673.24
535.192	7642.96
535.557	7698.33
535.923	7637.09
536.288	7663.53
536.653	7709.4
537.019	7595.73
537.384	7588.95
537.749	7593.02
538.114	7533.14
538.479	7560.25
538.845	7593.47
539.21	7544.89
539.575	7541.72
539.94	7539.24
540.305	7522.29
540.67	7509.41
541.034	7531.55
541.399	7478.67
541.764	7500.37
542.129	7468.5
542.494	7443.87
542.858	7504.66
543.223	7439.58
543.587	7427.6
543.952	7388.96
544.316	7397.32
544.681	7369.75
545.045	7391.44
545.41	7379.92
545.774	7378.79
546.138	7325.46
546.503	7366.13
546.867	7317.55
547.231	7356.87
547.595	7277.77
547.959	7292.69
548.324	7271
548.688	7202.07
549.052	7263.76
549.416	7261.28
549.779	7238
550.143	7227.38
550.507	7244.78
550.871	7230.09
551.235	7194.16
551.599	7195.97
551.962	7189.64
552.326	7171.34
552.689	7208.17
553.053	7200.71
553.417	7138.34
553.78	7129.08
554.143	7138.57
554.507	7146.03
554.87	7098.57
555.234	7155.07
555.597	7120.72
555.96	7084.79
556.323	7115.97
556.686	7099.93
557.05	7141.28
557.413	7101.73
557.776	7119.81
558.139	7132.02
558.502	7126.59
558.865	7115.75
559.228	7087.27
559.59	7139.47
559.953	7139.25
560.316	7205.23
560.679	7160.26
561.041	7173.14
561.404	7188.29
561.767	7233.93
562.129	7204.33
562.492	7192.81
562.854	7185.35
563.217	7117.1
563.579	7161.62
563.941	7219.7
564.304	7228.74
564.666	7295.85
565.028	7185.57
565.39	7296.08
565.753	7252.92
566.115	7289.3
566.477	7347.38
566.839	7298.57
567.201	7328.39
567.563	7358
567.925	7342.86
568.287	7358.22
568.648	7376.3
569.01	7369.52
569.372	7467.37
569.734	7433.7
570.095	7439.13
570.457	7496.98
570.819	7453.36
571.18	7488.39
571.542	7469.86
571.903	7470.31
572.265	7488.84
572.626	7503.31
572.987	7536.07
573.349	7512.8
573.71	7666.01
574.071	7593.47
574.432	7618.33
574.794	7709.85
575.155	7640.93
575.516	7658.56
575.877	7696.75
576.238	7720.7
576.599	7719.57
576.96	7725.22
577.32	7783.3
577.681	7772.68
578.042	7753.24
578.403	7745.33
578.763	7751.66
579.124	7816.07
579.485	7872.56
579.845	7927.93
580.206	7839.12
580.566	7843.64
580.927	7849.29
581.287	7941.26
581.648	7920.02
582.008	7960.69
582.368	7926.57
582.728	7971.54
583.089	7975.61
583.449	7974.71
583.809	7961.15
584.169	7949.62
584.529	7968.83
584.889	8011.31
585.249	8040.92
585.609	7977.64
585.969	8085.89
586.329	7991.88
586.688	8038.21
587.048	8110.3
587.408	8007.02
587.768	8022.16
588.127	8051.09
588.487	8066.45
588.846	8149.16
589.206	8127.92
589.565	8107.58
589.925	8137.64
590.284	8084.76
590.643	8120.69
591.003	8212.44
591.362	8152.55
591.721	8196.17
592.08	8113.68
592.44	8221.93
592.799	8233.23
593.158	8175.38
593.517	8145.77
593.876	8198.88
594.235	8208.15
594.593	8225.55
594.952	8213.8
595.311	8219.44
595.67	8239.78
596.029	8225.09
596.387	8318.43
596.746	8256.28
597.104	8242.27
597.463	8219.22
597.822	8274.58
598.18	8293.57
598.538	8237.3
598.897	8290.4
599.255	8261.7
599.613	8348.48
599.972	8275.94
600.33	8352.32
600.688	8332.66
601.046	8331.08
601.404	8318.43
601.762	8311.42
602.12	8419.67
602.478	8407.91
602.836	8414.47
603.194	8362.94
603.552	8416.95
603.91	8337.18
604.268	8381.47
604.625	8374.92
604.983	8437.07
605.341	8388.48
605.698	8401.14
606.056	8386.22
606.413	8419.89
606.771	8434.35
607.128	8426.45
607.485	8350.29
607.843	8423.96
608.2	8369.5
608.557	8442.04
608.914	8421.7
609.272	8510.28
609.629	8435.26
609.986	8552.77
610.343	8508.02
610.7	8532.88
611.057	8524.07
611.414	8509.83
611.771	8478.65
612.127	8551.87
612.484	8517.06
612.841	8586.67
613.198	8506.89
613.554	8543.28
613.911	8612.2
614.267	8581.47
614.624	8522.71
614.98	8489.95
615.337	8602.49
615.693	8586.67
616.05	8590.28
616.406	8699.21
616.762	8607.01
617.118	8602.26
617.475	8606.1
617.831	8605.65
618.187	8672.54
618.543	8607.01
618.899	8647.91
619.255	8665.76
619.611	8680.22
619.967	8719.32
620.323	8725.87
620.678	8670.73
621.034	8674.57
621.39	8601.13
621.746	8661.02
622.101	8773.78
622.457	8711.18
622.812	8713.44
623.168	8766.78
623.523	8724.29
623.879	8793.22
624.234	8719.54
624.589	8637.29
624.945	8678.64
625.3	8714.57
625.655	8768.81
626.01	8752.76
626.365	8682.48
626.72	8785.76
627.075	8681.13
627.43	8762.03
627.785	8643.16
628.14	8765.65
628.495	8681.13
628.85	8682.94
629.205	8654.91
629.559	8653.78
629.914	8645.65
630.269	8553.9
630.623	8681.58
630.978	8590.96
631.332	8617.4
631.687	8666.44
632.041	8590.51
632.396	8648.36
632.75	8619.89
633.104	8585.76
633.459	8544.18
633.813	8511.64
634.167	8468.25
634.521	8567.46
634.875	8557.52
635.229	8538.76
635.583	8408.37
635.937	8478.65
636.291	8475.94
636.645	8490.4
636.999	8487.69
637.352	8534.46
637.706	8449.5
638.06	8422.38
638.413	8417.86
638.767	8399.1
639.121	8382.6
639.474	8405.2
639.828	8371.98
640.181	8378.54
640.534	8428.03
640.888	8355.49
641.241	8310.74
641.594	8375.82
641.947	8368.37
642.301	8365.88
642.654	8356.84
643.007	8324.53
643.36	8302.38
643.713	8378.54
644.066	8375.6
644.419	8323.85
644.771	8266.22
645.124	8167.47
645.477	8168.37
645.83	8049.51
646.182	8061.03
646.535	8063.06
646.888	8096.28
647.24	8037.53
647.593	8097.64
647.945	8065.1
648.298	8019.22
648.65	8006.12
649.002	7968.38
649.355	8010.64
649.707	8048.6
650.059	8056.06
650.411	8124.31
650.763	8187.13
651.115	8162.05
651.467	8166.34
651.819	8194.36
652.171	8220.8
652.523	8162.95
652.875	8151.65
653.227	8121.59
653.578	8192.33
653.93	8134.02
654.282	8092.67
654.633	8171.99
654.985	8127.47
655.337	8198.2
655.688	8094.48
656.039	8190.07
656.391	8076.17
656.742	8188.94
657.094	8164.53
657.445	8185.32
657.796	8138.32
658.147	8174.25
658.498	8185.1
658.849	8156.62
659.2	8188.94
659.551	8131.54
659.902	8185.77
660.253	8188.71
660.604	8153.91
660.955	8153.91
661.306	8229.61
661.656	8227.35
662.007	8155.04
662.358	8151.88
662.708	8190.07
663.059	8156.17
663.409	8121.37
663.76	8200.01
664.11	8153.68
664.461	8158.2
664.811	8208.6
665.161	8152.55
665.511	8122.5
665.862	8233
666.212	8265.09
666.562	8188.71
666.912	8205.43
667.262	8159.33
667.612	8176.06
667.962	8181.93
668.312	8181.48
668.662	8260.12
669.011	8183.29
669.361	8157.07
669.711	8177.86
670.06	8160.01
670.41	8164.76
670.76	8118.66
671.109	8139.9
671.459	8199.33
671.808	8121.82
672.157	8178.32
672.507	8119.79
672.856	8086.12
673.205	8048.38
673.554	8132.89
673.904	8065.55
674.253	8130.41
674.602	8123.4
674.951	8006.8
675.3	7917.31
675.649	8018.55
675.998	8092.67
676.346	8066
676.695	8101.71
677.044	8051.09
677.393	8044.31
677.741	8036.4
678.09	7975.16
678.438	7995.04
678.787	8006.12
679.135	7981.71
679.484	7969.73
679.832	7967.47
680.181	7905.55
680.529	7959.34
680.877	7896.29
681.225	7936.74
681.573	7987.13
681.922	7872.34
682.27	7810.19
682.618	7835.95
682.966	7831.21
683.314	7882.96
683.661	7795.73
684.009	7817.87
684.357	7719.35
684.705	7752.34
685.053	7713.47
685.4	7781.04
685.748	7740.14
686.095	7669.18
686.443	7628.95
686.79	7630.99
687.138	7644.32
687.485	7560.48
687.832	7603.87
688.18	7604.09
688.527	7556.41
688.874	7588.28
689.221	7540.14
689.568	7530.42
689.915	7530.88
690.262	7450.2
690.609	7511.89
690.956	7404.33
691.303	7383.53
691.65	7338.56
691.997	7376.76
692.344	7303.99
692.69	7365.91
693.037	7320.94
693.383	7233.03
693.73	7315.74
694.077	7241.39
694.423	7245.91
694.769	7218.12
695.116	7192.58
695.462	7143.99
695.808	7125.01
696.155	7128.17
696.501	7092.24
696.847	7077.78
697.193	7018.12
697.539	7079.81
697.885	6949.65
698.231	6983.55
698.577	6969.99
698.923	6940.38
699.269	6917.33
699.614	6906.71
699.96	6836.2
700.306	6893.83
700.651	6822.42
700.997	6761.18
701.342	6764.79
701.688	6732.7
702.033	6772.25
702.379	6756.21
702.724	6675.76
703.069	6709.88
703.415	6668.98
703.76	6641.63
704.105	6653.84
704.45	6668.75
704.795	6561.18
705.14	6530.45
705.485	6515.53
705.83	6488.42
706.175	6467.85
706.52	6442.32
706.865	6475.76
707.209	6398.7
707.554	6360.51
707.899	6462.43
708.243	6344.69
708.588	6380.62
708.932	6344.24
709.277	6294.98
709.621	6308.08
709.966	6324.58
710.31	6292.49
710.654	6267.18
710.998	6301.08
711.342	6206.39
711.687	6231.02
712.031	6233.06
712.375	6170.01
712.719	6201.19
713.063	6175.88
713.407	6213.85
713.75	6178.37
714.094	6130.69
714.438	6129.33
714.782	6090.91
715.125	6066.96
715.469	6115.55
715.812	6088.43
716.156	6063.12
716.499	6056.79
716.843	6055.21
717.186	6010.69
717.53	6029.22
717.873	6057.69
718.216	6007.07
718.559	6015.89
718.902	5926.62
719.246	5947.19
719.589	5993.51
719.932	5945.15
720.275	5912.84
720.617	6004.81
720.96	5971.59
721.303	5912.61
721.646	5932.73
721.989	5932.73
722.331	5946.96
722.674	5918.71
723.016	5906.29
723.359	5927.53
723.701	5896.34
724.044	5893.4
724.386	5857.02
724.729	5928.21
725.071	5825.61
725.413	5883.69
725.755	5871.71
726.097	5856.12
726.439	5803.01
726.782	5796.46
727.124	5875.55
727.465	5851.82
727.807	5852.73
728.149	5837.36
728.491	5760.3
728.833	5824.48
729.175	5786.06
729.516	5825.61
729.858	5785.38
730.199	5813.86
730.541	5740.41
730.882	5747.87
731.224	5792.84
731.565	5784.71
731.906	5757.81
732.248	5866.51
732.589	5772.73
732.93	5803.46
733.271	5730.7
733.612	5753.97
733.953	5797.36
734.294	5759.4
734.635	5758.27
734.976	5759.62
735.317	5773.41
735.658	5822.67
735.999	5787.87
736.339	5800.98
736.68	5808.66
737.021	5803.24
737.361	5780.64
737.702	5765.27
738.042	5777.02
738.383	5800.3
738.723	5824.03
739.063	5824.25
739.404	5831.03
739.744	5787.64
740.084	5815.44
740.424	5774.54
740.764	5849.34
741.104	5837.13
741.444	5827.64
741.784	5846.17
742.124	5855.21
742.464	5841.65
742.804	5950.35
743.143	5880.98
743.483	5971.37
743.823	5929.56
744.162	5937.7
744.502	5939.05
744.841	5937.7
745.181	6040.29
745.52	5999.16
745.86	6045.04
746.199	6038.49
746.538	6066.73
746.877	6117.13
747.216	6151.7
747.556	6175.66
747.895	6245.03
748.234	6238.03
748.573	6245.03
748.911	6304.92
749.25	6310.12
749.589	6377.46
749.928	6401.87
750.267	6508.3
750.605	6543.33
750.944	6528.87
751.283	6595.76
751.621	6636.21
751.96	6701.74
752.298	6764.79
752.636	6835.75
752.975	6899.93
753.313	6945.81
753.651	7068.97
753.989	7124.78
754.327	7188.06
754.666	7171.79
755.004	7345.57
755.342	7446.81
755.679	7513.7
756.017	7530.2
756.355	7673.92
756.693	7742.62
757.031	7896.52
757.368	7959.11
757.706	8120.01
758.044	8122.95
758.381	8293.34
758.719	8350.51
759.056	8469.83
759.394	8576.05
759.731	8702.37
760.068	8823.27
760.405	8882.93
760.743	8991.85
761.08	9072.53
761.417	9248.12
761.754	9350.49
762.091	9437.94
762.428	9579.41
762.765	9697.82
763.102	9868.22
763.438	9878.61
763.775	9967.2
764.112	10136.23
764.449	10311.14
764.785	10368.77
765.122	10380.97
765.458	10540.51
765.795	10589.1
766.131	10732.6
766.467	10856.66
766.804	10965.14
767.14	11037
767.476	11086.04
767.812	11275.41
768.148	11358.35
768.485	11403.54
768.821	11454.39
769.157	11521.05
769.492	11629.98
