Data from hue_270_FLMS001491_00059.txt Node
Date: Tue Feb 07 15:57:24 GMT 2017
User: dcchb
Spectrometer: FLMS00149
Trigger mode: 0
Integration Time (sec): 2.000000E-2
Scans to average: 10
Electric dark correction enabled: true
Nonlinearity correction enabled: false
Boxcar width: 0
XAxis mode: Wavelengths
Number of Pixels in Spectrum: 2048
>>>>>Begin Spectral Data<<<<<
341.393	-0.42
341.776	-0.42
342.16	-0.42
342.543	-82.91
342.927	-79.52
343.31	-64.6
343.693	-48.78
344.077	-65.28
344.46	-67.54
344.843	-48.33
345.226	-46.52
345.61	-21.44
345.993	-32.97
346.376	-0.65
346.759	10.88
347.142	31.67
347.525	37.77
347.908	50.42
348.291	65.79
348.674	77.99
349.057	121.61
349.44	132.45
349.823	136.3
350.206	160.48
350.588	203.19
350.971	186.24
351.354	218.55
351.737	190.08
352.119	254.48
352.502	254.03
352.884	252.23
353.267	279.12
353.65	294.26
354.032	279.57
354.414	308.49
354.797	297.87
355.179	314.6
355.562	299.91
355.944	320.7
356.326	306.91
356.709	315.05
357.091	323.86
357.473	336.74
357.855	335.39
358.238	334.26
358.62	327.93
359.002	329.51
359.384	357.08
359.766	331.77
360.148	319.34
360.53	312.11
360.912	321.38
361.294	333.58
361.676	313.69
362.057	328.38
362.439	312.34
362.821	321.6
363.203	314.82
363.584	294.71
363.966	343.3
364.348	318.21
364.729	318.44
365.111	305.1
365.493	293.13
365.874	313.01
366.256	315.27
366.637	299.46
367.019	321.38
367.4	300.81
367.781	310.53
368.163	303.3
368.544	313.69
368.925	321.83
369.306	302.62
369.688	299.23
370.069	301.94
370.45	298.33
370.831	304.43
371.212	293.35
371.593	340.58
371.974	305.33
372.355	326.57
372.736	294.71
373.117	326.35
373.498	306.46
373.879	313.24
374.26	285.44
374.641	302.85
375.021	323.41
375.402	317.31
375.783	311.66
376.163	316.86
376.544	320.7
376.925	327.25
377.305	338.78
377.686	329.06
378.066	336.06
378.447	318.44
378.827	326.8
379.208	325.9
379.588	303.07
379.968	328.16
380.349	321.6
380.729	296.97
381.109	329.51
381.489	343.52
381.87	338.55
382.25	328.38
382.63	344.43
383.01	324.31
383.39	352.11
383.77	342.17
384.15	339.45
384.53	337.19
384.91	333.58
385.29	346.69
385.67	343.07
386.049	362.96
386.429	327.25
386.809	346.01
387.189	350.08
387.568	346.23
387.948	338.32
388.328	362.73
388.707	374.26
389.087	371.54
389.466	362.73
389.846	386.91
390.225	365.89
390.605	367.48
390.984	370.41
391.363	351.66
391.743	358.44
392.122	375.39
392.501	372
392.881	370.87
393.26	370.41
393.639	374.48
394.018	366.35
394.397	377.65
394.776	399.34
395.155	385.1
395.534	383.3
395.913	402.5
396.292	387.59
396.671	389.85
397.05	398.44
397.429	403.18
397.808	404.31
398.186	379
398.565	418.55
398.944	417.19
399.323	411.32
399.701	418.1
400.08	417.42
400.458	420.58
400.837	432.79
401.215	443.86
401.594	399.79
401.972	417.64
402.351	434.14
402.729	430.07
403.107	431.43
403.486	436.17
403.864	429.4
404.242	468.94
404.62	460.13
404.999	421.26
405.377	477.53
405.755	483.18
406.133	467.13
406.511	470.75
406.889	448.6
407.267	488.6
407.645	470.07
408.023	457.19
408.401	493.57
408.779	499.9
409.156	498.09
409.534	519.79
409.912	528.15
410.29	510.75
410.667	516.17
411.045	541.71
411.422	556.4
411.8	531.54
412.178	579
412.555	528.15
412.933	565.21
413.31	552.1
413.687	556.17
414.065	578.32
414.442	617.41
414.819	586.91
415.197	586.23
415.574	609.73
415.951	617.41
416.328	627.13
416.705	617.64
417.082	619
417.46	653.12
417.837	641.59
418.214	663.06
418.591	662.38
418.967	661.93
419.344	665.1
419.721	698.99
420.098	672.33
420.475	691.08
420.852	677.98
421.228	712.78
421.605	716.39
421.982	714.81
422.358	754.58
422.735	770.18
423.111	770.86
423.488	791.87
423.864	772.21
424.241	785.09
424.617	821.25
424.994	815.83
425.37	813.57
425.746	840.23
426.123	864.41
426.499	856.5
426.875	852.44
427.251	871.19
427.627	890.85
428.003	892.89
428.379	914.58
428.756	929.27
429.132	933.34
429.507	951.87
429.883	937.63
430.259	933.34
430.635	965.88
431.011	939.89
431.387	1004.97
431.763	1007.91
432.138	999.78
432.514	1029.15
432.89	1053.33
433.265	1028.7
433.641	1090.4
434.016	1100.34
434.392	1112.77
434.767	1133.33
435.143	1151.41
435.518	1156.83
435.894	1174.91
436.269	1212.65
436.644	1204.74
437.02	1240.9
437.395	1237.06
437.77	1250.16
438.145	1289.94
438.52	1277.06
438.895	1319.99
439.271	1307.34
439.646	1329.71
440.021	1367.45
440.395	1359.99
440.77	1359.09
441.145	1374.46
441.52	1438.86
441.895	1422.36
442.27	1448.35
442.645	1437.05
443.019	1476.83
443.394	1472.31
443.769	1486.09
444.143	1462.81
444.518	1501.91
444.892	1517.05
445.267	1521.12
445.641	1510.27
446.016	1532.64
446.39	1545.3
446.764	1556.15
447.139	1569.7
447.513	1568.35
447.887	1604.51
448.262	1577.16
448.636	1588.24
449.01	1619.65
449.384	1631.62
449.758	1642.92
450.132	1659.42
450.506	1652.87
450.88	1653.54
451.254	1694
451.628	1656.26
452.002	1736.03
452.376	1700.1
452.75	1756.37
453.123	1769.02
453.497	1776.93
453.871	1776.25
454.244	1825.97
454.618	1827.32
454.992	1846.76
455.365	1854.22
455.739	1867.32
456.112	1896.7
456.486	1918.17
456.859	1906.19
457.232	1949.81
457.606	1953.88
457.979	1974.89
458.352	1997.49
458.725	2029.13
459.099	2011.27
459.472	2068.67
459.845	2069.13
460.218	2094.89
460.591	2085.85
460.964	2119.29
461.337	2195.9
461.71	2183.25
462.083	2190.93
462.456	2203.13
462.829	2194.32
463.201	2262.79
463.574	2253.53
463.947	2292.85
464.32	2368.78
464.692	2348.44
465.065	2338.72
465.438	2422.56
465.81	2453.98
466.183	2455.33
466.555	2497.14
466.928	2517.02
467.3	2500.75
467.672	2542.33
468.045	2618.26
468.417	2574.2
468.789	2573.29
469.161	2667.3
469.534	2671.6
469.906	2695.55
470.278	2743.46
470.65	2753.63
471.022	2781.42
471.394	2829.11
471.766	2847.86
472.138	2893.29
472.51	2931.93
472.882	2951.59
473.253	2991.59
473.625	3000.85
473.997	3101.87
474.369	3087.63
474.74	3098.48
475.112	3138.93
475.484	3214.41
475.855	3247.17
476.227	3321.3
476.598	3357.23
476.97	3380.28
477.341	3433.16
477.713	3490.11
478.084	3471.12
478.455	3559.26
478.827	3589.99
479.198	3665.69
479.569	3695.75
479.94	3787.5
480.311	3801.51
480.682	3869.31
481.053	3888.74
481.424	3950.66
481.795	4007.15
482.166	4044.22
482.537	4071.79
482.908	4137.09
483.279	4216.19
483.65	4250.31
484.021	4320.14
484.391	4319.46
484.762	4363.08
485.133	4391.78
485.503	4440.59
485.874	4570.53
486.244	4554.26
486.615	4626.57
486.985	4683.07
487.356	4731.2
487.726	4724.2
488.097	4848.49
488.467	4847.81
488.837	4905.44
489.207	4952.89
489.578	5013.46
489.948	5103.85
490.318	5097.52
490.688	5151.31
491.058	5220.23
491.428	5250.51
491.798	5308.14
492.168	5398.08
492.538	5438.98
492.908	5468.81
493.278	5482.82
493.648	5549.03
494.017	5551.75
494.387	5598.07
494.757	5666.32
495.126	5709.03
495.496	5683.49
495.866	5700.9
496.235	5817.05
496.605	5824.28
496.974	5846.43
497.344	5920.55
497.713	5926.2
498.082	6015.46
498.452	5972.07
498.821	5993.77
499.19	6012.07
499.559	6060.89
499.928	6065.18
500.298	6100.21
500.667	6154.22
501.036	6137.72
501.405	6186.98
501.774	6202.35
502.143	6292.74
502.512	6280.77
502.88	6258.85
503.249	6299.3
503.618	6307.88
503.987	6357.38
504.356	6429.46
504.724	6392.18
505.093	6353.08
505.462	6416.81
505.83	6433.31
506.199	6489.12
506.567	6548.78
506.936	6523.25
507.304	6619.52
507.672	6542.23
508.041	6664.94
508.409	6659.51
508.777	6675.56
509.145	6713.07
509.514	6677.14
509.882	6767.76
510.25	6738.16
510.618	6767.31
510.986	6826.74
511.354	6849.11
511.722	6851.15
512.09	6861.09
512.458	6910.36
512.826	6925.04
513.193	6899.73
513.561	6924.82
513.929	6992.61
514.297	7054.98
514.664	7041.88
515.032	7060.86
515.4	7041.65
515.767	7075.55
516.135	7076.45
516.502	7028.09
516.869	7187.41
517.237	7172.72
517.604	7110.12
517.972	7181.99
518.339	7186.28
518.706	7182.66
519.073	7184.02
519.44	7234.19
519.808	7236
520.175	7293.17
520.542	7335.88
520.909	7336.78
521.276	7333.17
521.643	7431.47
522.009	7496.33
522.376	7418.59
522.743	7544.91
523.11	7540.85
523.477	7587.63
523.843	7535.65
524.21	7651.8
524.577	7672.82
524.943	7637.34
525.31	7645.25
525.676	7725.47
526.043	7747.85
526.409	7768.19
526.776	7819.48
527.142	7775.64
527.508	7863.55
527.874	7842.31
528.241	7901.29
528.607	7892.02
528.973	7937.22
529.339	7905.81
529.705	8040.95
530.071	8082.3
530.437	8043.88
530.803	8004.56
531.169	8091.57
531.535	8048.4
531.901	8088.86
532.267	8106.93
532.632	8125.01
532.998	8152.81
533.364	8156.2
533.73	8108.74
534.095	8211.79
534.461	8218.8
534.826	8240.04
535.192	8244.78
535.557	8293.37
535.923	8280.04
536.288	8283.43
536.653	8318.23
537.019	8256.31
537.384	8277.1
537.749	8325.23
538.114	8278.45
538.479	8318.91
538.845	8289.08
539.21	8360.49
539.575	8284.78
539.94	8324.78
540.305	8402.29
540.67	8422.86
541.034	8439.58
541.399	8447.04
541.764	8448.85
542.129	8468.05
542.494	8500.6
542.858	8445
543.223	8459.69
543.587	8518.45
543.952	8559.8
544.316	8541.72
544.681	8520.71
545.045	8502.4
545.41	8592.57
545.774	8549.86
546.138	8640.48
546.503	8553.93
546.867	8580.37
547.231	8673.25
547.595	8587.83
547.959	8643.19
548.324	8683.64
548.688	8576.07
549.052	8651.33
549.416	8673.02
549.779	8642.96
550.143	8634.15
550.507	8705.34
550.871	8674.6
551.235	8716.18
551.599	8749.18
551.962	8757.99
552.326	8715.28
552.689	8763.87
553.053	8723.64
553.417	8777.65
553.78	8828.27
554.143	8814.26
554.507	8788.05
554.87	8844.09
555.234	8924.54
555.597	8906.23
555.96	8884.09
556.323	8877.76
556.686	8907.14
557.05	8950.98
557.413	8984.2
557.776	9011.99
558.139	8997.53
558.502	9036.17
558.865	8989.4
559.228	9059.23
559.59	9060.35
559.953	9147.36
560.316	9167.92
560.679	9176.74
561.041	9188.71
561.404	9196.4
561.767	9235.49
562.129	9257.64
562.492	9346.9
562.854	9303.06
563.217	9277.75
563.579	9327.69
563.941	9357.97
564.304	9374.7
564.666	9470.74
565.028	9481.13
565.39	9528.82
565.753	9512.32
566.115	9496.5
566.477	9612.2
566.839	9635.71
567.201	9672.99
567.563	9660.34
567.925	9751.18
568.287	9729.94
568.648	9748.92
569.01	9768.36
569.372	9817.85
569.734	9816.49
570.095	9835.7
570.457	9931.74
570.819	9941.46
571.18	9936.04
571.542	10012.87
571.903	9931.07
572.265	10028.24
572.626	10067.11
572.987	10094.23
573.349	10148.69
573.71	10177.16
574.071	10245.86
574.432	10242.47
574.794	10360.21
575.155	10292.19
575.516	10299.42
575.877	10395.69
576.238	10411.73
576.599	10399.08
576.96	10461
577.32	10469.36
577.681	10468
578.042	10527.44
578.403	10555
578.763	10589.13
579.124	10669.35
579.485	10712.97
579.845	10687.43
580.206	10740.76
580.566	10742.57
580.927	10810.82
581.287	10792.06
581.648	10848.56
582.008	10886.52
582.368	10894.21
582.728	10927.42
583.089	10951.15
583.449	10991.6
583.809	10968.78
584.169	11039.74
584.529	11008.1
584.889	11083.58
585.249	11097.59
585.609	11047.42
585.969	11171.03
586.329	11137.36
586.688	11254.2
587.048	11220.75
587.408	11216
587.768	11314.53
588.127	11241.54
588.487	11258.94
588.846	11398.37
589.206	11322.22
589.565	11425.26
589.925	11456.9
590.284	11380.75
590.643	11456.9
591.003	11450.8
591.362	11526.5
591.721	11523.79
592.08	11590.01
592.44	11599.72
592.799	11704.81
593.158	11625.26
593.517	11655.99
593.876	11722.66
594.235	11601.31
594.593	11795.88
594.952	11777.12
595.311	11670.46
595.67	11801.75
596.029	11858.47
596.387	11954.29
596.746	11914.74
597.104	11866.83
597.463	11813.73
597.822	11935.99
598.18	11938.25
598.538	11920.39
598.897	11974.4
599.255	11972.14
599.613	12133.27
599.972	11985.93
600.33	12046.94
600.688	12094.17
601.046	12034.29
601.404	12209.88
601.762	12024.57
602.12	12242.64
602.478	12142.99
602.836	12213.04
603.194	12108.86
603.552	12172.14
603.91	12137.34
604.268	12195.19
604.625	12107.05
604.983	12258.69
605.341	12153.16
605.698	12290.55
606.056	12226.37
606.413	12291.91
606.771	12340.72
607.128	12311.79
607.485	12324.45
607.843	12295.3
608.2	12330.55
608.557	12415.52
608.914	12377.33
609.272	12467.95
609.629	12436.54
609.986	12526.93
610.343	12441.96
610.7	12552.24
611.057	12494.39
611.414	12461.62
611.771	12471.56
612.127	12550.43
612.484	12593.37
612.841	12516.76
613.198	12562.64
613.554	12592.01
613.911	12696.19
614.267	12645.8
614.624	12650.32
614.98	12656.64
615.337	12686.47
615.693	12707.04
616.05	12693.48
616.406	12723.31
616.762	12730.54
617.118	12634.5
617.475	12739.58
617.831	12742.52
618.187	12698
618.543	12780.48
618.899	12816.19
619.255	12818.22
619.611	12687.15
619.967	12850.09
620.323	12824.1
620.678	12747.04
621.034	12734.83
621.39	12805.79
621.746	12814.83
622.101	12917.43
622.457	12836.07
622.812	12820.93
623.168	12925.56
623.523	12888.73
623.879	12956.07
624.234	12824.1
624.589	12883.53
624.945	12880.59
625.3	12937.77
625.655	12861.16
626.01	12911.78
626.365	12894.6
626.72	12861.38
627.075	12859.58
627.43	12844.44
627.785	12833.36
628.14	12836.98
628.495	12753.59
628.85	12856.87
629.205	12809.18
629.559	12881.72
629.914	12908.84
630.269	12857.77
630.623	12740.48
630.978	12775.96
631.332	12777.09
631.687	12815.28
632.041	12777.55
632.396	12747.26
632.75	12695.06
633.104	12670.43
633.459	12709.75
633.813	12683.31
634.167	12651.45
634.521	12639.24
634.875	12613.93
635.229	12629.98
635.583	12576.65
635.937	12591.56
636.291	12586.59
636.645	12621.84
636.999	12600.37
637.352	12590.43
637.706	12468.63
638.06	12497.78
638.413	12520.83
638.767	12461.85
639.121	12460.72
639.474	12426.37
639.828	12375.3
640.181	12384.56
640.534	12411.68
640.888	12331.23
641.241	12288.74
641.594	12399.93
641.947	12403.09
642.301	12275.19
642.654	12467.05
643.007	12377.1
643.36	12293.49
643.713	12329.65
644.066	12341.17
644.419	12262.53
644.771	12198.58
645.124	12156.54
645.477	12137.34
645.83	12034.74
646.182	11959.26
646.535	11888.76
646.888	11977.34
647.24	11833.16
647.593	11859.6
647.945	11950
648.298	11816.21
648.65	11804.46
649.002	11801.53
649.355	11883.78
649.707	11839.49
650.059	11887.4
650.411	11989.77
650.763	11967.17
651.115	12208.07
651.467	12154.96
651.819	12046.27
652.171	12095.98
652.523	12087.62
652.875	12141.18
653.227	12082.65
653.578	12178.69
653.93	12078.35
654.282	12044.68
654.633	12030.22
654.985	12056.89
655.337	12043.1
655.688	12084.68
656.039	12133.95
656.391	12032.48
656.742	12065.7
657.094	12081.97
657.445	12119.48
657.796	12127.84
658.147	12028.19
658.498	12082.42
658.849	12120.84
659.2	12108.64
659.551	12086.72
659.902	12165.81
660.253	12049.2
660.604	12111.12
660.955	12036.77
661.306	12110.9
661.656	12027.96
662.007	12058.24
662.358	12155.19
662.708	12094.17
663.059	12100.5
663.409	12041.29
663.76	12118.13
664.11	12052.14
664.461	12170.78
664.811	12112.03
665.161	12126.72
665.511	12081.07
665.862	12081.29
666.212	12129.2
666.562	12112.25
666.912	12138.24
667.262	12069.77
667.612	12051.69
667.962	12036.77
668.312	12025.7
668.662	12109.99
669.011	12071.12
669.361	12112.48
669.711	12098.24
670.06	12048.3
670.41	12009.66
670.76	11955.87
671.109	12076.32
671.459	12008.07
671.808	12014.85
672.157	11965.82
672.507	12021.41
672.856	11970.56
673.205	11959.49
673.554	12008.53
673.904	11948.64
674.253	12032.48
674.602	11949.32
674.951	11810.34
675.3	11798.36
675.649	11907.51
675.998	11934.18
676.346	11839.04
676.695	11948.87
677.044	11830.9
677.393	11919.94
677.741	11846.04
678.09	11918.36
678.438	11830.45
678.787	11763.11
679.135	11859.6
679.484	11739.83
679.832	11722.21
680.181	11654.41
680.529	11730.12
680.877	11693.51
681.225	11691.47
681.573	11680.17
681.922	11593.85
682.27	11552.94
682.618	11683.56
682.966	11633.39
683.314	11557.69
683.661	11476.11
684.009	11470.69
684.357	11531.93
684.705	11450.12
685.053	11437.24
685.4	11418.49
685.748	11432.95
686.095	11373.51
686.443	11364.25
686.79	11299.84
687.138	11341.65
687.485	11314.08
687.832	11189.11
688.18	11266.62
688.527	11187.53
688.874	11179.62
689.221	11137.36
689.568	11156.8
689.915	11063.69
690.262	11132.39
690.609	11093.52
690.956	10962.45
691.303	10979.85
691.65	10923.81
691.997	10956.35
692.344	10909.57
692.69	10813.98
693.037	10825.28
693.383	10710.03
693.73	10789.12
694.077	10732.18
694.423	10715.68
694.769	10623.48
695.116	10588.45
695.462	10623.25
695.808	10594.33
696.155	10526.53
696.501	10486.31
696.847	10421.22
697.193	10378.74
697.539	10393.43
697.885	10310.94
698.231	10266.65
698.577	10300.1
698.923	10218.52
699.269	10207.67
699.614	10188.23
699.96	10128.58
700.306	10188.46
700.651	10076.37
700.997	10049.03
701.342	10043.83
701.688	9956.6
702.033	9936.49
702.379	9893.55
702.724	9911.41
703.069	9932.87
703.415	9775.14
703.76	9754.57
704.105	9744.18
704.45	9727.91
704.795	9691.75
705.14	9692.88
705.485	9653.33
705.83	9639.32
706.175	9622.83
706.52	9574.92
706.865	9571.3
707.209	9519.33
707.554	9403.4
707.899	9550.06
708.243	9416.28
708.588	9414.7
708.932	9350.06
709.277	9339.67
709.621	9372.66
709.966	9273.46
710.31	9337.41
710.654	9226.23
710.998	9255.6
711.342	9174.7
711.687	9224.64
712.031	9216.96
712.375	9135.38
712.719	9146.45
713.063	9112.33
713.407	9164.76
713.75	9120.01
714.094	9099
714.438	8966.57
714.782	9028.72
715.125	9016.74
715.469	9054.93
715.812	8996.18
716.156	8993.92
716.499	8937.65
716.843	8953.47
717.186	8902.62
717.53	8939.45
717.873	8941.49
718.216	8898.55
718.559	8854.03
718.902	8829.4
719.246	8816.07
719.589	8754.15
719.932	8745.79
720.275	8738.56
720.617	8765.45
720.96	8730.42
721.303	8788.95
721.646	8687.71
721.989	8679.12
722.331	8756.63
722.674	8703.3
723.016	8743.3
723.359	8641.83
723.701	8689.97
724.044	8652.91
724.386	8621.27
724.729	8676.64
725.071	8577.66
725.413	8600.93
725.755	8601.61
726.097	8550.54
726.439	8542.4
726.782	8552.57
727.124	8572.68
727.465	8469.18
727.807	8544.44
728.149	8560.03
728.491	8508.96
728.833	8498.34
729.175	8453.82
729.516	8510.54
729.858	8498.34
730.199	8459.92
730.541	8417.66
730.882	8452.46
731.224	8488.84
731.565	8422.63
731.906	8432.8
732.248	8418.79
732.589	8392.58
732.93	8426.7
733.271	8452.01
733.612	8548.28
733.953	8418.34
734.294	8313.93
734.635	8459.69
734.976	8424.44
735.317	8451.56
735.658	8417.66
735.999	8346.7
736.339	8445.23
736.68	8461.5
737.021	8416.98
737.361	8407.26
737.702	8441.39
738.042	8400.71
738.383	8434.61
738.723	8448.85
739.063	8446.59
739.404	8478
739.744	8437.09
740.084	8463.08
740.424	8507.83
740.764	8486.13
741.104	8551.22
741.444	8474.83
741.784	8532.69
742.124	8532.91
742.464	8491.1
742.804	8539.46
743.143	8541.95
743.483	8544.21
743.823	8401.39
744.162	8596.19
744.502	8624.89
744.841	8557.32
745.181	8632.12
745.52	8596.19
745.86	8670.53
746.199	8650.2
746.538	8693.58
746.877	8841.6
747.216	8762.51
747.556	8802.06
747.895	8862.85
748.234	8830.08
748.573	8969.06
748.911	9016.97
749.25	9030.07
749.589	9023.97
749.928	9079.34
750.267	9206.79
750.605	9273.68
750.944	9273
751.283	9309.16
751.621	9465.32
751.96	9484.98
752.298	9572.43
752.636	9666.67
752.975	9706.44
753.313	9723.16
753.651	9844.97
753.989	9938.75
754.327	10027.34
754.666	10048.58
755.004	10205.18
755.342	10357.5
755.679	10457.15
756.017	10510.94
756.355	10681.1
756.693	10783.93
757.031	10935.33
757.368	10936.92
757.706	11123.58
758.044	11255.78
758.381	11433.4
758.719	11511.14
759.056	11725.6
759.394	11828.19
759.731	11870
760.068	12035.87
760.405	12165.36
760.743	12307.95
761.08	12576.42
761.417	12556.31
761.754	12752.91
762.091	12893.7
762.428	12951.55
