Data from hue_28_FLMS001491_00034.txt Node
Date: Tue Feb 07 17:17:11 GMT 2017
User: dcchb
Spectrometer: FLMS00149
Trigger mode: 0
Integration Time (sec): 2.000000E-2
Scans to average: 10
Electric dark correction enabled: true
Nonlinearity correction enabled: false
Boxcar width: 0
XAxis mode: Wavelengths
Number of Pixels in Spectrum: 2048
>>>>>Begin Spectral Data<<<<<
341.393	-0.93
341.776	-0.93
342.16	-0.93
342.543	-67.15
342.927	-75.05
343.31	-74.38
343.693	-97.88
344.077	-51.78
344.46	-86.13
344.843	-45.45
345.226	-39.58
345.61	-22.85
345.993	-35.96
346.376	4.49
346.759	16.24
347.142	27.32
347.525	35.45
347.908	62.12
348.291	80.65
348.674	109.12
349.057	118.61
349.44	126.52
349.823	154.77
350.206	171.27
350.588	193.86
350.971	219.18
351.354	225.95
351.737	260.98
352.119	246.97
352.502	258.5
352.884	270.93
353.267	299.4
353.65	298.04
354.032	315.22
354.414	305.73
354.797	310.92
355.179	348.89
355.562	319.29
355.944	338.04
356.326	341.66
356.709	344.6
357.091	351.83
357.473	345.05
357.855	324.48
358.238	324.71
358.62	330.36
359.002	350.47
359.384	324.93
359.766	331.94
360.148	338.95
360.53	353.86
360.912	334.65
361.294	317.48
361.676	344.6
362.057	334.88
362.439	336.91
362.821	326.06
363.203	323.13
363.584	347.08
363.966	318.83
364.348	328.32
364.729	335.1
365.111	320.64
365.493	310.47
365.874	342.11
366.256	315.9
366.637	298.49
367.019	315.9
367.4	326.29
367.781	348.44
368.163	326.29
368.544	306.86
368.925	295.33
369.306	332.39
369.688	317.25
370.069	306.86
370.45	312.28
370.831	308.89
371.212	339.62
371.593	321.09
371.974	314.99
372.355	315.67
372.736	336.23
373.117	327.19
373.498	333.75
373.879	297.37
374.26	318.16
374.641	299.17
375.021	306.4
375.402	323.35
375.783	321.55
376.163	333.52
376.544	325.61
376.925	334.2
377.305	334.88
377.686	299.62
378.066	338.72
378.447	319.51
378.827	343.47
379.208	321.77
379.588	321.77
379.968	350.7
380.349	346.18
380.729	361.77
381.109	333.07
381.489	334.65
381.87	348.21
382.25	349.57
382.63	341.43
383.01	355.67
383.39	336.01
383.77	342.56
384.15	346.18
384.53	340.53
384.91	334.2
385.29	357.25
385.67	349.12
386.049	364.26
386.429	342.79
386.809	342.34
387.189	364.48
387.568	336.23
387.948	364.93
388.328	345.95
388.707	357.7
389.087	357.02
389.466	360.87
389.846	369.68
390.225	364.03
390.605	362.45
390.984	341.88
391.363	357.93
391.743	364.03
392.122	386.85
392.501	374.88
392.881	384.82
393.26	363.35
393.639	362.45
394.018	372.17
394.397	370.58
394.776	379.85
395.155	384.37
395.534	368.32
395.913	370.58
396.292	379.85
396.671	405.61
397.05	404.93
397.429	391.37
397.808	392.5
398.186	380.53
398.565	388.66
398.944	401.32
399.323	390.47
399.701	394.54
400.08	398.15
400.458	415.78
400.837	405.38
401.215	398.38
401.594	399.28
401.972	401.77
402.351	400.19
402.729	401.54
403.107	407.19
403.486	389.79
403.864	393.86
404.242	432.5
404.62	422.33
404.999	428.44
405.377	425.5
405.755	419.85
406.133	418.27
406.511	433.18
406.889	425.05
407.267	422.11
407.645	424.14
408.023	428.21
408.401	444.03
408.779	444.48
409.156	454.88
409.534	451.49
409.912	449.23
410.29	444.93
410.667	445.84
411.045	457.59
411.422	444.93
411.8	463.46
412.178	454.88
412.555	471.15
412.933	470.24
413.31	478.6
413.687	473.18
414.065	477.25
414.442	480.86
414.819	483.35
415.197	465.04
415.574	480.41
415.951	492.39
416.328	483.8
416.705	503.91
417.082	491.94
417.46	503.69
417.837	488.09
418.214	490.81
418.591	496
418.967	498.04
419.344	513.4
419.721	505.95
420.098	514.08
420.475	518.6
420.852	505.5
421.228	530.35
421.605	515.21
421.982	511.14
422.358	516.57
422.735	536.68
423.111	536
423.488	539.84
423.864	531.26
424.241	549.34
424.617	546.4
424.994	527.64
425.37	564.7
425.746	546.62
426.123	573.29
426.499	578.94
426.875	566.96
427.251	577.81
427.627	570.58
428.003	571.93
428.379	587.07
428.756	589.79
429.132	604.02
429.507	609.9
429.883	590.69
430.259	626.4
430.635	602.44
431.011	634.53
431.387	629.33
431.763	630.01
432.138	630.24
432.514	623.23
432.89	643.57
433.265	639.28
433.641	653.29
434.016	657.58
434.392	660.97
434.767	665.26
435.143	651.93
435.518	684.02
435.894	666.17
436.269	667.75
436.644	679.28
437.02	710.46
437.395	705.26
437.77	688.77
438.145	712.95
438.52	694.19
438.895	706.39
439.271	716.11
439.646	725.38
440.021	735.55
440.395	710.91
440.77	718.14
441.145	737.35
441.52	719.73
441.895	756.56
442.27	756.79
442.645	734.64
443.019	745.26
443.394	743
443.769	752.72
444.143	748.2
444.518	782.1
444.892	785.49
445.267	780.74
445.641	784.36
446.016	777.58
446.39	802.66
446.764	795.88
447.139	805.6
447.513	784.36
447.887	800.18
448.262	814.87
448.636	807.18
449.01	824.58
449.384	846.28
449.758	811.7
450.132	838.59
450.506	843.11
450.88	866.16
451.254	838.59
451.628	850.57
452.002	860.29
452.376	872.27
452.75	878.59
453.123	910.23
453.497	880.17
453.871	888.76
454.244	897.12
454.618	903.45
454.992	911.13
455.365	947.07
455.739	932.83
456.112	941.42
456.486	923.34
456.859	966.27
457.232	977.35
457.606	963.56
457.979	984.13
458.352	980.96
458.725	999.04
459.099	1027.74
459.472	1022.54
459.845	1032.71
460.218	1037.91
460.591	1063.9
460.964	1060.96
461.337	1054.86
461.71	1100.06
462.083	1117.23
462.456	1099.38
462.829	1113.16
463.201	1128.08
463.574	1145.7
463.947	1112.48
464.32	1162.65
464.692	1196.32
465.065	1185.7
465.438	1199.49
465.81	1234.06
466.183	1204.01
466.555	1236.32
466.928	1242.42
467.3	1255.53
467.672	1284.68
468.045	1286.72
468.417	1303.89
468.789	1309.32
469.161	1326.94
469.534	1340.05
469.906	1366.49
470.278	1386.6
470.65	1406.04
471.022	1430.22
471.394	1449.2
471.766	1446.26
472.138	1508.63
472.51	1490.1
472.882	1491.68
473.253	1568.52
473.625	1605.35
473.997	1604.45
474.369	1627.5
474.74	1644.22
475.112	1675.86
475.484	1681.96
475.855	1727.16
476.227	1751.56
476.598	1803.99
476.97	1798.79
477.341	1877.66
477.713	1862.75
478.084	1908.62
478.455	1974.84
478.827	2016.42
479.198	2058
479.569	2076.3
479.94	2097.77
480.311	2137.32
480.682	2194.72
481.053	2212.79
481.424	2249.4
481.795	2309.29
482.166	2348.38
482.537	2361.04
482.908	2414.6
483.279	2481.49
483.65	2553.58
484.021	2597.87
484.391	2618.21
484.762	2656.85
485.133	2726.68
485.503	2747.7
485.874	2806.9
486.244	2866.56
486.615	2907.69
486.985	2961.93
487.356	3021.81
487.726	3056.61
488.097	3125.99
488.467	3203.5
488.837	3252.09
489.207	3273.11
489.578	3358.75
489.948	3383.39
490.318	3440.56
490.688	3440.11
491.058	3531.4
491.428	3567.34
491.798	3634.45
492.168	3718.29
492.538	3732.75
492.908	3784.28
493.278	3851.85
493.648	3846.2
494.017	3945.4
494.387	3993.99
494.757	4020.88
495.126	4067.89
495.496	4097.04
495.866	4131.84
496.235	4184.95
496.605	4199.86
496.974	4304.49
497.344	4325.28
497.713	4354.21
498.082	4386.75
498.452	4407.99
498.821	4466.07
499.19	4455.9
499.559	4554.43
499.928	4583.13
500.298	4629.45
500.667	4650.47
501.036	4700.87
501.405	4730.24
501.774	4758.49
502.143	4811.6
502.512	4823.35
502.88	4895.21
503.249	4831.71
503.618	4890.46
503.987	4957.58
504.356	4966.85
504.724	4972.04
505.093	4990.35
505.462	5046.17
505.83	5080.97
506.199	5171.14
506.567	5177.91
506.936	5109.89
507.304	5199.61
507.672	5256.1
508.041	5251.13
508.409	5288.19
508.777	5361.19
509.145	5340.85
509.514	5359.6
509.882	5377.23
510.25	5400.73
510.618	5456.33
510.986	5459.72
511.354	5548.3
511.722	5561.86
512.09	5591.46
512.458	5595.53
512.826	5662.2
513.193	5646.38
513.561	5683.89
513.929	5724.79
514.297	5765.02
514.664	5803.21
515.032	5865.35
515.4	5840.5
515.767	5882.53
516.135	5907.61
516.502	5842.3
516.869	5917.1
517.237	5970.44
517.604	5984.67
517.972	5998.01
518.339	6007.05
518.706	6057.89
519.073	6031.9
519.44	6121.39
519.808	6115.52
520.175	6114.61
520.542	6178.79
520.909	6257.66
521.276	6190.54
521.643	6273.25
522.009	6281.84
522.376	6329.3
522.743	6323.65
523.11	6396.41
523.477	6437.09
523.843	6487.03
524.21	6490.65
524.577	6473.7
524.943	6541.72
525.31	6558.22
525.676	6631.44
526.043	6700.59
526.409	6700.13
526.776	6751.66
527.142	6809.51
527.508	6826.68
527.874	6868.49
528.241	6919.34
528.607	6896.74
528.973	6989.17
529.339	6979
529.705	7044.08
530.071	7136.06
530.437	7117.3
530.803	7151.87
531.169	7184.87
531.535	7226
531.901	7234.13
532.267	7224.64
532.632	7335.6
532.998	7321.59
533.364	7389.61
533.73	7358.65
534.095	7456.05
534.461	7450.85
534.826	7527.23
535.192	7627.57
535.557	7584.18
535.923	7607
536.288	7589.6
536.653	7635.7
537.019	7669.15
537.384	7709.37
537.749	7774
538.114	7782.14
538.479	7789.37
538.845	7784.17
539.21	7839.99
539.575	7839.31
539.94	7907.33
540.305	7869.82
540.67	7956.37
541.034	8013.32
541.399	8070.49
541.764	8032.53
542.129	8089.25
542.494	8112.3
542.858	8177.16
543.223	8173.77
543.587	8247.21
543.952	8210.38
544.316	8268.45
544.681	8246.76
545.045	8366.31
545.41	8448.34
545.774	8449.69
546.138	8467.32
546.503	8520.2
546.867	8444.04
547.231	8570.37
547.595	8536.7
547.959	8630.71
548.324	8638.61
548.688	8656.69
549.052	8717.03
549.416	8724.04
549.779	8721.1
550.143	8759.29
550.507	8801.1
550.871	8827.99
551.235	8794.54
551.599	8904.14
551.962	8931.71
552.326	8960.19
552.689	8964.48
553.053	9005.16
553.417	9016.01
553.78	9159.73
554.143	9117.47
554.507	9098.26
554.87	9110.24
555.234	9218.94
555.597	9233.63
555.96	9207.19
556.323	9223.46
556.686	9263.01
557.05	9387.97
557.413	9409.67
557.776	9305.49
558.139	9411.25
558.502	9468.65
558.865	9432.49
559.228	9537.57
559.59	9569.21
559.953	9601.53
560.316	9686.95
560.679	9669.32
561.041	9674.75
561.404	9772.82
561.767	9802.88
562.129	9716.78
562.492	9828.64
562.854	9812.14
563.217	9846.49
563.579	9871.35
563.941	9997.45
564.304	10000.84
564.666	10041.52
565.028	10124.68
565.39	10088.52
565.753	10152.25
566.115	10152.93
566.477	10197.22
566.839	10263.88
567.201	10335.07
567.563	10326.93
567.925	10353.82
568.287	10355.41
568.648	10412.35
569.01	10464.1
569.372	10616.87
569.734	10483.31
570.095	10562.63
570.457	10666.36
570.819	10745.9
571.18	10720.82
571.542	10773.93
571.903	10831.55
572.265	10846.24
572.626	10905.9
572.987	11007.14
573.349	11039.46
573.71	11125.33
574.071	11166.23
574.432	11159.45
574.794	11287.13
575.155	11323.74
575.516	11395.15
575.877	11504.53
576.238	11490.52
576.599	11593.11
576.96	11691.64
577.32	11719.44
577.681	11867
578.042	11942.03
578.403	11917.85
578.763	12191.52
579.124	12210.05
579.485	12350.16
579.845	12473.77
580.206	12575.46
580.566	12695.91
580.927	12862.46
581.287	12941.1
581.648	13051.83
582.008	13269.45
582.368	13350.58
582.728	13526.17
583.089	13652.04
583.449	13783.11
583.809	14018.81
584.169	14153.05
584.529	14282.76
584.889	14621.28
585.249	14714.16
585.609	14847.26
585.969	15132
586.329	15238.67
586.688	15504.42
587.048	15795.94
587.408	15911.42
587.768	16196.61
588.127	16416.26
588.487	16650.16
588.846	17085.85
589.206	17201.55
589.565	17457.59
589.925	17672.73
590.284	17992.49
590.643	18278.81
591.003	18573.49
591.362	18903.2
591.721	19076.76
592.08	19375.73
592.44	19655.05
592.799	19944.08
593.158	20239.89
593.517	20477.85
593.876	20758.97
594.235	21066.08
594.593	21370.48
594.952	21706.29
595.311	21830.36
595.67	22346.05
596.029	22705.36
596.387	23075.52
596.746	23251.79
597.104	23450.65
597.463	23722.29
597.822	24178.77
598.18	24297.41
598.538	24617.4
598.897	25053.1
599.255	25122.7
599.613	25755.68
599.972	25931.72
600.33	26200.41
600.688	26414.87
601.046	26802.2
601.404	27176.21
601.762	27388.86
602.12	27730.99
602.478	28125.11
602.836	28292.34
603.194	28413.91
603.552	28766.22
603.91	28894.13
604.268	29177.74
604.625	29516.26
604.983	29855.23
605.341	29993.53
605.698	30379.51
606.056	30643.23
606.413	30996.22
606.771	31137.23
607.128	31455.19
607.485	31448.18
607.843	31727.27
608.2	32047.04
608.557	32376.07
608.914	32548.49
609.272	32934.02
609.629	33088.59
609.986	33471.86
610.343	33470.73
610.7	33837.95
611.057	33927.44
611.414	34127.44
611.771	34426.19
612.127	34671.38
612.484	34856
612.841	35097.81
613.198	34994.53
613.554	35291.02
613.911	35651.01
614.267	35920.38
614.624	35978.69
614.98	36196.08
615.337	36382.97
615.693	36545.45
616.05	36611.44
616.406	36978.21
616.762	37011.2
617.118	37162.38
617.475	37434.47
617.831	37582.03
618.187	37615.25
618.543	37761.46
618.899	38128.46
619.255	38054.79
619.611	38294.11
619.967	38311.51
620.323	38529.81
620.678	38588.11
621.034	38603.48
621.39	38715.79
621.746	38747.2
622.101	39367.98
622.457	39066.97
622.812	39286.85
623.168	39342.67
623.523	39508.31
623.879	39754.63
624.234	39416.11
624.589	39781.52
624.945	39694.52
625.3	39968.64
625.655	39872.6
626.01	40058.81
626.365	40105.13
626.72	40174.51
627.075	40048.18
627.43	40172.47
627.785	40301.51
628.14	40358.01
628.495	40523.65
628.85	40414.95
629.205	40454.5
629.559	40663.08
629.914	40561.17
630.269	40644.55
630.623	40686.59
630.978	40528.85
631.332	40917.77
631.687	40954.15
632.041	40796.64
632.396	40874.83
632.75	40878.67
633.104	40972.45
633.459	40816.53
633.813	40850.2
634.167	40853.81
634.521	40946.47
634.875	41105.78
635.229	40950.99
635.583	40926.58
635.937	40896.52
636.291	40802.29
636.645	40880.48
636.999	40948.05
637.352	40949.86
637.706	40835.51
638.06	41002.74
638.413	40944.66
638.767	40929.97
639.121	40884.77
639.474	40762.52
639.828	40842.74
640.181	40760.26
640.534	40862.85
640.888	40671.22
641.241	40705.12
641.594	40738.56
641.947	40746.92
642.301	40734.72
642.654	40641.61
643.007	40795.06
643.36	40701.95
643.713	40738.56
644.066	40891.78
644.419	40512.13
644.771	40426.71
645.124	39988.52
645.477	39895.87
645.83	39918.7
646.182	39536.11
646.535	39503.79
646.888	39523.23
647.24	39404.81
647.593	39674.63
647.945	39570.91
648.298	39461.31
648.65	39305.15
649.002	39329.79
649.355	39521.42
649.707	39384.7
650.059	39650.91
650.411	40117.79
650.763	40101.52
651.115	40512.8
651.467	40403.43
651.819	40344
652.171	40219.25
652.523	40277.56
652.875	40158.92
653.227	40231.23
653.578	40325.92
653.93	40223.32
654.282	40112.36
654.633	40125.7
654.985	40160.27
655.337	40156.88
655.688	40145.36
656.039	40313.71
656.391	39957.79
656.742	40037.79
657.094	40097.67
657.445	40154.17
657.796	40242.08
658.147	39993.5
658.498	39872.6
658.849	40152.36
659.2	39957.57
659.551	39987.62
659.902	40136.32
660.253	39962.76
660.604	40182.87
660.955	40028.75
661.306	40090.44
661.656	40017.9
662.007	40036.66
662.358	40054.29
662.708	40062.2
663.059	39865.14
663.409	39715.09
663.76	40068.97
664.11	40031.91
664.461	39841.86
664.811	39890.67
665.161	39902.2
665.511	39900.62
665.862	39878.7
666.212	40103.55
666.562	40041.4
666.912	39849.77
667.262	39880.96
667.612	39885.02
667.962	40011.58
668.312	39749.66
668.662	40055.64
669.011	39929.32
669.361	39879.83
669.711	39841.64
670.06	39737.91
670.41	39735.65
670.76	39747.18
671.109	39771.13
671.459	39830.56
671.808	39787.17
672.157	39762.99
672.507	39541.98
672.856	39496.56
673.205	39636.67
673.554	39701.53
673.904	39676.22
674.253	39761.64
674.602	39707.63
674.951	39082.33
675.3	38927.99
675.649	39543.56
675.998	39477.8
676.346	39560.51
676.695	39544.92
677.044	39270.13
677.393	39517.12
677.741	39475.09
678.09	39386.28
678.438	39370.91
678.787	39504.47
679.135	39442.32
679.484	39003.69
679.832	39280.97
680.181	39023.13
680.529	39213.63
680.877	39115.33
681.225	39027.42
681.573	39311.48
681.922	38981.09
682.27	38849.57
682.618	38981.32
682.966	38699.07
683.314	38922.11
683.661	38692.97
684.009	38568
684.357	38486.87
684.705	38410.26
685.053	38557.83
685.4	38394.89
685.748	38319.64
686.095	38234.45
686.443	38076.48
686.79	38054.79
687.138	38209.59
687.485	38199.19
687.832	37990.39
688.18	38040.55
688.527	37752.2
688.874	37777.96
689.221	37736.83
689.568	37745.65
689.915	37701.58
690.262	37586.78
690.609	37587.46
690.956	37338.65
691.303	37361.02
691.65	37114.7
691.997	37182.95
692.344	37009.17
692.69	36882.17
693.037	36885.78
693.383	36708.16
693.73	36787.25
694.077	36642.62
694.423	36606.69
694.769	36510.42
695.116	36418
695.462	36412.57
695.808	36285.35
696.155	36326.47
696.501	36058.01
696.847	35968.97
697.193	35774.85
697.539	35942.3
697.885	35597
698.231	35602.88
698.577	35673.84
698.923	35514.97
699.269	35333.51
699.614	35289.89
699.96	35162.44
700.306	35180.06
700.651	35010.12
700.997	34963.35
701.342	34868.43
701.688	34787.08
702.033	34716.8
702.379	34736.69
702.724	34580.98
703.069	34634.54
703.415	34174.67
703.76	34314.55
704.105	34268.9
704.45	34137.61
704.795	33962.92
705.14	33997.04
705.485	34019.19
705.83	33852.19
706.175	33638.64
706.52	33564.74
706.865	33581.24
707.209	33421.47
707.554	33468.7
707.899	33381.24
708.243	33260.34
708.588	33174.24
708.932	33121.81
709.277	33185.99
709.621	32990.74
709.966	32895.83
710.31	32893.8
710.654	32663.75
710.998	32551.43
711.342	32745.78
711.687	32593.69
712.031	32370.42
712.375	32284.55
712.719	32434.83
713.063	32355.96
713.407	32528.16
713.75	32170.65
714.094	32262.17
714.438	31997.77
714.782	32147.38
715.125	31815.18
715.469	31994.16
715.812	31891.11
716.156	31704
716.499	31705.13
716.843	31815.18
717.186	31528.41
717.53	31675.3
717.873	31558.92
718.216	31508.3
718.559	31297.45
718.902	31202.77
719.246	31329.54
719.589	31227.17
719.932	31019.27
720.275	31079.83
720.617	31120.28
720.96	31012.72
721.303	30895.88
721.646	30980.4
721.989	30868.76
722.331	30910.35
722.674	30804.81
723.016	30779.95
723.359	30764.13
723.701	30799.84
724.044	30590.81
724.386	30453.18
724.729	30532.5
725.071	30508.77
725.413	30425.16
725.755	30385.16
726.097	30410.25
726.439	30171.61
726.782	30126.64
727.124	30391.94
727.465	30065.4
727.807	30066.53
728.149	30041.22
728.491	30015
728.833	29973.19
729.175	30053.42
729.516	29899.75
729.858	29852.97
730.199	29811.62
730.541	29729.36
730.882	29638.97
731.224	29784.73
731.565	29510.16
731.906	29550.61
732.248	29681
732.589	29479.87
732.93	29258.19
733.271	29377.05
733.612	29349.48
733.953	29433.1
734.294	29218.86
734.635	29232.65
734.976	29207.11
735.317	29156.49
735.658	29065.65
735.999	29037.4
736.339	29114.23
736.68	29188.13
737.021	28840.57
737.361	28836.5
737.702	29051.64
738.042	28836.5
738.383	28685.32
738.723	28842.15
739.063	28657.52
739.404	28683.06
739.744	28703.85
740.084	28591.54
740.424	28585.21
740.764	28490.97
741.104	28652.78
741.444	28405.78
741.784	28410.3
742.124	28542.95
742.464	28413.01
742.804	28365.1
743.143	28260.02
743.483	28312.9
743.823	28144.32
744.162	28156.75
744.502	28232.45
744.841	28045.34
745.181	28121.94
745.52	27923.53
745.86	28039.46
746.199	27978.9
746.538	27856.64
746.877	27937.54
747.216	27822.74
747.556	27863.87
747.895	27846.02
748.234	27693.03
748.573	27686.48
748.911	27727.83
749.25	27685.12
749.589	27589.53
749.928	27494.16
750.267	27580.94
750.605	27475.18
750.944	27422.53
751.283	27266.6
751.621	27307.28
751.96	27174.62
752.298	27147.96
752.636	27199.93
752.975	27098.02
753.313	27042.2
753.651	27160.84
753.989	26989.32
754.327	26955.2
754.666	26796.1
755.004	26860.06
755.342	26938.47
755.679	26810.79
756.017	26651.93
756.355	26677.69
756.693	26679.5
757.031	26579.61
757.368	26488.09
757.706	26467.52
758.044	26400.86
758.381	26330.58
758.719	26284.48
759.056	26332.39
759.394	26170.58
759.731	26122.22
760.068	25963.13
760.405	25956.8
760.743	25803.81
