Data from hue_270_FLMS001491_00075.txt Node
Date: Tue Feb 07 15:57:41 GMT 2017
User: dcchb
Spectrometer: FLMS00149
Trigger mode: 0
Integration Time (sec): 2.000000E-2
Scans to average: 10
Electric dark correction enabled: true
Nonlinearity correction enabled: false
Boxcar width: 0
XAxis mode: Wavelengths
Number of Pixels in Spectrum: 2048
>>>>>Begin Spectral Data<<<<<
341.393	-3.87
341.776	-3.87
342.16	-3.87
342.543	-70.76
342.927	-69.4
343.31	-81.83
343.693	-60.14
344.077	-69.63
344.46	-73.92
344.843	-37.99
345.226	-41.16
345.61	-47.26
345.993	-45.22
346.376	8.33
346.759	20.31
347.142	44.72
347.525	48.11
347.908	51.95
348.291	72.06
348.674	80.42
349.057	131.27
349.44	107.77
349.823	136.47
350.206	152.51
350.588	177.82
350.971	206.07
351.354	210.14
351.737	224.37
352.119	228.89
352.502	245.62
352.884	269.12
353.267	269.34
353.65	254.88
354.032	282.45
354.414	291.04
354.797	292.17
355.179	313.41
355.562	302.79
355.944	320.87
356.326	325.39
356.709	332.84
357.091	333.75
357.473	336.01
357.855	334.88
358.238	334.43
358.62	336.23
359.002	341.66
359.384	313.18
359.766	325.61
360.148	350.25
360.53	326.06
360.912	313.41
361.294	299.62
361.676	332.84
362.057	327.42
362.439	335.56
362.821	334.88
363.203	321.55
363.584	332.84
363.966	328.1
364.348	320.19
364.729	310.25
365.111	318.83
365.493	292.17
365.874	348.21
366.256	303.92
366.637	312.96
367.019	312.96
367.4	287.42
367.781	302.79
368.163	314.31
368.544	302.34
368.925	284.94
369.306	306.86
369.688	306.4
370.069	315.44
370.45	323.58
370.831	306.18
371.212	300.75
371.593	310.92
371.974	300.08
372.355	309.57
372.736	291.94
373.117	301.88
373.498	323.35
373.879	316.35
374.26	293.3
374.641	325.84
375.021	318.61
375.402	326.29
375.783	307.53
376.163	322.45
376.544	317.25
376.925	307.76
377.305	320.19
377.686	322.45
378.066	302.79
378.447	320.19
378.827	303.69
379.208	325.16
379.588	323.35
379.968	317.25
380.349	319.29
380.729	320.19
381.109	343.47
381.489	319.51
381.87	331.49
382.25	319.51
382.63	336.69
383.01	328.78
383.39	344.37
383.77	329
384.15	354.09
384.53	330.13
384.91	329.45
385.29	345.5
385.67	349.79
386.049	346.4
386.429	338.04
386.809	351.15
387.189	325.61
387.568	339.17
387.948	358.83
388.328	342.11
388.707	365.16
389.087	352.05
389.466	349.34
389.846	368.55
390.225	361.09
390.605	362
390.984	366.06
391.363	344.37
391.743	380.07
392.122	370.58
392.501	362.45
392.881	386.18
393.26	359.74
393.639	369.68
394.018	382.56
394.397	380.75
394.776	370.36
395.155	375.1
395.534	388.66
395.913	354.99
396.292	373.3
396.671	387.53
397.05	391.15
397.429	370.58
397.808	362.9
398.186	396.12
398.565	383.69
398.944	398.61
399.323	408.32
399.701	402.67
400.08	399.96
400.458	413.97
400.837	413.52
401.215	412.39
401.594	417.14
401.972	411.26
402.351	420.75
402.729	427.76
403.107	420.98
403.486	429.11
403.864	442.22
404.242	417.14
404.62	418.49
404.999	456.68
405.377	434.31
405.755	460.52
406.133	461.2
406.511	454.2
406.889	460.07
407.267	495.33
407.645	471.37
408.023	462.78
408.401	501.65
408.779	501.43
409.156	484.93
409.534	485.61
409.912	493.52
410.29	502.56
410.667	510.47
411.045	494.2
411.422	523.57
411.8	524.48
412.178	529.22
412.555	536.68
412.933	547.08
413.31	569
413.687	558.6
414.065	565.38
414.442	580.3
414.819	569.45
415.197	586.62
415.574	606.28
415.951	599.73
416.328	614.64
416.705	618.26
417.082	596.34
417.46	637.24
417.837	625.27
418.214	631.59
418.591	655.77
418.967	642.21
419.344	698.94
419.721	706.62
420.098	693.29
420.475	684.93
420.852	675.21
421.228	704.13
421.605	700.52
421.982	714.76
422.358	737.81
422.735	744.36
423.111	743.46
423.488	770.57
423.864	741.87
424.241	761.99
424.617	804.02
424.994	789.78
425.37	781.19
425.746	818.93
426.123	825.49
426.499	836.11
426.875	859.16
427.251	892.38
427.627	888.99
428.003	881.08
428.379	915.2
428.756	916.56
429.132	929.89
429.507	936.44
429.883	940.29
430.259	925.82
430.635	941.19
431.011	973.05
431.387	999.49
431.763	988.19
432.138	1018.93
432.514	1001.08
432.89	1024.58
433.265	1044.46
433.641	1044.24
434.016	1077.91
434.392	1086.5
434.767	1129.21
435.143	1111.35
435.518	1126.27
435.894	1152.03
436.269	1173.95
436.644	1199.26
437.02	1236.1
437.395	1196.78
437.77	1239.71
438.145	1253.5
438.52	1272.25
438.895	1267.96
439.271	1281.97
439.646	1335.08
440.021	1319.71
440.395	1347.51
440.77	1336.66
441.145	1359.26
441.52	1392.7
441.895	1396.77
442.27	1407.39
442.645	1381.63
443.019	1445.36
443.394	1406.94
443.769	1454.4
444.143	1433.83
444.518	1458.69
444.892	1454.62
445.267	1472.48
445.641	1505.24
446.016	1480.38
446.39	1529.2
446.764	1537.56
447.139	1526.94
447.513	1544.34
447.887	1533.94
448.262	1554.06
448.636	1552.47
449.01	1587.95
449.384	1587.05
449.758	1584.56
450.132	1651
450.506	1623.21
450.88	1623.21
451.254	1622.75
451.628	1655.97
452.002	1662.75
452.376	1681.96
452.75	1695.97
453.123	1676.99
453.497	1723.09
453.871	1746.37
454.244	1757.67
454.618	1781.39
454.992	1797.21
455.365	1805.57
455.739	1827.49
456.112	1856.65
456.486	1848.51
456.859	1895.52
457.232	1912.92
457.606	1886.48
457.979	1913.59
458.352	1953.59
458.725	1967.38
459.099	1999.69
459.472	2012.35
459.845	2040.82
460.218	2067.94
460.591	2051.44
460.964	2083.31
461.337	2104.1
461.71	2136.86
462.083	2176.41
462.456	2142.97
462.829	2152.68
463.201	2219.35
463.574	2219.57
463.947	2229.97
464.32	2290.76
464.692	2318.55
465.065	2286.69
465.438	2314.26
465.81	2353.81
466.183	2376.41
466.555	2399.91
466.928	2405.33
467.3	2437.65
467.672	2432.45
468.045	2499.12
468.417	2542.73
468.789	2546.57
469.161	2543.18
469.534	2571.2
469.906	2632.67
470.278	2635.83
470.65	2669.73
471.022	2693.69
471.394	2745.66
471.766	2797.86
472.138	2784.53
472.51	2820.24
472.882	2885.32
473.253	2863.4
473.625	2927.8
473.997	2980.68
474.369	2981.36
474.74	3019.78
475.112	3072.43
475.484	3109.27
475.855	3128.48
476.227	3191.53
476.598	3235.37
476.97	3251.64
477.341	3298.64
477.713	3348.58
478.084	3390.39
478.455	3427.23
478.827	3452.99
479.198	3502.25
479.569	3576.37
479.94	3638.52
480.311	3641.01
480.682	3737.27
481.053	3765.52
481.424	3822.02
481.795	3841.68
482.166	3916.7
482.537	3926.2
482.908	4016.82
483.279	4019.3
483.65	4058.17
484.021	4114.89
484.391	4180.88
484.762	4204.61
485.133	4209.8
485.503	4265.62
485.874	4355.79
486.244	4355.56
486.615	4453.41
486.985	4444.6
487.356	4526.63
487.726	4574.31
488.097	4684.37
488.467	4650.24
488.837	4718.04
489.207	4739.28
489.578	4844.82
489.948	4864.02
490.318	4904.93
490.688	4885.49
491.058	4969.56
491.428	4990.57
491.798	5065.6
492.168	5159.61
492.538	5166.62
492.908	5178.59
493.278	5268.53
493.648	5272.38
494.017	5280.96
494.387	5359.6
494.757	5368.64
495.126	5403.9
495.496	5411.13
495.866	5420.17
496.235	5496.1
496.605	5534.06
496.974	5576.32
497.344	5638.47
497.713	5621.29
498.082	5641.41
498.452	5673.72
498.821	5698.35
499.19	5701.29
499.559	5731.57
499.928	5804.34
500.298	5804.34
500.667	5850.89
501.036	5836.2
501.405	5901.74
501.774	5835.3
502.143	5897.9
502.512	5941.74
502.88	5969.53
503.249	6001.62
503.618	5958.69
503.987	5996.65
504.356	6069.42
504.724	6043.2
505.093	6050.66
505.462	6070.32
505.83	6126.36
506.199	6178.34
506.567	6241.16
506.936	6123.88
507.304	6252.69
507.672	6246.59
508.041	6235.97
508.409	6279.13
508.777	6370.88
509.145	6337.21
509.514	6337.21
509.882	6374.72
510.25	6371.1
510.618	6385.11
510.986	6368.62
511.354	6467.37
511.722	6452.01
512.09	6462.63
512.458	6471.67
512.826	6502.4
513.193	6494.49
513.561	6592.79
513.929	6609.52
514.297	6639.12
514.664	6651.1
515.032	6626.01
515.4	6696.52
515.767	6663.75
516.135	6669.63
516.502	6582.17
516.869	6695.84
517.237	6694.03
517.604	6691.55
517.972	6697.87
518.339	6721.15
518.706	6709.85
519.073	6718.21
519.44	6757.76
519.808	6828.27
520.175	6862.16
520.542	6896.74
520.909	6845.22
521.276	6910.3
521.643	6875.72
522.009	6946.68
522.376	6988.71
522.743	6957.98
523.11	7003.86
523.477	7049.73
523.843	7063.74
524.21	7068.94
524.577	7057.41
524.943	7106.23
525.31	7150.52
525.676	7171.76
526.043	7174.25
526.409	7184.42
526.776	7227.58
527.142	7249.05
527.508	7305.54
527.874	7251.31
528.241	7350.06
528.607	7318.88
528.973	7383.05
529.339	7338.31
529.705	7418.76
530.071	7485.65
530.437	7429.61
530.803	7447.91
531.169	7458.08
531.535	7479.1
531.901	7473.67
532.267	7539.21
532.632	7537.4
532.998	7495.82
533.364	7570.62
533.73	7519.77
534.095	7531.75
534.461	7586.66
534.826	7591.41
535.192	7583.28
535.557	7641.35
535.923	7657.85
536.288	7675.48
536.653	7688.13
537.019	7600.9
537.384	7650.84
537.749	7627.34
538.114	7614.23
538.479	7663.05
538.845	7718.41
539.21	7674.8
539.575	7666.44
539.94	7694.23
540.305	7714.35
540.67	7709.15
541.034	7724.97
541.399	7778.07
541.764	7727.23
542.129	7742.82
542.494	7793.44
542.858	7790.73
543.223	7748.92
543.587	7775.59
543.952	7796.83
544.316	7804.51
544.681	7723.38
545.045	7838.86
545.41	7793.44
545.774	7872.99
546.138	7851.74
546.503	7817.17
546.867	7869.82
547.231	7851.52
547.595	7849.03
547.959	7922.7
548.324	7854
548.688	7873.44
549.052	7927.45
549.416	7932.87
549.779	7889.93
550.143	7934.9
550.507	7912.98
550.871	7914.11
551.235	7929.48
551.599	7976.03
551.962	7879.76
552.326	7948.24
552.689	7977.84
553.053	7935.58
553.417	7895.58
553.78	8039.53
554.143	8043.83
554.507	8041.57
554.87	8040.89
555.234	8085.86
555.597	7993.66
555.96	8077.05
556.323	8054.68
556.686	8076.14
557.05	8122.02
557.413	8103.49
557.776	8113.88
558.139	8171.73
558.502	8185.07
558.865	8231.85
559.228	8233.88
559.59	8271.17
559.953	8300.77
560.316	8326.31
560.679	8289.47
561.041	8325.85
561.404	8310.04
561.767	8390.03
562.129	8329.02
562.492	8388.45
562.854	8367.21
563.217	8445.4
563.579	8439.98
563.941	8503.7
564.304	8499.64
564.666	8570.82
565.028	8563.59
565.39	8566.53
565.753	8583.47
566.115	8629.8
566.477	8673.87
566.839	8647.88
567.201	8705.05
567.563	8686.07
567.925	8740.76
568.287	8790.48
568.648	8832.96
569.01	8883.58
569.372	8902.34
569.734	8870.92
570.095	8931.71
570.457	8933.3
570.819	9002.45
571.18	8954.99
571.542	8999.51
571.903	8983.69
572.265	9081.77
572.626	9133.97
572.987	9078.38
573.349	9215.55
573.71	9197.92
574.071	9185.04
574.432	9177.81
574.794	9308.88
575.155	9308.43
575.516	9290.12
575.877	9336.45
576.238	9417.13
576.599	9358.82
576.96	9450.12
577.32	9395.66
577.681	9511.59
578.042	9525.82
578.403	9577.35
578.763	9520.17
579.124	9568.31
579.485	9594.97
579.845	9707.97
580.206	9701.64
580.566	9665.93
580.927	9654.63
581.287	9755.2
581.648	9697.12
582.008	9752.48
582.368	9804.69
582.728	9847.62
583.089	9886.27
583.449	9889.2
583.809	9851.92
584.169	9962.42
584.529	9973.04
584.889	10082.19
585.249	10010.78
585.609	10039.48
585.969	10134.17
586.329	10077.45
586.688	10100.95
587.048	10197.22
587.408	10175.07
587.768	10184.79
588.127	10240.15
588.487	10218.01
588.846	10337.78
589.206	10301.85
589.565	10284.45
589.925	10355.18
590.284	10273.37
590.643	10396.99
591.003	10470.2
591.362	10569.19
591.721	10528.73
592.08	10511.56
592.44	10565.8
592.799	10499.36
593.158	10542.97
593.517	10518.57
593.876	10593.59
594.235	10617.77
594.593	10614.83
594.952	10711.78
595.311	10618
595.67	10725.34
596.029	10782.97
596.387	10728.28
596.746	10726.7
597.104	10830.2
597.463	10800.14
597.822	10859.12
598.18	10722.4
598.538	10778.45
598.897	10846.92
599.255	10871.78
599.613	10944.99
599.972	10883.53
600.33	10959.46
600.688	10938.44
601.046	10959.91
601.404	11022.73
601.762	10942.28
602.12	11027.25
602.478	11027.48
602.836	11062.05
603.194	10965.33
603.552	11008.27
603.91	10939.12
604.268	11105.67
604.625	10988.61
604.983	10959.01
605.341	11014.37
605.698	11080.81
606.056	11099.11
606.413	11049.17
606.771	11064.99
607.128	11115.39
607.485	11140.24
607.843	11157.19
608.2	11156.74
608.557	11189.51
608.914	11218.21
609.272	11172.11
609.629	11283.06
609.986	11319
610.343	11187.25
610.7	11307.25
611.057	11276.96
611.414	11349.5
611.771	11343.85
612.127	11281.71
612.484	11326
612.841	11352.44
613.198	11288.71
613.554	11309.05
613.911	11441.48
614.267	11380.01
614.624	11358.32
614.98	11437.41
615.337	11492.78
615.693	11390.86
616.05	11404.64
616.406	11512.44
616.762	11399.9
617.118	11369.62
617.475	11460.46
617.831	11507.92
618.187	11538.43
618.543	11592.21
618.899	11530.97
619.255	11517.86
619.611	11521.48
619.967	11584.53
620.323	11633.11
620.678	11546.33
621.034	11585.88
621.39	11568.26
621.746	11501.14
622.101	11658.42
622.457	11547.24
622.812	11598.76
623.168	11627.01
623.523	11540.46
623.879	11687.57
624.234	11564.19
624.589	11548.59
624.945	11633.79
625.3	11676.5
625.655	11655.26
626.01	11631.08
626.365	11642.83
626.72	11512.89
627.075	11636.5
627.43	11531.65
627.785	11615.26
628.14	11546.33
628.495	11634.92
628.85	11569.84
629.205	11495.04
629.559	11571.19
629.914	11507.69
630.269	11512.21
630.623	11519.67
630.978	11443.96
631.332	11506.56
631.687	11476.51
632.041	11447.35
632.396	11485.32
632.75	11387.24
633.104	11435.38
633.459	11397.64
633.813	11372.33
634.167	11354.48
634.521	11402.16
634.875	11442.83
635.229	11362.84
635.583	11280.81
635.937	11371.2
636.291	11258.66
636.645	11329.62
636.999	11272.22
637.352	11295.49
637.706	11210.75
638.06	11242.16
638.413	11201.94
638.767	11229.96
639.121	11240.13
639.474	11167.36
639.828	11206.68
640.181	11124.2
640.534	11174.14
640.888	11118.55
641.241	11115.16
641.594	11189.28
641.947	11194.25
642.301	11084.43
642.654	11046.01
643.007	11169.17
643.36	11139.79
643.713	11072.45
644.066	11117.19
644.419	11106.57
644.771	11047.82
645.124	10925.56
645.477	10882.85
645.83	10851.89
646.182	10852.57
646.535	10739.35
646.888	10718.11
647.24	10704.55
647.593	10756.07
647.945	10737.54
648.298	10697.54
648.65	10703.87
649.002	10684.44
649.355	10742.51
649.707	10700.93
650.059	10780.71
650.411	10886.01
650.763	10942.28
651.115	10920.14
651.467	10925.11
651.819	10919.46
652.171	10880.82
652.523	10857.77
652.875	10908.61
653.227	10928.95
653.578	10986.12
653.93	10931.89
654.282	10958.1
654.633	10891.89
654.985	10925.11
655.337	10975.05
655.688	10966.92
656.039	10940.02
656.391	10846.92
656.742	10933.24
657.094	10907.93
657.445	10953.58
657.796	10866.13
658.147	10909.29
658.498	10946.58
658.849	10865
659.2	10935.96
659.551	10912.91
659.902	10906.8
660.253	10911.78
660.604	10851.21
660.955	10915.62
661.306	10943.86
661.656	10867.26
662.007	10905.22
662.358	10883.98
662.708	10957.42
663.059	10912.45
663.409	10798.33
663.76	10961.94
664.11	10868.61
664.461	10933.24
664.811	10960.14
665.161	10944.77
665.511	10915.62
665.862	10971.89
666.212	10948.16
666.562	10974.82
666.912	11010.76
667.262	10928.72
667.612	10926.46
667.962	10923.75
668.312	10844.21
668.662	10921.49
669.011	10856.64
669.361	10856.86
669.711	10905.45
670.06	10889.85
670.41	10899.8
670.76	10900.48
671.109	10997.42
671.459	10887.37
671.808	10888.27
672.157	10908.39
672.507	10838.1
672.856	10860.03
673.205	10841.27
673.554	10889.18
673.904	10747.03
674.253	10859.8
674.602	10819.57
674.951	10709.75
675.3	10655.06
675.649	10785.9
675.998	10788.39
676.346	10818.22
676.695	10734.38
677.044	10712.46
677.393	10770.99
677.741	10748.39
678.09	10747.71
678.438	10672.23
678.787	10659.13
679.135	10693.25
679.484	10596.3
679.832	10671.33
680.181	10622.52
680.529	10586.13
680.877	10658.45
681.225	10568.28
681.573	10581.39
681.922	10471.11
682.27	10492.8
682.618	10510.66
682.966	10517.66
683.314	10465.91
683.661	10492.8
684.009	10414.61
684.357	10407.83
684.705	10403.77
685.053	10358.34
685.4	10295.75
685.748	10272.7
686.095	10276.09
686.443	10264.33
686.79	10282.87
687.138	10302.53
687.485	10259.59
687.832	10169.42
688.18	10173.49
688.527	10180.72
688.874	10137.56
689.221	10022.99
689.568	10016.21
689.915	10028.63
690.262	10035.19
690.609	9989.31
690.956	9898.24
691.303	9907.73
691.65	9860.96
691.997	9839.49
692.344	9818.02
692.69	9847.17
693.037	9735.76
693.383	9707.29
693.73	9710
694.077	9647.85
694.423	9631.13
694.769	9613.05
695.116	9532.15
695.462	9569.44
695.808	9567.4
696.155	9547.07
696.501	9505.94
696.847	9421.64
697.193	9358.82
697.539	9383.68
697.885	9304.13
698.231	9255.1
698.577	9291.7
698.923	9315.88
699.269	9300.52
699.614	9128.32
699.96	9136.68
700.306	9123.12
700.651	9071.15
700.997	9028.89
701.342	9044.03
701.688	9026.85
702.033	8940.08
702.379	8991.6
702.724	8924.03
703.069	8913.86
703.415	8822.79
703.76	8837.71
704.105	8831.15
704.45	8810.36
704.795	8784.6
705.14	8656.24
705.485	8735.11
705.83	8701.89
706.175	8623.7
706.52	8627.09
706.865	8563.14
707.209	8632.29
707.554	8540.99
707.899	8552.29
708.243	8466.42
708.588	8514.32
708.932	8364.5
709.277	8433.2
709.621	8459.18
709.966	8373.54
710.31	8367.44
710.654	8327.44
710.998	8278.85
711.342	8301.67
711.687	8322.46
712.031	8204.28
712.375	8247.21
712.719	8231.62
713.063	8145.07
713.407	8284.5
713.75	8139.87
714.094	8148.01
714.438	8196.82
714.782	8101.45
715.125	8103.94
715.469	8029.59
715.812	8115.01
716.156	8023.72
716.499	8032.08
716.843	8021.68
717.186	8031.85
717.53	8021.91
717.873	8009.48
718.216	7994.56
718.559	7950.72
718.902	7981.91
719.246	7903.94
719.589	7884.06
719.932	7819.65
720.275	7908.92
720.617	7930.16
720.96	7844.96
721.303	7917.05
721.646	7863.95
721.989	7808.13
722.331	7872.76
722.674	7808.35
723.016	7835.7
723.359	7838.86
723.701	7780.78
724.044	7722.93
724.386	7753.67
724.729	7770.16
725.071	7767.23
725.413	7722.71
725.755	7734.23
726.097	7724.29
726.439	7661.69
726.782	7703.05
727.124	7770.84
727.465	7722.25
727.807	7680.22
728.149	7703.27
728.491	7749.37
728.833	7642.71
729.175	7705.76
729.516	7665.53
729.858	7635.93
730.199	7668.92
730.541	7640.9
730.882	7696.04
731.224	7732.65
731.565	7636.16
731.906	7617.17
732.248	7588.7
732.589	7543.28
732.93	7642.93
733.271	7590.51
733.612	7669.37
733.953	7640
734.294	7588.47
734.635	7569.49
734.976	7615.59
735.317	7539.43
735.658	7610.39
735.999	7599.32
736.339	7599.77
736.68	7665.53
737.021	7638.41
737.361	7583.05
737.702	7651.07
738.042	7589.15
738.383	7614.69
738.723	7625.08
739.063	7609.94
739.404	7626.21
739.744	7674.12
740.084	7642.93
740.424	7679.77
740.764	7694.23
741.104	7723.16
741.444	7700.79
741.784	7677.28
742.124	7708.7
742.464	7678.41
742.804	7759.99
743.143	7711.63
743.483	7765.19
743.823	7747.34
744.162	7764.74
744.502	7798.41
744.841	7811.29
745.181	7841.12
745.52	7846.55
745.86	7951.85
746.199	7950.72
746.538	7995.24
746.877	8046.54
747.216	8013.09
747.556	8098.29
747.895	8154.56
748.234	8144.62
748.573	8091.28
748.911	8237.72
749.25	8245.86
749.589	8373.99
749.928	8396.81
750.267	8484.72
750.605	8537.83
750.944	8574.21
751.283	8602.23
751.621	8753.87
751.96	8796.35
752.298	8900.75
752.636	8978.72
752.975	9020.53
753.313	9136.45
753.651	9246.51
753.989	9286.96
754.327	9374.41
754.666	9433.85
755.004	9676.55
755.342	9742.99
755.679	9761.97
756.017	9907.73
756.355	10044
756.693	10189.53
757.031	10321.28
757.368	10373.03
757.706	10498.9
758.044	10678.34
758.381	10817.54
758.719	10957.42
759.056	11130.53
759.394	11230.64
759.731	11303.86
760.068	11488.26
760.405	11527.35
760.743	11766.67
761.08	11977.74
761.417	12027
761.754	12169.82
762.091	12373.66
762.428	12431.28
762.765	12602.8
763.102	12841.67
