Data from hue_240_FLMS001491_00023.txt Node
Date: Tue Feb 07 16:35:15 GMT 2017
User: dcchb
Spectrometer: FLMS00149
Trigger mode: 0
Integration Time (sec): 2.000000E-2
Scans to average: 10
Electric dark correction enabled: true
Nonlinearity correction enabled: false
Boxcar width: 0
XAxis mode: Wavelengths
Number of Pixels in Spectrum: 2048
>>>>>Begin Spectral Data<<<<<
341.393	-9.36
341.776	-9.36
342.16	-9.36
342.543	-61.57
342.927	-70.15
343.31	-66.54
343.693	-72.87
344.077	-63.6
344.46	-61.11
344.843	-43.26
345.226	-46.2
345.61	-25.86
345.993	-24.05
346.376	5.55
346.759	-5.3
347.142	35.83
347.525	49.62
347.908	53.91
348.291	64.76
348.674	85.1
349.057	114.02
349.44	112.67
349.823	147.02
350.206	160.57
350.588	206
350.971	190.18
351.354	212.78
351.737	232.21
352.119	246.45
352.502	250.29
352.884	261.36
353.267	268.37
353.65	286.45
354.032	286.22
354.414	292.77
354.797	287.8
355.179	312.21
355.562	293.23
355.944	299.55
356.326	321.47
356.709	315.15
357.091	329.38
357.473	311.98
357.855	328.25
358.238	327.35
358.62	322.38
359.002	308.14
359.384	356.05
359.766	328.93
360.148	335.49
360.53	329.38
360.912	323.73
361.294	347.01
361.676	333.45
362.057	305.2
362.439	326.45
362.821	312.89
363.203	316.5
363.584	340.23
363.966	321.02
364.348	312.89
364.729	310.4
365.111	299.1
365.493	308.82
365.874	304.3
366.256	300.68
366.637	284.64
367.019	304.75
367.4	291.87
367.781	329.84
368.163	284.64
368.544	299.55
368.925	298.88
369.306	297.75
369.688	321.25
370.069	303.4
370.45	305.66
370.831	289.16
371.212	304.98
371.593	285.32
371.974	304.98
372.355	301.14
372.736	318.31
373.117	322.38
373.498	298.2
373.879	307.01
374.26	299.1
374.641	303.62
375.021	318.54
375.402	309.72
375.783	297.75
376.163	294.81
376.544	313.11
376.925	318.76
377.305	316.73
377.686	317.86
378.066	317.41
378.447	322.83
378.827	345.65
379.208	315.15
379.588	318.08
379.968	326.9
380.349	314.7
380.729	330.29
381.109	296.16
381.489	333
381.87	317.63
382.25	307.92
382.63	324.41
383.01	326.9
383.39	339.78
383.77	348.82
384.15	335.94
384.53	334.36
384.91	341.14
385.29	329.84
385.67	342.49
386.049	328.48
386.429	347.69
386.809	342.94
387.189	341.14
387.568	355.37
387.948	342.49
388.328	337.52
388.707	347.69
389.087	358.08
389.466	368.03
389.846	369.16
390.225	368.48
390.605	357.63
390.984	370.74
391.363	355.6
391.743	345.2
392.122	376.16
392.501	372.09
392.881	357.63
393.26	390.17
393.639	362.83
394.018	372.09
394.397	369.38
394.776	391.76
395.155	350.85
395.534	387.46
395.913	360.8
396.292	375.71
396.671	384.3
397.05	372.55
397.429	398.08
397.808	401.25
398.186	398.53
398.565	385.65
398.944	413.22
399.323	403.05
399.701	402.15
400.08	392.21
400.458	399.21
400.837	420.68
401.215	416.61
401.594	396.5
401.972	406.22
402.351	413.22
402.729	416.39
403.107	399.66
403.486	412.32
403.864	434.47
404.242	419.78
404.62	435.82
404.999	436.27
405.377	443.05
405.755	434.69
406.133	432.88
406.511	439.66
406.889	449.61
407.267	463.17
407.645	465.2
408.023	474.92
408.401	457.29
408.779	473.56
409.156	455.71
409.534	480.57
409.912	485.99
410.29	496.84
410.667	514.24
411.045	500
411.422	518.31
411.8	517.18
412.178	521.7
412.555	543.16
412.933	542.03
413.31	546.1
413.687	549.49
414.065	522.37
414.442	563.95
414.819	558.53
415.197	585.87
415.574	590.39
415.951	588.81
416.328	570.51
416.705	570.06
417.082	602.82
417.46	618.64
417.837	613.67
418.214	613.67
418.591	630.17
418.967	602.82
419.344	632.43
419.721	643.05
420.098	656.61
420.475	658.64
420.852	662.26
421.228	680.34
421.605	674.46
421.982	685.76
422.358	698.64
422.735	672.43
423.111	716.49
423.488	726.66
423.864	727.11
424.241	754.91
424.617	740.45
424.994	770.73
425.37	774.34
425.746	775.02
426.123	782.71
426.499	797.85
426.875	799.88
427.251	824.06
427.627	833.33
428.003	827.9
428.379	863.83
428.756	857.05
429.132	850.95
429.507	864.06
429.883	854.34
430.259	881.46
430.635	902.93
431.011	904.74
431.387	913.55
431.763	925.75
432.138	937.5
432.514	952.42
432.89	966.66
433.265	976.15
433.641	998.52
434.016	1003.26
434.392	1015.47
434.767	1042.36
435.143	1034.68
435.518	1036.26
435.894	1077.39
436.269	1076.71
436.644	1105.63
437.02	1114.45
437.395	1134.56
437.77	1140.21
438.145	1187.44
438.52	1170.49
438.895	1195.58
439.271	1213.88
439.646	1234.44
440.021	1257.27
440.395	1245.52
440.77	1251.62
441.145	1261.79
441.52	1296.14
441.895	1286.87
442.27	1307.21
442.645	1303.6
443.019	1332.07
443.394	1349.47
443.769	1369.13
444.143	1360.32
444.518	1363.26
444.892	1347.21
445.267	1415.23
445.641	1418.39
446.016	1400.09
446.39	1423.14
446.764	1424.5
447.139	1455.68
447.513	1434.44
447.887	1456.13
448.262	1443.48
448.636	1451.39
449.01	1483.03
449.384	1493.87
449.758	1514.21
450.132	1555.34
450.506	1531.16
450.88	1522.57
451.254	1537.26
451.628	1584.49
452.002	1587.43
452.376	1579.07
452.75	1600.76
453.123	1620.2
453.497	1672.63
453.871	1649.8
454.244	1702.23
454.618	1686.64
454.992	1715.56
455.365	1676.02
455.739	1753.3
456.112	1776.35
456.486	1744.71
456.859	1833.07
457.232	1825.39
457.606	1810.02
457.979	1861.32
458.352	1898.83
458.725	1885.5
459.099	1911.72
459.472	1944.03
459.845	1971.6
460.218	1991.26
460.591	1989
460.964	2003.69
461.337	2041.43
461.71	2064.25
462.083	2089.34
462.456	2132.27
462.829	2118.94
463.201	2149.9
463.574	2132.05
463.947	2185.61
464.32	2276
464.692	2214.31
465.065	2239.84
465.438	2295.43
465.81	2320.74
466.183	2325.72
466.555	2393.06
466.928	2428.54
467.3	2379.95
467.672	2412.72
468.045	2476.67
468.417	2492.72
468.789	2496.11
469.161	2538.82
469.534	2567.74
469.906	2598.25
470.278	2619.95
470.65	2658.59
471.022	2691.58
471.394	2720.06
471.766	2769.55
472.138	2780.84
472.51	2815.87
472.882	2888.19
473.253	2905.36
473.625	2966.38
473.997	2981.07
474.369	2998.47
474.74	3066.26
475.112	3098.12
475.484	3147.16
475.855	3181.74
476.227	3215.18
476.598	3277.56
476.97	3309.64
477.341	3334.95
477.713	3416.08
478.084	3450.43
478.455	3510.32
478.827	3510.54
479.198	3645
479.569	3640.03
479.94	3720.48
480.311	3710.09
480.682	3770.42
481.053	3899.91
481.424	3970.87
481.795	3962.96
482.166	4040.02
482.537	4095.39
482.908	4122.96
483.279	4174.93
483.65	4257.19
484.021	4346.45
484.391	4337.19
484.762	4355.49
485.133	4403.63
485.503	4475.49
485.874	4548.93
486.244	4561.59
486.615	4656.28
486.985	4664.86
487.356	4774.01
487.726	4814.92
488.097	4878.87
488.467	4921.58
488.837	4977.85
489.207	5067.56
489.578	5133.1
489.948	5118.18
490.318	5217.17
490.688	5206.54
491.058	5309.37
491.428	5333.55
491.798	5375.8
492.168	5471.4
492.538	5490.6
492.908	5555.46
493.278	5611.96
493.648	5557.95
494.017	5658.28
494.387	5748.45
494.757	5755.91
495.126	5869.58
495.496	5850.82
495.866	5872.06
496.235	5926.98
496.605	5954.09
496.974	6027.77
497.344	6026.41
497.713	6047.43
498.082	6097.37
498.452	6142.34
498.821	6162.45
499.19	6164.03
499.559	6302.56
499.928	6228.44
500.298	6321.09
500.667	6293.07
501.036	6343.24
501.405	6385.95
501.774	6403.57
502.143	6380.3
502.512	6401.77
502.88	6477.7
503.249	6528.09
503.618	6535.32
503.987	6551.37
504.356	6599.73
504.724	6654.64
505.093	6651.03
505.462	6719.95
505.83	6683.12
506.199	6679.73
506.567	6745.03
506.936	6815.99
507.304	6823.22
507.672	6820.96
508.041	6896.67
508.409	6906.84
508.777	6887.63
509.145	6934.18
509.514	6924.01
509.882	6958.36
510.25	6997.91
510.618	7067.96
510.986	6997.01
511.354	7074.74
511.722	7098.92
512.09	7121.75
512.458	7164.46
512.826	7149.77
513.193	7225.93
513.561	7169.2
513.929	7242.87
514.297	7298.24
514.664	7309.09
515.032	7311.12
515.4	7356.09
515.767	7355.87
516.135	7372.36
516.502	7327.84
516.869	7504.34
517.237	7397.9
517.604	7360.39
517.972	7422.53
518.339	7451.68
518.706	7487.61
519.073	7473.15
519.44	7532.13
519.808	7616.42
520.175	7572.81
520.542	7603.32
520.909	7592.02
521.276	7672.02
521.643	7679.25
522.009	7685.35
522.376	7671.34
522.743	7734.84
523.11	7745.46
523.477	7824.55
523.843	7868.62
524.21	7889.86
524.577	7940.48
524.943	7964.44
525.31	7921.95
525.676	7992.23
526.043	7988.17
526.409	8050.08
526.776	7977.09
527.142	8069.52
527.508	8035.62
527.874	8050.08
528.241	8106.35
528.607	8171.89
528.973	8156.3
529.339	8189.06
529.705	8182.96
530.071	8222.06
530.437	8218.89
530.803	8233.58
531.169	8274.71
531.535	8217.76
531.901	8281.04
532.267	8219.8
532.632	8200.82
532.998	8240.81
533.364	8275.62
533.73	8246.01
534.095	8344.99
534.461	8359.46
534.826	8250.98
535.192	8277.42
535.557	8329.85
535.923	8340.02
536.288	8272.68
536.653	8369.4
537.019	8234.94
537.384	8242.62
537.749	8339.12
538.114	8326.91
538.479	8333.47
538.845	8243.98
539.21	8277.65
539.575	8311.1
539.94	8307.71
540.305	8301.6
540.67	8262.28
541.034	8330.3
541.399	8342.28
541.764	8294.15
542.129	8324.2
542.494	8274.03
542.858	8367.36
543.223	8278.1
543.587	8304.77
543.952	8249.4
544.316	8273.13
544.681	8294.37
545.045	8293.92
545.41	8294.82
545.774	8295.95
546.138	8293.92
546.503	8257.09
546.867	8252.79
547.231	8274.71
547.595	8274.94
547.959	8344.77
548.324	8238.55
548.688	8225.9
549.052	8329.85
549.416	8182.06
549.779	8245.56
550.143	8232.45
550.507	8196.07
550.871	8211.44
551.235	8177.99
551.599	8276.52
551.962	8232.68
552.326	8246.24
552.689	8328.95
553.053	8247.82
553.417	8214.15
553.78	8316.97
554.143	8292.79
554.507	8289.4
554.87	8245.56
555.234	8237.88
555.597	8285.78
555.96	8279.91
556.323	8287.37
556.686	8315.61
557.05	8331.66
557.413	8316.74
557.776	8364.43
558.139	8349.06
558.502	8355.16
558.865	8351.77
559.228	8403.3
559.59	8428.38
559.953	8385.44
560.316	8501.15
560.679	8442.84
561.041	8564.2
561.404	8502.5
561.767	8514.93
562.129	8493.69
562.492	8574.59
562.854	8617.75
563.217	8505.44
563.579	8582.95
563.941	8580.69
564.304	8581.82
564.666	8699.56
565.028	8669.5
565.39	8673.35
565.753	8660.24
566.115	8741.37
566.477	8753.8
566.839	8805.77
567.201	8814.81
567.563	8813
567.925	8863.4
568.287	8894.13
568.648	8913.34
569.01	8836.73
569.372	8983.39
569.734	8916.73
570.095	8923.73
570.457	8984.07
570.819	9012.09
571.18	9066.56
571.542	9070.85
571.903	9119.89
572.265	9100
572.626	9123.05
572.987	9097.06
573.349	9194.24
573.71	9167.8
574.071	9198.53
574.432	9237.4
574.794	9245.08
575.155	9232.2
575.516	9238.75
575.877	9311.75
576.238	9264.29
576.599	9329.15
576.96	9415.02
577.32	9463.61
577.681	9389.03
578.042	9379.99
578.403	9440.56
578.763	9434.46
579.124	9458.41
579.485	9581.34
579.845	9522.81
580.206	9518.07
580.566	9531.85
580.927	9480.33
581.287	9602.81
581.648	9530.27
582.008	9649.82
582.368	9588.35
582.728	9656.37
583.089	9598.29
583.449	9590.38
583.809	9718.97
584.169	9649.59
584.529	9620.67
584.889	9736.14
585.249	9672.64
585.609	9643.04
585.969	9727.55
586.329	9688.01
586.688	9685.52
587.048	9673.32
587.408	9682.81
587.768	9705.86
588.127	9752.64
588.487	9714.45
588.846	9839.42
589.206	9723.94
589.565	9769.14
589.925	9773.43
590.284	9755.35
590.643	9790.15
591.003	9878.29
591.362	9821.11
591.721	9812.98
592.08	9930.49
592.44	9843.94
592.799	9861.11
593.158	9802.81
593.517	9856.37
593.876	9917.61
594.235	9843.94
594.593	9854.33
594.952	9937.94
595.311	9846.42
595.67	9916.7
596.029	10001.45
596.387	10006.19
596.746	10004.61
597.104	9941.79
597.463	9961.9
597.822	10003.03
598.18	9917.83
598.538	9930.49
598.897	9956.02
599.255	9869.02
599.613	10085.51
599.972	10043.48
600.33	10026.3
600.688	9951.28
601.046	9982.46
601.404	10032.63
601.762	10017.04
602.12	10050.94
602.478	10105.4
602.836	10076.7
603.194	9961.22
603.552	10082.57
603.91	9954.44
604.268	10005.97
604.625	10004.61
604.983	10038.28
605.341	10015.68
605.698	10050.26
606.056	10110.14
606.413	10035.34
606.771	10112.86
607.128	10113.31
607.485	10004.84
607.843	10083.7
608.2	10139.97
608.557	10192.85
608.914	10104.27
609.272	10168.45
609.629	10190.37
609.986	10222.46
610.343	10162.57
610.7	10297.26
611.057	10231.95
611.414	10167.77
611.771	10166.41
612.127	10281.44
612.484	10167.32
612.841	10263.13
613.198	10226.07
613.554	10270.14
613.911	10332.96
614.267	10301.55
614.624	10330.48
614.98	10332.96
615.337	10328.67
615.693	10316.92
616.05	10401.21
616.406	10376.8
616.762	10289.8
617.118	10368.67
617.475	10376.13
617.831	10354.88
618.187	10406.18
618.543	10409.57
618.899	10454.99
619.255	10491.83
619.611	10391.94
619.967	10477.37
620.323	10488.44
620.678	10450.47
621.034	10471.04
621.39	10432.17
621.746	10420.42
622.101	10455.45
622.457	10378.39
622.812	10421.1
623.168	10438.72
623.523	10469.91
623.879	10475.33
624.234	10426.29
624.589	10478.04
624.945	10499.74
625.3	10451.6
625.655	10514.2
626.01	10504.71
626.365	10461.32
626.72	10403.24
627.075	10398.72
627.43	10426.97
627.785	10409.12
628.14	10400.08
628.495	10385.62
628.85	10441.43
629.205	10358.95
629.559	10457.93
629.914	10399.63
630.269	10337.93
630.623	10327.31
630.978	10313.53
631.332	10380.65
631.687	10359.18
632.041	10291.16
632.396	10291.83
632.75	10297.26
633.104	10317.6
633.459	10250.71
633.813	10216.36
634.167	10290.7
634.521	10330.02
634.875	10211.61
635.229	10264.72
635.583	10173.87
635.937	10200.54
636.291	10177.26
636.645	10179.52
636.999	10139.52
637.352	10245.28
637.706	10065.63
638.06	10095.91
638.413	10109.69
638.767	10120.31
639.121	10137.94
639.474	10060.65
639.828	10097.26
640.181	10090.94
640.534	10011.16
640.888	9985.18
641.241	10017.94
641.594	10017.04
641.947	10009.58
642.301	9974.78
642.654	10011.84
643.007	10012.29
643.36	9953.99
643.713	9912.41
644.066	9974.78
644.419	9898.85
644.771	9867.89
645.124	9731.62
645.477	9760.32
645.83	9728.01
646.182	9604.39
646.535	9602.59
646.888	9605.75
647.24	9510.61
647.593	9563.72
647.945	9579.54
648.298	9535.47
648.65	9510.84
649.002	9522.36
649.355	9530.27
649.707	9590.38
650.059	9596.03
650.411	9699.53
650.763	9739.53
651.115	9817.72
651.467	9858.4
651.819	9716.93
652.171	9768.91
652.523	9727.55
652.875	9723.71
653.227	9715.35
653.578	9781.34
653.93	9750.61
654.282	9720.55
654.633	9739.31
654.985	9742.47
655.337	9667.22
655.688	9688.46
656.039	9711.96
656.391	9760.32
656.742	9722.58
657.094	9618.63
657.445	9734.11
657.796	9735.92
658.147	9679.65
658.498	9644.17
658.849	9707.22
659.2	9714.45
659.551	9632.87
659.902	9713.32
660.253	9741.11
660.604	9712.87
660.955	9658.4
661.306	9618.41
661.656	9688.69
662.007	9724.84
662.358	9722.81
662.708	9711.51
663.059	9658.18
663.409	9626.77
663.76	9703.6
664.11	9737.27
664.461	9733.88
664.811	9678.29
665.161	9655.92
665.511	9663.83
665.862	9708.35
666.212	9704.73
666.562	9647.11
666.912	9648.24
667.262	9696.6
667.612	9678.29
667.962	9665.41
668.312	9680.78
668.662	9694.11
669.011	9701.79
669.361	9630.38
669.711	9589.93
670.06	9633.77
670.41	9521.46
670.76	9629.03
671.109	9586.54
671.459	9591.06
671.808	9584.51
672.157	9601.68
672.507	9564.62
672.856	9554.68
673.205	9566.88
673.554	9582.02
673.904	9598.97
674.253	9585.86
674.602	9518.52
674.951	9499.09
675.3	9378.86
675.649	9538.41
675.998	9487.79
676.346	9510.39
676.695	9539.54
677.044	9447.34
677.393	9512.87
677.741	9501.57
678.09	9415.02
678.438	9403.5
678.787	9547.67
679.135	9451.18
679.484	9355.59
679.832	9449.6
680.181	9342.03
680.529	9414.57
680.877	9370.28
681.225	9342.48
681.573	9430.39
681.922	9360.33
682.27	9290.05
682.618	9330.5
682.966	9275.36
683.314	9302.48
683.661	9229.71
684.009	9154.69
684.357	9183.39
684.705	9243.5
685.053	9111.98
685.4	9129.83
685.748	9170.73
686.095	9102.26
686.443	9102.71
686.79	9019.1
687.138	9071.53
687.485	8973
687.832	9088.48
688.18	9033.79
688.527	8972.32
688.874	8951.3
689.221	8829.73
689.568	8867.69
689.915	8880.8
690.262	8923.73
690.609	8829.27
690.956	8835.83
691.303	8825.66
691.65	8762.83
691.997	8749.5
692.344	8669.5
692.69	8689.84
693.037	8654.59
693.383	8625.44
693.73	8679.45
694.077	8569.85
694.423	8590.41
694.769	8527.81
695.116	8521.94
695.462	8490.07
695.808	8460.24
696.155	8468.38
696.501	8415.05
696.847	8426.35
697.193	8291.66
697.539	8371.43
697.885	8319
698.231	8277.88
698.577	8314.71
698.923	8213.7
699.269	8216.86
699.614	8169.4
699.96	8152
700.306	8225.67
700.651	8107.03
700.997	8166.92
701.342	8136.41
701.688	8049.86
702.033	7983.87
702.379	8016.41
702.724	7962.4
703.069	8014.38
703.415	7881.28
703.76	7872.24
704.105	7895.06
704.45	7832.24
704.795	7813.26
705.14	7803.09
705.485	7776.87
705.83	7771.9
706.175	7791.79
706.52	7707.95
706.865	7650.1
707.209	7625.46
707.554	7559.02
707.899	7656.2
708.243	7529.42
708.588	7605.35
708.932	7582.98
709.277	7516.54
709.621	7569.65
709.966	7527.84
710.31	7491.68
710.654	7432.47
710.998	7464.34
711.342	7513.38
711.687	7424.56
712.031	7408.52
712.375	7385.02
712.719	7365.13
713.063	7358.35
713.407	7339.37
713.75	7301.18
714.094	7318.58
714.438	7234.51
714.782	7278.13
715.125	7228.64
715.469	7272.03
715.812	7199.26
716.156	7235.42
716.499	7161.07
716.843	7175.76
717.186	7147.96
717.53	7194.06
717.873	7162.88
718.216	7126.49
718.559	7119.71
718.902	7036.78
719.246	7064.57
719.589	7051.02
719.932	7094.18
720.275	7058.7
720.617	6987.97
720.96	6997.46
721.303	7065.03
721.646	7043.11
721.989	6935.99
722.331	7051.69
722.674	7031.35
723.016	6959.94
723.359	6975.99
723.701	6990.23
724.044	6981.41
724.386	6921.98
724.729	6940.74
725.071	6940.06
725.413	6943.9
725.755	6883.79
726.097	6919.04
726.439	6890.34
726.782	6877.23
727.124	6924.24
727.465	6841.98
727.807	6879.95
728.149	6867.97
728.491	6799.5
728.833	6902.54
729.175	6836.56
729.516	6795.43
729.858	6823.68
730.199	6881.3
730.541	6806.73
730.882	6822.77
731.224	6798.14
731.565	6765.37
731.906	6772.15
732.248	6833.62
732.589	6799.27
732.93	6793.85
733.271	6781.42
733.612	6778.93
733.953	6796.11
734.294	6760.85
734.635	6740.51
734.976	6808.54
735.317	6783.68
735.658	6754.98
735.999	6746.62
736.339	6800.85
736.68	6798.82
737.021	6755.66
737.361	6684.92
737.702	6788.2
738.042	6773.73
738.383	6744.81
738.723	6808.99
739.063	6750.01
739.404	6794.07
739.744	6785.71
740.084	6745.26
740.424	6793.17
740.764	6817.8
741.104	6824.35
741.444	6739.38
741.784	6777.12
742.124	6811.25
742.464	6783
742.804	6803.34
743.143	6845.6
743.483	6860.06
743.823	6882.21
744.162	6827.97
744.502	6804.02
744.841	6913.62
745.181	6894.18
745.52	6916.56
745.86	6897.8
746.199	6959.94
746.538	6943
746.877	6982.99
747.216	7084.46
747.556	7094.86
747.895	7086.49
748.234	7089.21
748.573	7100.51
748.911	7112.26
749.25	7199.49
749.589	7159.26
749.928	7200.62
750.267	7298.47
750.605	7308.41
750.944	7289.2
751.283	7359.26
751.621	7426.82
751.96	7469.31
752.298	7430.21
752.636	7593.83
752.975	7585.46
753.313	7643.32
753.651	7738
753.989	7729.42
754.327	7902.52
754.666	7833.82
755.004	7950.65
755.342	8036.07
755.679	8084.66
756.017	8192.68
756.355	8238.1
756.693	8284.2
757.031	8403.97
757.368	8464.76
757.706	8552.22
758.044	8608.26
758.381	8747.47
758.719	8783.85
759.056	8967.57
759.394	9029.72
759.731	9041.7
760.068	9190.62
760.405	9217.51
760.743	9256.15
761.08	9452.08
761.417	9509.71
761.754	9562.59
762.091	9702.92
762.428	9714.9
762.765	9798.51
763.102	9938.4
763.438	9974.33
763.775	10092.07
764.112	10234.66
764.449	10250.03
764.785	10323.7
765.122	10367.76
765.458	10473.98
765.795	10561.88
766.131	10677.13
766.467	10730.24
766.804	10786.51
767.14	10830.35
767.476	10889.11
