Data from hue_300_FLMS001491_00096.txt Node
Date: Tue Feb 07 15:51:28 GMT 2017
User: dcchb
Spectrometer: FLMS00149
Trigger mode: 0
Integration Time (sec): 2.000000E-2
Scans to average: 10
Electric dark correction enabled: true
Nonlinearity correction enabled: false
Boxcar width: 0
XAxis mode: Wavelengths
Number of Pixels in Spectrum: 2048
>>>>>Begin Spectral Data<<<<<
341.393	-16.37
341.776	-16.37
342.16	-16.37
342.543	-72.19
342.927	-52.3
343.31	-55.24
343.693	-78.29
344.077	-69.02
344.46	-58.85
344.843	-61.11
345.226	-48.23
345.61	-27.89
345.993	-5.3
346.376	6.91
346.759	12.78
347.142	14.59
347.525	50.75
347.908	39.22
348.291	71.31
348.674	84.19
349.057	124.19
349.44	118.77
349.823	131.42
350.206	161.7
350.588	190.18
350.971	180.46
351.354	203.96
351.737	230.4
352.119	244.19
352.502	243.06
352.884	254.81
353.267	273.79
353.65	298.2
354.032	284.41
354.414	307.46
354.797	297.75
355.179	303.62
355.562	307.24
355.944	327.12
356.326	306.56
356.709	319.21
357.091	333.9
357.473	317.18
357.855	352.43
358.238	307.01
358.62	327.58
359.002	334.81
359.384	325.54
359.766	331.87
360.148	339.33
360.53	334.81
360.912	321.47
361.294	342.94
361.676	317.41
362.057	333.45
362.439	317.86
362.821	309.27
363.203	301.81
363.584	306.56
363.966	325.54
364.348	302.72
364.729	329.61
365.111	315.6
365.493	308.59
365.874	308.37
366.256	288.93
366.637	304.3
367.019	318.08
367.4	314.02
367.781	315.83
368.163	308.37
368.544	306.33
368.925	306.11
369.306	308.59
369.688	304.98
370.069	300.68
370.45	302.49
370.831	292.55
371.212	306.33
371.593	326.67
371.974	309.95
372.355	310.85
372.736	291.42
373.117	309.5
373.498	312.21
373.879	322.6
374.26	292.32
374.641	303.62
375.021	305.66
375.402	311.98
375.783	318.76
376.163	326.45
376.544	317.86
376.925	327.58
377.305	323.28
377.686	334.58
378.066	332.55
378.447	319.89
378.827	344.07
379.208	351.76
379.588	322.83
379.968	317.86
380.349	329.61
380.729	315.83
381.109	309.95
381.489	322.15
381.87	306.79
382.25	325.32
382.63	324.86
383.01	323.96
383.39	348.14
383.77	317.41
384.15	337.75
384.53	329.38
384.91	313.11
385.29	325.09
385.67	335.71
386.049	345.2
386.429	342.49
386.809	338.2
387.189	324.86
387.568	356.28
387.948	343.62
388.328	380.91
388.707	364.19
389.087	350.85
389.466	332.32
389.846	343.17
390.225	353.79
390.605	367.8
390.984	338.88
391.363	347.01
391.743	335.94
392.122	355.37
392.501	365.77
392.881	381.13
393.26	371.64
393.639	365.09
394.018	387.69
394.397	377.29
394.776	405.09
395.155	358.54
395.534	374.13
395.913	387.91
396.292	382.72
396.671	378.2
397.05	374.35
397.429	398.53
397.808	392.89
398.186	384.75
398.565	382.94
398.944	373.9
399.323	397.4
399.701	384.07
400.08	384.3
400.458	399.66
400.837	394.24
401.215	409.38
401.594	414.35
401.972	405.99
402.351	404.64
402.729	406.44
403.107	420.46
403.486	396.5
403.864	420.68
404.242	422.04
404.62	402.38
404.999	418.42
405.377	424.3
405.755	437.4
406.133	444.41
406.511	435.6
406.889	465.65
407.267	440.57
407.645	464.07
408.023	472.43
408.401	460.45
408.779	466.78
409.156	487.8
409.534	502.26
409.912	489.61
410.29	497.97
410.667	501.81
411.045	499.55
411.422	514.69
411.8	516.05
412.178	528.02
412.555	542.03
412.933	532.77
413.31	551.75
413.687	554.46
414.065	581.35
414.442	564.63
414.819	584.74
415.197	594.01
415.574	598.98
415.951	618.64
416.328	615.03
416.705	635.82
417.082	630.39
417.46	644.4
417.837	637.4
418.214	655.48
418.591	660.9
418.967	644.86
419.344	662.93
419.721	679.66
420.098	694.8
420.475	683.72
420.852	699.32
421.228	734.35
421.605	742.25
421.982	734.12
422.358	757.62
422.735	732.76
423.111	754.23
423.488	752.88
423.864	778.64
424.241	793.1
424.617	812.31
424.994	808.69
425.37	790.84
425.746	798.07
426.123	804.63
426.499	814.12
426.875	833.1
427.251	862.03
427.627	832.2
428.003	883.27
428.379	876.94
428.756	897.96
429.132	899.09
429.507	905.87
429.883	902.7
430.259	933.66
430.635	933.89
431.011	950.38
431.387	948.8
431.763	978.63
432.138	980.44
432.514	1011.85
432.89	995.81
433.265	999.42
433.641	1056.14
434.016	1034.22
434.392	1048.46
434.767	1064.05
435.143	1065.86
435.518	1089.59
435.894	1089.14
436.269	1071.51
436.644	1112.19
437.02	1115.13
437.395	1130.72
437.77	1130.27
438.145	1144.05
438.52	1157.61
438.895	1194.45
439.271	1166.2
439.646	1205.52
440.021	1210.72
440.395	1230.83
440.77	1201
441.145	1226.54
441.52	1245.52
441.895	1230.15
442.27	1238.74
442.645	1239.87
443.019	1263.37
443.394	1250.49
443.769	1262.69
444.143	1260.66
444.518	1251.17
444.892	1276.7
445.267	1258.4
445.641	1281.68
446.016	1305.18
446.39	1280.32
446.764	1293.2
447.139	1282.58
447.513	1296.14
447.887	1299.75
448.262	1299.3
448.636	1323.71
449.01	1321
449.384	1329.58
449.758	1346.53
450.132	1342.92
450.506	1357.61
450.88	1349.7
451.254	1372.75
451.628	1351.28
452.002	1374.1
452.376	1359.41
452.75	1404.38
453.123	1407.77
453.497	1416.36
453.871	1407.1
454.244	1433.54
454.618	1431.5
454.992	1461.78
455.365	1446.64
455.739	1474.66
456.112	1493.87
456.486	1490.94
456.859	1509.47
457.232	1533.42
457.606	1486.42
457.979	1525.51
458.352	1549.92
458.725	1556.47
459.099	1561.89
459.472	1569.13
459.845	1559.18
460.218	1621.55
460.591	1564.38
460.964	1580.2
461.337	1608.22
461.71	1658.61
462.083	1662.23
462.456	1642.34
462.829	1662
463.201	1672.63
463.574	1688.44
463.947	1676.02
464.32	1724.6
464.692	1719.18
465.065	1730.48
465.438	1732.06
465.81	1767.54
466.183	1765.5
466.555	1811.6
466.928	1817.71
467.3	1814.32
467.672	1823.81
468.045	1852.96
468.417	1865.16
468.789	1843.24
469.161	1894.77
469.534	1931.83
469.906	1939.06
470.278	1909.68
470.65	1941.77
471.022	1956.69
471.394	2007.98
471.766	1984.93
472.138	2027.42
472.51	2043.24
472.882	2068.1
473.253	2071.94
473.625	2073.74
473.997	2160.3
474.369	2116.23
474.74	2130.47
475.112	2166.62
475.484	2170.24
475.855	2186.51
476.227	2185.15
476.598	2279.39
476.97	2290.91
477.341	2303.34
477.713	2308.77
478.084	2301.76
478.455	2398.48
478.827	2362.32
479.198	2447.75
479.569	2419.05
479.94	2491.81
480.311	2488.2
480.682	2508.31
481.053	2563
481.424	2567.29
481.795	2610.68
482.166	2615.43
482.537	2643.45
482.908	2673.5
483.279	2705.82
483.65	2730
484.021	2782.65
484.391	2798.02
484.762	2777.91
485.133	2796.21
485.503	2762.99
485.874	2848.64
486.244	2872.59
486.615	2901.29
486.985	2954.17
487.356	2983.33
487.726	2991.23
488.097	3042.76
488.467	3045.47
488.837	3082.53
489.207	3103.32
489.578	3137.9
489.948	3156.65
490.318	3189.87
490.688	3167.95
491.058	3171.8
491.428	3249.53
491.798	3266.93
492.168	3326.14
492.538	3318.68
492.908	3339.93
493.278	3357.55
493.648	3343.77
494.017	3399.36
494.387	3388.74
494.757	3455.63
495.126	3453.14
495.496	3452.92
495.866	3450.21
496.235	3502.63
496.605	3481.17
496.974	3479.58
497.344	3577.66
497.713	3549.41
498.082	3578.11
498.452	3602.74
498.821	3604.55
499.19	3606.81
499.559	3628.28
499.928	3649.07
500.298	3667.38
500.667	3680.26
501.036	3662.4
501.405	3690.88
501.774	3703.53
502.143	3718.45
502.512	3768.84
502.88	3763.64
503.249	3754.38
503.618	3784.21
503.987	3757.54
504.356	3788.95
504.724	3820.14
505.093	3823.08
505.462	3846.58
505.83	3896.75
506.199	3858.78
506.567	3883.41
506.936	3892.68
507.304	3914.15
507.672	3920.02
508.041	3911.44
508.409	3950.98
508.777	3955.05
509.145	4013.13
509.514	3997.99
509.882	3985.56
510.25	3975.39
510.618	3983.75
510.986	3980.36
511.354	4009.51
511.722	4003.41
512.09	4085.9
512.458	4043.41
512.826	4062.39
513.193	4120.47
513.561	4089.51
513.929	4097.19
514.297	4121.37
514.664	4151.88
515.032	4157.98
515.4	4170.41
515.767	4186.46
516.135	4156.4
516.502	4132.9
516.869	4188.94
517.237	4225.33
517.604	4187.81
517.972	4198.43
518.339	4208.38
518.706	4217.87
519.073	4212.9
519.44	4267.13
519.808	4225.1
520.175	4244.54
520.542	4283.18
520.909	4291.54
521.276	4302.84
521.643	4305.32
522.009	4336.96
522.376	4346.91
522.743	4369.96
523.11	4357.53
523.477	4439.78
523.843	4452.44
524.21	4457.86
524.577	4462.16
524.943	4514.36
525.31	4508.94
525.676	4548.71
526.043	4541.7
526.409	4547.8
526.776	4635.03
527.142	4645.65
527.508	4578.31
527.874	4653.34
528.241	4674.13
528.607	4685.2
528.973	4701.7
529.339	4708.48
529.705	4732.43
530.071	4752.09
530.437	4815.82
530.803	4788.93
531.169	4810.85
531.535	4821.24
531.901	4797.74
532.267	4815.14
532.632	4900.79
532.998	4892.88
533.364	4896.95
533.73	4951.41
534.095	4998.87
534.461	4955.25
534.826	5005.87
535.192	5041.58
535.557	5097.85
535.923	5073.89
536.288	5063.27
536.653	5089.26
537.019	5120.22
537.384	5154.12
537.749	5143.95
538.114	5148.92
538.479	5214
538.845	5182.59
539.21	5221.91
539.575	5216.49
539.94	5266.88
540.305	5266.88
540.67	5245.41
541.034	5310.27
541.399	5377.39
541.764	5319.54
542.129	5407.44
542.494	5459.19
542.858	5452.19
543.223	5477.5
543.587	5488.8
543.952	5474.79
544.316	5482.69
544.681	5506.2
545.045	5569.7
545.41	5576.25
545.774	5572.18
546.138	5590.94
546.503	5615.35
546.867	5632.07
547.231	5650.6
547.595	5692.63
547.959	5707.1
548.324	5689.47
548.688	5816.7
549.052	5800.43
549.416	5765.85
549.779	5813.53
550.143	5758.85
550.507	5871.84
550.871	5834.55
551.235	5860.09
551.599	5910.03
551.962	5904.38
552.326	5901.44
552.689	5954.77
553.053	5907.54
553.417	5922.91
553.78	6003.81
554.143	6016.47
554.507	5971.04
554.87	6070.48
555.234	6101.44
555.597	6058.95
555.96	6091.04
556.323	6101.89
556.686	6134.66
557.05	6122.9
557.413	6162.9
557.776	6194.09
558.139	6180.53
558.502	6206.52
558.865	6208.78
559.228	6249.68
559.59	6302.33
559.953	6289.68
560.316	6332.62
560.679	6320.19
561.041	6323.35
561.404	6364.71
561.767	6408.55
562.129	6358.15
562.492	6426.62
562.854	6407.64
563.217	6439.51
563.579	6424.36
563.941	6459.62
564.304	6521.76
564.666	6510.24
565.028	6563.57
565.39	6554.31
565.753	6603.8
566.115	6594.3
566.477	6612.38
566.839	6704.58
567.201	6646.96
567.563	6671.82
567.925	6729.22
568.287	6726.73
568.648	6792.72
569.01	6818.93
569.372	6854.41
569.734	6811.7
570.095	6865.26
570.457	6928.53
570.819	6875.65
571.18	6907.29
571.542	7020.73
571.903	7039.26
572.265	7057.79
572.626	7157.23
572.987	7138.7
573.349	7151.35
573.71	7217.79
574.071	7326.71
574.432	7352.25
574.794	7418.92
575.155	7476.09
575.516	7497.78
575.877	7553.83
576.238	7539.82
576.599	7692.58
576.96	7743.65
577.32	7814.16
577.681	7900.71
578.042	7968.73
578.403	8060.71
578.763	8099.8
579.124	8264.09
579.485	8340.92
579.845	8475.61
580.206	8563.29
580.566	8678.09
580.927	8794.25
581.287	8992.21
581.648	8982.72
582.008	9247.12
582.368	9321.92
582.728	9422.48
583.089	9597.61
583.449	9799.42
583.809	9951.96
584.169	10194.44
584.529	10322.79
584.889	10549.68
585.249	10709.22
585.609	10840.97
585.969	11170.23
586.329	11337.23
586.688	11513.5
587.048	11645.92
587.408	11964.78
587.768	12233.93
588.127	12397.77
588.487	12603.86
588.846	12980.8
589.206	13177.41
589.565	13366.78
589.925	13640.67
590.284	13885.41
590.643	14119.76
591.003	14555.22
591.362	14819.17
591.721	14999.51
592.08	15372.83
592.44	15586.38
592.799	15899.82
593.158	16233.6
593.517	16474.72
593.876	16855.5
594.235	17040.13
594.593	17344.53
594.952	17821.13
595.311	17925.53
595.67	18355.12
596.029	18693.42
596.387	18961.66
596.746	19296.79
597.104	19597.13
597.463	19782.43
597.822	20181.07
598.18	20422.64
598.538	20644.78
598.897	21040.93
599.255	21151.44
599.613	21815.6
599.972	21822.15
600.33	22205.19
600.688	22330.16
601.046	22848.34
601.404	23105.06
601.762	23313.41
602.12	23755.89
602.478	23895.09
602.836	24158.14
603.194	24315.19
603.552	24795.18
603.91	24944.78
604.268	25087.83
604.625	25367.6
604.983	25761.26
605.341	25827.47
605.698	26205.09
606.056	26507.45
606.413	26648.24
606.771	26956.71
607.128	27287.09
607.485	27307.88
607.843	27612.96
608.2	27956.91
608.557	28198.71
608.914	28295.88
609.272	28791.01
609.629	28719.37
609.986	29062.64
610.343	29118.23
610.7	29530.88
611.057	29750.31
611.414	29871.88
611.771	30110.07
612.127	30303.06
612.484	30477.07
612.841	30699.88
613.198	30789.83
613.554	30928.81
613.911	31178.29
614.267	31422.35
614.624	31480.66
614.98	31783.47
615.337	31978.95
615.693	32007.65
616.05	32229.11
616.406	32532.38
616.762	32528.31
617.118	32686.73
617.475	32784.58
617.831	33074.06
618.187	33191.34
618.543	33149.54
618.899	33549.08
619.255	33634.05
619.611	33545.01
619.967	33821.84
620.323	33943.42
620.678	33983.64
621.034	34079.91
621.39	34087.82
621.746	34307.93
622.101	34590.4
622.457	34543.17
622.812	34634.47
623.168	34874.24
623.523	34975.25
623.879	35120.33
624.234	34920.79
624.589	35131.63
624.945	35334.34
625.3	35415.02
625.655	35309.03
626.01	35373.66
626.365	35658.85
626.72	35486.43
627.075	35550.83
627.43	35546.99
627.785	35621.79
628.14	35645.74
628.495	35779.07
628.85	35991.72
629.205	35826.53
629.559	36052.96
629.914	35903.82
630.269	35976.58
630.623	35999.18
630.978	35842.12
631.332	36033.76
631.687	36198.27
632.041	36170.25
632.396	36202.79
632.75	36129.35
633.104	36184.49
633.459	36134.77
633.813	36214.54
634.167	36116.69
634.521	36051.16
634.875	36280.98
635.229	36201.21
635.583	36106.75
635.937	36280.98
636.291	36354.43
636.645	36247.31
636.999	36198.72
637.352	36167.54
637.706	36089.12
638.06	36321.66
638.413	36261.55
638.767	36028.56
639.121	36250.02
639.474	36077.37
639.828	36083.02
640.181	36327.53
640.534	36192.17
640.888	36083.25
641.241	36095
641.594	36094.55
641.947	36324.37
642.301	36018.84
642.654	36169.35
643.007	36088.9
643.36	36112.85
643.713	36083.47
644.066	36271.94
644.419	35955.57
644.771	35880.54
645.124	35546.31
645.477	35424.96
645.83	35244.17
646.182	35189.94
646.535	35151.07
646.888	35184.74
647.24	35012.54
647.593	35285.98
647.945	35149.03
648.298	35119.43
648.65	34917.63
649.002	34865.65
649.355	35006.89
649.707	34956.5
650.059	35121.92
650.411	35497.5
650.763	35574.56
651.115	35963.25
651.467	35826.3
651.819	35757.15
652.171	35759.41
652.523	35652.75
652.875	35781.79
653.227	35613.88
653.578	35779.3
653.93	35770.03
654.282	35577.72
654.633	35419.76
654.985	35614.56
655.337	35583.82
655.688	35603.03
656.039	35847.77
656.391	35393.77
656.742	35407.33
657.094	35508.57
657.445	35642.81
657.796	35526.2
658.147	35474.45
658.498	35492.53
658.849	35707.66
659.2	35406.65
659.551	35480.1
659.902	35575.91
660.253	35523.03
660.604	35468.57
660.955	35476.03
661.306	35646.42
661.656	35424.96
662.007	35426.77
662.358	35470.38
662.708	35734.55
663.059	35586.54
663.409	35281.46
663.76	35524.39
664.11	35395.81
664.461	35518.06
664.811	35598.74
665.161	35502.7
665.511	35293.89
665.862	35468.57
666.212	35562.58
666.562	35342.47
666.912	35424.05
667.262	35329.37
667.612	35403.04
667.962	35530.49
668.312	35409.37
668.662	35554.67
669.011	35516.26
669.361	35365.98
669.711	35407.78
670.06	35330.72
670.41	35198.07
670.76	35181.12
671.109	35356.26
671.459	35219.31
671.808	35209.82
672.157	35222.7
672.507	35165.76
672.856	35101.13
673.205	35173.67
673.554	35241.46
673.904	35158.52
674.253	35222.7
674.602	35252.53
674.951	34637.63
675.3	34477.64
675.649	35036.95
675.998	35025.42
676.346	35046.44
676.695	35106.1
677.044	34848.7
677.393	35034.91
677.741	35017.51
678.09	34999.88
678.438	34804.18
678.787	34964.18
679.135	34772.77
679.484	34771.19
679.832	34794.69
680.181	34565.55
680.529	34646.45
680.877	34594.92
681.225	34608.48
681.573	34801.7
681.922	34538.88
682.27	34309.28
682.618	34464.76
682.966	34269.51
683.314	34487.13
683.661	34411.65
684.009	34253.24
684.357	34104.32
684.705	34068.61
685.053	34320.58
685.4	34044.2
685.748	33824.32
686.095	33863.64
686.443	33850.31
686.79	33686.92
687.138	33800.59
687.485	33905.9
687.832	33575.74
688.18	33722.4
688.527	33407.38
688.874	33423.2
689.221	33447.84
689.568	33325.13
689.915	33237.9
690.262	33288.74
690.609	33157.9
690.956	33090.33
691.303	32920.84
691.65	32868.19
691.997	32857.79
692.344	32625.94
692.69	32623.68
693.037	32621.87
693.383	32421.42
693.73	32401.76
694.077	32341.65
694.423	32322.67
694.769	32184.59
695.116	32117.93
695.462	32124.25
695.808	31953.41
696.155	32218.26
696.501	31807.2
696.847	31822.12
697.193	31598.62
697.539	31730.59
697.885	31381.67
698.231	31448.11
698.577	31596.58
698.923	31411.96
699.269	31213.09
699.614	31015.36
699.96	30984.17
700.306	31007
700.651	30878.19
700.997	30751.41
701.342	30799.09
701.688	30786.44
702.033	30615.82
702.379	30713.9
702.724	30445.2
703.069	30515.71
703.415	30154.81
703.76	30271.65
704.105	30271.42
704.45	30148.49
704.795	29886.57
705.14	29856.52
705.485	29856.07
705.83	29833.24
706.175	29795.5
706.52	29733.81
706.865	29642.51
707.209	29569.75
707.554	29513.93
707.899	29513.25
708.243	29323.2
708.588	29290.43
708.932	28991.23
709.277	29157.55
709.621	29172.02
709.966	28917.78
710.31	28968.63
710.654	28779.48
710.998	28771.57
711.342	28861.52
711.687	28666.94
712.031	28586.27
712.375	28349.44
712.719	28513.05
713.063	28522.09
713.407	28531.13
713.75	28338.59
714.094	28294.98
714.438	28238.71
714.782	28209.55
715.125	28190.12
715.469	28213.85
715.812	27993.06
716.156	27785.16
716.499	27897.02
716.843	27974.08
717.186	27884.82
717.53	27775.22
717.873	27788.55
718.216	27804.59
718.559	27719.62
718.902	27445.51
719.246	27614.99
719.589	27491.61
719.932	27434.66
720.275	27312.86
720.617	27384.94
720.96	27276.92
721.303	27288.68
721.646	27298.84
721.989	27070.38
722.331	27127.55
722.674	27086.19
723.016	27032.41
723.359	26943.83
723.701	27020.66
724.044	26931.17
724.386	26716.49
724.729	26880.78
725.071	26759.65
725.413	26740.21
725.755	26634.46
726.097	26628.81
726.439	26488.7
726.782	26512.88
727.124	26614.12
727.465	26593.1
727.807	26439.66
728.149	26432.65
728.491	26326.44
728.833	26462.71
729.175	26378.19
729.516	26231.98
729.858	26236.73
730.199	26341.58
730.541	26227.46
730.882	26197.86
731.224	26245.54
731.565	26056.62
731.906	26087.8
732.248	26096.62
732.589	26138.2
732.93	25818.21
733.271	25864.08
733.612	25920.35
733.953	25896.4
734.294	25785.44
734.635	25740.02
734.976	25847.81
735.317	25703.18
735.658	25688.04
735.999	25608.72
736.339	25635.39
736.68	25681.71
737.021	25630.41
737.361	25472.23
737.702	25459.12
738.042	25536.4
738.383	25445.56
738.723	25498.67
739.063	25395.84
739.404	25335.96
739.744	25273.59
740.084	25136.64
740.424	25185.91
740.764	25232.46
741.104	25297.77
741.444	24997.66
741.784	25185.23
742.124	25215.06
742.464	25015.06
742.804	25044.67
743.143	24943.43
743.483	24980.94
743.823	24903.2
744.162	24836.76
744.502	24840.38
744.841	24825.92
745.181	24844.67
745.52	24774.39
745.86	24905.01
746.199	24799.93
746.538	24738.69
746.877	24746.6
747.216	24672.25
747.556	24680.16
747.895	24712.02
748.234	24583.21
748.573	24557.22
748.911	24455.08
749.25	24514.28
749.589	24380.73
749.928	24456.89
750.267	24516.32
750.605	24365.36
750.944	24317.68
751.283	24314.29
751.621	24365.81
751.96	24301.18
752.298	24217.57
752.636	24218.25
752.975	24052.15
753.313	24086.95
753.651	24149.77
753.989	24146.61
754.327	23978.71
754.666	23950.68
755.004	23922.21
755.342	23990.46
755.679	23884.47
756.017	23789.11
756.355	23825.04
756.693	23722.89
757.031	23739.16
757.368	23618.72
757.706	23637.47
758.044	23571.26
758.381	23525.61
758.719	23413.52
759.056	23591.15
759.394	23416.01
759.731	23285.16
