Data from hue_300_FLMS001491_00014.txt Node
Date: Tue Feb 07 15:50:22 GMT 2017
User: dcchb
Spectrometer: FLMS00149
Trigger mode: 0
Integration Time (sec): 2.000000E-2
Scans to average: 10
Electric dark correction enabled: true
Nonlinearity correction enabled: false
Boxcar width: 0
XAxis mode: Wavelengths
Number of Pixels in Spectrum: 2048
>>>>>Begin Spectral Data<<<<<
341.393	-13.98
341.776	-13.98
342.16	-13.98
342.543	-56.69
342.927	-57.82
343.31	-64.6
343.693	-61.21
344.077	-40.65
344.46	-53.76
344.843	-49.91
345.226	-52.63
345.61	-35.23
345.993	-19.18
346.376	7.49
346.759	-7.88
347.142	25.56
347.525	40.71
347.908	68.95
348.291	57.88
348.674	81.38
349.057	103.08
349.44	130.42
349.823	150.76
350.206	176.75
350.588	169.52
350.971	211.1
351.354	216.75
351.737	213.81
352.119	234.82
352.502	252.45
352.884	272.79
353.267	282.73
353.65	285.22
354.032	289.51
354.414	300.81
354.797	336.97
355.179	336.29
355.562	305.33
355.944	330.87
356.326	331.54
356.709	314.14
357.091	327.48
357.473	342.17
357.855	325.9
358.238	333.58
358.62	332.9
359.002	325.9
359.384	336.29
359.766	333.13
360.148	343.75
360.53	329.06
360.912	345.56
361.294	330.42
361.676	334.71
362.057	328.16
362.439	319.34
362.821	300.81
363.203	340.81
363.584	328.16
363.966	341.49
364.348	338.1
364.729	333.58
365.111	335.84
365.493	312.79
365.874	343.07
366.256	317.99
366.637	322.28
367.019	322.73
367.4	334.26
367.781	301.72
368.163	312.34
368.544	304.65
368.925	317.08
369.306	322.73
369.688	296.97
370.069	315.95
370.45	286.57
370.831	292.9
371.212	314.82
371.593	317.99
371.974	306.91
372.355	311.66
372.736	319.79
373.117	325.22
373.498	321.83
373.879	319.79
374.26	340.58
374.641	296.07
375.021	306.23
375.402	290.87
375.783	305.33
376.163	336.74
376.544	321.15
376.925	340.36
377.305	328.38
377.686	304.43
378.066	337.42
378.447	327.25
378.827	328.38
379.208	329.74
379.588	319.12
379.968	323.64
380.349	331.54
380.729	332
381.109	315.27
381.489	310.98
381.87	335.39
382.25	337.42
382.63	320.7
383.01	342.84
383.39	320.25
383.77	342.39
384.15	352.56
384.53	337.65
384.91	346.46
385.29	322.73
385.67	347.14
386.049	374.03
386.429	338.55
386.809	368.83
387.189	341.94
387.568	332.9
387.948	370.41
388.328	339.45
388.707	320.25
389.087	350.75
389.466	348.04
389.846	355.73
390.225	364.31
390.605	358.66
390.984	337.65
391.363	356.18
391.743	378.55
392.122	358.66
392.501	363.86
392.881	359.34
393.26	364.54
393.639	371.32
394.018	366.35
394.397	394.82
394.776	377.65
395.155	386.68
395.534	373.58
395.913	372.45
396.292	380.13
396.671	367.48
397.05	355.95
397.429	374.71
397.808	393.92
398.186	416.29
398.565	397.08
398.944	379.68
399.323	392.11
399.701	396.63
400.08	398.89
400.458	396.4
400.837	384.88
401.215	403.63
401.594	385.33
401.972	412.22
402.351	401.83
402.729	401.15
403.107	390.75
403.486	423.29
403.864	414.71
404.242	414.03
404.62	423.52
404.999	434.37
405.377	453.8
405.755	429.17
406.133	428.94
406.511	399.11
406.889	447.47
407.267	437.98
407.645	428.49
408.023	454.93
408.401	461.94
408.779	480.02
409.156	464.87
409.534	447.93
409.912	477.76
410.29	496.29
410.667	463.07
411.045	492.9
411.422	519.79
411.8	505.78
412.178	508.72
412.555	527.47
412.933	517.98
413.31	571.31
413.687	556.17
414.065	554.14
414.442	571.09
414.819	587.81
415.197	556.85
415.574	611.31
415.951	586.45
416.328	571.76
416.705	611.76
417.082	628.03
417.46	623.97
417.837	627.13
418.214	653.8
418.591	635.94
418.967	649.5
419.344	660.35
419.721	667.81
420.098	679.78
420.475	677.3
420.852	694.93
421.228	709.39
421.605	699.22
421.982	723.17
422.358	711.2
422.735	745.32
423.111	740.57
423.488	729.73
423.864	753.23
424.241	767.24
424.617	753.68
424.994	773.57
425.37	796.17
425.746	794.58
426.123	802.49
426.499	777.63
426.875	792.32
427.251	809.95
427.627	844.3
428.003	831.19
428.379	866.67
428.756	867.35
429.132	866.67
429.507	879.55
429.883	900.34
430.259	899.89
430.635	909.61
431.011	939.89
431.387	946.9
431.763	928.14
432.138	957.74
432.514	987.35
432.89	959.33
433.265	969.72
433.641	976.05
434.016	983.51
434.392	1033
434.767	1021.7
435.143	1054.24
435.518	1064.86
435.894	1036.39
436.269	1097.63
436.644	1072.99
437.02	1131.07
437.395	1115.48
437.77	1118.19
438.145	1117.96
438.52	1139.89
438.895	1111.41
439.271	1143.05
439.646	1154.12
440.021	1164.52
440.395	1152.99
440.77	1175.59
441.145	1182.14
441.52	1186.89
441.895	1212.43
442.27	1217.62
442.645	1197.06
443.019	1196.61
443.394	1222.14
443.769	1235.25
444.143	1213.56
444.518	1217.85
444.892	1222.37
445.267	1239.32
445.641	1232.99
446.016	1243.61
446.39	1280.22
446.764	1258.07
447.139	1279.32
447.513	1269.15
447.887	1272.31
448.262	1275.93
448.636	1270.73
449.01	1281.8
449.384	1266.21
449.758	1287
450.132	1312.99
450.506	1332.42
450.88	1319.77
451.254	1317.73
451.628	1350.28
452.002	1353.21
452.376	1348.24
452.75	1355.47
453.123	1346.43
453.497	1399.54
453.871	1360.9
454.244	1377.39
454.618	1403.83
454.992	1389.37
455.365	1410.39
455.739	1423.72
456.112	1432.31
456.486	1409.26
456.859	1433.66
457.232	1489.93
457.606	1463.04
457.979	1504.4
458.352	1500.33
458.725	1502.36
459.099	1509.59
459.472	1520.89
459.845	1560.67
460.218	1537.84
460.591	1555.69
460.964	1552.98
461.337	1587.11
461.71	1610.38
462.083	1615.58
462.456	1563.83
462.829	1631.17
463.201	1602.92
463.574	1624.62
463.947	1651.74
464.32	1662.13
464.692	1648.8
465.065	1673.43
465.438	1696.25
465.81	1716.37
466.183	1700.77
466.555	1732.19
466.928	1714.11
467.3	1726.99
467.672	1767.21
468.045	1801.34
468.417	1792.07
468.789	1787.33
469.161	1784.61
469.534	1803.6
469.906	1850.6
470.278	1835.01
470.65	1865.29
471.022	1890.83
471.394	1908
471.766	1916.81
472.138	1912.29
472.51	1950.49
472.882	1964.72
473.253	1998.85
473.625	1997.26
473.997	2012.63
474.369	2018.96
474.74	2050.6
475.112	2087.43
475.484	2093.31
475.855	2127.88
476.227	2132.18
476.598	2170.14
476.97	2169.46
477.341	2186.86
477.713	2197.94
478.084	2212.63
478.455	2273.87
478.827	2291.49
479.198	2320.65
479.569	2310.02
479.94	2384.82
480.311	2370.14
480.682	2392.96
481.053	2449.91
481.424	2445.16
481.795	2491.71
482.166	2491.49
482.537	2528.32
482.908	2554.76
483.279	2546.4
483.65	2578.04
484.021	2616.23
484.391	2650.13
484.762	2634.31
485.133	2704.82
485.503	2710.69
485.874	2716.79
486.244	2709.11
486.615	2748.88
486.985	2773.97
487.356	2792.95
487.726	2797.47
488.097	2853.29
488.467	2904.36
488.837	2905.26
489.207	2932.61
489.578	2967.86
489.948	2965.83
490.318	3000.85
490.688	2997.24
491.058	2997.92
491.428	3108.2
491.798	3085.37
492.168	3117.91
492.538	3122.21
492.908	3122.21
493.278	3176.22
493.648	3144.58
494.017	3206.72
494.387	3226.16
494.757	3225.71
495.126	3262.32
495.496	3260.96
495.866	3236.1
496.235	3345.48
496.605	3317.91
496.974	3329.21
497.344	3333.27
497.713	3387.06
498.082	3405.36
498.452	3390.45
498.821	3399.03
499.19	3408.53
499.559	3413.27
499.928	3435.64
500.298	3447.17
500.667	3472.25
501.036	3436.32
501.405	3478.58
501.774	3451.24
502.143	3512.48
502.512	3509.99
502.88	3524.91
503.249	3526.04
503.618	3525.59
503.987	3589.76
504.356	3561.74
504.724	3568.52
505.093	3583.89
505.462	3608.75
505.83	3611.91
506.199	3626.6
506.567	3624.79
506.936	3665.02
507.304	3743.88
507.672	3700.27
508.041	3711.34
508.409	3688.07
508.777	3711.57
509.145	3711.12
509.514	3698.91
509.882	3740.49
510.25	3778.46
510.618	3717.9
510.986	3774.62
511.354	3768.29
511.722	3806.93
512.09	3831.34
512.458	3780.04
512.826	3859.14
513.193	3825.24
513.561	3835.63
513.929	3840.15
514.297	3828.63
514.664	3898.68
515.032	3887.38
515.4	3914.05
515.767	3890.77
516.135	3878.8
516.502	3938
516.869	3902.98
517.237	3921.73
517.604	3918.34
517.972	3942.3
518.339	3961.73
518.706	3948.17
519.073	3979.13
519.44	3981.84
519.808	4020.49
520.175	3975.97
520.542	4045.8
520.909	3979.58
521.276	4046.93
521.643	4042.18
522.009	4083.31
522.376	4082.18
522.743	4071.79
523.11	4125.12
523.477	4136.19
523.843	4132.35
524.21	4189.07
524.577	4204.89
524.943	4252.35
525.31	4236.98
525.676	4248.5
526.043	4254.15
526.409	4280.59
526.776	4265.45
527.142	4286.47
527.508	4329.86
527.874	4366.24
528.241	4361.27
528.607	4342.51
528.973	4411.21
529.339	4330.99
529.705	4467.93
530.071	4464.54
530.437	4508.16
530.803	4535.05
531.169	4509.74
531.535	4458.67
531.901	4514.03
532.267	4563.98
532.632	4554.26
532.998	4579.34
533.364	4582.28
533.73	4590.64
534.095	4617.99
534.461	4651.66
534.826	4690.98
535.192	4679.23
535.557	4724.65
535.923	4687.14
536.288	4764.65
536.653	4746.8
537.019	4729.85
537.384	4749.06
537.749	4777.3
538.114	4807.36
538.479	4823.18
538.845	4834.7
539.21	4836.29
539.575	4881.71
539.94	4878.54
540.305	4894.59
540.67	4914.7
541.034	4907.47
541.399	4970.29
541.764	4975.26
542.129	4982.04
542.494	4978.88
542.858	5026.11
543.223	5064.3
543.587	5080.57
543.952	5123.51
544.316	5149.05
544.681	5110.63
545.045	5156.05
545.41	5179.1
545.774	5179.55
546.138	5159.67
546.503	5240.79
546.867	5229.04
547.231	5320.79
547.595	5281.7
547.959	5327.12
548.324	5308.14
548.688	5287.35
549.052	5362.37
549.416	5350.4
549.779	5347.46
550.143	5375.48
550.507	5431.98
550.871	5397.4
551.235	5481.24
551.599	5475.82
551.962	5439.89
552.326	5495.93
552.689	5529.83
553.053	5511.07
553.417	5503.16
553.78	5557.4
554.143	5555.81
554.507	5588.58
554.87	5637.39
555.234	5637.39
555.597	5623.38
555.96	5606.43
556.323	5676.49
556.686	5616.15
557.05	5686.43
557.413	5748.13
557.776	5703.16
558.139	5752.87
558.502	5731.85
558.865	5765.3
559.228	5809.82
559.59	5862.7
559.953	5755.58
560.316	5835.36
560.679	5883.26
561.041	5897.73
561.404	5914.67
561.767	5943.6
562.129	5934.56
562.492	5960.32
562.854	5968.46
563.217	5942.47
563.579	6000.1
563.941	6004.39
564.304	6022.92
564.666	6066.99
565.028	6072.41
565.39	6099.3
565.753	6163.03
566.115	6104.05
566.477	6155.57
566.839	6172.97
567.201	6215.23
567.563	6171.62
567.925	6272.86
568.287	6247.1
568.648	6243.93
569.01	6275.12
569.372	6302.24
569.734	6285.51
570.095	6363.7
570.457	6407.32
570.819	6440.76
571.18	6443.7
571.542	6507.2
571.903	6582
572.265	6493.64
572.626	6623.81
572.987	6641.66
573.349	6603.02
573.71	6737.93
574.071	6722.79
574.432	6820.64
574.794	6905.38
575.155	6827.19
575.516	6843.24
575.877	6985.83
576.238	7043.01
576.599	7125.49
576.96	7130.46
577.32	7260.18
577.681	7299.5
578.042	7392.6
578.403	7462.43
578.763	7551.02
579.124	7667.85
579.485	7760.5
579.845	7809.09
580.206	7908.07
580.566	8017.22
580.927	8132.92
581.287	8279.81
581.648	8371.79
582.008	8522.29
582.368	8646.13
582.728	8737.88
583.089	8890.87
583.449	9127.25
583.809	9290.41
584.169	9477.75
584.529	9605.2
584.889	9816.95
585.249	9943.72
585.609	10147.33
585.969	10344.39
586.329	10539.86
586.688	10823.25
587.048	10947.31
587.408	11221.43
587.768	11447.64
588.127	11627.75
588.487	11933.95
588.846	12194.51
589.206	12417.78
589.565	12651.45
589.925	13018.89
590.284	13177.53
590.643	13530.29
591.003	13778.2
591.362	14070.62
591.721	14388.8
592.08	14619.3
592.44	14896.36
592.799	15212.51
593.158	15446.63
593.517	15732.04
593.876	16005.26
594.235	16329.77
594.593	16636.43
594.952	16997.77
595.311	17197.09
595.67	17633.91
596.029	17925.88
596.387	18168.59
596.746	18568.58
597.104	18750.5
597.463	19078.4
597.822	19390.48
598.18	19606.97
598.538	19855.78
598.897	20295.31
599.255	20485.59
599.613	21121.28
599.972	21158.12
600.33	21589.29
600.688	21674.49
601.046	21960.13
601.404	22319.67
601.762	22616.16
602.12	23030.61
602.478	23313.99
602.836	23573.87
603.194	23679.63
603.552	24030.81
603.91	24188.77
604.268	24559.83
604.625	24814.52
604.983	25185.81
605.341	25164.79
605.698	25664.89
606.056	25858.11
606.413	26108.49
606.771	26377.41
607.128	26534.7
607.485	26825.31
607.843	27047.68
608.2	27344.62
608.557	27595.91
608.914	27717.27
609.272	28122.9
609.629	28252.84
609.986	28556.57
610.343	28657.58
610.7	28925.14
611.057	29062.54
611.414	29242.88
611.771	29498.91
612.127	29736.2
612.484	29898.23
612.841	30263.41
613.198	30176.86
613.554	30392.45
613.911	30813.23
614.267	30916.05
614.624	31030.62
614.98	31137.51
615.337	31435.36
615.693	31523.49
616.05	31736.82
616.406	32025.17
616.762	31964.84
617.118	32139.52
617.475	32324.6
617.831	32583.35
618.187	32660.64
618.543	32749.9
618.899	33069.89
619.255	33057.01
619.611	33136.33
619.967	33290
620.323	33598.47
620.678	33483.89
621.034	33558.69
621.39	33628.52
621.746	33713.49
622.101	34189.86
622.457	33987.16
622.812	34128.85
623.168	34379.46
623.523	34454.72
623.879	34421.5
624.234	34505.11
624.589	34716.4
624.945	34745.56
625.3	34846.57
625.655	34799.57
626.01	34978.32
626.365	35123.85
626.72	35098.77
627.075	35203.4
627.43	35265.32
627.785	35199.33
628.14	35333.56
628.495	35477.29
628.85	35446.33
629.205	35313
629.559	35630.96
629.914	35503.28
630.269	35583.27
630.623	35488.13
630.978	35538.98
631.332	35780.33
631.687	35788.92
632.041	35680.22
632.396	35745.76
632.75	35723.16
633.104	35710.28
633.459	35658.07
633.813	35757.05
634.167	35722.03
634.521	35776.49
634.875	35871.4
635.229	35896.71
635.583	35721.57
635.937	35767
636.291	35830.72
636.645	35756.38
636.999	35799.76
637.352	35851.51
637.706	35825.75
638.06	35889.03
638.413	35842.02
638.767	35696.49
639.121	35906.2
639.474	35585.08
639.828	35766.77
640.181	35737.85
640.534	35935.81
640.888	35787.56
641.241	35544.63
641.594	35685.64
641.947	35844.28
642.301	35732.2
642.654	35772.42
643.007	35710.73
643.36	35757.73
643.713	35637.28
644.066	35864.62
644.419	35524.29
644.771	35315.71
645.124	35110.74
645.477	35033.23
645.83	34900.81
646.182	34711.66
646.535	34737.42
646.888	34835.04
647.24	34641.38
647.593	34723.18
647.945	34711.43
648.298	34583.3
648.65	34590.98
649.002	34481.83
649.355	34591.66
649.707	34577.2
650.059	34890.18
650.411	35254.92
650.763	35176.5
651.115	35636.61
651.467	35421.7
651.819	35435.03
652.171	35318.42
652.523	35355.03
652.875	35431.64
653.227	35204.53
653.578	35540.11
653.93	35375.6
654.282	35352.32
654.633	35133.12
654.985	35360.45
655.337	35378.08
655.688	35387.57
656.039	35378.99
656.391	35040.46
656.742	35263.51
657.094	35236.16
657.445	35453.56
657.796	35322.04
658.147	35211.31
658.498	35187.58
658.849	35145.77
659.2	35352.55
659.551	35144.19
659.902	35232.77
660.253	35134.92
660.604	35211.31
660.955	35019.45
661.306	35270.51
661.656	35100.35
662.007	35084.08
662.358	35190.52
662.708	35071.2
663.059	34944.87
663.409	34849.96
663.76	35108.03
664.11	35061.93
664.461	35239.78
664.811	35164.08
665.161	35119.78
665.511	34962.72
665.862	34982.39
666.212	35138.99
666.562	35127.47
666.912	35155.71
667.262	35047.47
667.612	34965.44
667.962	35115.94
668.312	34979
668.662	35145.09
669.011	35176.73
669.361	35046.34
669.711	34971.54
670.06	35074.59
670.41	34901.71
670.76	34947.58
671.109	35101.48
671.459	35032.78
671.808	34975.15
672.157	35108.26
672.507	34822.39
672.856	34727.48
673.205	34941.26
673.554	35038.43
673.904	34804.99
674.253	34988.94
674.602	34784.65
674.951	34423.53
675.3	34169.53
675.649	34847.25
675.998	34634.15
676.346	34713.24
676.695	34777.87
677.044	34402.51
677.393	34660.13
677.741	34696.74
678.09	34528.61
678.438	34585.56
678.787	34558.67
679.135	34631.21
679.484	34332.91
679.832	34506.47
680.181	34241.39
680.529	34391.67
680.877	34309.18
681.225	34263.76
681.573	34543.75
681.922	34154.61
682.27	34158.68
682.618	34238
682.966	34070.32
683.314	34174.95
683.661	34037.33
684.009	33972.24
684.357	33844.56
684.705	33864.45
685.053	33821.06
685.4	33815.64
685.748	33526.6
686.095	33581.29
686.443	33527.28
686.79	33515.31
687.138	33592.59
687.485	33449.54
687.832	33352.82
688.18	33361.64
688.527	33220.4
688.874	33175.65
689.221	33099.72
689.568	33079.61
689.915	33042.32
690.262	32974.53
690.609	32851.14
690.956	32660.64
691.303	32722.56
691.65	32717.59
691.997	32600.08
692.344	32377.48
692.69	32414.09
693.037	32387.2
693.383	32108.11
693.73	32293.42
694.077	31976.36
694.423	32090.71
694.769	32163.02
695.116	31913.54
695.462	31835.12
695.808	31835.35
696.155	31748.57
696.501	31460.22
696.847	31604.17
697.193	31310.84
697.539	31424.06
697.885	31160.11
698.231	31035.14
698.577	31158.08
698.923	31111.98
699.269	30998.08
699.614	30769.16
699.96	30774.36
700.306	30663.63
700.651	30563.52
700.997	30414.37
701.342	30474.93
701.688	30523.75
702.033	30298.89
702.379	30357.65
702.724	30244.88
703.069	30341.38
703.415	29967.83
703.76	30032.91
704.105	29787.27
704.45	29858.23
704.795	29680.6
705.14	29632.02
705.485	29624.11
705.83	29525.35
706.175	29516.09
706.52	29480.84
706.865	29362.19
707.209	29250.33
707.554	29200.39
707.899	29401.06
708.243	29146.61
708.588	28982.77
708.932	28863.45
709.277	28922.43
709.621	28873.85
709.966	28667.3
710.31	28785.49
710.654	28416.68
710.998	28623.46
711.342	28529.67
711.687	28346.63
712.031	28353.18
712.375	28277.25
712.719	28282.67
713.063	28191.15
713.407	28320.19
713.75	28176.91
714.094	28106.18
714.438	28084.04
714.782	28016.24
715.125	27902.12
715.469	28042.91
715.812	27812.18
716.156	27727.66
716.499	27720.43
716.843	27838.17
717.186	27614.44
717.53	27654.22
717.873	27574.22
718.216	27527.89
718.559	27467.1
718.902	27339.65
719.246	27418.74
719.589	27251.97
719.932	27175.81
720.275	27152.31
720.617	27165.42
720.96	27139.43
721.303	27019.66
721.646	27058.07
721.989	27003.61
722.331	26974.23
722.674	26753.68
723.016	26858.76
723.359	26919.55
723.701	26831.19
724.044	26615.37
724.386	26510.97
724.729	26777.63
725.071	26580.57
725.413	26516.17
725.755	26612.66
726.097	26437.07
726.439	26267.59
726.782	26345.55
727.124	26346.23
727.465	26316.62
727.807	26143.07
728.149	26235.72
728.491	26226.68
728.833	26198.66
729.175	26053.13
729.516	26001.6
729.858	26012.45
730.199	25986.69
730.541	25934.26
730.882	25901.04
731.224	25927.48
731.565	25878.67
731.906	25886.58
732.248	25821.72
732.589	25681.84
732.93	25652.24
733.271	25652.46
733.612	25736.3
733.953	25733.36
734.294	25610.43
734.635	25493.82
734.976	25535.63
735.317	25476.19
735.658	25369.76
735.999	25409.3
736.339	25319.81
736.68	25442.3
737.021	25285.47
737.361	25245.69
737.702	25429.64
738.042	25328.4
738.383	25116.66
738.723	25253.83
739.063	25144.45
739.404	25176.54
739.744	25203.66
740.084	24977
740.424	25084.11
740.764	24951.69
741.104	25160.04
741.444	24844.57
741.784	24844.35
742.124	24902.42
742.464	24830.11
742.804	24887.74
743.143	24885.7
743.483	24759.15
743.823	24667.18
744.162	24714.41
744.502	24669.89
744.841	24568.65
745.181	24692.49
745.52	24588.08
745.86	24632.6
746.199	24653.62
746.538	24556.9
746.877	24535.43
747.216	24464.24
747.556	24580.62
747.895	24576.11
748.234	24480.74
748.573	24344.47
748.911	24318.26
749.25	24362.33
749.589	24331.82
749.928	24344.47
750.267	24336.34
750.605	24201.65
750.944	24148.77
751.283	24082.78
751.621	24205.27
751.96	24001.66
752.298	24069.23
752.636	24060.86
752.975	23958.95
753.313	23953.75
753.651	24084.14
753.989	23952.62
754.327	23855.9
754.666	23817.48
755.004	23891.38
755.342	23955.78
755.679	23917.59
756.017	23736.35
756.355	23718.73
756.693	23653.87
757.031	23680.99
757.368	23629.46
757.706	23535.23
758.044	23540.88
758.381	23584.72
758.719	23371.39
759.056	23528.68
759.394	23446.64
759.731	23282.35
