Data from hue_20_FLMS001491_29.txt Node
Date: Mon Feb 06 15:33:50 GMT 2017
User: dcchb
Spectrometer: FLMS00149
Trigger mode: 0
Integration Time (sec): 2.000000E-2
Scans to average: 10
Electric dark correction enabled: true
Nonlinearity correction enabled: false
Boxcar width: 0
XAxis mode: Wavelengths
Number of Pixels in Spectrum: 2048
>>>>>Begin Spectral Data<<<<<
341.393	-3.08
341.776	-3.08
342.16	-3.08
342.543	-57.99
342.927	-76.52
343.31	-87.82
343.693	-73.13
344.077	-53.7
344.46	-65.22
344.843	-58.9
345.226	-29.07
345.61	-21.38
345.993	-4.66
346.376	2.8
346.759	0.54
347.142	23.81
347.525	54.32
347.908	40.08
348.291	68.78
348.674	84.38
349.057	119.18
349.44	128.22
349.823	136.8
350.206	160.31
350.588	210.7
350.971	217.03
351.354	244.37
351.737	239.85
352.119	244.15
352.502	251.83
352.884	261.55
353.267	282.11
353.65	297.93
354.032	296.8
354.414	281.89
354.797	316.46
355.179	322.79
355.562	334.31
355.944	327.53
356.326	342.67
356.709	340.41
357.091	351.26
357.473	335.22
357.855	347.19
358.238	344.26
358.62	340.19
359.002	344.03
359.384	349.45
359.766	370.02
360.148	356.23
360.53	337.48
360.912	337.7
361.294	341.54
361.676	338.83
362.057	330.7
362.439	335.22
362.821	341.32
363.203	337.03
363.584	330.02
363.966	328.44
364.348	334.09
364.729	318.04
365.111	328.66
365.493	323.24
365.874	304.26
366.256	329.79
366.637	322.34
367.019	320.3
367.4	334.77
367.781	325.95
368.163	330.7
368.544	317.59
368.925	321.88
369.306	314.2
369.688	319.62
370.069	324.82
370.45	308.33
370.831	328.44
371.212	312.39
371.593	322.56
371.974	313.75
372.355	311.49
372.736	322.79
373.117	324.14
373.498	324.6
373.879	318.49
374.26	306.97
374.641	317.82
375.021	299.51
375.402	319.62
375.783	347.42
376.163	348.78
376.544	327.53
376.925	314.88
377.305	334.77
377.686	316.91
378.066	324.6
378.447	319.17
378.827	334.77
379.208	318.27
379.588	332.28
379.968	330.92
380.349	330.92
380.729	336.57
381.109	335.9
381.489	337.03
381.87	358.72
382.25	324.6
382.63	354.65
383.01	354.2
383.39	356.01
383.77	339.28
384.15	335.44
384.53	336.12
384.91	344.48
385.29	359.62
385.67	355.1
386.049	337.7
386.429	346.74
386.809	360.75
387.189	333.64
387.568	369.57
387.948	346.97
388.328	333.18
388.707	347.87
389.087	367.98
389.466	369.11
389.846	358.95
390.225	352.84
390.605	354.2
390.984	350.58
391.363	369.57
391.743	352.17
392.122	358.72
392.501	367.53
392.881	380.41
393.26	376.57
393.639	371.6
394.018	376.8
394.397	376.8
394.776	375.22
395.155	364.37
395.534	369.57
395.913	372.5
396.292	378.38
396.671	403.46
397.05	395.78
397.429	372.05
397.808	390.58
398.186	380.64
398.565	395.55
398.944	398.49
399.323	390.13
399.701	364.59
400.08	397.36
400.458	414.76
400.837	390.13
401.215	415.44
401.594	387.87
401.972	391.26
402.351	423.35
402.729	402.33
403.107	407.98
403.486	414.54
403.864	404.82
404.242	393.07
404.62	411.15
404.999	426.06
405.377	419.06
405.755	435.55
406.133	399.17
406.511	419.06
406.889	409.79
407.267	410.47
407.645	428.32
408.023	432.62
408.401	446.63
408.779	420.86
409.156	441.66
409.534	457.7
409.912	445.72
410.29	442.56
410.667	459.73
411.045	439.17
411.422	435.55
411.8	436.23
412.178	453.41
412.555	456.8
412.933	457.02
413.31	466.74
413.687	445.27
414.065	469
414.442	459.28
414.819	483.91
415.197	483.01
415.574	474.87
415.951	472.39
416.328	480.52
416.705	478.49
417.082	494.54
417.46	486.63
417.837	481.43
418.214	495.66
418.591	517.81
418.967	508.55
419.344	503.12
419.721	503.57
420.098	501.54
420.475	498.15
420.852	489.79
421.228	510.58
421.605	506.74
421.982	524.36
422.358	524.82
422.735	527.98
423.111	529.79
423.488	547.19
423.864	521.2
424.241	531.6
424.617	523.01
424.994	536.34
425.37	557.58
425.746	545.16
426.123	554.65
426.499	537.47
426.875	560.75
427.251	549.45
427.627	555.55
428.003	553.29
428.379	581.76
428.756	559.84
429.132	587.64
429.507	560.3
429.883	592.39
430.259	577.24
430.635	588.54
431.011	606.85
431.387	588.77
431.763	594.42
432.138	610.46
432.514	606.4
432.89	627.86
433.265	611.14
433.641	624.7
434.016	644.81
434.392	645.49
434.767	647.75
435.143	639.62
435.518	654.08
435.894	647.53
436.269	653.63
436.644	631.03
437.02	648.66
437.395	654.76
437.77	654.98
438.145	665.6
438.52	698.6
438.895	679.39
439.271	694.98
439.646	695.21
440.021	720.74
440.395	689.11
440.77	684.13
441.145	698.6
441.52	730.46
441.895	729.56
442.27	706.05
442.645	712.16
443.019	746.05
443.394	734.98
443.769	745.15
444.143	736.79
444.518	742.44
444.892	740.18
445.267	773.4
445.641	756.22
446.016	761.87
446.39	763.45
446.764	779.95
447.139	741.99
447.513	773.62
447.887	751.25
448.262	773.4
448.636	777.69
449.01	784.24
449.384	788.09
449.758	800.52
450.132	796
450.506	801.87
450.88	810.01
451.254	799.61
451.628	817.01
452.002	812.04
452.376	805.49
452.75	868.31
453.123	828.76
453.497	838.71
453.871	878.71
454.244	870.8
454.618	896.56
454.992	881.87
455.365	882.55
455.739	913.06
456.112	885.03
456.486	902.66
456.859	908.76
457.232	915.99
457.606	928.42
457.979	925.26
458.352	962.09
458.725	973.62
459.099	977.46
459.472	956.67
459.845	982.21
460.218	984.01
460.591	1010.45
460.964	1007.52
461.337	1014.52
461.71	1044.58
462.083	1054.29
462.456	1052.94
462.829	1057.01
463.201	1075.54
463.574	1080.06
463.947	1081.64
464.32	1088.19
464.692	1124.12
465.065	1117.8
465.438	1141.3
465.81	1153.27
466.183	1167.51
466.555	1184.91
466.928	1155.08
467.3	1187.85
467.672	1184.01
468.045	1273.05
468.417	1252.93
468.789	1259.49
469.161	1259.94
469.534	1290.9
469.906	1292.71
470.278	1321.18
470.65	1322.31
471.022	1369.54
471.394	1370.67
471.766	1403.21
472.138	1398.01
472.51	1434.4
472.882	1453.61
473.253	1478.69
473.625	1523.66
473.997	1546.71
474.369	1541.51
474.74	1574.28
475.112	1596.65
475.484	1613.38
475.855	1647.27
476.227	1648.18
476.598	1710.55
476.97	1706.03
477.341	1761.62
477.713	1784.22
478.084	1806.14
478.455	1864.89
478.827	1883.88
479.198	1926.14
479.569	1958.9
479.94	1965.91
480.311	2014.27
480.682	2068.96
481.053	2118.45
481.424	2163.64
481.795	2203.87
482.166	2254.71
482.537	2266.92
482.908	2328.39
483.279	2346.24
483.65	2396.63
484.021	2437.99
484.391	2464.88
484.762	2508.72
485.133	2511.43
485.503	2571.09
485.874	2623.07
486.244	2690.18
486.615	2736.28
486.985	2743.97
487.356	2821.25
487.726	2846.34
488.097	2946.9
488.467	2970.63
488.837	3021.02
489.207	3045.43
489.578	3063.51
489.948	3153.45
490.318	3204.97
490.688	3217.18
491.058	3267.34
491.428	3298.08
491.798	3329.04
492.168	3390.73
492.538	3458.52
492.908	3473.21
493.278	3572.87
493.648	3550.5
494.017	3599.31
494.387	3630.72
494.757	3672.76
495.126	3726.99
495.496	3735.81
495.866	3763.15
496.235	3845.18
496.605	3820.1
496.974	3909.59
497.344	3884.05
497.713	3947.55
498.082	4015.57
498.452	4012.41
498.821	4076.14
499.19	4075.68
499.559	4109.13
499.928	4147.77
500.298	4203.59
500.667	4238.39
501.036	4178.28
501.405	4242.46
501.774	4258.05
502.143	4249.24
502.512	4320.65
502.88	4345.73
503.249	4356.58
503.618	4455.56
503.987	4416.92
504.356	4479.06
504.724	4437.48
505.093	4467.54
505.462	4519.06
505.83	4532.17
506.199	4562.22
506.567	4665.5
506.936	4603.35
507.304	4670.02
507.672	4632.05
508.041	4699.62
508.409	4710.7
508.777	4717.93
509.145	4773.74
509.514	4782.56
509.882	4786.4
510.25	4830.47
510.618	4826.85
510.986	4820.07
511.354	4870.01
511.722	4938.26
512.09	4936
512.458	4924.48
512.826	5000.41
513.193	4974.64
513.561	4998.37
513.929	5018.26
514.297	5070.69
514.664	5086.28
515.032	5066.17
515.4	5092.83
515.767	5149.55
516.135	5111.14
516.502	5105.71
516.869	5181.19
517.237	5260.74
517.604	5166.73
517.972	5194.98
518.339	5222.09
518.706	5217.8
519.073	5265.93
519.44	5271.36
519.808	5310.23
520.175	5298.93
520.542	5373.95
520.909	5344.58
521.276	5314.3
521.643	5453.05
522.009	5405.14
522.376	5519.04
522.743	5499.15
523.11	5482.2
523.477	5561.29
523.843	5559.94
524.21	5576.89
524.577	5646.94
524.943	5655.3
525.31	5672.93
525.676	5719.48
526.043	5735.53
526.409	5725.13
526.776	5835.19
527.142	5820.72
527.508	5816.2
527.874	5848.97
528.241	5868.63
528.607	5890.33
528.973	5983.88
529.339	5984.33
529.705	5976.65
530.071	6041.28
530.437	6066.59
530.803	6106.36
531.169	6147.27
531.535	6117.44
531.901	6146.36
532.267	6139.13
532.632	6241.73
532.998	6288.96
533.364	6279.69
533.73	6280.6
534.095	6327.15
534.461	6343.87
534.826	6331.44
535.192	6422.51
535.557	6416.64
535.923	6501.16
536.288	6488.28
536.653	6499.12
537.019	6510.2
537.384	6543.87
537.749	6615.73
538.114	6593.58
538.479	6536.64
538.845	6627.48
539.21	6597.43
539.575	6618.22
539.94	6697.76
540.305	6801.04
540.67	6763.52
541.034	6776.86
541.399	6772.56
541.764	6796.06
542.129	6837.42
542.494	6881.49
542.858	6920.58
543.223	6950.64
543.587	6999.9
543.952	6977.98
544.316	7015.49
544.681	7013.69
545.045	7084.42
545.41	7111.08
545.774	7152.21
546.138	7172.33
546.503	7158.54
546.867	7220.46
547.231	7293.45
547.595	7256.84
547.959	7340
548.324	7328.25
548.688	7321.93
549.052	7385.43
549.416	7428.36
549.779	7404.41
550.143	7514.24
550.507	7518.76
550.871	7501.36
551.235	7493.67
551.599	7585.65
551.962	7577.96
552.326	7624.74
552.689	7680.79
553.053	7617.51
553.417	7639.21
553.78	7720.56
554.143	7688.02
554.507	7794.91
554.87	7811.18
555.234	7894.79
555.597	7881.01
555.96	7838.97
556.323	7884.85
556.686	7836.04
557.05	7935.24
557.413	7980.89
557.776	7939.76
558.139	8005.07
558.502	8066.99
558.865	8047.78
559.228	8125.07
559.59	8054.79
559.953	8162.13
560.316	8159.19
560.679	8220.43
561.041	8233.09
561.404	8283.48
561.767	8347.21
562.129	8262.69
562.492	8384.95
562.854	8312.18
563.217	8365.51
563.579	8416.13
563.941	8436.02
564.304	8482.35
564.666	8495.23
565.028	8513.08
565.39	8523.7
565.753	8647.54
566.115	8671.04
566.477	8727.54
566.839	8709.69
567.201	8804.82
567.563	8712.85
567.925	8799.63
568.287	8830.14
568.648	8804.82
569.01	8840.3
569.372	8962.33
569.734	8933.18
570.095	8941.32
570.457	9000.98
570.819	9024.93
571.18	9104.93
571.542	9173.4
571.903	9181.09
572.265	9171.37
572.626	9222.22
572.987	9323.23
573.349	9363.91
573.71	9434.19
574.071	9448.88
574.432	9539.49
574.794	9601.64
575.155	9641.19
575.516	9760.28
575.877	9745.59
576.238	9842.76
576.599	9833.95
576.96	9980.16
577.32	10094.73
577.681	10141.96
578.042	10241.62
578.403	10362.75
578.763	10464.67
579.124	10523.88
579.485	10583.76
579.845	10804.77
580.206	10943.3
580.566	11034.14
580.927	11178.1
581.287	11287.25
581.648	11432.78
582.008	11638.87
582.368	11743.5
582.728	11927
583.089	12128.58
583.449	12361.79
583.809	12475.24
584.169	12694.21
584.529	12851.5
584.889	13160.64
585.249	13314.99
585.609	13468.21
585.969	13750.68
586.329	13946.16
586.688	14239.48
587.048	14591.34
587.408	14772.8
587.768	14959.24
588.127	15340.47
588.487	15585.21
588.846	15988.59
589.206	16152.2
589.565	16469.48
589.925	16852.97
590.284	17101.1
590.643	17440.53
591.003	17774.08
591.362	18127.29
591.721	18484.8
592.08	18812.7
592.44	19155.74
592.799	19513.7
593.158	19818.32
593.517	20186.67
593.876	20568.13
594.235	20885.41
594.593	21204.95
594.952	21649.91
595.311	22048.54
595.67	22300.06
596.029	22850.11
596.387	23138.46
596.746	23543.42
597.104	23778.67
597.463	24177.08
597.822	24555.37
598.18	24922.37
598.538	25286.2
598.897	25723.48
599.255	25913.08
599.613	26605.94
599.972	26836.22
600.33	27193.49
600.688	27442.98
601.046	27919.12
601.404	28362.05
601.762	28550.97
602.12	29084.29
602.478	29444.51
602.836	29785.97
603.194	29940.54
603.552	30276.58
603.91	30462.11
604.268	31019.83
604.625	31416.43
604.983	31813.49
605.341	31873.37
605.698	32268.39
606.056	32643.75
606.413	32881.25
606.771	33416.16
607.128	33697.96
607.485	33827.67
607.843	34154.89
608.2	34601.43
608.557	34966.62
608.914	35037.58
609.272	35398.02
609.629	35701.74
609.986	36145.8
610.343	36179.25
610.7	36579.91
611.057	36751.66
611.414	37040.69
611.771	37237.3
612.127	37606.1
612.484	37757.06
612.841	38047.67
613.198	38180.78
613.554	38372.64
613.911	38807.88
614.267	38919.51
614.624	39237.92
614.98	39369.45
615.337	39691.47
615.693	39799.26
616.05	40022.31
616.406	40394.28
616.762	40340.49
617.118	40561.73
617.475	40630.43
617.831	41015.28
618.187	41210.3
618.543	41238.1
618.899	41676.28
619.255	41813.45
619.611	41794.24
619.967	42153.55
620.323	42384.28
620.678	42313.77
621.034	42321.68
621.39	42573.2
621.746	42595.8
622.101	43060.65
622.457	42815.23
622.812	43122.57
623.168	43278.72
623.523	43427.87
623.879	43633.29
624.234	43408.89
624.589	43756.67
624.945	43787.86
625.3	44045.93
625.655	44019.94
626.01	44019.49
626.365	44241.18
626.72	44164.35
627.075	44362.31
627.43	44408.86
627.785	44367.96
628.14	44511.68
628.495	44720.26
628.85	44586.71
629.205	44555.52
629.559	44817.21
629.914	44665.8
630.269	44900.6
630.623	44695.86
630.978	44716.65
631.332	44921.84
631.687	45151.67
632.041	44942.86
632.396	45126.13
632.75	44969.07
633.104	45049.3
633.459	44888.4
633.813	45025.34
634.167	44955.51
634.521	45101.27
634.875	45128.39
635.229	45087.03
635.583	44956.64
635.937	45042.52
636.291	45001.61
636.645	45063.08
636.999	44911.22
637.352	45182.17
637.706	44914.38
638.06	45135.17
638.413	45025.79
638.767	44987.38
639.121	45105.57
639.474	44779.02
639.828	44851.33
640.181	44976.76
640.534	45010.65
640.888	44929.52
641.241	44759.81
641.594	44863.09
641.947	44891.56
642.301	44845.69
642.654	45016.98
643.007	44875.06
643.36	44936.98
643.713	44865.57
644.066	45094.27
644.419	44703.54
644.771	44586.93
645.124	44130.9
645.477	44135.2
645.83	43878.71
646.182	43820.18
646.535	43704.25
646.888	43824.92
647.24	43637.58
647.593	43833.73
647.945	43814.75
648.298	43731.82
648.65	43579.73
649.002	43483.46
649.355	43634.19
649.707	43494.76
650.059	43606.4
650.411	44117.79
650.763	44304.46
651.115	44681.17
651.467	44538.35
651.819	44443.44
652.171	44406.6
652.523	44445.02
652.875	44409.31
653.227	44171.13
653.578	44485.92
653.93	44327.96
654.282	44210
654.633	44074.63
654.985	44214.74
655.337	44294.51
655.688	44239.37
656.039	44360.95
656.391	43943.56
656.742	44202.09
657.094	44134.74
657.445	44250.45
657.796	44243.22
658.147	44074.63
658.498	44093.84
658.849	44228.3
659.2	44130
659.551	43876.45
659.902	44194.63
660.253	43963.67
660.604	44045.93
660.955	44028.08
661.306	44034.18
661.656	43968.42
662.007	43980.62
662.358	43999.61
662.708	43891.81
663.059	43774.53
663.409	43630.58
663.76	44034.18
664.11	43893.62
664.461	44067.63
664.811	43964.58
665.161	43920.06
665.511	43878.93
665.862	43986.95
666.212	44044.12
666.562	43986.05
666.912	43966.84
667.262	43958.02
667.612	44021.53
667.962	43892.04
668.312	43908.31
668.662	43937.01
669.011	43916.9
669.361	43927.52
669.711	43795.77
670.06	43743.12
670.41	43667.64
670.76	43708.99
671.109	43863.34
671.459	43852.27
671.808	43645.49
672.157	43803
672.507	43545.83
672.856	43493.18
673.205	43710.12
673.554	43820.85
673.904	43578.6
674.253	43946.73
674.602	43801.87
674.951	43124.83
675.3	42928.67
675.649	43484.59
675.998	43546.74
676.346	43519.62
676.695	43577.02
677.044	43308.78
677.393	43446.17
677.741	43413.63
678.09	43313.52
678.438	43216.8
678.787	43294.99
679.135	43353.52
679.484	43039.41
679.832	43240.08
680.181	43080.76
680.529	43181.55
680.877	43048.44
681.225	43003.7
681.573	43066.3
681.922	42911.95
682.27	42783.37
682.618	42800.54
682.966	42771.84
683.314	42858.84
683.661	42572.07
684.009	42405.75
684.357	42480.32
684.705	42375.47
685.053	42358.74
685.4	42193.78
685.748	42156.72
686.095	42135.93
686.443	42069.94
686.79	42047.34
687.138	42153.1
687.485	42074.01
687.832	41869.27
688.18	41921.69
688.527	41707.69
688.874	41739.55
689.221	41713.11
689.568	41551.76
689.915	41421.37
690.262	41359.22
690.609	41236.29
690.956	41158.55
691.303	41194.93
691.65	41020.7
691.997	40981.15
692.344	40678.56
692.69	40724.66
693.037	40705.68
693.383	40389.31
693.73	40502.75
694.077	40284.9
694.423	40257.33
694.769	40234.73
695.116	40034.96
695.462	39963.55
695.808	39882.65
696.155	39966.94
696.501	39641.3
696.847	39662.32
697.193	39343.91
697.539	39438.37
697.885	39164.48
698.231	39144.14
698.577	39074.31
698.923	39181.88
699.269	38897.37
699.614	38581.67
699.96	38659.86
700.306	38688.56
700.651	38451.96
700.997	38418.28
701.342	38350.94
701.688	38392.97
702.033	38160.66
702.379	38044.06
702.724	38077.95
703.069	38065.3
703.415	37637.74
703.76	37814.23
704.105	37715.48
704.45	37628.02
704.795	37415.6
705.14	37301.93
705.485	37293.57
705.83	37173.57
706.175	37133.12
706.52	37040.92
706.865	36933.12
707.209	36991.88
707.554	36820.59
707.899	36892.45
708.243	36631.21
708.588	36582.63
708.932	36472.12
709.277	36366.13
709.621	36347.83
709.966	36154.39
710.31	36268.74
710.654	36176.08
710.998	35964.56
711.342	36116.65
711.687	35760.27
712.031	35669.2
712.375	35608.41
712.719	35695.19
713.063	35522.09
713.407	35703.55
713.75	35405.71
714.094	35460.62
714.438	35267.63
714.782	35300.4
715.125	35192.38
715.469	35259.95
715.812	35059.73
716.156	34877.81
716.499	34767.76
716.843	34938.83
717.186	34564.6
717.53	34770.92
717.873	34849.34
718.216	34734.31
718.559	34490.7
718.902	34297.04
719.246	34402.12
719.589	34308.79
719.932	34134.78
720.275	34270.14
720.617	34114.44
720.96	34173.2
721.303	34167.32
721.646	34015.24
721.989	33892.53
722.331	34040.55
722.674	33882.58
723.016	33834.45
723.359	33725.3
723.701	33888.23
724.044	33590.84
724.386	33363.28
724.729	33548.81
725.071	33446.66
725.413	33409.15
725.755	33380.45
726.097	33274.46
726.439	33085.09
726.782	33040.8
727.124	33164.41
727.465	32941.82
727.807	33030.4
728.149	32847.81
728.491	32848.26
728.833	32961.03
729.175	32772.1
729.516	32811.65
729.858	32721.94
730.199	32736.4
730.541	32637.87
730.882	32643.29
731.224	32727.36
731.565	32378.22
731.906	32364.66
732.248	32492.11
732.589	32286.92
732.93	32239.69
733.271	32266.81
733.612	32331.66
733.953	32267.94
734.294	32232.01
734.635	32056.64
734.976	32178
735.317	31997.21
735.658	31957.21
735.999	31898.23
736.339	31868.17
736.68	32026.36
737.021	31752.24
737.361	31933.93
737.702	31942.07
738.042	31705.47
738.383	31674.96
738.723	31728.29
739.063	31537.79
739.404	31632.7
739.744	31472.7
740.084	31288.98
740.424	31441.07
740.764	31334.4
741.104	31460.27
741.444	31157.68
741.784	31015.09
742.124	31205.14
742.464	31084.24
742.804	30988.2
743.143	30949.55
743.483	30933.28
743.823	30871.14
744.162	30795.89
744.502	31003.34
744.841	30820.07
745.181	30862.1
745.52	30735.1
745.86	30840.18
746.199	30671.14
746.538	30590.69
746.877	30755.89
747.216	30642.89
747.556	30635.66
747.895	30576.23
748.234	30497.14
748.573	30333.52
748.911	30372.39
749.25	30315.67
749.589	30226.63
749.928	30220.76
750.267	30275.45
750.605	30138.5
750.944	30122
751.283	30058.73
751.621	30071.84
751.96	29796.14
752.298	30010.82
752.636	29920.65
752.975	29753.43
753.313	29548.69
753.651	29858.28
753.989	29616.03
754.327	29662.58
754.666	29475.92
755.004	29450.16
755.342	29508.46
755.679	29390.05
756.017	29348.01
756.355	29262.37
756.693	29238.19
757.031	29220.56
757.368	29086.78
757.706	29018.3
758.044	28943.28
758.381	29008.14
758.719	28908.25
759.056	28953.45
759.394	28804.07
759.731	28567.7
760.068	28563.4
760.405	28473.01
760.743	28409.28
761.08	28395.04
