Data from hue_270_FLMS001491_00072.txt Node
Date: Tue Feb 07 15:57:40 GMT 2017
User: dcchb
Spectrometer: FLMS00149
Trigger mode: 0
Integration Time (sec): 2.000000E-2
Scans to average: 10
Electric dark correction enabled: true
Nonlinearity correction enabled: false
Boxcar width: 0
XAxis mode: Wavelengths
Number of Pixels in Spectrum: 2048
>>>>>Begin Spectral Data<<<<<
341.393	2.8
341.776	2.8
342.16	2.8
342.543	-62.06
342.927	-85.34
343.31	-54.6
343.693	-56.18
344.077	-73.36
344.46	-56.41
344.843	-48.05
345.226	-30.65
345.61	-36.07
345.993	-25.68
346.376	-2.4
346.759	3.7
347.142	25.62
347.525	43.47
347.908	60.42
348.291	50.93
348.674	99.97
349.057	99.29
349.44	111.27
349.823	137.71
350.206	141.32
350.588	192.62
350.971	194.88
351.354	233.52
351.737	224.03
352.119	246.63
352.502	258.61
352.884	262.45
353.267	270.59
353.65	286.63
354.032	292.28
354.414	283.92
354.797	324.14
355.179	295.9
355.562	314.2
355.944	313.75
356.326	309.68
356.709	317.14
357.091	309.91
357.473	310.36
357.855	320.53
358.238	339.96
358.62	339.28
359.002	323.01
359.384	321.43
359.766	323.92
360.148	337.25
360.53	336.8
360.912	311.94
361.294	345.61
361.676	323.01
362.057	307.2
362.439	313.52
362.821	313.75
363.203	329.79
363.584	313.97
363.966	319.4
364.348	318.04
364.729	299.29
365.111	317.82
365.493	311.04
365.874	296.57
366.256	297.93
366.637	307.42
367.019	299.51
367.4	309.23
367.781	288.66
368.163	307.2
368.544	307.87
368.925	296.8
369.306	302.9
369.688	311.04
370.069	305.61
370.45	304.71
370.831	303.58
371.212	307.42
371.593	292.28
371.974	327.08
372.355	312.84
372.736	342
373.117	309.23
373.498	312.39
373.879	291.6
374.26	302.22
374.641	306.74
375.021	300.42
375.402	308.78
375.783	322.11
376.163	310.13
376.544	333.86
376.925	313.07
377.305	325.73
377.686	320.53
378.066	327.53
378.447	319.17
378.827	319.4
379.208	320.53
379.588	301.77
379.968	328.21
380.349	323.47
380.729	323.01
381.109	319.85
381.489	339.06
381.87	319.4
382.25	324.6
382.63	326.4
383.01	328.66
383.39	344.03
383.77	346.29
384.15	322.11
384.53	330.92
384.91	350.81
385.29	346.52
385.67	337.25
386.049	326.86
386.429	345.16
386.809	345.84
387.189	344.48
387.568	366.18
387.948	363.47
388.328	351.71
388.707	342.22
389.087	354.2
389.466	344.03
389.846	341.77
390.225	358.27
390.605	385.61
390.984	349.68
391.363	363.92
391.743	380.41
392.122	363.24
392.501	386.97
392.881	376.8
393.26	352.84
393.639	370.02
394.018	368.21
394.397	373.63
394.776	366.4
395.155	374.99
395.534	368.21
395.913	390.58
396.292	383.13
396.671	379.51
397.05	401.66
397.429	389.68
397.808	378.15
398.186	394.42
398.565	416.57
398.944	392.62
399.323	377.02
399.701	414.99
400.08	433.52
400.458	412.05
400.837	421.54
401.215	425.16
401.594	426.51
401.972	419.96
402.351	416.12
402.729	444.59
403.107	431.94
403.486	421.09
403.864	421.99
404.242	425.84
404.62	460.41
404.999	447.3
405.377	444.82
405.755	448.89
406.133	459.51
406.511	471.26
406.889	452.05
407.267	487.98
407.645	473.74
408.023	476.46
408.401	468.32
408.779	476.46
409.156	500.41
409.534	496.34
409.912	494.76
410.29	508.55
410.667	516.91
411.045	480.3
411.422	520.3
411.8	518.26
412.178	536.34
412.555	544.7
412.933	554.87
413.31	565.72
413.687	563.46
414.065	592.16
414.442	592.84
414.819	584.93
415.197	585.15
415.574	585.61
415.951	593.52
416.328	624.48
416.705	627.41
417.082	610.92
417.46	624.02
417.837	641.65
418.214	636
418.591	668.77
418.967	628.77
419.344	654.3
419.721	674.64
420.098	674.19
420.475	691.37
420.852	679.61
421.228	693.17
421.605	721.65
421.982	728.65
422.358	724.13
422.735	750.57
423.111	742.21
423.488	777.01
423.864	767.3
424.241	796.67
424.617	797.58
424.994	819.05
425.37	813.62
425.746	822.89
426.123	832.61
426.499	851.59
426.875	853.17
427.251	866.95
427.627	876.9
428.003	885.26
428.379	885.94
428.756	882.1
429.132	899.27
429.507	908.31
429.883	929.1
430.259	951.02
430.635	931.13
431.011	956.22
431.387	972.94
431.763	999.15
432.138	1002.77
432.514	1040.96
432.89	1023.79
433.265	1019.72
433.641	1080.73
434.016	1056.1
434.392	1097.23
434.767	1120.73
435.143	1137
435.518	1141.52
435.894	1157.34
436.269	1170.45
436.644	1210.67
437.02	1186.04
437.395	1198.02
437.77	1195.99
438.145	1260.39
438.52	1244.35
438.895	1282.76
439.271	1282.99
439.646	1292.71
440.021	1335.19
440.395	1350.78
440.77	1365.92
441.145	1362.31
441.52	1392.14
441.895	1415.41
442.27	1407.96
442.645	1412.93
443.019	1440.5
443.394	1411.35
443.769	1450.22
444.143	1443.89
444.518	1507.62
444.892	1446.6
445.267	1499.71
445.641	1500.84
446.016	1524.56
446.39	1518.69
446.764	1549.42
447.139	1518.91
447.513	1527.95
447.887	1542.87
448.262	1535.19
448.636	1560.04
449.01	1610.66
449.384	1591.68
449.758	1606.82
450.132	1621.74
450.506	1640.49
450.88	1615.64
451.254	1625.8
451.628	1666.93
452.002	1684.56
452.376	1697.22
452.75	1689.31
453.123	1691.57
453.497	1756.87
453.871	1776.99
454.244	1774.5
454.618	1772.47
454.992	1803.88
455.365	1780.38
455.739	1837.78
456.112	1869.87
456.486	1885.01
456.859	1894.95
457.232	1926.59
457.606	1894.95
457.979	1892.01
458.352	1971.11
458.725	1981.73
459.099	1997.77
459.472	2011.56
459.845	2032.12
460.218	2033.03
460.591	2052.69
460.964	2069.18
461.337	2104.89
461.71	2152.57
462.083	2172.91
462.456	2162.29
462.829	2159.58
463.201	2182.17
463.574	2221.27
463.947	2225.11
464.32	2301.27
464.692	2268.95
465.065	2283.87
465.438	2329.52
465.81	2350.98
466.183	2377.88
466.555	2391.89
466.928	2425.11
467.3	2442.28
467.672	2467.82
468.045	2541.49
468.417	2515.5
468.789	2524.54
469.161	2566.57
469.534	2573.8
469.906	2613.58
470.278	2627.36
470.65	2689.51
471.022	2685.66
471.394	2770.63
471.766	2752.55
472.138	2802.04
472.51	2832.55
472.882	2885.88
473.253	2906
473.625	2936.05
473.997	2970.4
474.369	3005.88
474.74	3037.52
475.112	3043.85
475.484	3114.13
475.855	3142.83
476.227	3158.42
476.598	3242.71
476.97	3253.33
477.341	3338.3
477.713	3376.49
478.084	3364.74
478.455	3430.05
478.827	3479.99
479.198	3536.26
479.569	3532.42
479.94	3612.19
480.311	3624.85
480.682	3705.52
481.053	3767.9
481.424	3790.04
481.795	3848.8
482.166	3928.34
482.537	3951.39
482.908	3966.53
483.279	4031.17
483.65	4079.07
484.021	4159.3
484.391	4161.33
484.762	4206.08
485.133	4229.13
485.503	4340.99
485.874	4403.81
486.244	4343.47
486.615	4429.57
486.985	4482
487.356	4581.66
487.726	4583.47
488.097	4640.87
488.467	4643.8
488.837	4694.42
489.207	4779.62
489.578	4785.95
489.948	4865.27
490.318	4924.93
490.688	4924.93
491.058	4983.91
491.428	5072.49
491.798	5071.59
492.168	5146.16
492.538	5139.16
492.908	5203.34
493.278	5260.96
493.648	5271.81
494.017	5329.66
494.387	5382.77
494.757	5410.34
495.126	5419.83
495.496	5448.3
495.866	5520.84
496.235	5519.94
496.605	5540.28
496.974	5592.71
497.344	5607.39
497.713	5631.58
498.082	5660.73
498.452	5694.4
498.821	5733.72
499.19	5759.48
499.559	5751.8
499.928	5747.28
500.298	5754.28
500.667	5816.88
501.036	5866.6
501.405	5873.6
501.774	5909.99
502.143	5900.04
502.512	5957.89
502.88	5957.89
503.249	5980.04
503.618	6040.38
503.987	6042.86
504.356	6037.44
504.724	6073.15
505.093	6095.97
505.462	6046.48
505.83	6108.17
506.199	6186.14
506.567	6226.81
506.936	6176.87
507.304	6250.32
507.672	6300.26
508.041	6326.47
508.409	6279.69
508.777	6303.87
509.145	6355.85
509.514	6367.15
509.882	6379.8
510.25	6386.58
510.618	6416.19
510.986	6427.71
511.354	6394.72
511.722	6512.91
512.09	6553.36
512.458	6493.7
512.826	6528.73
513.193	6552.23
513.561	6546.13
513.929	6577.09
514.297	6612.79
514.664	6665.45
515.032	6702.96
515.4	6683.07
515.767	6675.62
516.135	6705.67
516.502	6702.51
516.869	6746.8
517.237	6708.38
517.604	6712.22
517.972	6773.92
518.339	6791.54
518.706	6743.86
519.073	6754.03
519.44	6795.61
519.808	6822.73
520.175	6864.31
520.542	6892.78
520.909	6939.79
521.276	6882.16
521.643	6925.33
522.009	6942.5
522.376	6907.25
522.743	6962.39
523.11	6958.55
523.477	7027.7
523.843	7082.84
524.21	7111.54
524.577	7087.58
524.943	7158.77
525.31	7164.42
525.676	7170.97
526.043	7226.79
526.409	7241.7
526.776	7268.82
527.142	7262.04
527.508	7259.33
527.874	7268.14
528.241	7321.7
528.607	7341.13
528.973	7375.48
529.339	7385.2
529.705	7421.58
530.071	7440.12
530.437	7443.05
530.803	7501.13
531.169	7526.67
531.535	7397.4
531.901	7460.68
532.267	7489.15
532.632	7532.54
532.998	7564.41
533.364	7615.48
533.73	7600.34
534.095	7627.91
534.461	7550.85
534.826	7613.44
535.192	7652.54
535.557	7732.99
535.923	7607.57
536.288	7648.92
536.653	7653.44
537.019	7625.19
537.384	7720.11
537.749	7705.42
538.114	7714.01
538.479	7743.84
538.845	7684.18
539.21	7721.01
539.575	7700
539.94	7691.18
540.305	7720.33
540.67	7727.11
541.034	7758.98
541.399	7757.62
541.764	7718.98
542.129	7800.56
542.494	7792.65
542.858	7778.19
543.223	7768.47
543.587	7807.11
543.952	7829.71
544.316	7782.7
544.681	7829.26
545.045	7855.92
545.41	7889.14
545.774	7863.61
546.138	7815.92
546.503	7845.3
546.867	7834.68
547.231	7893.21
547.595	7893.89
547.959	7895.47
548.324	7870.16
548.688	7838.75
549.052	7888.92
549.416	7842.14
549.779	7829.71
550.143	7896.15
550.507	7900.89
550.871	7889.37
551.235	7971.17
551.599	7971.63
551.962	7998.74
552.326	7968.69
552.689	8044.39
553.053	7908.35
553.417	7964.62
553.78	8024.96
554.143	7987.67
554.507	8060.21
554.87	8007.78
555.234	8090.04
555.597	8036.48
555.96	8136.82
556.323	8079.19
556.686	8109.02
557.05	8185.63
557.413	8121.23
557.776	8065.64
558.139	8180.89
558.502	8179.98
558.865	8148.35
559.228	8189.02
559.59	8233.99
559.953	8238.29
560.316	8292.75
560.679	8274.9
561.041	8327.78
561.404	8416.81
561.767	8356.7
562.129	8305.86
562.492	8442.8
562.854	8364.84
563.217	8451.84
563.579	8442.35
563.941	8521.89
564.304	8508.11
564.666	8537.26
565.028	8566.87
565.39	8577.26
565.753	8581.33
566.115	8653.42
566.477	8699.74
566.839	8648.67
567.201	8767.09
567.563	8742.45
567.925	8775.22
568.287	8792.17
568.648	8868.1
569.01	8875.56
569.372	8942.22
569.734	8888.66
570.095	8917.36
570.457	9004.59
570.819	8957.36
571.18	9010.24
571.542	9095.21
571.903	9047.08
572.265	9103.57
572.626	9127.3
572.987	9089.11
573.349	9161.2
573.71	9250.46
574.071	9186.28
574.432	9258.37
574.794	9330.69
575.155	9337.69
575.516	9355.32
575.877	9342.89
576.238	9422.66
576.599	9457.69
576.96	9480.74
577.32	9387.63
577.681	9481.42
578.042	9535.2
578.403	9557.12
578.763	9534.52
579.124	9604.8
579.485	9685.25
579.845	9723.22
580.206	9622.88
580.566	9666.05
580.927	9752.82
581.287	9812.26
581.648	9830.33
582.008	9802.99
582.368	9846.38
582.728	9888.19
583.089	9951.69
583.449	9970.9
583.809	9954.4
584.169	9987.84
584.529	10040.95
584.889	10055.64
585.249	10053.61
585.609	10045.47
585.969	10101.51
586.329	10099.48
586.688	10134.51
587.048	10185.35
587.408	10233.49
587.768	10214.96
588.127	10164.11
588.487	10201.4
588.846	10327.04
589.206	10340.83
589.565	10338.34
589.925	10432.13
590.284	10351
590.643	10440.71
591.003	10522.97
591.362	10483.88
591.721	10474.39
592.08	10535.63
592.44	10579.47
592.799	10525.68
593.158	10605
593.517	10633.25
593.876	10645.68
594.235	10613.14
594.593	10649.07
594.952	10727.49
595.311	10671.44
595.67	10680.71
596.029	10807.26
596.387	10794.6
596.746	10790.99
597.104	10842.51
597.463	10819.01
597.822	10837.77
598.18	10854.49
598.538	10798.44
598.897	10919.35
599.255	10781.5
599.613	10947.59
599.972	10972.68
600.33	11027.59
600.688	10957.54
601.046	11000.93
601.404	11078.89
601.762	11041.6
602.12	11035.5
602.478	11077.99
602.836	11077.99
603.194	11019.68
603.552	11082.05
603.91	10999.57
604.268	11072.79
604.625	11027.82
604.983	11093.35
605.341	11045.9
605.698	11081.38
606.056	11191.2
606.413	11148.72
606.771	11182.16
607.128	11105.33
607.485	11108.27
607.843	11142.62
608.2	11191.65
608.557	11229.39
608.914	11155.95
609.272	11236.85
609.629	11291.31
609.986	11292.9
610.343	11202.73
610.7	11301.93
611.057	11356.4
611.414	11315.72
611.771	11342.16
612.127	11365.66
612.484	11374.93
612.841	11347.58
613.198	11415.38
613.554	11366.11
613.911	11416.28
614.267	11441.14
614.624	11493.34
614.98	11354.14
615.337	11470.07
615.693	11467.35
616.05	11482.49
616.406	11551.65
616.762	11464.19
617.118	11436.85
617.475	11468.03
617.831	11592.32
618.187	11606.11
618.543	11561.81
618.899	11618.76
619.255	11699.44
619.611	11554.81
619.967	11626.9
620.323	11652.43
620.678	11570.18
621.034	11646.56
621.39	11582.61
621.746	11576.5
622.101	11756.39
622.457	11630.06
622.812	11553.68
623.168	11611.3
623.523	11623.73
623.879	11643.39
624.234	11566.33
624.589	11560.23
624.945	11679.1
625.3	11684.07
625.655	11634.58
626.01	11583.96
626.365	11649.04
626.72	11673
627.075	11619.67
627.43	11629.16
627.785	11589.61
628.14	11619.44
628.495	11571.53
628.85	11566.79
629.205	11556.39
629.559	11587.8
629.914	11546.67
630.269	11582.38
630.623	11547.8
630.978	11412.89
631.332	11502.38
631.687	11588.03
632.041	11520.69
632.396	11553.68
632.75	11442.27
633.104	11516.62
633.459	11379.22
633.813	11433.46
634.167	11445.66
634.521	11322.05
634.875	11423.29
635.229	11405.21
635.583	11348.03
635.937	11369.28
636.291	11320.47
636.645	11396.4
636.999	11335.83
637.352	11336.51
637.706	11274.82
638.06	11322.72
638.413	11250.86
638.767	11260.58
639.121	11302.61
639.474	11247.47
639.828	11173.12
640.181	11213.8
640.534	11198.89
640.888	11194.59
641.241	11176.97
641.594	11172.67
641.947	11172.45
642.301	11199.34
642.654	11215.16
643.007	11121.6
643.36	11124.76
643.713	11116.18
644.066	11153.69
644.419	11101.49
644.771	11087.48
645.124	11024.43
645.477	10944.66
645.83	10862.4
646.182	10785.79
646.535	10782.17
646.888	10803.42
647.24	10670.99
647.593	10706.7
647.945	10767.26
648.298	10699.92
648.65	10715.74
649.002	10666.47
649.355	10706.92
649.707	10748.05
650.059	10766.36
650.411	10905.79
650.763	10833.25
651.115	11056.29
651.467	11035.05
651.819	10920.7
652.171	10939.91
652.523	10917.76
652.875	10941.94
653.227	10875.51
653.578	11026.46
653.93	10961.83
654.282	10951.21
654.633	10862.62
654.985	10910.31
655.337	10950.98
655.688	10941.04
656.039	10950.08
656.391	10873.25
656.742	10952.79
657.094	10986.46
657.445	10998.67
657.796	10932
658.147	10954.15
658.498	10937.2
658.849	10919.12
659.2	10959.57
659.551	10920.93
659.902	10998.21
660.253	10960.25
660.604	10971.32
660.955	10959.8
661.306	10947.14
661.656	10935.62
662.007	10917.31
662.358	10962.51
662.708	10952.79
663.059	10899.69
663.409	10886.13
663.76	10911.66
664.11	10912.57
664.461	10989.4
664.811	10902.4
665.161	10917.31
665.511	10914.83
665.862	10974.71
666.212	11010.64
666.562	11016.29
666.912	10950.98
667.262	10984.88
667.612	10981.26
667.962	11015.84
668.312	11008.61
668.662	11029.63
669.011	10923.87
669.361	10865.11
669.711	10927.48
670.06	10998.44
670.41	10887.71
670.76	10922.96
671.109	10960.02
671.459	10904.88
671.808	10896.52
672.157	10935.39
672.507	10823.3
672.856	10847.71
673.205	10896.75
673.554	10870.99
673.904	10819.69
674.253	10903.75
674.602	10892.45
674.951	10664.44
675.3	10639.8
675.649	10795.28
675.998	10790.31
676.346	10841.61
676.695	10853.13
677.044	10740.14
677.393	10789.18
677.741	10818.11
678.09	10734.04
678.438	10792.8
678.787	10762.51
679.135	10750.31
679.484	10595.51
679.832	10755.51
680.181	10621.27
680.529	10679.8
680.877	10655.62
681.225	10611.78
681.573	10616.53
681.922	10578.79
682.27	10473.03
682.618	10541.73
682.966	10555.97
683.314	10535.63
683.661	10491.11
684.009	10449.98
684.357	10427.61
684.705	10419.92
685.053	10397.78
685.4	10437.32
685.748	10361.85
686.095	10311.9
686.443	10339.93
686.79	10304.67
687.138	10255.63
687.485	10294.05
687.832	10205.01
688.18	10222.64
688.527	10124.79
688.874	10134.73
689.221	10061.97
689.568	10022.19
689.915	10048.86
690.262	9989.88
690.609	10048.18
690.956	9967.73
691.303	9931.35
691.65	9926.6
691.997	9903.78
692.344	9858.81
692.69	9817.68
693.037	9848.41
693.383	9676.21
693.73	9782.2
694.077	9673.05
694.423	9707.4
694.769	9692.49
695.116	9681.64
695.462	9581.3
695.808	9597.8
696.155	9551.02
696.501	9457.46
696.847	9493.62
697.193	9452.72
697.539	9495.65
697.885	9362.1
698.231	9329.1
698.577	9319.16
698.923	9250.01
699.269	9225.38
699.614	9177.7
699.96	9157.81
700.306	9200.97
700.651	9085.5
700.997	9021.09
701.342	9113.97
701.688	9033.75
702.033	8991.26
702.379	9043.46
702.724	8984.93
703.069	8924.37
703.415	8873.98
703.76	8833.52
704.105	8839.85
704.45	8812.06
704.795	8718.05
705.14	8702.23
705.485	8772.96
705.83	8681.44
706.175	8707.65
706.52	8617.49
706.865	8568.45
707.209	8602.57
707.554	8568.22
707.899	8560.54
708.243	8528
708.588	8484.83
708.932	8440.54
709.277	8459.98
709.621	8414.1
709.966	8379.75
710.31	8425.4
710.654	8283.03
710.998	8332.3
711.342	8291.17
711.687	8323.71
712.031	8271.28
712.375	8239.42
712.719	8243.03
713.063	8215.46
713.407	8236.48
713.75	8175.01
714.094	8238.29
714.438	8181.79
714.782	8156.71
715.125	8156.93
715.469	8118.74
715.812	8115.8
716.156	8004.39
716.499	8099.31
716.843	8171.17
717.186	8038.74
717.53	8041
717.873	8083.04
718.216	8060.21
718.559	8014.56
718.902	7924.17
719.246	7965.75
719.589	7879.43
719.932	7857.05
720.275	7938.41
720.617	7974.56
720.96	7930.27
721.303	7900.89
721.646	7910.39
721.989	7838.3
722.331	7866.54
722.674	7801.24
723.016	7863.38
723.359	7831.29
723.701	7815.02
724.044	7776.38
724.386	7766.21
724.729	7743.84
725.071	7784.06
725.413	7794
725.755	7734.57
726.097	7734.57
726.439	7710.62
726.782	7760.11
727.124	7784.06
727.465	7757.17
727.807	7776.15
728.149	7749.94
728.491	7715.36
728.833	7679.2
729.175	7711.29
729.516	7652.76
729.858	7671.07
730.199	7690.28
730.541	7701.13
730.882	7682.82
731.224	7677.17
731.565	7650.05
731.906	7647.12
732.248	7631.52
732.589	7616.38
732.93	7668.13
733.271	7656.38
733.612	7706.55
733.953	7641.47
734.294	7638.75
734.635	7503.62
734.976	7615.93
735.317	7607.12
735.658	7607.57
735.999	7616.16
736.339	7668.58
736.68	7646.44
737.021	7610.73
737.361	7594.24
737.702	7633.78
738.042	7657.06
738.383	7600.11
738.723	7667.91
739.063	7595.59
739.404	7703.61
739.744	7684.63
740.084	7667.23
740.424	7655.02
740.764	7702.71
741.104	7717.85
741.444	7665.19
741.784	7709.94
742.124	7741.12
742.464	7757.62
742.804	7772.76
743.143	7740.67
743.483	7751.29
743.823	7781.35
744.162	7794.46
744.502	7794.46
744.841	7847.56
745.181	7901.57
745.52	7899.09
745.86	7954.45
746.199	7935.24
746.538	7994.68
746.877	8056.14
747.216	8095.01
747.556	8132.3
747.895	8197.38
748.234	8183.15
748.573	8146.99
748.911	8220.89
749.25	8296.59
749.589	8265.18
749.928	8455.91
750.267	8515.34
750.605	8504.95
750.944	8583.59
751.283	8666.3
751.621	8789.23
751.96	8797.59
752.298	8909.23
752.636	9064.03
752.975	9063.8
753.313	9126.17
753.651	9206.17
753.989	9280.74
754.327	9412.04
754.666	9419.05
755.004	9692.94
755.342	9777.45
755.679	9826.49
756.017	9939.26
756.355	10086.37
756.693	10165.47
757.031	10311.68
757.368	10415.4
757.706	10651.78
758.044	10713.48
758.381	10839.12
758.719	10932.45
759.056	11143.52
759.394	11249.51
759.731	11394.59
760.068	11454.92
760.405	11696.73
760.743	11769.49
761.08	11938.3
761.417	12037.06
761.754	12271.4
762.091	12387.33
762.428	12529.7
762.765	12631.17
763.102	12912.74
763.438	12951.38
763.775	13106.18
