Data from hue_00_FLMS001491_91.txt Node
Date: Mon Feb 06 15:30:41 GMT 2017
User: dcchb
Spectrometer: FLMS00149
Trigger mode: 0
Integration Time (sec): 2.000000E-2
Scans to average: 10
Electric dark correction enabled: true
Nonlinearity correction enabled: false
Boxcar width: 0
XAxis mode: Wavelengths
Number of Pixels in Spectrum: 2048
>>>>>Begin Spectral Data<<<<<
341.393	-2.3
341.776	-2.3
342.16	-2.3
342.543	-60.38
342.927	-59.7
343.31	-68.97
343.693	-73.03
344.077	-71.68
344.46	-54.05
344.843	-47.27
345.226	-50.89
345.61	-38.69
345.993	-20.38
346.376	-12.47
346.759	0.64
347.142	26.62
347.525	44.48
347.908	59.84
348.291	89.45
348.674	93.97
349.057	122.44
349.44	110.69
349.823	135.32
350.206	178.71
350.588	180.74
350.971	205.15
351.354	209.44
351.737	268.2
352.119	241.99
352.502	256.22
352.884	268.65
353.267	286.73
353.65	274.53
354.032	266.39
354.414	302.32
354.797	317.46
355.179	320.18
355.562	313.85
355.944	334.19
356.326	327.86
356.709	336.9
357.091	319.05
357.473	338.93
357.855	341.42
358.238	346.16
358.62	329.89
359.002	334.19
359.384	335.77
359.766	337.8
360.148	324.92
360.53	337.58
360.912	316.33
361.294	332.83
361.676	335.09
362.057	324.47
362.439	331.47
362.821	340.74
363.203	316.56
363.584	313.85
363.966	329.44
364.348	309.78
364.729	330.12
365.111	318.82
365.493	295.09
365.874	314.53
366.256	307.07
366.637	302.1
367.019	314.3
367.4	322.89
367.781	298.03
368.163	301.87
368.544	285.15
368.925	309.78
369.306	288.76
369.688	310.91
370.069	323.11
370.45	334.19
370.831	305.26
371.212	303.68
371.593	288.31
371.974	296.22
372.355	298.03
372.736	303.45
373.117	300.74
373.498	304.13
373.879	299.61
374.26	319.05
374.641	319.72
375.021	289.67
375.402	324.02
375.783	327.86
376.163	340.97
376.544	321.76
376.925	322.66
377.305	328.76
377.686	333.28
378.066	330.57
378.447	306.84
378.827	334.86
379.208	339.38
379.588	333.73
379.968	301.42
380.349	331.47
380.729	319.5
381.109	335.32
381.489	320.18
381.87	312.27
382.25	329.44
382.63	331.25
383.01	339.84
383.39	329.21
383.77	348.65
384.15	320.63
384.53	299.16
384.91	329.67
385.29	334.86
385.67	339.61
386.049	350.68
386.429	355.65
386.809	359.27
387.189	333.51
387.568	347.97
387.948	331.25
388.328	347.75
388.707	333.96
389.087	332.6
389.466	341.42
389.846	355.88
390.225	331.47
390.605	341.87
390.984	333.51
391.363	360.4
391.743	360.17
392.122	354.3
392.501	368.31
392.881	364.69
393.26	354.52
393.639	363.34
394.018	379.16
394.397	373.73
394.776	353.17
395.155	364.69
395.534	355.88
395.913	370.8
396.292	372.15
396.671	370.57
397.05	379.83
397.429	384.81
397.808	384.81
398.186	376.44
398.565	362.43
398.944	368.08
399.323	380.06
399.701	386.16
400.08	382.77
400.458	384.35
400.837	393.17
401.215	396.56
401.594	371.93
401.972	381.19
402.351	387.07
402.729	388.2
403.107	376.44
403.486	404.69
403.864	399.5
404.242	407.4
404.62	408.99
404.999	385.94
405.377	394.75
405.755	405.14
406.133	395.88
406.511	415.31
406.889	410.34
407.267	421.87
407.645	425.48
408.023	423.9
408.401	393.62
408.779	403.56
409.156	415.31
409.534	420.29
409.912	427.97
410.29	451.02
410.667	402.43
411.045	425.48
411.422	454.63
411.8	444.92
412.178	439.95
412.555	418.48
412.933	437.46
413.31	451.25
413.687	461.19
414.065	470.45
414.442	468.87
414.819	472.71
415.197	451.02
415.574	462.77
415.951	486.27
416.328	455.31
416.705	490.34
417.082	489.44
417.46	492.37
417.837	521.3
418.214	486.95
418.591	472.04
418.967	521.07
419.344	493.5
419.721	472.04
420.098	487.85
420.475	503.22
420.852	510.45
421.228	538.25
421.605	507.74
421.982	524.69
422.358	520.4
422.735	538.02
423.111	516.1
423.488	534.41
423.864	517.91
424.241	525.82
424.617	526.05
424.994	539.38
425.37	561.07
425.746	563.78
426.123	562.65
426.499	541.41
426.875	548.42
427.251	568.53
427.627	567.17
428.003	559.72
428.379	568.98
428.756	577.12
429.132	568.3
429.507	579.38
429.883	586.83
430.259	610.11
430.635	602.43
431.011	599.94
431.387	615.31
431.763	597.23
432.138	597.91
432.514	617.34
432.89	618.25
433.265	636.33
433.641	632.94
434.016	632.71
434.392	662.99
434.767	673.84
435.143	659.15
435.518	660.96
435.894	660.05
436.269	657.79
436.644	678.13
437.02	684.46
437.395	670.45
437.77	709.32
438.145	685.59
438.52	701.86
438.895	701.63
439.271	701.63
439.646	736.66
440.021	716.32
440.395	742.54
440.77	728.98
441.145	739.83
441.52	752.71
441.895	734.85
442.27	755.87
442.645	751.8
443.019	761.97
443.394	765.59
443.769	767.85
444.143	772.82
444.518	778.47
444.892	763.1
445.267	779.82
445.641	743.67
446.016	791.12
446.39	785.93
446.764	780.95
447.139	772.59
447.513	810.33
447.887	800.16
448.262	799.48
448.636	802.65
449.01	803.78
449.384	818.69
449.758	822.53
450.132	833.16
450.506	824.79
450.88	863.89
451.254	815.98
451.628	843.33
452.002	851.01
452.376	855.75
452.75	836.09
453.123	839.26
453.497	880.39
453.871	867.96
454.244	905.47
454.618	882.19
454.992	908.41
455.365	891.01
455.739	903.21
456.112	940.95
456.486	922.87
456.859	934.85
457.232	954.73
457.606	918.35
457.979	961.51
458.352	945.24
458.725	965.81
459.099	949.54
459.472	1003.1
459.845	1018.01
460.218	1014.62
460.591	1008.52
460.964	1033.83
461.337	1030.21
461.71	1067.5
462.083	1070.21
462.456	1078.8
462.829	1065.47
463.201	1113.15
463.574	1094.84
463.947	1089.65
464.32	1105.24
464.692	1142.98
465.065	1145.92
465.438	1128.97
465.81	1173.94
466.183	1176.2
466.555	1211
466.928	1216.42
467.3	1205.35
467.672	1231.34
468.045	1242.86
468.417	1247.16
468.789	1283.31
469.161	1272.47
469.534	1279.92
469.906	1326.02
470.278	1325.57
470.65	1343.65
471.022	1379.36
471.394	1407.6
471.766	1410.54
472.138	1409.64
472.51	1447.6
472.882	1456.19
473.253	1489.64
473.625	1516.75
473.997	1502.74
474.369	1517.88
474.74	1534.38
475.112	1575.74
475.484	1607.15
475.855	1625
476.227	1668.16
476.598	1703.42
476.97	1702.74
477.341	1732.34
477.713	1779.35
478.084	1780.25
478.455	1830.87
478.827	1861.83
479.198	1893.92
479.569	1910.42
479.94	1910.64
480.311	1959.45
480.682	1974.59
481.053	2039.45
481.424	2085.55
481.795	2097.3
482.166	2133.46
482.537	2148.6
482.908	2234.25
483.279	2238.54
483.65	2265.21
484.021	2324.87
484.391	2334.36
484.762	2366.22
485.133	2443.51
485.503	2430.4
485.874	2505.88
486.244	2517.41
486.615	2583.62
486.985	2620.91
487.356	2628.14
487.726	2649.61
488.097	2702.94
488.467	2746.78
488.837	2799.66
489.207	2824.52
489.578	2844.85
489.948	2917.85
490.318	2968.69
490.688	2965.3
491.058	3034.23
491.428	3030.84
491.798	3070.39
492.168	3116.71
492.538	3144.06
492.908	3198.97
493.278	3233.32
493.648	3264.5
494.017	3291.4
494.387	3307.44
494.757	3355.58
495.126	3409.59
495.496	3398.96
495.866	3427.44
496.235	3514.89
496.605	3512.63
496.974	3541.33
497.344	3567.1
497.713	3548.56
498.082	3600.77
498.452	3672.86
498.821	3645.96
499.19	3678.5
499.559	3712.4
499.928	3727.77
500.298	3786.98
500.667	3793.3
501.036	3798.28
501.405	3860.42
501.774	3833.08
502.143	3905.84
502.512	3906.52
502.88	3972.28
503.249	3933.87
503.618	3923.02
503.987	3991.49
504.356	4021.77
504.724	4053.64
505.093	4028.1
505.462	4118.27
505.83	4074.88
506.199	4054.99
506.567	4123.92
506.936	4177.02
507.304	4189.9
507.672	4181.99
508.041	4242.33
508.409	4269
508.777	4250.02
509.145	4277.13
509.514	4312.16
509.882	4301.09
510.25	4325.95
510.618	4368.88
510.986	4395.55
511.354	4408.66
511.722	4412.05
512.09	4413.4
512.458	4466.73
512.826	4522.55
513.193	4541.53
513.561	4513.29
513.929	4544.24
514.297	4574.75
514.664	4644.81
515.032	4599.38
515.4	4608.65
515.767	4664.24
516.135	4658.82
516.502	4664.02
516.869	4703.56
517.237	4733.17
517.604	4672.83
517.972	4691.13
518.339	4764.35
518.706	4824.69
519.073	4788.31
519.44	4776.56
519.808	4819.27
520.175	4850.9
520.542	4841.41
520.909	4909.21
521.276	4904.24
521.643	4945.14
522.009	4959.15
522.376	5000.96
522.743	5020.16
523.11	5029.66
523.477	5074.85
523.843	5080.73
524.21	5146.49
524.577	5140.61
524.943	5174.74
525.31	5205.24
525.676	5289.31
526.043	5264
526.409	5252.47
526.776	5320.72
527.142	5400.72
527.508	5389.42
527.874	5411.11
528.241	5412.24
528.607	5472.81
528.973	5450.89
529.339	5435.07
529.705	5519.36
530.071	5585.35
530.437	5641.17
530.803	5653.37
531.169	5658.34
531.535	5678.9
531.901	5692.69
532.267	5711.9
532.632	5735.85
532.998	5753.7
533.364	5835.51
533.73	5849.97
534.095	5844.78
534.461	5869.63
534.826	5871.89
535.192	5922.97
535.557	5959.35
535.923	5922.29
536.288	5988.95
536.653	6011.1
537.019	5964.32
537.384	6025.11
537.749	6119.34
538.114	6062.62
538.479	6042.96
538.845	6139.91
539.21	6127.25
539.575	6182.85
539.94	6176.29
540.305	6244.31
540.67	6227.36
541.034	6241.38
541.399	6305.33
541.764	6343.75
542.129	6319.79
542.494	6425.1
542.858	6394.82
543.223	6381.03
543.587	6414.7
543.952	6454.48
544.316	6445.66
544.681	6453.12
545.045	6483.63
545.41	6579.45
545.774	6530.86
546.138	6586.9
546.503	6586.9
546.867	6652.44
547.231	6700.12
547.595	6682.72
547.959	6687.69
548.324	6751.64
548.688	6753.23
549.052	6802.26
549.416	6857.86
549.779	6816.5
550.143	6825.54
550.507	6923.84
550.871	6864.64
551.235	6924.07
551.599	6945.54
551.962	6970.85
552.326	6974.92
552.689	7017.4
553.053	6989.15
553.417	7025.54
553.78	7047.68
554.143	7086.78
554.507	7141.01
554.87	7130.39
555.234	7193.44
555.597	7139.43
555.96	7207.68
556.323	7209.03
556.686	7223.95
557.05	7239.54
557.413	7275.92
557.776	7305.3
558.139	7356.15
558.502	7309.37
558.865	7362.02
559.228	7416.94
559.59	7492.42
559.953	7535.35
560.316	7501.23
560.679	7534.9
561.041	7574.45
561.404	7617.61
561.767	7627.1
562.129	7711.17
562.492	7667.1
562.854	7663.26
563.217	7674.56
563.579	7668.91
563.941	7786.65
564.304	7798.62
564.666	7804.72
565.028	7828.9
565.39	7833.2
565.753	7895.57
566.115	7964.72
566.477	7939.86
566.839	7969.47
567.201	8013.76
567.563	8037.94
567.925	8056.24
568.287	8093.76
568.648	8150.48
569.01	8185.96
569.372	8186.41
569.734	8240.87
570.095	8256.92
570.457	8267.76
570.819	8308.67
571.18	8343.47
571.542	8318.61
571.903	8456.91
572.265	8471.15
572.626	8528.09
572.987	8491.49
573.349	8631.6
573.71	8680.63
574.071	8712.95
574.432	8728.54
574.794	8827.75
575.155	8834.98
575.516	8871.81
575.877	8916.56
576.238	8996.56
576.599	9033.17
576.96	9173.73
577.32	9204.91
577.681	9262.31
578.042	9318.36
578.403	9364.01
578.763	9430.44
579.124	9502.08
579.485	9688.74
579.845	9741.4
580.206	9808.97
580.566	9851
580.927	9960.37
581.287	10171.22
581.648	10159.24
582.008	10361.95
582.368	10468.38
582.728	10553.35
583.089	10661.15
583.449	10877.64
583.809	10994.92
584.169	11088.03
584.529	11181.81
584.889	11424.97
585.249	11565.98
585.609	11692.53
585.969	11926.2
586.329	12060.88
586.688	12323.02
587.048	12444.83
587.408	12548.33
587.768	12764.59
588.127	12924.14
588.487	13140.18
588.846	13567.06
589.206	13630.79
589.565	13927.05
589.925	14109.87
590.284	14320.94
590.643	14539.91
591.003	14810.19
591.362	15049.05
591.721	15324.53
592.08	15514.58
592.44	15829.82
592.799	16004.51
593.158	16274.78
593.517	16453.08
593.876	16750.93
594.235	17000.41
594.593	17288.32
594.952	17532.15
595.311	17744.58
595.67	18025.92
596.029	18365.58
596.387	18738
596.746	19039.46
597.104	19004.2
597.463	19438.32
597.822	19697.29
598.18	19958.98
598.538	20173.66
598.897	20639.41
599.255	20775.23
599.613	21285.95
599.972	21333.18
600.33	21588.54
600.688	21856.56
601.046	22105.37
601.404	22459.71
601.762	22686.37
602.12	22958
602.478	23179.69
602.836	23395.5
603.194	23558.21
603.552	23868.48
603.91	23952.1
604.268	24449.26
604.625	24544.85
604.983	24932.86
605.341	24961.56
605.698	25343.47
606.056	25604.26
606.413	25799.28
606.771	26018.71
607.128	26260.74
607.485	26397.23
607.843	26619.6
608.2	27009.42
608.557	27274.72
608.914	27333.48
609.272	27607.37
609.629	27878.32
609.986	28123.06
610.343	28267.01
610.7	28465.42
611.057	28673.78
611.414	28878.07
611.771	29036.93
612.127	29271.96
612.484	29424.27
612.841	29654.55
613.198	29792.17
613.554	29869.23
613.911	30150.58
614.267	30273.51
614.624	30357.8
614.98	30562.32
615.337	30816.55
615.693	30781.52
616.05	30885.47
616.406	31315.74
616.762	31317.55
617.118	31486.81
617.475	31495.63
617.831	31828.95
618.187	31897.88
618.543	32093.35
618.899	32353.46
619.255	32471.65
619.611	32485.88
619.967	32647.69
620.323	32836.61
620.678	32800.9
621.034	32814.24
621.39	32939.2
621.746	32988.92
622.101	33381
622.457	33221.91
622.812	33479.53
623.168	33510.49
623.523	33716.59
623.879	33790.48
624.234	33638.85
624.589	33851.5
624.945	33917.71
625.3	34022.79
625.655	34173.52
626.01	34230.47
626.365	34213.75
626.72	34335.78
627.075	34330.81
627.43	34454.64
627.785	34393.86
628.14	34661.19
628.495	34632.04
628.85	34444.7
629.205	34480.63
629.559	34817.8
629.914	34693.96
630.269	34792.26
630.623	34714.53
630.978	34745.26
631.332	34920.17
631.687	35137.79
632.041	34786.16
632.396	35058.02
632.75	34748.87
633.104	34925.14
633.459	34796.78
633.813	34782.09
634.167	34928.3
634.521	34878.81
634.875	35014.4
635.229	34895.99
635.583	34876.78
635.937	34988.64
636.291	34956.78
636.645	34925.14
636.999	35075.19
637.352	35080.84
637.706	34857.35
638.06	34968.53
638.413	34996.55
638.767	34777.8
639.121	34983.67
639.474	34955.87
639.828	34890.79
640.181	34849.44
640.534	34948.19
640.888	34835.2
641.241	34640.63
641.594	34813.05
641.947	34950.23
642.301	34888.08
642.654	34855.31
643.007	34894.41
643.36	34846.95
643.713	34787.97
644.066	35025.93
644.419	34826.39
644.771	34479.95
645.124	34147.76
645.477	34177.36
645.83	34152.05
646.182	33969.69
646.535	33859.63
646.888	34026.18
647.24	33765.62
647.593	33909.8
647.945	33798.16
648.298	33729.92
648.65	33636.36
649.002	33589.36
649.355	33695.57
649.707	33621.22
650.059	33837.71
650.411	34003.58
650.763	34216.01
651.115	34539.39
651.467	34399.73
651.819	34294.88
652.171	34425.27
652.523	34353.86
652.875	34374.87
653.227	34152.05
653.578	34371.94
653.93	34384.82
654.282	34204.03
654.633	34171.26
654.985	34185.27
655.337	34283.58
655.688	34379.62
656.039	34281.77
656.391	34192.73
656.742	34118.61
657.094	34188.21
657.445	34239.96
657.796	34147.31
658.147	34105.73
658.498	33989.35
658.849	34157.7
659.2	34110.25
659.551	34121.09
659.902	34126.07
660.253	34053.3
660.604	34093.3
660.955	34015.33
661.306	34094.65
661.656	34044.03
662.007	34106.41
662.358	34027.31
662.708	34126.97
663.059	34024.15
663.409	33899.86
663.76	34165.84
664.11	34108.67
664.461	34030.7
664.811	34113.64
665.161	34117.48
665.511	33873.42
665.862	34092.17
666.212	34122
666.562	34127.2
666.912	34015.11
667.262	33883.81
667.612	33816.7
667.962	33869.12
668.312	33989.12
668.662	34036.35
669.011	33840.88
669.361	33929.23
669.711	33822.8
670.06	33808.11
670.41	33846.75
670.76	33811.27
671.109	33831.61
671.459	33794.1
671.808	33795.45
672.157	33873.42
672.507	33708.9
672.856	33745.96
673.205	33721.33
673.554	33792.06
673.904	33713.2
674.253	33789.35
674.602	33722.46
674.951	33212.87
675.3	33053.33
675.649	33717.26
675.998	33653.99
676.346	33579.87
676.695	33718.85
677.044	33478.85
677.393	33537.61
677.741	33677.26
678.09	33531.28
678.438	33398.85
678.787	33559.98
679.135	33496.03
679.484	33236.82
679.832	33367.22
680.181	33127.22
680.529	33446.31
680.877	33143.04
681.225	33198.86
681.573	33349.59
681.922	33148.01
682.27	32999.99
682.618	33086.77
682.966	33035.47
683.314	33072.53
683.661	32842.26
684.009	32851.3
684.357	32667.12
684.705	32792.32
685.053	32816.27
685.4	32709.38
685.748	32606.33
686.095	32484.3
686.443	32395.49
686.79	32298.54
687.138	32518.88
687.485	32475.94
687.832	32308.94
688.18	32306.9
688.527	32125.44
688.874	32092.22
689.221	32118.66
689.568	31955.05
689.915	31867.82
690.262	31920.93
690.609	31789.63
690.956	31596.87
691.303	31655.4
691.65	31522.29
691.997	31541.5
692.344	31272.36
692.69	31341.96
693.037	31360.94
693.383	31108.29
693.73	31280.94
694.077	31026.94
694.423	31044.79
694.769	30814.51
695.116	30757.79
695.462	30847.28
695.808	30599.15
696.155	30748.08
696.501	30606.61
696.847	30615.65
697.193	30405.26
697.539	30443
697.885	30175.89
698.231	30099.28
698.577	30036.23
698.923	29997.81
699.269	29966.63
699.614	29880.3
699.96	29784.49
700.306	29843.92
700.651	29645.28
700.997	29637.82
701.342	29548.33
701.688	29457.49
702.033	29404.83
702.379	29390.6
702.724	29260.66
703.069	29326.87
703.415	28979.53
703.76	29044.62
704.105	29137.72
704.45	29041.45
704.795	28835.81
705.14	28821.12
705.485	28707.68
705.83	28644.4
706.175	28748.35
706.52	28577.06
706.865	28530.28
707.209	28495.25
707.554	28238.54
707.899	28397.86
708.243	28243.51
708.588	28189.95
708.932	27876.96
709.277	28010.97
709.621	27988.83
709.966	27830.86
710.31	27822.05
710.654	27628.61
710.998	27690.53
711.342	27698.89
711.687	27618.67
712.031	27521.72
712.375	27310.65
712.719	27388.16
713.063	27326.24
713.407	27303.19
713.75	27139.81
714.094	27226.59
714.438	27091.22
714.782	27125.8
715.125	27045.35
715.469	27034.05
715.812	26912.47
716.156	26659.14
716.499	26784.79
716.843	26838.12
717.186	26611.01
717.53	26811.68
717.873	26736.66
718.216	26562.2
718.559	26579.6
718.902	26236.56
719.246	26412.6
719.589	26388.42
719.932	26348.87
720.275	26219.16
720.617	26244.24
720.96	26101.42
721.303	26152.49
721.646	26222.09
721.989	25911.82
722.331	26117.01
722.674	26039.27
723.016	25950.46
723.359	25917.69
723.701	25928.77
724.044	25886.28
724.386	25591.6
724.729	25802.22
725.071	25739.39
725.413	25736.23
725.755	25682.22
726.097	25564.48
726.439	25511.6
726.782	25443.13
727.124	25596.8
727.465	25414.43
727.807	25346.41
728.149	25238.84
728.491	25194.32
728.833	25248.56
729.175	25212.18
729.516	25257.6
729.858	25106.19
730.199	25122.01
730.541	25064.61
730.882	24965.85
731.224	24992.75
731.565	24951.84
731.906	24988.68
732.248	24986.19
732.589	24748.91
732.93	24752.53
733.271	24783.03
733.612	24924.73
733.953	24760.21
734.294	24666.2
734.635	24675.92
734.976	24659.87
735.317	24551.4
735.658	24545.98
735.999	24528.35
736.339	24445.87
736.68	24525.64
737.021	24274.8
737.361	24205.2
737.702	24445.87
738.042	24343.05
738.383	24383.05
738.723	24385.98
739.063	24188.25
739.404	24221.69
739.744	24212.65
740.084	24196.16
740.424	24117.29
740.764	24096.95
741.104	24087.23
741.444	23931.76
741.784	23861.93
742.124	23988.48
742.464	23974.69
742.804	23899.67
743.143	23912.1
743.483	23771.76
743.823	23738.99
744.162	23686.34
744.502	23807.47
744.841	23663.06
745.181	23737.64
745.52	23569.73
745.86	23694.25
746.199	23542.84
746.538	23493.58
746.877	23557.53
747.216	23587.59
747.556	23432.56
747.895	23501.49
748.234	23301.72
748.573	23315.28
748.911	23192.12
749.25	23327.93
749.589	23150.08
749.928	23168.39
750.267	23244.54
750.605	23010.65
750.944	23106.02
751.283	23033.48
751.621	22974.72
751.96	22817.21
752.298	22938.79
752.636	22863.99
752.975	22766.14
753.313	22675.75
753.651	22785.57
753.989	22581.06
754.327	22559.82
754.666	22560.95
755.004	22633.71
755.342	22609.76
755.679	22524.56
756.017	22382.65
756.355	22452.7
756.693	22258.13
757.031	22332.93
757.368	22165.25
757.706	22204.57
758.044	22173.39
758.381	22114.4
758.719	21898.36
759.056	22086.61
759.394	21902.88
759.731	21835.77
760.068	21788.99
760.405	21681.42
760.743	21665.6
761.08	21740.85
