Data from hue_210_FLMS001491_00005.txt Node
Date: Tue Feb 07 16:40:41 GMT 2017
User: dcchb
Spectrometer: FLMS00149
Trigger mode: 0
Integration Time (sec): 2.000000E-2
Scans to average: 10
Electric dark correction enabled: true
Nonlinearity correction enabled: false
Boxcar width: 0
XAxis mode: Wavelengths
Number of Pixels in Spectrum: 2048
>>>>>Begin Spectral Data<<<<<
341.393	-17.6
341.776	-17.6
342.16	-17.6
342.543	-48.56
342.927	-60.99
343.31	-69.8
343.693	-84.72
344.077	-65.28
344.46	-74.32
344.843	-52.17
345.226	-31.61
345.61	-33.19
345.993	-12.85
346.376	15.4
346.759	-9.46
347.142	26.24
347.525	46.58
347.908	63.76
348.291	76.41
348.674	97.43
349.057	107.6
349.44	127.03
349.823	162.28
350.206	150.76
350.588	197.99
350.971	188.5
351.354	232.79
351.737	241.83
352.119	252
352.502	278.89
352.884	260.13
353.267	290.42
353.65	296.97
354.032	303.98
354.414	311.66
354.797	316.18
355.179	314.14
355.562	343.07
355.944	327.93
356.326	313.92
356.709	319.79
357.091	331.77
357.473	343.75
357.855	339.68
358.238	342.62
358.62	334.93
359.002	333.35
359.384	329.29
359.766	339.91
360.148	349.17
360.53	341.26
360.912	330.19
361.294	326.35
361.676	345.56
362.057	317.53
362.439	329.74
362.821	313.47
363.203	320.02
363.584	325.9
363.966	319.57
364.348	321.6
364.729	330.87
365.111	324.54
365.493	331.77
365.874	302.62
366.256	289.96
366.637	325.22
367.019	310.53
367.4	317.99
367.781	289.74
368.163	315.73
368.544	292.68
368.925	312.34
369.306	343.07
369.688	341.26
370.069	321.83
370.45	303.07
370.831	309.17
371.212	309.85
371.593	318.21
371.974	322.28
372.355	309.62
372.736	296.97
373.117	324.31
373.498	331.09
373.879	322.28
374.26	304.65
374.641	315.95
375.021	306.91
375.402	315.5
375.783	314.82
376.163	322.28
376.544	313.24
376.925	317.53
377.305	324.31
377.686	321.38
378.066	318.66
378.447	333.8
378.827	329.06
379.208	350.53
379.588	320.47
379.968	336.74
380.349	326.12
380.729	320.92
381.109	336.06
381.489	328.16
381.87	319.12
382.25	343.3
382.63	323.18
383.01	331.32
383.39	343.3
383.77	345.56
384.15	318.66
384.53	322.51
384.91	367.25
385.29	355.95
385.67	361.6
386.049	337.42
386.429	348.49
386.809	338.78
387.189	350.08
387.568	356.63
387.948	348.49
388.328	355.5
388.707	372.67
389.087	361.37
389.466	384.65
389.846	350.3
390.225	380.81
390.605	386.23
390.984	384.88
391.363	366.8
391.743	384.42
392.122	379.68
392.501	379
392.881	381.26
393.26	379
393.639	390.53
394.018	390.07
394.397	372.67
394.776	377.87
395.155	391.43
395.534	379.91
395.913	394.37
396.292	399.11
396.671	397.53
397.05	396.85
397.429	404.99
397.808	409.51
398.186	396.85
398.565	404.31
398.944	401.37
399.323	415.84
399.701	388.49
400.08	417.42
400.458	409.06
400.837	396.18
401.215	434.59
401.594	416.29
401.972	416.29
402.351	426.23
402.729	435.05
403.107	440.92
403.486	447.25
403.864	465.33
404.242	444.31
404.62	442.28
404.999	451.32
405.377	463.74
405.755	450.86
406.133	452.45
406.511	472.11
406.889	486.34
407.267	490.18
407.645	493.8
408.023	486.57
408.401	498.55
408.779	500.58
409.156	508.72
409.534	528.15
409.912	522.27
410.29	550.52
410.667	531.54
411.045	572.22
411.422	571.31
411.8	562.27
412.178	560.69
412.555	601.59
412.933	582.39
413.31	589.62
413.687	612.22
414.065	629.84
414.442	637.75
414.819	634.14
415.197	634.59
415.574	664.87
415.951	651.54
416.328	677.07
416.705	651.76
417.082	694.93
417.46	710.74
417.837	703.74
418.214	694.47
418.591	726.34
418.967	724.98
419.344	738.09
419.721	775.38
420.098	759.56
420.475	768.37
420.852	756.84
421.228	784.64
421.605	787.58
421.982	830.29
422.358	838.65
422.735	828.93
423.111	874.58
423.488	877.29
423.864	904.19
424.241	894.02
424.617	937.63
424.994	946.67
425.37	932.21
425.746	951.87
426.123	978.31
426.499	975.6
426.875	987.12
427.251	1023.05
427.627	1047.23
428.003	1068.02
428.379	1054.01
428.756	1063.73
429.132	1074.58
429.507	1081.13
429.883	1121.35
430.259	1120.9
430.635	1149.83
431.011	1146.66
431.387	1168.13
431.763	1221.24
432.138	1193.67
432.514	1199.32
432.89	1218.08
433.265	1259.43
433.641	1253.78
434.016	1305.76
434.392	1327.68
434.767	1354.34
435.143	1358.86
435.518	1381.46
435.894	1392.99
436.269	1475.92
436.644	1458.07
437.02	1487.9
437.395	1492.87
437.77	1542.36
438.145	1558.41
438.52	1599.99
438.895	1650.83
439.271	1640.89
439.646	1683.6
440.021	1678.4
440.395	1715.92
440.77	1685.18
441.145	1723.6
441.52	1773.99
441.895	1767.21
442.27	1811.28
442.645	1820.77
443.019	1837.27
443.394	1846.31
443.769	1908
444.143	1840.43
444.518	1926.53
444.892	1918.62
445.267	1937.83
445.641	1964.72
446.016	1987.32
446.39	1983.93
446.764	1995.23
447.139	2001.11
447.513	2008.11
447.887	2030.48
448.262	2057.15
448.636	2083.82
449.01	2060.09
449.384	2093.76
449.758	2143.7
450.132	2146.41
450.506	2177.37
450.88	2203.81
451.254	2212.63
451.628	2239.52
452.002	2232.96
452.376	2260.99
452.75	2323.58
453.123	2304.6
453.497	2349.35
453.871	2350.7
454.244	2440.42
454.618	2421.43
454.992	2444.26
455.365	2439.74
455.739	2517.48
456.112	2557.93
456.486	2558.38
456.859	2583.92
457.232	2656.23
457.606	2603.58
457.979	2686.51
458.352	2693.06
458.725	2737.36
459.099	2725.15
459.472	2794.98
459.845	2819.84
460.218	2825.26
460.591	2881.53
460.964	2858.03
461.337	2960.85
461.71	2972.15
462.083	3014.41
462.456	3051.7
462.829	3035.88
463.201	3106.16
463.574	3086.05
463.947	3183.67
464.32	3204.01
464.692	3234.75
465.065	3229.1
465.438	3326.49
465.81	3336.66
466.183	3384.12
466.555	3471.58
466.928	3446.49
467.3	3447.17
467.672	3537.11
468.045	3560.61
468.417	3613.94
468.789	3613.04
469.161	3679.48
469.534	3747.5
469.906	3760.38
470.278	3879.47
470.65	3849.64
471.022	3926.48
471.394	3979.81
471.766	4028.17
472.138	4078.34
472.51	4103.42
472.882	4198.56
473.253	4222.29
473.625	4272.68
473.997	4380.48
474.369	4348.61
474.74	4425.45
475.112	4491.44
475.484	4593.81
475.855	4676.74
476.227	4687.36
476.598	4773.91
476.97	4821.82
477.341	4897.3
477.713	4976.17
478.084	4973.68
478.455	5140.68
478.827	5174.81
479.198	5261.36
479.569	5267.01
479.94	5438.3
480.311	5499.32
480.682	5522.59
481.053	5657.96
481.424	5697.05
481.795	5764.4
482.166	5881.91
482.537	5926.2
482.908	6003.26
483.279	6097.95
483.65	6211.39
484.021	6287.55
484.391	6430.59
484.762	6410.71
485.133	6426.3
485.503	6497.94
485.874	6659.74
486.244	6645.96
486.615	6788.55
486.985	6851.83
487.356	7003.23
487.726	6999.62
488.097	7075.77
488.467	7134.76
488.837	7295.66
489.207	7368.2
489.578	7404.58
489.948	7507.4
490.318	7565.93
490.688	7576.55
491.058	7733.16
491.428	7797.56
491.798	7848.18
492.168	7995.07
492.538	8012.7
492.908	8038.46
493.278	8169.98
493.648	8193.49
494.017	8260.83
494.387	8334.95
494.757	8377.89
495.126	8421.73
495.496	8501.5
495.866	8449.75
496.235	8529.07
496.605	8677.54
496.974	8652.68
497.344	8716.86
497.713	8763.41
498.082	8830.98
498.452	8878.89
498.821	8906.01
499.19	8886.57
499.559	9029.4
499.928	8990.75
500.298	9028.04
500.667	9096.96
501.036	9047.7
501.405	9213.12
501.774	9090.18
502.143	9257.41
502.512	9204.08
502.88	9269.16
503.249	9257.86
503.618	9307.35
503.987	9342.83
504.356	9339.9
504.724	9380.12
505.093	9438.65
505.462	9432.55
505.83	9474.81
506.199	9536.95
506.567	9601.58
506.936	9568.14
507.304	9683.16
507.672	9646.1
508.041	9606.56
508.409	9739.66
508.777	9740.79
509.145	9797.96
509.514	9725.87
509.882	9720.22
510.25	9840
510.618	9812.88
510.986	9837.74
511.354	9887
511.722	9975.36
512.09	9961.12
512.458	10011.06
512.826	9934.46
513.193	9974.23
513.561	9995.92
513.929	10029.6
514.297	10063.49
514.664	10202.47
515.032	10032.31
515.4	10142.59
515.767	10129.03
516.135	10164.51
516.502	10029.37
516.869	10265.52
517.237	10203.6
517.604	10148.91
517.972	10233.88
518.339	10188.46
518.706	10182.36
519.073	10214.67
519.44	10263.49
519.808	10227.56
520.175	10238.18
520.542	10293.99
520.909	10249.7
521.276	10274.33
521.643	10330.15
522.009	10382.13
522.376	10303.49
522.743	10329.93
523.11	10404.05
523.477	10447.89
523.843	10496.48
524.21	10462.58
524.577	10500.09
524.943	10468.23
525.31	10548.45
525.676	10548.9
526.043	10523.37
526.409	10532.63
526.776	10616.02
527.142	10550.71
527.508	10579.86
527.874	10559.98
528.241	10655.34
528.607	10610.82
528.973	10597.94
529.339	10562.69
529.705	10536.93
530.071	10629.13
530.437	10604.04
530.803	10609.47
531.169	10546.64
531.535	10508.68
531.901	10549.81
532.267	10480.66
532.632	10567.43
532.998	10584.61
533.364	10516.14
533.73	10534.21
534.095	10539.64
534.461	10441.11
534.826	10501
535.192	10485.18
535.557	10503.25
535.923	10409.92
536.288	10335.58
536.653	10429.13
537.019	10379.19
537.384	10388.68
537.749	10282.24
538.114	10283.37
538.479	10239.76
538.845	10206.77
539.21	10205.41
539.575	10151.85
539.94	10239.53
540.305	10179.42
540.67	10093.1
541.034	10121.57
541.399	10066.66
541.764	10025.98
542.129	10030.5
542.494	9969.26
542.858	10003.38
543.223	9943.72
543.587	9899.43
543.952	9881.8
544.316	9843.61
544.681	9866.21
545.045	9790.28
545.41	9828.02
545.774	9690.39
546.138	9683.16
546.503	9730.85
546.867	9635.71
547.231	9664.41
547.595	9649.94
547.959	9649.49
548.324	9633.67
548.688	9572.88
549.052	9532.66
549.416	9540.12
549.779	9498.54
550.143	9511.19
550.507	9404.98
550.871	9468.48
551.235	9397.97
551.599	9393.68
551.962	9404.75
552.326	9293.8
552.689	9290.63
553.053	9230.97
553.417	9285.66
553.78	9327.92
554.143	9188.26
554.507	9129.05
554.87	9178.32
555.234	9271.65
555.597	9177.41
555.96	9172.67
556.323	9145.32
556.686	9097.19
557.05	9122.5
557.413	9115.04
557.776	9089.05
558.139	9134.25
558.502	9038.66
558.865	9048.38
559.228	9088.6
559.59	9039.56
559.953	9101.03
560.316	9101.71
560.679	9066.23
561.041	9096.74
561.404	9121.82
561.767	9122.05
562.129	9062.39
562.492	9092.67
562.854	9013.35
563.217	9032.11
563.579	8989.85
563.941	9175.83
564.304	9107.13
564.666	9080.92
565.028	9074.82
565.39	9107.36
565.753	9213.57
566.115	9130.41
566.477	9120.47
566.839	9106.46
567.201	9129.96
567.563	9089.28
567.925	9191.65
568.287	9209.05
568.648	9190.52
569.01	9183.52
569.372	9216.51
569.734	9165.44
570.095	9248.82
570.457	9271.65
570.819	9255.83
571.18	9213.57
571.542	9235.94
571.903	9315.04
572.265	9278.2
572.626	9300.57
572.987	9376.96
573.349	9265.77
573.71	9315.49
574.071	9284.53
574.432	9303.96
574.794	9299.44
575.155	9348.71
575.516	9332.44
575.877	9414.02
576.238	9358.65
576.599	9430.97
576.96	9421.48
577.32	9439.33
577.681	9506.22
578.042	9473.23
578.403	9421.02
578.763	9483.39
579.124	9465.77
579.485	9498.31
579.845	9518.2
580.206	9505.99
580.566	9463.51
580.927	9564.75
581.287	9578.53
581.648	9534.47
582.008	9558.2
582.368	9562.71
582.728	9531.53
583.089	9511.87
583.449	9581.92
583.809	9537.86
584.169	9566.56
584.529	9597.29
584.889	9661.24
585.249	9636.39
585.609	9584.41
585.969	9631.87
586.329	9600.23
586.688	9616.95
587.048	9608.82
587.408	9591.41
587.768	9609.49
588.127	9604.52
588.487	9644.29
588.846	9720.68
589.206	9709.6
589.565	9675.93
589.925	9672.54
590.284	9704.86
590.643	9668.02
591.003	9744.4
591.362	9769.71
591.721	9689.94
592.08	9743.27
592.44	9792.99
592.799	9766.78
593.158	9751.64
593.517	9806.78
593.876	9800.22
594.235	9723.84
594.593	9819.66
594.952	9800.67
595.311	9742.6
595.67	9743.95
596.029	9857.85
596.387	9803.39
596.746	9821.92
597.104	9825.31
597.463	9767.68
597.822	9753.44
598.18	9768.81
598.538	9774.23
598.897	9834.12
599.255	9786.44
599.613	9878.19
599.972	9822.59
600.33	9838.41
600.688	9802.93
601.046	9837.96
601.404	9865.98
601.762	9869.37
602.12	9885.42
602.478	9890.39
602.836	9923.16
603.194	9858.75
603.552	9931.97
603.91	9814.01
604.268	9917.06
604.625	9843.39
604.983	9923.61
605.341	9850.39
605.698	9949.15
606.056	9944.4
606.413	9941.01
606.771	9928.35
607.128	9938.52
607.485	9858.53
607.843	9914.34
608.2	9891.07
608.557	9948.24
608.914	9925.87
609.272	9911.86
609.629	10035.7
609.986	10007.22
610.343	9971.52
610.7	10005.87
611.057	9989.14
611.414	9925.87
611.771	10045.41
612.127	10018.07
612.484	10035.7
612.841	10067.56
613.198	10050.84
613.554	9984.62
613.911	10059.2
614.267	10043.61
614.624	10072.31
614.98	10007.67
615.337	10098.29
615.693	10112.98
616.05	10089.93
616.406	10155.69
616.762	10014.68
617.118	10106.66
617.475	10082.48
617.831	10182.13
618.187	10137.84
618.543	10173.55
618.899	10162.25
619.255	10194.79
619.611	10140.78
619.967	10199.76
620.323	10217.39
620.678	10174.9
621.034	10140.33
621.39	10106.66
621.746	10067.56
622.101	10305.97
622.457	10178.52
622.812	10146.43
623.168	10213.77
623.523	10144.62
623.879	10194.79
624.234	10172.64
624.589	10245.63
624.945	10221.91
625.3	10213.32
625.655	10236.6
626.01	10168.57
626.365	10188.23
626.72	10147.33
627.075	10164.05
627.43	10147.11
627.785	10166.77
628.14	10154.11
628.495	10176.94
628.85	10127.22
629.205	10084.06
629.559	10149.82
629.914	10080.22
630.269	10128.35
630.623	10062.14
630.978	10057.84
631.332	10119.31
631.687	10053.78
632.041	10076.37
632.396	10040.44
632.75	10041.57
633.104	10086.32
633.459	9956.15
633.813	10024.4
634.167	9914.34
634.521	10004.74
634.875	10038.86
635.229	9957.96
635.583	9931.29
635.937	9952.99
636.291	9897.85
636.645	9899.43
636.999	9848.58
637.352	9829.15
637.706	9815.14
638.06	9884.29
638.413	9842.26
638.767	9823.95
639.121	9783.05
639.474	9800.45
639.828	9724.74
640.181	9763.84
640.534	9795.7
640.888	9786.66
641.241	9675.25
641.594	9764.07
641.947	9768.36
642.301	9666.21
642.654	9695.82
643.007	9795.02
643.36	9709.6
643.713	9686.33
644.066	9724.29
644.419	9655.82
644.771	9642.49
645.124	9537.18
645.477	9517.97
645.83	9466.22
646.182	9434.58
646.535	9400.91
646.888	9408.37
647.24	9362.04
647.593	9454.24
647.945	9363.4
648.298	9314.59
648.65	9383.06
649.002	9352.78
649.355	9360.91
649.707	9422.61
650.059	9384.87
650.411	9493.79
650.763	9486.56
651.115	9656.5
651.467	9559.32
651.819	9556.39
652.171	9589.61
652.523	9521.36
652.875	9490.17
653.227	9543.51
653.578	9571.53
653.93	9588.25
654.282	9512.32
654.633	9527.24
654.985	9505.77
655.337	9537.63
655.688	9597.97
656.039	9592.77
656.391	9513
656.742	9525.2
657.094	9558.2
657.445	9512.09
657.796	9538.53
658.147	9527.69
658.498	9594.35
658.849	9543.05
659.2	9586.89
659.551	9594.35
659.902	9628.48
660.253	9527.24
660.604	9604.75
660.955	9574.69
661.306	9565.65
661.656	9552.09
662.007	9614.01
662.358	9606.78
662.708	9621.02
663.059	9632.09
663.409	9544.64
663.76	9567.23
664.11	9602.94
664.461	9664.18
664.811	9574.47
665.161	9605.43
665.511	9559.1
665.862	9625.99
666.212	9603.62
666.562	9650.17
666.912	9579.66
667.262	9579.66
667.612	9603.17
667.962	9616.72
668.312	9576.05
668.662	9582.83
669.011	9543.51
669.361	9545.99
669.711	9525.88
670.06	9566.1
670.41	9567.69
670.76	9524.52
671.109	9613.33
671.459	9507.8
671.808	9561.81
672.157	9562.26
672.507	9431.42
672.856	9502.6
673.205	9462.38
673.554	9582.83
673.904	9510.51
674.253	9560.91
674.602	9513.45
674.951	9403.4
675.3	9327.47
675.649	9530.4
675.998	9564.3
676.346	9486.56
676.695	9536.27
677.044	9390.52
677.393	9435.03
677.741	9417.41
678.09	9433.23
678.438	9434.58
678.787	9395.94
679.135	9356.62
679.484	9296.96
679.832	9381.25
680.181	9343.29
680.529	9326.11
680.877	9275.94
681.225	9209.5
681.573	9354.81
681.922	9260.12
682.27	9267.58
682.618	9252.89
682.966	9182.61
683.314	9184.42
683.661	9176.51
684.009	9128.6
684.357	9101.03
684.705	9075.04
685.053	9152.1
685.4	9054.48
685.748	9035.27
686.095	9002.96
686.443	8978.32
686.79	8953.92
687.138	8987.36
687.485	8943.97
687.832	8902.39
688.18	8936.29
688.527	8899.46
688.874	8813.58
689.221	8807.93
689.568	8835.73
689.915	8789.85
690.262	8798.89
690.609	8750.08
690.956	8746.24
691.303	8627.37
691.65	8652
691.997	8673.7
692.344	8567.03
692.69	8581.72
693.037	8511.22
693.383	8447.94
693.73	8513.48
694.077	8415.17
694.423	8438.45
694.769	8434.16
695.116	8388.28
695.462	8346.25
695.808	8371.56
696.155	8358.23
696.501	8244.33
696.847	8308.74
697.193	8189.42
697.539	8265.12
697.885	8159.14
698.231	8160.27
698.577	8149.87
698.923	8059.93
699.269	7991
699.614	7995.3
699.96	7994.85
700.306	7991.23
700.651	7905.36
700.997	7923.44
701.342	7875.75
701.688	7822.65
702.033	7911.91
702.379	7849.31
702.724	7745.81
703.069	7793.04
703.415	7654.06
703.76	7687.06
704.105	7664.01
704.45	7674.63
704.795	7635.99
705.14	7645.25
705.485	7563.45
705.83	7626.04
706.175	7504.69
706.52	7522.09
706.865	7514.41
707.209	7458.14
707.554	7413.84
707.899	7443.45
708.243	7390.79
708.588	7403.9
708.932	7323.23
709.277	7329.78
709.621	7336.78
709.966	7301.53
710.31	7304.47
710.654	7214.98
710.998	7223.12
711.342	7292.27
711.687	7222.89
712.031	7147.86
712.375	7143.57
712.719	7151.48
713.063	7149.9
713.407	7107.86
713.75	7130.01
714.094	7131.59
714.438	7042.78
714.782	7076.68
715.125	7066.06
715.469	7112.38
715.812	7048.2
716.156	6944.7
716.499	7006.62
716.843	6947.87
717.186	6957.13
717.53	6942.9
717.873	6969.11
718.216	6922.33
718.559	6953.97
718.902	6840.3
719.246	6894.76
719.589	6831.49
719.932	6842.56
720.275	6831.26
720.617	6818.83
720.96	6855.67
721.303	6822
721.646	6800.75
721.989	6798.27
722.331	6788.32
722.674	6788.32
723.016	6808.21
723.359	6772.51
723.701	6820.19
724.044	6757.14
724.386	6732.28
724.729	6803.01
725.071	6746.74
725.413	6734.54
725.755	6749.91
726.097	6735.67
726.439	6673.53
726.782	6683.02
727.124	6763.01
727.465	6664.03
727.807	6621.32
728.149	6662.23
728.491	6647.76
728.833	6666.97
729.175	6703.35
729.516	6685.28
729.858	6680.53
730.199	6659.74
730.541	6728.21
730.882	6648.67
731.224	6684.6
731.565	6659.97
731.906	6625.62
732.248	6630.59
732.589	6598.95
732.93	6647.76
733.271	6623.58
733.612	6632.17
733.953	6679.4
734.294	6627.42
734.635	6601.44
734.976	6668.55
735.317	6600.98
735.658	6604.37
735.999	6656.8
736.339	6615.67
736.68	6715.11
737.021	6648.67
737.361	6631.04
737.702	6694.54
738.042	6671.72
738.383	6713.07
738.723	6664.94
739.063	6735.9
739.404	6699.74
739.744	6676.46
740.084	6725.05
740.424	6744.48
740.764	6672.4
741.104	6792.62
741.444	6744.03
741.784	6812.05
742.124	6783.35
742.464	6847.53
742.804	6819.74
743.143	6864.48
743.483	6843.92
743.823	6820.64
744.162	6874.2
744.502	6940.18
744.841	6906.29
745.181	6986.06
745.52	6989.45
745.86	7048.43
746.199	7100.41
746.538	7089.33
746.877	7158.26
747.216	7207.07
747.556	7149.44
747.895	7222.66
748.234	7304.92
748.573	7338.59
748.911	7351.93
749.25	7405.71
749.589	7436.22
749.928	7554.86
750.267	7616.78
750.605	7711.01
750.944	7759.6
751.283	7768.19
751.621	7922.08
751.96	7982.87
752.298	8079.82
752.636	8145.8
752.975	8213.37
753.313	8330.66
753.651	8458.34
753.989	8511.22
754.327	8607.03
754.666	8709.63
755.004	8839.34
755.342	8958.89
755.679	9126.12
756.017	9219.22
756.355	9443.62
756.693	9482.94
757.031	9675.03
757.368	9757.29
757.706	9959.31
758.044	10071.85
758.381	10220.1
758.719	10395.46
759.056	10584.38
759.394	10775.56
759.731	10858.5
760.068	11003.35
760.405	11231.15
760.743	11388.43
761.08	11597.92
761.417	11727.86
761.754	11868.64
762.091	12035.64
762.428	12189.76
762.765	12367.16
763.102	12633.82
763.438	12734.61
763.775	12943.87
764.112	13060.02
764.449	13320.36
764.785	13430.86
765.122	13641.48
765.458	13726
765.795	13920.79
