Data from hue_310_FLMS001491_66.txt Node
Date: Mon Feb 06 15:50:01 GMT 2017
User: dcchb
Spectrometer: FLMS00149
Trigger mode: 0
Integration Time (sec): 2.000000E-2
Scans to average: 10
Electric dark correction enabled: true
Nonlinearity correction enabled: false
Boxcar width: 0
XAxis mode: Wavelengths
Number of Pixels in Spectrum: 2048
>>>>>Begin Spectral Data<<<<<
341.393	-8.7
341.776	-8.7
342.16	-8.7
342.543	-67.46
342.927	-48.47
343.31	-63.61
343.693	-51.41
344.077	-68.81
344.46	-64.29
344.843	-47.34
345.226	-44.63
345.61	-56.61
345.993	-19.77
346.376	-3.28
346.759	12.54
347.142	30.17
347.525	54.8
347.908	63.16
348.291	54.12
348.674	103.39
349.057	101.58
349.44	136.38
349.823	139.32
350.206	160.33
350.588	186.55
350.971	196.49
351.354	214.34
351.737	240.11
352.119	257.73
352.502	236.26
352.884	267.68
353.267	292.76
353.65	287.56
354.032	293.21
354.414	306.32
354.797	309.26
355.179	336.15
355.562	316.94
355.944	313.33
356.326	340.67
356.709	321.23
357.091	330.95
357.473	332.53
357.855	343.38
358.238	337.73
358.62	336.15
359.002	322.59
359.384	328.24
359.766	336.83
360.148	333.66
360.53	351.29
360.912	321.46
361.294	339.31
361.676	335.47
362.057	335.47
362.439	330.5
362.821	309.48
363.203	332.53
363.584	328.92
363.966	325.53
364.348	333.44
364.729	309.94
365.111	303.38
365.493	318.07
365.874	322.59
366.256	319.43
366.637	316.26
367.019	309.94
367.4	323.04
367.781	311.29
368.163	302.48
368.544	297.51
368.925	311.74
369.306	331.18
369.688	323.27
370.069	315.36
370.45	311.74
370.831	297.51
371.212	314.68
371.593	307.45
371.974	319.65
372.355	311.07
372.736	300.9
373.117	316.26
373.498	296.38
373.879	317.62
374.26	328.01
374.641	294.79
375.021	323.49
375.402	309.03
375.783	290.05
376.163	317.17
376.544	333.21
376.925	320.1
377.305	326.66
377.686	332.31
378.066	333.89
378.447	311.74
378.827	341.12
379.208	352.87
379.588	348.58
379.968	339.09
380.349	313.55
380.729	320.78
381.109	319.2
381.489	345.87
381.87	349.93
382.25	337.05
382.63	322.14
383.01	340.44
383.39	328.92
383.77	337.05
384.15	344.06
384.53	338.86
384.91	337.73
385.29	351.74
385.67	351.97
386.049	341.12
386.429	331.4
386.809	357.84
387.189	338.64
387.568	344.74
387.948	347.67
388.328	348.13
388.707	365.53
389.087	349.03
389.466	342.48
389.846	359.88
390.225	356.26
390.605	353.1
390.984	359.43
391.363	362.82
391.743	370.5
392.122	347.9
392.501	361.46
392.881	383.15
393.26	365.3
393.639	348.35
394.018	361.91
394.397	368.01
394.776	376.37
395.155	359.65
395.534	369.37
395.913	371.18
396.292	388.8
396.671	370.5
397.05	367.79
397.429	373.21
397.808	391.06
398.186	391.06
398.565	411.18
398.944	407.79
399.323	398.52
399.701	414.11
400.08	414.57
400.458	400.1
400.837	394.45
401.215	397.62
401.594	405.07
401.972	397.62
402.351	420.21
402.729	412.98
403.107	427.9
403.486	424.73
403.864	396.71
404.242	438.07
404.62	414.57
404.999	427.67
405.377	420.89
405.755	429.93
406.133	436.71
406.511	429.03
406.889	452.3
407.267	443.27
407.645	447.11
408.023	454.34
408.401	451.85
408.779	441.23
409.156	483.26
409.534	463.38
409.912	478.97
410.29	488.46
410.667	494.79
411.045	483.26
411.422	497.05
411.8	500.66
412.178	534.56
412.555	539.31
412.933	529.82
413.31	545.18
413.687	554.45
414.065	531.4
414.442	537.73
414.819	580.66
415.197	569.14
415.574	556.48
415.951	587.44
416.328	575.92
416.705	604.62
417.082	594.67
417.46	605.07
417.837	619.76
418.214	640.1
418.591	621.11
418.967	645.97
419.344	636.93
419.721	642.58
420.098	667.44
420.475	657.27
420.852	652.75
421.228	669.02
421.605	680.32
421.982	675.35
422.358	688.46
422.735	710.15
423.111	696.37
423.488	728.23
423.864	729.13
424.241	745.18
424.617	729.36
424.994	764.39
425.37	737.95
425.746	758.06
426.123	763.03
426.499	788.79
426.875	789.24
427.251	824.27
427.627	828.34
428.003	798.28
428.379	783.37
428.756	844.16
429.132	849.36
429.507	840.32
429.883	864.95
430.259	855.91
430.635	872.18
431.011	880.32
431.387	877.38
431.763	924.16
432.138	907.89
432.514	896.59
432.89	916.7
433.265	944.95
433.641	959.41
434.016	949.69
434.392	958.96
434.767	1007.09
435.143	1006.87
435.518	977.26
435.894	1020.2
436.269	1026.3
436.644	1055.9
437.02	1080.54
437.395	1045.74
437.77	1070.14
438.145	1074.21
438.52	1084.38
438.895	1073.98
439.271	1097.71
439.646	1096.13
440.021	1128.9
440.395	1126.19
440.77	1087.09
441.145	1113.3
441.52	1147.88
441.895	1138.84
442.27	1155.11
442.645	1142.91
443.019	1149.01
443.394	1154.88
443.769	1175.22
444.143	1170.48
444.518	1200.31
444.892	1174.55
445.267	1195.56
445.641	1203.92
446.016	1227.65
446.39	1217.03
446.764	1227.65
447.139	1223.58
447.513	1212.51
447.887	1220.19
448.262	1237.14
448.636	1227.43
449.01	1200.31
449.384	1260.64
449.758	1255.45
450.132	1280.08
450.506	1298.61
450.88	1264.49
451.254	1269.68
451.628	1286.41
452.002	1276.01
452.376	1284.15
452.75	1305.84
453.123	1327.99
453.497	1309.91
453.871	1342.68
454.244	1359.63
454.618	1348.33
454.992	1361.43
455.365	1372.05
455.739	1380.19
456.112	1385.39
456.486	1369.79
456.859	1426.29
457.232	1425.39
457.606	1435.78
457.979	1416.8
458.352	1454.09
458.725	1465.61
459.099	1441.66
459.472	1486.85
459.845	1503.12
460.218	1510.13
460.591	1529.79
460.964	1508.55
461.337	1522.11
461.71	1539.28
462.083	1591.03
462.456	1577.7
462.829	1585.83
463.201	1591.48
463.574	1597.81
463.947	1597.36
464.32	1637.36
464.692	1643.69
465.065	1646.4
465.438	1625.83
465.81	1672.61
466.183	1678.03
466.555	1707.64
466.928	1686.62
467.3	1687.53
467.672	1728.88
468.045	1757.13
468.417	1766.85
468.789	1774.76
469.161	1806.39
469.534	1775.43
469.906	1786.51
470.278	1808.88
470.65	1852.95
471.022	1890.91
471.394	1902.66
471.766	1929.1
472.138	1930.01
472.51	1945.37
472.882	1975.2
473.253	1986.05
473.625	2000.51
473.997	2024.24
474.369	2046.39
474.74	2035.54
475.112	2073.5
475.484	2132.26
475.855	2133.16
476.227	2119.61
476.598	2161.86
476.97	2201.64
477.341	2200.96
477.713	2201.86
478.084	2244.35
478.455	2277.57
478.827	2287.06
479.198	2327.06
479.569	2381.07
479.94	2384.23
480.311	2407.28
480.682	2422.65
481.053	2466.71
481.424	2516.88
481.795	2500.61
482.166	2497.67
482.537	2557.79
482.908	2612.02
483.279	2584.68
483.65	2637.11
484.021	2661.96
484.391	2706.26
484.762	2707.39
485.133	2721.85
485.503	2757.33
485.874	2809.08
486.244	2829.42
486.615	2863.77
486.985	2869.19
487.356	2937.66
487.726	2930.88
488.097	2993.71
488.467	2981.28
488.837	3021.73
489.207	3075.74
489.578	3084.33
489.948	3133.59
490.318	3115.96
490.688	3162.52
491.058	3127.26
491.428	3206.81
491.798	3247.03
492.168	3259.24
492.538	3279.35
492.908	3258.33
493.278	3336.07
493.648	3369.29
494.017	3418.55
494.387	3381.94
494.757	3440.47
495.126	3451.55
495.496	3427.82
495.866	3478.44
496.235	3478.89
496.605	3478.89
496.974	3537.87
497.344	3551.66
497.713	3559.12
498.082	3588.72
498.452	3612
498.821	3615.61
499.19	3617.42
499.559	3651.32
499.928	3623.75
500.298	3720.47
500.667	3685.89
501.036	3645.44
501.405	3698.77
501.774	3695.16
502.143	3739.68
502.512	3730.64
502.88	3809.28
503.249	3783.29
503.618	3839.56
503.987	3866
504.356	3869.84
504.724	3809.5
505.093	3871.65
505.462	3858.32
505.83	3900.58
506.199	3898.77
506.567	3909.16
506.936	3907.13
507.304	3943.51
507.672	3951.42
508.041	3965.43
508.409	4018.76
508.777	4004.98
509.145	4027.8
509.514	4024.64
509.882	4034.81
510.25	4038.42
510.618	4015.83
510.986	4034.36
511.354	4069.16
511.722	4090.17
512.09	4174.01
512.458	4113.45
512.826	4155.48
513.193	4191.64
513.561	4143.73
513.929	4153.68
514.297	4208.14
514.664	4215.6
515.032	4225.54
515.4	4252.43
515.767	4251.3
516.135	4223.5
516.502	4229.61
516.869	4309.6
517.237	4301.24
517.604	4303.05
517.972	4345.08
518.339	4356.16
518.706	4334.46
519.073	4367.68
519.44	4378.98
519.808	4308.25
520.175	4376.72
520.542	4410.17
520.909	4434.8
521.276	4400.68
521.643	4462.59
522.009	4421.47
522.376	4491.29
522.743	4519.54
523.11	4511.41
523.477	4548.47
523.843	4585.98
524.21	4623.72
524.577	4658.52
524.943	4647.9
525.31	4655.13
525.676	4698.29
526.043	4728.58
526.409	4686.09
526.776	4761.12
527.142	4708.46
527.508	4737.62
527.874	4858.52
528.241	4819.2
528.607	4880.66
528.973	4879.76
529.339	4846.77
529.705	4950.27
530.071	4944.16
530.437	4997.95
530.803	5003.15
531.169	4994.56
531.535	5000.21
531.901	5050.6
532.267	5086.98
532.632	5044.5
532.998	5090.83
533.364	5088.79
533.73	5125.63
534.095	5172.41
534.461	5204.95
534.826	5191.16
535.192	5221.22
535.557	5270.26
535.923	5306.64
536.288	5317.26
536.653	5309.35
537.019	5256.7
537.384	5338.5
537.749	5380.54
538.114	5417.82
538.479	5395.23
538.845	5439.74
539.21	5409.24
539.575	5442.91
539.94	5475
540.305	5524.04
540.67	5495.79
541.034	5522
541.399	5569.91
541.764	5616.24
542.129	5634.32
542.494	5596.12
542.858	5637.7
543.223	5678.83
543.587	5699.4
543.952	5675.9
544.316	5754.54
544.681	5744.14
545.045	5780.75
545.41	5815.33
545.774	5819.17
546.138	5816.91
546.503	5876.57
546.867	5929.67
547.231	5893.07
547.595	5944.36
547.959	5950.92
548.324	6004.25
548.688	6017.36
549.052	6016.9
549.416	6039.73
549.779	6015.32
550.143	6093.06
550.507	6109.56
550.871	6152.72
551.235	6121.08
551.599	6183.45
551.962	6171.7
552.326	6177.58
552.689	6259.16
553.053	6232.94
553.417	6292.38
553.78	6279.95
554.143	6303
554.507	6281.98
554.87	6328.08
555.234	6384.13
555.597	6325.6
555.96	6389.78
556.323	6405.59
556.686	6387.74
557.05	6495.54
557.413	6443.79
557.776	6496.21
558.139	6484.01
558.502	6512.03
558.865	6590.9
559.228	6608.07
559.59	6579.38
559.953	6601.75
560.316	6704.8
560.679	6622.31
561.041	6668.41
561.404	6709.32
561.767	6747.73
562.129	6762.2
562.492	6758.13
562.854	6807.17
563.217	6768.75
563.579	6808.52
563.941	6849.2
564.304	6843.32
564.666	6875.86
565.028	6884.23
565.39	6900.72
565.753	6969.65
566.115	6954.51
566.477	6984.56
566.839	7046.71
567.201	7068.85
567.563	7053.26
567.925	7127.84
568.287	7147.27
568.648	7099.36
569.01	7185.01
569.372	7199.25
569.734	7223.88
570.095	7293.03
570.457	7313.59
570.819	7311.56
571.18	7397.88
571.542	7470.65
571.903	7461.84
572.265	7491.22
572.626	7487.6
572.987	7512.68
573.349	7526.92
573.71	7633.81
574.071	7674.49
574.432	7665.9
574.794	7849.4
575.155	7816.18
575.516	7869.51
575.877	8008.04
576.238	7937.53
576.599	8046.68
576.96	8140.92
577.32	8200.8
577.681	8283.29
578.042	8305.21
578.403	8402.38
578.763	8453.9
579.124	8619.32
579.485	8690.05
579.845	8841.01
580.206	8832.88
580.566	8913.32
580.927	9115.81
581.287	9273.32
581.648	9344.95
582.008	9549.92
582.368	9659.97
582.728	9758.27
583.089	9840.31
583.449	10066.29
583.809	10201.65
584.169	10364.59
584.529	10554.19
584.889	10738.14
585.249	10903.78
585.609	11014.06
585.969	11305.13
586.329	11522.3
586.688	11705.12
587.048	11887.48
587.408	12119.12
587.768	12343.29
588.127	12579.67
588.487	12839.78
588.846	13098.3
589.206	13221.91
589.565	13509.59
589.925	13802.69
590.284	13992.51
590.643	14270.92
591.003	14598.6
591.362	14915.2
591.721	15077
592.08	15328.3
592.44	15652.13
592.799	15992.69
593.158	16260.25
593.517	16558.32
593.876	16768.03
594.235	17074.47
594.593	17390.62
594.952	17734.79
595.311	17926.42
595.67	18348.33
596.029	18714.2
596.387	18966.85
596.746	19264.69
597.104	19370.23
597.463	19768.86
597.822	20074.61
598.18	20287.26
598.538	20556.41
598.897	20905.55
599.255	21128.6
599.613	21732.42
599.972	21819.65
600.33	22244.95
600.688	22403.37
601.046	22718.39
601.404	23128.32
601.762	23302.1
602.12	23618.48
602.478	23922.65
602.836	24262.75
603.194	24368.06
603.552	24638.34
603.91	24762.63
604.268	25222.27
604.625	25406
604.983	25722.83
605.341	25833.56
605.698	26150.16
606.056	26558.74
606.413	26701.33
606.771	27100.42
607.128	27264.93
607.485	27278.27
607.843	27673.06
608.2	28024.91
608.557	28292.7
608.914	28368.63
609.272	28695.4
609.629	28979.24
609.986	29221.04
610.343	29146.47
610.7	29638.66
611.057	29765.21
611.414	30092.43
611.771	30187.57
612.127	30494.45
612.484	30672.75
612.841	30875.23
613.198	30985.06
613.554	31106.64
613.911	31577.59
614.267	31496.01
614.624	31778.26
614.98	31853.29
615.337	32215.31
615.693	32230.45
616.05	32329.21
616.406	32762.19
616.762	32745.24
617.118	32791.57
617.475	33028.62
617.831	33237.88
618.187	33372.57
618.543	33571.43
618.899	33762.62
619.255	33941.14
619.611	33839.68
619.967	34031.76
620.323	34228.14
620.678	34393.33
621.034	34258.2
621.39	34354.69
621.746	34592.88
622.101	35003.03
622.457	34815.24
622.812	35006.88
623.168	35108.79
623.523	35272.41
623.879	35505.85
624.234	35278.96
624.589	35488.67
624.945	35487.32
625.3	35695.45
625.655	35815.44
626.01	35953.07
626.365	35960.52
626.72	35996.23
627.075	35942.44
627.43	36131.59
627.785	36093.18
628.14	36267.41
628.495	36441.87
628.85	36285.94
629.205	36226.73
629.559	36609.77
629.914	36458.59
630.269	36527.74
630.623	36431.47
630.978	36407.52
631.332	36587.17
631.687	36688.64
632.041	36546.5
632.396	36654.06
632.75	36634.4
633.104	36632.37
633.459	36574.29
633.813	36647.28
634.167	36703.33
634.521	36817
634.875	36870.56
635.229	36756.66
635.583	36698.36
635.937	36671.47
636.291	36758.92
636.645	36794.17
636.999	36650.22
637.352	37026.48
637.706	36672.37
638.06	36878.92
638.413	36778.81
638.767	36819.26
639.121	36820.84
639.474	36754.17
639.828	36671.24
640.181	36779.48
640.534	36960.27
640.888	36811.12
641.241	36561.41
641.594	36660.39
641.947	36842.76
642.301	36717.11
642.654	36834.62
643.007	36760.05
643.36	36765.7
643.713	36667.17
644.066	36834.62
644.419	36597.34
644.771	36330.23
645.124	36134.98
645.477	36139.73
645.83	35786.97
646.182	35800.98
646.535	35769.34
646.888	35895.21
647.24	35579.29
647.593	35797.59
647.945	35777.7
648.298	35606.63
648.65	35591.04
649.002	35510.14
649.355	35604.6
649.707	35565.05
650.059	35923.69
650.411	36016.34
650.763	36311.7
651.115	36480.51
651.467	36375.2
651.819	36421.53
652.171	36326.39
652.523	36340.85
652.875	36299.05
653.227	36160.52
653.578	36425.14
653.93	36307.18
654.282	36066.96
654.633	36133.4
654.985	36191.25
655.337	36260.85
655.688	36287.75
656.039	36397.35
656.391	36042.33
656.742	35987.64
657.094	36061.54
657.445	36246.84
657.796	36093.85
658.147	36141.76
658.498	36186.51
658.849	36199.16
659.2	36089.33
659.551	36084.36
659.902	36179.73
660.253	36141.31
660.604	36224.47
660.955	36056.34
661.306	35995.1
661.656	36059.96
662.007	36050.46
662.358	36010.92
662.708	35913.74
663.059	35975.89
663.409	35817.93
663.76	35941.54
664.11	36011.82
664.461	36076.68
664.811	36054.98
665.161	36057.92
665.511	35875.1
665.862	35998.71
666.212	36079.62
666.562	36099.28
666.912	36076.68
667.262	35981.31
667.612	36020.63
667.962	36033.29
668.312	35782.45
668.662	36094.76
669.011	35958.94
669.361	35904.48
669.711	35870.13
670.06	35882.79
670.41	35852.28
670.76	35838.49
671.109	36031.93
671.459	35846.4
671.808	35885.27
672.157	35925.95
672.507	35648.22
672.856	35640.98
673.205	35813.18
673.554	35821.54
673.904	35509.46
674.253	35875.1
674.602	35669.23
674.951	35125.52
675.3	34953.09
675.649	35556.47
675.998	35542.46
676.346	35576.35
676.695	35700.87
677.044	35397.37
677.393	35529.8
677.741	35625.39
678.09	35542.23
678.438	35350.82
678.787	35551.95
679.135	35561.44
679.484	35226.31
679.832	35518.73
680.181	35210.03
680.529	35394.44
680.877	35219.07
681.225	35306.76
681.573	35419.07
681.922	35245.97
682.27	35090.94
682.618	35111.05
682.966	34989.25
683.314	35064.95
683.661	35017.05
684.009	34788.58
684.357	34751.29
684.705	34775.47
685.053	34702.25
685.4	34637.62
685.748	34575.48
686.095	34546.78
686.443	34367.57
686.79	34347.68
687.138	34459.77
687.485	34411.41
687.832	34210.74
688.18	34301.81
688.527	34164.41
688.874	34012.55
689.221	34029.95
689.568	33910.63
689.915	33955.38
690.262	33823.4
690.609	33773.91
690.956	33835.61
691.303	33757.19
691.65	33645.1
691.997	33550.64
692.344	33397.2
692.69	33258.22
693.037	33369.18
693.383	32954.27
693.73	33220.71
694.077	33013.48
694.423	32892.58
694.769	32876.54
695.116	32792.7
695.462	32743.88
695.808	32624.34
696.155	32828.63
696.501	32450.33
696.847	32512.7
697.193	32391.58
697.539	32406.49
697.885	32202.43
698.231	32029.55
698.577	32084.02
698.923	31990.68
699.269	31831.82
699.614	31729.45
699.96	31611.03
700.306	31760.86
700.651	31480.42
700.997	31590.47
701.342	31384.37
701.688	31437.7
702.033	31336.24
702.379	31266.64
702.724	31150.03
703.069	31424.6
703.415	31016.02
703.76	30859.87
704.105	31057.38
704.45	30829.81
704.795	30623.26
705.14	30601.57
705.485	30542.13
705.83	30514.34
706.175	30505.98
706.52	30428.69
706.865	30324.29
707.209	30137.17
707.554	30226.44
707.899	30250.84
708.243	29920
708.588	29903.06
708.932	29800.23
709.277	29823.51
709.621	29809.5
709.966	29691.08
710.31	29785.54
710.654	29423.52
710.998	29610.18
711.342	29476.63
711.687	29268.5
712.031	29261.94
712.375	29168.61
712.719	29112.57
713.063	29105.79
713.407	29224.43
713.75	29064.66
714.094	29050.42
714.438	28863.08
714.782	29017.43
715.125	28914.61
715.469	28902.86
715.812	28749.19
716.156	28635.29
716.499	28547.38
716.843	28601.39
717.186	28463.32
717.53	28564.79
717.873	28531.11
718.216	28588.51
718.559	28400.5
718.902	28178.36
719.246	28233.27
719.589	28158.47
719.932	28022.43
720.275	28042.99
720.617	28082.54
720.96	27894.97
721.303	27967.51
721.646	27920.28
721.989	27830.79
722.331	27869.66
722.674	27705.6
723.016	27772.26
723.359	27773.39
723.701	27802.09
724.044	27467.87
724.386	27475.77
724.729	27563.68
725.071	27447.53
725.413	27474.64
725.755	27419.73
726.097	27338.15
726.439	27252.28
726.782	27214.54
727.124	27210.7
727.465	27057.71
727.807	27090.7
728.149	27069.01
728.491	27078.05
728.833	27116.46
729.175	26963.25
729.516	26811.39
729.858	26799.41
730.199	26918.95
730.541	26685.96
730.882	26793.31
731.224	26831.95
731.565	26565.29
731.906	26566.65
732.248	26497.5
732.589	26543.82
732.93	26470.38
733.271	26420.21
733.612	26368.01
733.953	26480.09
734.294	26357.16
734.635	26322.81
734.976	26298.63
735.317	26127.56
735.658	26213.21
735.999	26136.6
736.339	26156.94
736.68	26190.38
737.021	26129.82
737.361	25944.29
737.702	26101.35
738.042	25983.16
738.383	25962.37
738.723	25937.96
739.063	25864.97
739.404	25905.87
739.744	25816.61
740.084	25707.46
740.424	25699.55
740.764	25785.42
741.104	25802.6
741.444	25516.73
741.784	25482.83
742.124	25584.75
742.464	25494.58
742.804	25396.73
743.143	25374.81
743.483	25413.23
743.823	25260.69
744.162	25231.99
744.502	25252.1
744.841	25208.49
745.181	25352.44
745.52	25202.61
745.86	25169.85
746.199	25056.63
746.538	25080.13
746.877	25064.54
747.216	24996.97
747.556	24916.97
747.895	24918.78
748.234	24787.94
748.573	24708.16
748.911	24699.58
749.25	24731.21
749.589	24631.56
749.928	24607.15
750.267	24601.95
750.605	24545
750.944	24562.86
751.283	24448.51
751.621	24479.7
751.96	24338.46
752.298	24376.42
752.636	24367.38
752.975	24104.34
753.313	24107.05
753.651	24281.51
753.989	24062.98
754.327	24148.86
754.666	23940.05
755.004	23944.12
755.342	23905.93
755.679	23881.52
756.017	23743.44
756.355	23837
756.693	23630.68
757.031	23710.22
757.368	23585.03
757.706	23481.3
758.044	23547.52
758.381	23485.82
758.719	23376.67
759.056	23412.83
759.394	23188.2
759.731	23158.37
