Data from hue_220_FLMS001491_00096.txt Node
Date: Tue Feb 07 16:40:12 GMT 2017
User: dcchb
Spectrometer: FLMS00149
Trigger mode: 0
Integration Time (sec): 2.000000E-2
Scans to average: 10
Electric dark correction enabled: true
Nonlinearity correction enabled: false
Boxcar width: 0
XAxis mode: Wavelengths
Number of Pixels in Spectrum: 2048
>>>>>Begin Spectral Data<<<<<
341.393	-16.19
341.776	-16.19
342.16	-16.19
342.543	-51.89
342.927	-73.13
343.31	-76.07
343.693	-49.86
344.077	-66.81
344.46	-67.71
344.843	-62.51
345.226	-32.46
345.61	-38.11
345.993	-12.12
346.376	-7.6
346.759	1.21
347.142	12.06
347.525	45.28
347.908	42.12
348.291	73.53
348.674	107.43
349.057	131.61
349.44	122.57
349.823	125.05
350.206	156.69
350.588	190.81
350.971	208.89
351.354	219.06
351.737	240.76
352.119	238.04
352.502	240.53
352.884	261.09
353.267	259.96
353.65	293.86
354.032	282.34
354.414	290.47
354.797	315.56
355.179	308.78
355.562	309.46
355.944	319.62
356.326	324.82
356.709	318.72
357.091	317.59
357.473	321.43
357.855	323.92
358.238	330.02
358.62	320.75
359.002	318.72
359.384	333.86
359.766	337.25
360.148	321.21
360.53	323.47
360.912	340.64
361.294	309.68
361.676	337.48
362.057	327.31
362.439	318.27
362.821	334.31
363.203	316.01
363.584	323.01
363.966	332.28
364.348	321.43
364.729	291.38
365.111	306.29
365.493	308.1
365.874	305.39
366.256	304.94
366.637	307.2
367.019	286.86
367.4	315.33
367.781	281.43
368.163	301.77
368.544	291.38
368.925	325.95
369.306	315.78
369.688	320.3
370.069	289.79
370.45	304.94
370.831	306.97
371.212	308.33
371.593	300.19
371.974	295.44
372.355	318.04
372.736	314.2
373.117	329.57
373.498	296.8
373.879	324.82
374.26	306.07
374.641	311.04
375.021	313.3
375.402	284.37
375.783	319.17
376.163	321.88
376.544	316.01
376.925	318.27
377.305	332.05
377.686	312.39
378.066	319.17
378.447	309.23
378.827	351.26
379.208	321.66
379.588	315.56
379.968	335.22
380.349	322.56
380.729	324.82
381.109	323.24
381.489	321.66
381.87	328.21
382.25	330.7
382.63	341.32
383.01	332.51
383.39	337.03
383.77	330.92
384.15	344.03
384.53	331.83
384.91	344.48
385.29	317.82
385.67	345.16
386.049	351.26
386.429	333.18
386.809	323.47
387.189	338.61
387.568	344.26
387.948	347.65
388.328	363.69
388.707	347.65
389.087	362.34
389.466	342.45
389.846	337.25
390.225	357.36
390.605	351.94
390.984	368.66
391.363	364.59
391.743	364.37
392.122	368.44
392.501	366.85
392.881	379.51
393.26	364.37
393.639	374.76
394.018	369.11
394.397	370.7
394.776	373.41
395.155	367.08
395.534	371.15
395.913	367.76
396.292	397.59
396.671	391.26
397.05	378.15
397.429	370.02
397.808	377.48
398.186	372.5
398.565	418.15
398.944	393.29
399.323	387.65
399.701	399.17
400.08	401.2
400.458	391.26
400.837	404.59
401.215	408.44
401.594	401.88
401.972	411.15
402.351	392.84
402.729	428.55
403.107	440.3
403.486	418.38
403.864	434.88
404.242	420.64
404.62	417.93
404.999	431.94
405.377	423.58
405.755	440.3
406.133	443.69
406.511	437.81
406.889	473.52
407.267	447.08
407.645	472.16
408.023	446.63
408.401	472.16
408.779	480.07
409.156	487.76
409.534	485.95
409.912	499.73
410.29	490.69
410.667	496.57
411.045	516.23
411.422	512.39
411.8	514.65
412.178	526.17
412.555	549
412.933	529.79
413.31	569.34
413.687	557.58
414.065	589.67
414.442	595.78
414.819	598.26
415.197	591.03
415.574	606.85
415.951	604.81
416.328	605.04
416.705	613.18
417.082	616.34
417.46	625.15
417.837	640.29
418.214	674.64
418.591	666.51
418.967	686.39
419.344	653.4
419.721	700.18
420.098	691.14
420.475	717.35
420.852	730.46
421.228	734.75
421.605	751.03
421.982	760.29
422.358	740.18
422.735	765.49
423.111	777.92
423.488	809.1
423.864	795.32
424.241	839.61
424.617	830.8
424.994	834.41
425.37	865.82
425.746	862.21
426.123	875.09
426.499	899.5
426.875	894.3
427.251	921.64
427.627	947.86
428.003	969.78
428.379	976.1
428.756	970.23
429.132	970.45
429.507	975.2
429.883	995.99
430.259	1026.95
430.635	1021.98
431.011	1036.89
431.387	1046.84
431.763	1050.68
432.138	1087.06
432.514	1094.52
432.89	1094.29
433.265	1134.29
433.641	1168.87
434.016	1169.55
434.392	1194.63
434.767	1248.19
435.143	1219.04
435.518	1233.05
435.894	1260.62
436.269	1283.21
436.644	1314.63
437.02	1328.64
437.395	1338.58
437.77	1371.8
438.145	1400.27
438.52	1411.12
438.895	1419.93
439.271	1449.31
439.646	1468.97
440.021	1483.66
440.395	1508.29
440.77	1532.93
441.145	1525.24
441.52	1564.11
441.895	1551.46
442.27	1603.88
442.645	1603.43
443.019	1640.49
443.394	1636.88
443.769	1650.21
444.143	1635.07
444.518	1661.51
444.892	1671.68
445.267	1680.72
445.641	1708.29
446.016	1730.89
446.39	1747.61
446.764	1751.23
447.139	1781.05
447.513	1808.62
447.887	1805.69
448.262	1819.7
448.636	1846.14
449.01	1836.19
449.384	1846.82
449.758	1833.03
450.132	1889.3
450.506	1893.82
450.88	1901.5
451.254	1894.27
451.628	1939.92
452.002	1957.32
452.376	1983.31
452.75	2021.05
453.123	1978.11
453.497	2032.57
453.871	2029.64
454.244	2093.14
454.618	2079.13
454.992	2120.71
455.365	2107.6
455.739	2184.43
456.112	2188.73
456.486	2203.64
456.859	2232.34
457.232	2290.42
457.606	2240.48
457.979	2287.48
458.352	2357.31
458.725	2334.49
459.099	2350.98
459.472	2396.86
459.845	2422.17
460.218	2427.37
460.591	2476.86
460.964	2453.58
461.337	2507.59
461.71	2517.98
462.083	2585.78
462.456	2592.33
462.829	2590.3
463.201	2644.31
463.574	2626.46
463.947	2647.7
464.32	2747.81
464.692	2767.7
465.065	2795.04
465.438	2825.77
465.81	2851.31
466.183	2861.93
466.555	2877.3
466.928	2957.3
467.3	2929.5
467.672	3002.72
468.045	3035.49
468.417	3029.16
468.789	3082.94
469.161	3119.78
469.534	3154.58
469.906	3150.74
470.278	3231.86
470.65	3243.16
471.022	3328.81
471.394	3380.56
471.766	3396.38
472.138	3405.64
472.51	3472.08
472.882	3505.3
473.253	3527.68
473.625	3574
473.997	3680.44
474.369	3682.7
474.74	3711.17
475.112	3804.5
475.484	3832.53
475.855	3914.78
476.227	3910.04
476.598	4004.73
476.97	4049.47
477.341	4094.21
477.713	4131.28
478.084	4132.41
478.455	4254.44
478.827	4271.61
479.198	4400.42
479.569	4405.84
479.94	4509.8
480.311	4587.99
480.682	4651.94
481.053	4708.21
481.424	4734.42
481.795	4835.89
482.166	4831.82
482.537	4921.09
482.908	4995.89
483.279	5037.92
483.65	5089.44
484.021	5156.79
484.391	5244.92
484.762	5256.9
485.133	5314.3
485.503	5377.8
485.874	5420.96
486.244	5506.61
486.615	5581.18
486.985	5644
487.356	5744.57
487.726	5727.84
488.097	5889.2
488.467	5914.05
488.837	6008.74
489.207	6047.84
489.578	6118.79
489.948	6154.5
490.318	6179.13
490.688	6214.61
491.058	6355.17
491.428	6379.58
491.798	6401.5
492.168	6560.36
492.538	6573.92
492.908	6586.8
493.278	6684.43
493.648	6650.76
494.017	6797.19
494.387	6787.02
494.757	6860.02
495.126	6920.81
495.496	6914.48
495.866	6929.85
496.235	7021.14
496.605	7053.46
496.974	7066.79
497.344	7123.51
497.713	7156.05
498.082	7182.04
498.452	7224.53
498.821	7280.8
499.19	7278.99
499.559	7383.62
499.928	7422.49
500.298	7395.14
500.667	7415.48
501.036	7363.51
501.405	7460.45
501.774	7475.59
502.143	7516.05
502.512	7503.16
502.88	7598.08
503.249	7565.31
503.618	7611.18
503.987	7613.67
504.356	7697.06
504.724	7713.1
505.093	7708.36
505.462	7699.54
505.83	7767.56
506.199	7745.42
506.567	7884.4
506.936	7907.67
507.304	7887.11
507.672	7935.7
508.041	7900.67
508.409	7942.02
508.777	7998.29
509.145	8045.3
509.514	8004.62
509.882	8068.12
510.25	8013.21
510.618	8026.31
510.986	8064.05
511.354	8082.13
511.722	8142.24
512.09	8190.83
512.458	8169.14
512.826	8183.6
513.193	8191.73
513.561	8190.83
513.929	8246.87
514.297	8269.7
514.664	8276.03
515.032	8278.29
515.4	8297.04
515.767	8257.72
516.135	8308.34
516.502	8248.68
516.869	8371.62
517.237	8355.57
517.604	8283.03
517.972	8332.75
518.339	8432.86
518.706	8326.19
519.073	8322.13
519.44	8392.41
519.808	8419.98
520.175	8386.98
520.542	8407.77
520.909	8463.37
521.276	8459.98
521.643	8417.94
522.009	8421.11
522.376	8529.35
522.743	8466.53
523.11	8567.32
523.477	8562.35
523.843	8572.74
524.21	8631.04
524.577	8636.69
524.943	8668.33
525.31	8647.77
525.676	8650.25
526.043	8610.93
526.409	8678.27
526.776	8718.27
527.142	8644.15
527.508	8757.59
527.874	8763.02
528.241	8751.27
528.607	8761.89
528.973	8749.69
529.339	8660.87
529.705	8759.4
530.071	8812.28
530.437	8758.95
530.803	8758.95
531.169	8790.59
531.535	8746.52
531.901	8752.85
532.267	8734.32
532.632	8729.12
532.998	8704.26
533.364	8743.36
533.73	8676.47
534.095	8751.04
534.461	8730.48
534.826	8767.99
535.192	8715.56
535.557	8765.28
535.923	8711.72
536.288	8662
536.653	8698.84
537.019	8588.56
537.384	8636.24
537.749	8684.38
538.114	8561.44
538.479	8642.57
538.845	8577.94
539.21	8538.62
539.575	8565.96
539.94	8557.83
540.305	8558.73
540.67	8545.62
541.034	8543.81
541.399	8449.13
541.764	8510.37
542.129	8475.57
542.494	8424.04
542.858	8484.16
543.223	8370.26
543.587	8402.58
543.952	8378.85
544.316	8317.83
544.681	8342.92
545.045	8392.86
545.41	8335.68
545.774	8316.25
546.138	8313.09
546.503	8285.52
546.867	8245.07
547.231	8307.44
547.595	8246.87
547.959	8206.2
548.324	8171.4
548.688	8174.79
549.052	8110.15
549.416	8190.38
549.779	8158.97
550.143	8109.25
550.507	8135.24
550.871	8144.05
551.235	8089.36
551.599	8050.72
551.962	8055.92
552.326	8004.39
552.689	8058.18
553.053	8037.84
553.417	8038.97
553.78	8008.01
554.143	7944.51
554.507	8031.96
554.87	7983.83
555.234	8059.31
555.597	7936.83
555.96	8008.01
556.323	8075.8
556.686	7976.6
557.05	7964.4
557.413	7947.45
557.776	7951.97
558.139	7972.76
558.502	7932.53
558.865	7925.3
559.228	7997.16
559.59	7973.66
559.953	7940.21
560.316	8004.39
560.679	7955.81
561.041	8028.35
561.404	7986.99
561.767	8001.68
562.129	7959.88
562.492	7966.65
562.854	7998.29
563.217	7985.41
563.579	8023.15
563.941	8031.74
564.304	7989.71
564.666	8073.54
565.028	8068.8
565.39	8050.95
565.753	8081
566.115	8085.52
566.477	8123.26
566.839	8116.48
567.201	8156.71
567.563	8146.31
567.925	8196.48
568.287	8092.98
568.648	8191.73
569.01	8168.01
569.372	8238.29
569.734	8184.5
570.095	8277.16
570.457	8257.04
570.819	8203.03
571.18	8206.65
571.542	8318.96
571.903	8271.51
572.265	8298.85
572.626	8380.66
572.987	8334.78
573.349	8371.62
573.71	8358.51
574.071	8343.82
574.432	8408.45
574.794	8466.98
575.155	8404.16
575.516	8389.02
575.877	8467.66
576.238	8482.57
576.599	8518.05
576.96	8504.27
577.32	8515.34
577.681	8605.51
578.042	8570.93
578.403	8533.42
578.763	8569.8
579.124	8558.5
579.485	8573.87
579.845	8569.12
580.206	8545.85
580.566	8613.87
580.927	8615.45
581.287	8679.18
581.648	8618.16
582.008	8752.4
582.368	8727.76
582.728	8754.66
583.089	8784.71
583.449	8745.17
583.809	8749.01
584.169	8766.63
584.529	8739.97
584.889	8844.6
585.249	8790.59
585.609	8773.41
585.969	8831.72
586.329	8789.01
586.688	8861.32
587.048	8805.95
587.408	8930.25
587.768	8843.92
588.127	8876.24
588.487	8864.26
588.846	8954.65
589.206	8882.56
589.565	8918.49
589.925	8969.79
590.284	8976.8
590.643	8971.15
591.003	9034.2
591.362	9026.97
591.721	8939.74
592.08	9011.37
592.44	9100.64
592.799	9024.25
593.158	9016.34
593.517	9061.54
593.876	9088.89
594.235	9073.07
594.593	9051.82
594.952	9106.29
595.311	9056.34
595.67	9139.05
596.029	9145.38
596.387	9085.95
596.746	9158.71
597.104	9146.96
597.463	9121.2
597.822	9153.97
598.18	9088.43
598.538	9202.33
598.897	9222.67
599.255	9113.97
599.613	9220.41
599.972	9164.36
600.33	9212.95
600.688	9156.45
601.046	9156.91
601.404	9235.32
601.762	9185.38
602.12	9240.75
602.478	9214.53
602.836	9254.76
603.194	9283.46
603.552	9263.57
603.91	9213.63
604.268	9289.11
604.625	9208.2
604.983	9280.97
605.341	9237.81
605.698	9224.47
606.056	9268.77
606.413	9224.47
606.771	9297.92
607.128	9283.23
607.485	9274.42
607.843	9195.32
608.2	9311.93
608.557	9406.17
608.914	9263.34
609.272	9318.94
609.629	9419.5
609.986	9380.86
610.343	9410.46
610.7	9407.52
611.057	9459.5
611.414	9405.26
611.771	9446.62
612.127	9421.98
612.484	9457.69
612.841	9396
613.198	9431.93
613.554	9454.75
613.911	9510.8
614.267	9489.33
614.624	9469.44
614.98	9451.14
615.337	9467.18
615.693	9457.92
616.05	9521.87
616.406	9536.78
616.762	9531.36
617.118	9498.37
617.475	9524.13
617.831	9548.76
618.187	9538.59
618.543	9652.49
618.899	9556.9
619.255	9547.63
619.611	9602.77
619.967	9587.18
620.323	9628.31
620.678	9571.36
621.034	9550.12
621.39	9558.93
621.746	9577.23
622.101	9657.23
622.457	9635.76
622.812	9578.59
623.168	9626.5
623.523	9636.22
623.879	9672.82
624.234	9586.27
624.589	9639.38
624.945	9594.86
625.3	9626.95
625.655	9573.39
626.01	9601.19
626.365	9603.45
626.72	9575.43
627.075	9610.23
627.43	9536.56
627.785	9541.98
628.14	9562.55
628.495	9606.39
628.85	9541.98
629.205	9521.87
629.559	9612.04
629.914	9551.02
630.269	9543.79
630.623	9544.69
630.978	9512.6
631.332	9504.02
631.687	9538.14
632.041	9491.36
632.396	9516.67
632.75	9497.46
633.104	9534.75
633.459	9482.77
633.813	9449.33
634.167	9508.08
634.521	9468.54
634.875	9424.47
635.229	9355.77
635.583	9350.8
635.937	9393.51
636.291	9388.54
636.645	9399.16
636.999	9390.12
637.352	9439.16
637.706	9317.35
638.06	9399.84
638.413	9316
638.767	9239.62
639.121	9234.19
639.474	9238.94
639.828	9253.17
640.181	9279.39
640.534	9254.53
640.888	9235.1
641.241	9228.32
641.594	9281.42
641.947	9274.42
642.301	9165.72
642.654	9251.82
643.007	9212.95
643.36	9205.04
643.713	9228.09
644.066	9157.13
644.419	9165.95
644.771	9084.82
645.124	9020.41
645.477	8949.91
645.83	8992.16
646.182	8925.27
646.535	8875.33
646.888	8861.55
647.24	8868.78
647.593	8933.64
647.945	8773.19
648.298	8853.86
648.65	8920.53
649.002	8882.11
649.355	8864.71
649.707	8827.42
650.059	8885.05
650.411	9017.93
650.763	8955.33
651.115	9088.66
651.467	9070.81
651.819	9033.29
652.171	9079.39
652.523	9089.11
652.875	9043.24
653.227	8984.26
653.578	9051.6
653.93	9083.46
654.282	9049.34
654.633	8950.36
654.985	9062.45
655.337	9121.65
655.688	9023.8
656.039	9113.52
656.391	8941.77
656.742	9043.91
657.094	9085.95
657.445	9090.92
657.796	8987.65
658.147	9073.29
658.498	9024.48
658.849	8992.62
659.2	9026.29
659.551	9043.24
659.902	9100.64
660.253	9038.27
660.604	9104.93
660.955	9032.84
661.306	9085.5
661.656	9008.21
662.007	9048.89
662.358	9053.86
662.708	9027.42
663.059	9123.46
663.409	9037.36
663.76	9113.07
664.11	9120.75
664.461	9112.39
664.811	9058.83
665.161	9107.19
665.511	9061.77
665.862	9105.83
666.212	9095.44
666.562	9187.19
666.912	9117.59
667.262	9118.72
667.612	9080.98
667.962	9075.33
668.312	9073.97
668.662	9102.22
669.011	9101.99
669.361	9121.65
669.711	9046.85
670.06	9058.38
670.41	9029.68
670.76	9068.77
671.109	9101.54
671.459	9005.27
671.808	9016.34
672.157	9045.72
672.507	8973.86
672.856	9050.24
673.205	9018.6
673.554	9049.34
673.904	9001.43
674.253	9031.03
674.602	8974.31
674.951	8816.35
675.3	8764.6
675.649	8971.83
675.998	8934.99
676.346	8930.47
676.695	8973.86
677.044	8928.89
677.393	8880.98
677.741	8989.45
678.09	8910.36
678.438	8891.83
678.787	8936.57
679.135	8939.06
679.484	8863.13
679.832	8952.84
680.181	8814.09
680.529	8867.65
680.877	8816.12
681.225	8747.43
681.573	8785.39
681.922	8716.92
682.27	8719.4
682.618	8738.16
682.966	8731.83
683.314	8683.47
683.661	8665.39
684.009	8673.75
684.357	8589.01
684.705	8639.18
685.053	8601.21
685.4	8624.72
685.748	8587.88
686.095	8573.87
686.443	8504.27
686.79	8518.05
687.138	8492.74
687.485	8488
687.832	8468.79
688.18	8439.18
688.527	8400.09
688.874	8400.99
689.221	8415.23
689.568	8363.03
689.915	8339.3
690.262	8366.64
690.609	8272.41
690.956	8251.39
691.303	8223.15
691.65	8207.1
691.997	8205.97
692.344	8104.73
692.69	8108.57
693.037	8069.48
693.383	8043.94
693.73	8080.1
694.077	7935.92
694.423	8015.92
694.769	7969.37
695.116	7941.12
695.462	7854.79
695.808	7858.64
696.155	7933.21
696.501	7807.79
696.847	7838.07
697.193	7788.35
697.539	7813.89
697.885	7673.33
698.231	7754.68
698.577	7642.14
698.923	7657.51
699.269	7615.03
699.614	7575.7
699.96	7545.65
700.306	7537.51
700.651	7474.69
700.997	7532.32
701.342	7433.11
701.688	7381.36
702.033	7408.25
702.379	7387.01
702.724	7360.57
703.069	7421.58
703.415	7287.58
703.76	7277.86
704.105	7278.99
704.45	7270.63
704.795	7235.83
705.14	7187.92
705.485	7164.42
705.83	7129.61
706.175	7144.76
706.52	7114.47
706.865	7128.94
707.209	7088.26
707.554	7032.44
707.899	7057.75
708.243	6980.47
708.588	7038.77
708.932	6966.68
709.277	6989.96
709.621	6944.76
709.966	6925.55
710.31	6932.33
710.654	6859.34
710.998	6808.04
711.342	6864.54
711.687	6780.25
712.031	6764.88
712.375	6782.28
712.719	6804.65
713.063	6741.6
713.407	6769.62
713.75	6711.55
714.094	6738.21
714.438	6723.75
714.782	6687.82
715.125	6701.6
715.469	6706.12
715.812	6680.81
716.156	6601.49
716.499	6651.44
716.843	6686.01
717.186	6598.78
717.53	6612.34
717.873	6623.41
718.216	6661.15
718.559	6561.27
718.902	6495.73
719.246	6548.16
719.589	6501.83
719.932	6484.89
720.275	6489.41
720.617	6489.18
720.96	6489.41
721.303	6492.57
721.646	6514.49
721.989	6512.68
722.331	6467.03
722.674	6435.17
723.016	6491.67
723.359	6439.01
723.701	6453.02
724.044	6468.16
724.386	6481.95
724.729	6479.46
725.071	6429.07
725.413	6441.27
725.755	6427.49
726.097	6333.48
726.439	6366.25
726.782	6314.04
727.124	6395.62
727.465	6352.01
727.807	6392.69
728.149	6371.44
728.491	6332.12
728.833	6333.03
729.175	6361.05
729.516	6320.14
729.858	6315.17
730.199	6346.36
730.541	6318.34
730.882	6348.84
731.224	6352.23
731.565	6338
731.906	6334.38
732.248	6330.99
732.589	6343.19
732.93	6292.35
733.271	6258.45
733.612	6345
733.953	6319.01
734.294	6309.52
734.635	6290.31
734.976	6348.17
735.317	6306.36
735.658	6314.72
735.999	6368.28
736.339	6296.42
736.68	6370.09
737.021	6359.01
737.361	6335.06
737.702	6377.09
738.042	6342.06
738.383	6424.1
738.723	6317.21
739.063	6315.62
739.404	6417.54
739.744	6395.4
740.084	6367.15
740.424	6378.67
740.764	6365.34
741.104	6430.65
741.444	6359.24
741.784	6462.29
742.124	6471.78
742.464	6479.69
742.804	6462.74
743.143	6462.29
743.483	6524.88
743.823	6500.7
744.162	6578.22
744.502	6554.71
744.841	6573.7
745.181	6585
745.52	6600.82
745.86	6672.45
746.199	6717.42
746.538	6732.34
746.877	6808.27
747.216	6867.25
747.556	6820.24
747.895	6916.06
748.234	6937.53
748.573	6909.96
748.911	6987.02
749.25	7059.56
749.589	7102.27
749.928	7226.34
750.267	7263.17
750.605	7259.1
750.944	7332.77
751.283	7444.41
751.621	7474.01
751.96	7610.73
752.298	7631.75
752.636	7724.63
752.975	7836.71
753.313	7822.03
753.651	8006.2
753.989	8083.49
754.327	8148.8
754.666	8258.17
755.004	8385.18
755.342	8452.07
755.679	8628.33
756.017	8654.55
756.355	8885.27
756.693	8961.21
757.031	9095.66
757.368	9233.97
757.706	9319.39
758.044	9509.44
758.381	9660.17
758.719	9770.22
759.056	9897.45
759.394	9992.14
759.731	10142.42
760.068	10318.23
760.405	10433.26
760.743	10558.45
761.08	10793.02
761.417	10953.02
761.754	11117.08
762.091	11279.11
762.428	11428.71
762.765	11606.11
763.102	11714.58
763.438	11884.97
763.775	12044.29
764.112	12216.94
764.449	12400.21
764.785	12572.18
765.122	12664.84
765.458	12877.26
765.795	13008.56
766.131	13177.37
766.467	13333.29
766.804	13475.21
767.14	13516.79
767.476	13671.14
767.812	13841.08
768.148	14024.35
768.485	14056.44
768.821	14311.57
