Data from hue_30_FLMS001491_13.txt Node
Date: Mon Feb 06 15:04:49 GMT 2017
User: dcchb
Spectrometer: FLMS00149
Trigger mode: 0
Integration Time (sec): 2.000000E-2
Scans to average: 10
Electric dark correction enabled: true
Nonlinearity correction enabled: false
Boxcar width: 0
XAxis mode: Wavelengths
Number of Pixels in Spectrum: 2048
>>>>>Begin Spectral Data<<<<<
341.393	-13.19
341.776	-13.19
342.16	-13.19
342.543	-43.93
342.927	-75.56
343.31	-72.17
343.693	-70.37
344.077	-70.59
344.46	-60.87
344.843	-45.73
345.226	-50.03
345.61	-20.65
345.993	-34.21
346.376	10.54
346.759	14.15
347.142	21.84
347.525	47.15
347.908	62.29
348.291	59.57
348.674	94.15
349.057	114.94
349.44	118.78
349.823	142.28
350.206	156.75
350.588	203.98
350.971	216.41
351.354	198.78
351.737	244.2
352.119	259.57
352.502	245.78
352.884	272.45
353.267	302.05
353.65	279.91
354.032	301.38
354.414	311.09
354.797	312.68
355.179	301.38
355.562	309.96
355.944	320.81
356.326	340.47
356.709	342.73
357.091	352.45
357.473	330.98
357.855	328.04
358.238	343.64
358.62	341.83
359.002	320.13
359.384	337.53
359.766	325.78
360.148	325.33
360.53	336.4
360.912	337.99
361.294	339.57
361.676	334.82
362.057	340.47
362.439	343.41
362.821	307.7
363.203	349.96
363.584	319
363.966	321.04
364.348	342.51
364.729	321.49
365.111	318.78
365.493	310.42
365.874	307.7
366.256	320.58
366.637	311.55
367.019	314.03
367.4	299.34
367.781	324.2
368.163	292.56
368.544	299.79
368.925	297.08
369.306	302.28
369.688	302.05
370.069	296.63
370.45	304.77
370.831	296.63
371.212	310.87
371.593	300.92
371.974	303.18
372.355	319.23
372.736	305.22
373.117	312.9
373.498	319
373.879	302.73
374.26	303.41
374.641	318.1
375.021	315.16
375.402	310.42
375.783	325.78
376.163	314.94
376.544	313.35
376.925	330.75
377.305	328.04
377.686	339.57
378.066	321.26
378.447	320.81
378.827	338.66
379.208	301.83
379.588	327.36
379.968	320.58
380.349	329.62
380.729	325.1
381.109	333.69
381.489	340.02
381.87	327.36
382.25	322.39
382.63	328.49
383.01	328.04
383.39	333.69
383.77	329.17
384.15	333.47
384.53	321.04
384.91	340.02
385.29	343.86
385.67	343.41
386.049	340.7
386.429	339.34
386.809	337.53
387.189	347.48
387.568	336.18
387.948	347.25
388.328	336.18
388.707	335.05
389.087	350.64
389.466	338.89
389.846	340.25
390.225	343.86
390.605	359.68
390.984	348.15
391.363	362.62
391.743	346.12
392.122	374.37
392.501	347.48
392.881	365.56
393.26	377.76
393.639	358.78
394.018	369.85
394.397	382.05
394.776	372.33
395.155	402.16
395.534	377.31
395.913	367.36
396.292	374.82
396.671	373.69
397.05	357.19
397.429	360.36
397.808	371.88
398.186	364.88
398.565	399
398.944	381.37
399.323	381.15
399.701	368.04
400.08	383.18
400.458	384.99
400.837	398.77
401.215	396.29
401.594	404.65
401.972	392.22
402.351	376.18
402.729	408.72
403.107	396.74
403.486	413.69
403.864	412.79
404.242	394.03
404.62	409.62
404.999	411.2
405.377	395.16
405.755	413.01
406.133	417.08
406.511	415.72
406.889	407.36
407.267	435.61
407.645	413.01
408.023	430.86
408.401	442.39
408.779	446.23
409.156	443.75
409.534	411.2
409.912	433.58
410.29	434.03
410.667	432.67
411.045	427.93
411.422	442.39
411.8	466.34
412.178	436.51
412.555	453.69
412.933	448.72
413.31	479.68
413.687	476.96
414.065	467.93
414.442	468.15
414.819	469.28
415.197	492.78
415.574	471.32
415.951	482.61
416.328	483.97
416.705	506.57
417.082	490.52
417.46	479.22
417.837	489.85
418.214	466.34
418.591	470.19
418.967	509.51
419.344	529.39
419.721	476.06
420.098	520.81
420.475	516.51
420.852	502.95
421.228	528.71
421.605	527.13
421.982	510.86
422.358	521.71
422.735	526.68
423.111	519.22
423.488	533.23
423.864	538.21
424.241	514.93
424.617	531.65
424.994	538.66
425.37	538.88
425.746	547.92
426.123	557.64
426.499	557.41
426.875	541.37
427.251	559.22
427.627	563.74
428.003	551.31
428.379	589.73
428.756	579.56
429.132	606.68
429.507	593.12
429.883	591.31
430.259	587.24
430.635	597.64
431.011	612.33
431.387	587.7
431.763	632.44
432.138	591.31
432.514	639.67
432.89	624.31
433.265	626.34
433.641	653.91
434.016	645.32
434.392	641.25
434.767	656.62
435.143	647.36
435.518	662.27
435.894	659.78
436.269	662.5
436.644	675.83
437.02	682.38
437.395	668.15
437.77	677.64
438.145	697.75
438.52	732.1
438.895	705.89
439.271	714.25
439.646	717.64
440.021	710.86
440.395	740.91
440.77	725.77
441.145	740.23
441.52	763.06
441.895	752.66
442.27	744.08
442.645	749.27
443.019	750.18
443.394	763.51
443.769	781.14
444.143	756.51
444.518	757.18
444.892	748.82
445.267	770.06
445.641	771.65
446.016	770.97
446.39	776.84
446.764	786.56
447.139	800.57
447.513	810.97
447.887	825.66
448.262	794.47
448.636	811.19
449.01	815.26
449.384	808.93
449.758	836.5
450.132	860.68
450.506	831.31
450.88	849.38
451.254	858.42
451.628	855.94
452.002	849.84
452.376	885.77
452.75	883.96
453.123	865.66
453.497	883.96
453.871	885.32
454.244	897.07
454.618	904.75
454.992	929.16
455.365	922.6
455.739	958.76
456.112	947.01
456.486	964.64
456.859	956.05
457.232	977.06
457.606	969.38
457.979	977.06
458.352	981.81
458.725	1017.52
459.099	1037.4
459.472	1049.83
459.845	1052.77
460.218	1063.84
460.591	1087.57
460.964	1066.1
461.337	1077.85
461.71	1083.28
462.083	1100
462.456	1102.03
462.829	1120.79
463.201	1151.98
463.574	1172.54
463.947	1168.47
464.32	1182.93
464.692	1167.34
465.065	1205.31
465.438	1200.11
465.81	1229.94
466.183	1266.1
466.555	1257.06
466.928	1269.26
467.3	1285.08
467.672	1292.76
468.045	1316.04
468.417	1332.99
468.789	1348.35
469.161	1347.45
469.534	1395.58
469.906	1392.65
470.278	1427.22
470.65	1447.33
471.022	1475.13
471.394	1492.76
471.766	1500.44
472.138	1534.11
472.51	1544.51
472.882	1572.08
473.253	1615.47
473.625	1622.47
473.997	1656.14
474.369	1690.04
474.74	1681.68
475.112	1728.68
475.484	1771.17
475.855	1808.68
476.227	1805.74
476.598	1854.33
476.97	1910.37
477.341	1933.65
477.713	1976.59
478.084	1998.96
478.455	2044.83
478.827	2062.91
479.198	2110.82
479.569	2146.75
479.94	2175.45
480.311	2247.31
480.682	2293.41
481.053	2327.31
481.424	2406.63
481.795	2427.65
482.166	2440.53
482.537	2554.42
482.908	2596.01
483.279	2640.07
483.65	2655.44
484.021	2731.14
484.391	2735.89
484.762	2810.69
485.133	2880.29
485.503	2926.39
485.874	2931.14
486.244	3002.32
486.615	3047.52
486.985	3136.56
487.356	3189.66
487.726	3231.69
488.097	3320.05
488.467	3335.42
488.837	3431.46
489.207	3444.8
489.578	3532.25
489.948	3568.18
490.318	3657.45
490.688	3678.91
491.058	3765.47
491.428	3810.21
491.798	3943.99
492.168	3964.1
492.538	3991.22
492.908	4048.85
493.278	4121.84
493.648	4167.72
494.017	4226.47
494.387	4280.48
494.757	4322.97
495.126	4376.07
495.496	4393.25
495.866	4459.68
496.235	4548.04
496.605	4579.91
496.974	4611.32
497.344	4669.62
497.713	4711.88
498.082	4748.94
498.452	4800.92
498.821	4826.68
499.19	4840.24
499.559	4926.79
499.928	4976.73
500.298	4965.43
500.667	5046.34
501.036	5054.25
501.405	5113
501.774	5132.66
502.143	5195.26
502.512	5183.06
502.88	5262.38
503.249	5266.22
503.618	5305.76
503.987	5346.44
504.356	5432.77
504.724	5421.69
505.093	5468.02
505.462	5478.19
505.83	5508.47
506.199	5584.18
506.567	5632.99
506.936	5605.64
507.304	5729.48
507.672	5689.03
508.041	5814
508.409	5799.08
508.777	5824.62
509.145	5943.94
509.514	5865.75
509.882	5889.48
510.25	5974
510.618	5955.01
510.986	6049.47
511.354	6059.87
511.722	6117.95
512.09	6152.97
512.458	6143.26
512.826	6233.65
513.193	6277.72
513.561	6209.7
513.929	6264.61
514.297	6293.08
514.664	6376.02
515.032	6413.76
515.4	6405.85
515.767	6437.26
516.135	6437.71
516.502	6462.57
516.869	6559.74
517.237	6527.43
517.604	6612.4
517.972	6653.98
518.339	6652.62
518.706	6690.59
519.073	6663.24
519.44	6719.74
519.808	6776.46
520.175	6755.44
520.542	6897.59
520.909	6916.34
521.276	6824.14
521.643	6907.3
522.009	6992.95
522.376	7021.2
522.743	7031.59
523.11	7059.16
523.477	7158.37
523.843	7227.97
524.21	7207.86
524.577	7336.9
524.943	7295.54
525.31	7333.73
525.676	7391.13
526.043	7410.57
526.409	7455.54
526.776	7547.29
527.142	7542.09
527.508	7564.24
527.874	7632.71
528.241	7653.95
528.607	7710.22
528.973	7700.73
529.339	7791.8
529.705	7853.04
530.071	7951.57
530.437	7955.41
530.803	7954.96
531.169	8000.38
531.535	7979.14
531.901	8054.17
532.267	8093.71
532.632	8086.03
532.998	8147.72
533.364	8272.01
533.73	8229.3
534.095	8289.64
534.461	8334.84
534.826	8357.89
535.192	8388.85
535.557	8443.31
535.923	8445.79
536.288	8457.32
536.653	8532.57
537.019	8464.55
537.384	8609.86
537.749	8647.37
538.114	8637.88
538.479	8709.74
538.845	8731.21
539.21	8720.14
539.575	8723.08
539.94	8821.15
540.305	8925.1
540.67	8867.7
541.034	8782.96
541.399	8912.9
541.764	8914.48
542.129	8984.54
542.494	9048.72
542.858	9078.32
543.223	9047.59
543.587	9125.1
543.952	9155.61
544.316	9200.35
544.681	9209.84
545.045	9240.58
545.41	9359.44
545.774	9337.97
546.138	9339.1
546.503	9404.41
546.867	9486.45
547.231	9555.82
547.595	9572.32
547.959	9528.7
548.324	9537.97
548.688	9592.88
549.052	9619.78
549.416	9692.32
549.779	9704.74
550.143	9739.77
550.507	9817.74
550.871	9821.35
551.235	9786.1
551.599	9903.84
551.962	9860.9
552.326	9933.67
552.689	10016.15
553.053	9925.53
553.417	9969.37
553.78	10109.25
554.143	10035.36
554.507	10235.35
554.87	10184.28
555.234	10235.8
555.597	10121.91
555.96	10233.09
556.323	10312.64
556.686	10280.55
557.05	10383.15
557.413	10384.05
557.776	10431.96
558.139	10484.84
558.502	10516.02
558.865	10529.81
559.228	10633.53
559.59	10581.56
559.953	10543.59
560.316	10760.54
560.679	10729.8
561.041	10780.65
561.404	10753.53
561.767	10857.48
562.129	10878.27
562.492	10929.12
562.854	10902.68
563.217	10929.12
563.579	10962.34
563.941	10980.42
564.304	11130.47
564.666	11137.7
565.028	11164.37
565.39	11211.82
565.753	11269.22
566.115	11236.68
566.477	11361.42
566.839	11367.98
567.201	11479.39
567.563	11394.42
567.925	11496.79
568.287	11518.26
568.648	11516
569.01	11632.83
569.372	11676.67
569.734	11630.57
570.095	11736.1
570.457	11809.1
570.819	11770
571.18	11795.54
571.542	11970
571.903	11912.37
572.265	12095.19
572.626	12142.42
572.987	12205.24
573.349	12196.66
573.71	12237.79
574.071	12387.84
574.432	12448.4
574.794	12543.99
575.155	12540.15
575.516	12552.35
575.877	12702.41
576.238	12730.43
576.599	12803.19
576.96	12893.59
577.32	12991.89
577.681	13111.66
578.042	13186.24
578.403	13224.88
578.763	13325.89
579.124	13499.9
579.485	13587.35
579.845	13645.66
580.206	13772.66
580.566	13891.3
580.927	13990.06
581.287	14155.25
581.648	14221.46
582.008	14496.71
582.368	14541
582.728	14866.19
583.089	14893.99
583.449	15068.45
583.809	15303.24
584.169	15466.18
584.529	15590.92
584.889	15939.84
585.249	15883.11
585.609	16064.35
585.969	16370.78
586.329	16466.6
586.688	16806.25
587.048	16908.85
587.408	17120.37
587.768	17319.46
588.127	17575.72
588.487	17704.53
588.846	18100.23
589.206	18161.92
589.565	18426.78
589.925	18675.13
590.284	18877.38
590.643	19258.84
591.003	19452.51
591.362	19725.05
591.721	19929.79
592.08	20264.24
592.44	20418.81
592.799	20717.34
593.158	20887.73
593.517	21166.59
593.876	21390.77
594.235	21622.85
594.593	21898.77
594.952	22166.34
595.311	22369.72
595.67	22621.92
596.029	22931.06
596.387	23344.16
596.746	23606.3
597.104	23667.54
597.463	23926.97
597.822	24198.15
598.18	24418.26
598.538	24597.69
598.897	25136.43
599.255	25093.72
599.613	25666.81
599.972	25709.52
600.33	26062.96
600.688	26105.22
601.046	26431.54
601.404	26627.24
601.762	26924.86
602.12	27221.57
602.478	27373.66
602.836	27559.87
603.194	27724.16
603.552	27934.55
603.91	28140.19
604.268	28515.78
604.625	28465.61
604.983	28894.75
605.341	28976.55
605.698	29423.1
606.056	29497.9
606.413	29623.09
606.771	29932.24
607.128	30149.4
607.485	30128.16
607.843	30306.46
608.2	30693.12
608.557	30983.06
608.914	31023.96
609.272	31277.51
609.629	31629.59
609.986	31689.03
610.343	31803.15
610.7	32127.88
611.057	32151.84
611.414	32306.86
611.771	32460.98
612.127	32735.55
612.484	32860.07
612.841	32982.32
613.198	33099.84
613.554	33303.22
613.911	33523.33
614.267	33597.45
614.624	33745.69
614.98	33837.9
615.337	34120.83
615.693	34097.55
616.05	34171.67
616.406	34560.59
616.762	34401.5
617.118	34589.74
617.475	34630.19
617.831	34908.15
618.187	34982.5
618.543	35186.56
618.899	35390.62
619.255	35400.79
619.611	35497.29
619.967	35647.11
620.323	35882.36
620.678	35789.93
621.034	35710.61
621.39	35847.79
621.746	35926.65
622.101	36337.04
622.457	36077.16
622.812	36348.34
623.168	36496.13
623.523	36437.6
623.879	36671.72
624.234	36452.74
624.589	36709.68
624.945	36800.76
625.3	36855.9
625.655	37026.29
626.01	37042.56
626.365	37120.3
626.72	36961.43
627.075	37111.48
627.43	37134.53
627.785	37095.66
628.14	37366.39
628.495	37246.17
628.85	37344.7
629.205	37247.98
629.559	37547.18
629.914	37435.32
630.269	37316.22
630.623	37404.13
630.978	37451.59
631.332	37515.99
631.687	37539.95
632.041	37418.14
632.396	37609.32
632.75	37471.7
633.104	37625.59
633.459	37422.43
633.813	37372.49
634.167	37492.71
634.521	37432.83
634.875	37566.61
635.229	37488.42
635.583	37368.88
635.937	37280.29
636.291	37346.73
636.645	37557.8
636.999	37473.73
637.352	37507.18
637.706	37309.89
638.06	37473.28
638.413	37544.92
638.767	37378.37
639.121	37484.58
639.474	37418.82
639.828	37265.83
640.181	37567.52
640.534	37371.14
640.888	37421.3
641.241	37180.18
641.594	37354.64
641.947	37393.28
642.301	37265.38
642.654	37310.35
643.007	37361.87
643.36	37310.35
643.713	37133.18
644.066	37384.47
644.419	37144.7
644.771	36808.89
645.124	36488.45
645.477	36465.17
645.83	36254.78
646.182	36269.02
646.535	36182.24
646.888	36293.65
647.24	36035.58
647.593	36139.98
647.945	36008.23
648.298	35977.05
648.65	35792.87
649.002	35824.96
649.355	36062.47
649.707	35932.08
650.059	36212.97
650.411	36603.7
650.763	36553.3
651.115	37045.49
651.467	36827.42
651.819	36840.53
652.171	36816.8
652.523	36524.38
652.875	36711.04
653.227	36563.7
653.578	36873.52
653.93	36619.74
654.282	36570.71
654.633	36530.03
654.985	36613.42
655.337	36664.04
655.688	36572.29
656.039	36673.98
656.391	36469.46
656.742	36575.45
657.094	36474.44
657.445	36669.69
657.796	36525.28
658.147	36511.27
658.498	36408.68
658.849	36540.88
659.2	36520.54
659.551	36469.69
659.902	36497.49
660.253	36478.28
660.604	36387.43
660.955	36191.96
661.306	36506.75
661.656	36391.73
662.007	36596.69
662.358	36376.81
662.708	36416.58
663.059	36376.59
663.409	36179.53
663.76	36431.05
664.11	36393.76
664.461	36409.81
664.811	36460.65
665.161	36411.61
665.511	36320.77
665.862	36330.49
666.212	36389.24
666.562	36452.52
666.912	36276.7
667.262	36200.55
667.612	36326.19
667.962	36424.95
668.312	36242.13
668.662	36352.41
669.011	36255.23
669.361	36182.69
669.711	36137.95
670.06	36060.66
670.41	36148.57
670.76	36133.65
671.109	36283.48
671.459	36093.88
671.808	36139.98
672.157	36205.74
672.507	35958.52
672.856	35970.27
673.205	36125.52
673.554	36093.88
673.904	36029.02
674.253	36238.28
674.602	36061.34
674.951	35590.62
675.3	35508.81
675.649	36064.05
675.998	35840.33
676.346	35934.79
676.695	36150.15
677.044	35843.27
677.393	35841.01
677.741	35855.02
678.09	35699.99
678.438	35591.07
678.787	35706.1
679.135	35712.42
679.484	35546.1
679.832	35664.06
680.181	35529.15
680.529	35609.15
680.877	35464.07
681.225	35492.54
681.573	35664.51
681.922	35476.27
682.27	35246.45
682.618	35318.31
682.966	35194.47
683.314	35229.72
683.661	35141.36
684.009	35013.01
684.357	35070.41
684.705	34966.91
685.053	34993.12
685.4	35009.16
685.748	34709.06
686.095	34775.5
686.443	34604.88
686.79	34643.75
687.138	34650.08
687.485	34582.51
687.832	34567.37
688.18	34609.4
688.527	34387.03
688.874	34343.42
689.221	34254.61
689.568	34042.86
689.915	34058.91
690.262	33985.46
690.609	33973.03
690.956	33980.04
691.303	33864.11
691.65	33759.71
691.997	33717.67
692.344	33578.69
692.69	33514.06
693.037	33535.08
693.383	33135.54
693.73	33344.35
694.077	33251.7
694.423	33225.93
694.769	33061.87
695.116	33048.31
695.462	33045.37
695.808	32900.75
696.155	33032.04
696.501	32575.1
696.847	32701.88
697.193	32403.81
697.539	32493.75
697.885	32361.78
698.231	32165.17
698.577	32316.13
698.923	32220.76
699.269	32128.34
699.614	31907.1
699.96	31925.63
700.306	32007.89
700.651	31747.78
700.997	31671.17
701.342	31611.51
701.688	31564.28
702.033	31542.14
702.379	31425.53
702.724	31321.13
703.069	31522.93
703.415	30915.03
703.76	31104.18
704.105	31070.06
704.45	31008.37
704.795	30800.91
705.14	30664.87
705.485	30737.86
705.83	30635.04
706.175	30508.49
706.52	30501.71
706.865	30390.75
707.209	30334.03
707.554	30242.28
707.899	30310.3
708.243	30109.63
708.588	30157.31
708.932	29896.98
709.277	29865.34
709.621	29860.15
709.966	29673.49
710.31	29842.29
710.654	29522.98
710.998	29682.52
711.342	29654.73
711.687	29550.32
712.031	29499.48
712.375	29229.88
712.719	29360.73
713.063	29288.41
713.407	29291.35
713.75	29184.23
714.094	29279.37
714.438	29084.57
714.782	29014.75
715.125	28884.13
715.469	28986.72
715.812	28830.12
716.156	28722.78
716.499	28658.37
716.843	28741.08
717.186	28511.48
717.53	28500.63
717.873	28626.96
718.216	28541.99
718.559	28428.55
718.902	28377.93
719.246	28302.67
719.589	28175.9
719.932	28104.04
720.275	28070.36
720.617	28049.35
720.96	28015.9
721.303	28026.97
721.646	27996.92
721.989	27902.68
722.331	27972.51
722.674	27795.12
723.016	27772.97
723.359	27774.78
723.701	27776.81
724.044	27651.39
724.386	27549.02
724.729	27639.64
725.071	27441.45
725.413	27476.03
725.755	27472.41
726.097	27347.67
726.439	27213.66
726.782	27188.58
727.124	27267.9
727.465	27135.92
727.807	27085.76
728.149	27006.21
728.491	27097.96
728.833	27064.97
729.175	26926.21
729.516	26860.45
729.858	26831.53
730.199	26913.33
730.541	26786.56
730.882	26817.97
731.224	26988.81
731.565	26655.03
731.906	26666.11
732.248	26648.93
732.589	26544.08
732.93	26423.4
733.271	26495.94
733.612	26553.12
733.953	26576.17
734.294	26449.84
734.635	26385.89
734.976	26440.8
735.317	26336.17
735.658	26262.73
735.999	26228.83
736.339	26183.63
736.68	26345.89
737.021	26123.75
737.361	25980.02
737.702	26157.65
738.042	26088.95
738.383	26022.73
738.723	26073.81
739.063	25883.53
739.404	25997.88
739.744	25800.37
740.084	25657.77
740.424	25852.79
740.764	25786.13
741.104	25786.81
741.444	25610.09
741.784	25506.59
742.124	25564.89
742.464	25518.57
742.804	25549.3
743.143	25378.46
743.483	25433.82
743.823	25397.44
744.162	25283.32
744.502	25266.37
744.841	25220.27
745.181	25395.18
745.52	25292.36
745.86	25359.47
746.199	25124.9
746.538	25166.94
746.877	25222.75
747.216	25024.79
747.556	25124.9
747.895	25075.41
748.234	24945.47
748.573	25010.11
748.911	24940.73
749.25	24932.37
749.589	24745.03
749.928	24705.93
750.267	24876.78
750.605	24716.78
750.944	24684.69
751.283	24664.58
751.621	24548.65
751.96	24595.65
752.298	24457.58
752.636	24514.75
752.975	24328.99
753.313	24249.67
753.651	24333.74
753.989	24313.17
754.327	24267.53
754.666	24033.86
755.004	24116.8
755.342	24176.91
755.679	24023.92
756.017	23986.18
756.355	24041.77
756.693	24011.04
757.031	24007.65
757.368	23782.11
757.706	23804.49
758.044	23726.07
758.381	23842
758.719	23633.42
759.056	23698.73
