Data from hue_24_FLMS001491_00009.txt Node
Date: Tue Feb 07 17:11:40 GMT 2017
User: dcchb
Spectrometer: FLMS00149
Trigger mode: 0
Integration Time (sec): 2.000000E-2
Scans to average: 10
Electric dark correction enabled: true
Nonlinearity correction enabled: false
Boxcar width: 0
XAxis mode: Wavelengths
Number of Pixels in Spectrum: 2048
>>>>>Begin Spectral Data<<<<<
341.393	-16.12
341.776	-16.12
342.16	-16.12
342.543	-49.33
342.927	-51.59
343.31	-61.76
343.693	-68.32
344.077	-54.31
344.46	-66.28
344.843	-40.3
345.226	-56.34
345.61	-24.7
345.993	-16.12
346.376	-5.49
346.759	-8.21
347.142	20.72
347.525	49.42
347.908	57.1
348.291	72.47
348.674	88.74
349.057	113.37
349.44	136.65
349.823	149.08
350.206	163.54
350.588	214.84
350.971	210.32
351.354	214.16
351.737	249.64
352.119	248.96
352.502	276.53
352.884	263.43
353.267	295.97
353.65	299.36
354.032	296.87
354.414	307.49
354.797	321.95
355.179	305.23
355.562	331.45
355.944	335.51
356.326	347.26
356.709	331.9
357.091	333.93
357.473	342.29
357.855	344.78
358.238	345.91
358.62	339.36
359.002	359.69
359.384	335.06
359.766	341.16
360.148	359.69
360.53	373.48
360.912	334.84
361.294	333.25
361.676	341.16
362.057	336.42
362.439	330.77
362.821	375.74
363.203	327.15
363.584	328.73
363.966	331.67
364.348	328.06
364.729	343.42
365.111	321.28
365.493	338.23
365.874	331.67
366.256	324.21
366.637	325.57
367.019	343.65
367.4	307.27
367.781	317.66
368.163	317.66
368.544	337.55
368.925	308.17
369.306	306.36
369.688	318.34
370.069	316.53
370.45	331.9
370.831	303.42
371.212	310.66
371.593	312.92
371.974	316.08
372.355	317.44
372.736	324.89
373.117	312.46
373.498	291
373.879	324.67
374.26	294.61
374.641	307.94
375.021	327.6
375.402	339.13
375.783	326.47
376.163	328.28
376.544	305.23
376.925	333.93
377.305	331.67
377.686	316.31
378.066	337.32
378.447	350.88
378.827	336.87
379.208	332.12
379.588	327.6
379.968	333.03
380.349	324.44
380.729	358.79
381.109	339.58
381.489	332.58
381.87	336.42
382.25	354.04
382.63	342.29
383.01	356.3
383.39	335.51
383.77	353.59
384.15	349.75
384.53	346.81
384.91	344.33
385.29	358.11
385.67	337.77
386.049	368.51
386.429	359.02
386.809	377.55
387.189	352.24
387.568	360.82
387.948	359.47
388.328	372.12
388.707	374.61
389.087	387.72
389.466	367.6
389.846	377.32
390.225	359.47
390.605	372.35
390.984	365.8
391.363	375.51
391.743	359.24
392.122	374.16
392.501	368.06
392.881	381.84
393.26	368.06
393.639	363.54
394.018	386.36
394.397	391.11
394.776	408.96
395.155	378.68
395.534	390.88
395.913	373.7
396.292	384.1
396.671	386.81
397.05	382.07
397.429	381.16
397.808	380.03
398.186	407.15
398.565	387.94
398.944	410.09
399.323	403.76
399.701	398.34
400.08	408.51
400.458	425.91
400.837	401.5
401.215	411.22
401.594	389.3
401.972	402.18
402.351	410.31
402.729	414.83
403.107	419.58
403.486	425.68
403.864	419.13
404.242	431.1
404.62	440.6
404.999	419.81
405.377	412.8
405.755	438.11
406.133	426.13
406.511	444.89
406.889	422.52
407.267	447.15
407.645	441.27
408.023	434.72
408.401	458.45
408.779	457.32
409.156	450.54
409.534	446.92
409.912	449.18
410.29	462.06
410.667	470.88
411.045	471.1
411.422	480.59
411.8	482.18
412.178	477.88
412.555	481.05
412.933	481.72
413.31	478.33
413.687	468.39
414.065	491.44
414.442	474.95
414.819	491.22
415.197	496.41
415.574	493.7
415.951	502.06
416.328	527.83
416.705	500.71
417.082	521.27
417.46	512.46
417.837	512.68
418.214	518.79
418.591	488.28
418.967	529.18
419.344	533.02
419.721	543.19
420.098	535.06
420.475	534.15
420.852	520.14
421.228	554.49
421.605	544.1
421.982	538.67
422.358	550.65
422.735	561.04
423.111	547.03
423.488	568.95
423.864	561.5
424.241	589.74
424.617	576.41
424.994	596.75
425.37	579.12
425.746	588.84
426.123	577.32
426.499	581.38
426.875	599.91
427.251	618.9
427.627	599.46
428.003	604.89
428.379	637.65
428.756	631.55
429.132	623.19
429.507	614.15
429.883	627.71
430.259	653.02
430.635	639.69
431.011	664.54
431.387	632.91
431.763	651.44
432.138	651.66
432.514	674.49
432.89	675.84
433.265	669.74
433.641	693.02
434.016	682.62
434.392	712.23
434.767	690.53
435.143	700.7
435.518	709.97
435.894	719.46
436.269	740.25
436.644	716.52
437.02	740.7
437.395	744.54
437.77	726.24
438.145	731.89
438.52	746.58
438.895	752.68
439.271	764.43
439.646	783.41
440.021	778.67
440.395	782.96
440.77	792.22
441.145	796.74
441.52	792.68
441.895	796.74
442.27	781.38
442.645	789.51
443.019	807.82
443.394	808.5
443.769	807.14
444.143	822.96
444.518	834.94
444.892	809.17
445.267	833.81
445.641	839.91
446.016	813.24
446.39	833.58
446.764	854.37
447.139	843.52
447.513	873.58
447.887	848.95
448.262	894.14
448.636	877.19
449.01	893.69
449.384	892.11
449.758	901.83
450.132	915.16
450.506	922.39
450.88	892.56
451.254	920.36
451.628	926.46
452.002	944.09
452.376	950.19
452.75	953.35
453.123	957.42
453.497	962.62
453.871	964.88
454.244	985.21
454.618	975.95
454.992	1000.58
455.365	995.61
455.739	1035.16
456.112	1038.09
456.486	1046.68
456.859	1041.71
457.232	1059.34
457.606	1074.48
457.979	1088.04
458.352	1063.18
458.725	1101.37
459.099	1109.73
459.472	1107.92
459.845	1147.47
460.218	1153.8
460.591	1160.58
460.964	1145.44
461.337	1187.92
461.71	1193.8
462.083	1218.65
462.456	1188.37
462.829	1231.31
463.201	1231.08
463.574	1277.18
463.947	1269.95
464.32	1282.16
464.692	1279.44
465.065	1328.48
465.438	1311.99
465.81	1322.61
466.183	1342.94
466.555	1371.87
466.928	1384.53
467.3	1366.67
467.672	1403.28
468.045	1443.51
468.417	1450.51
468.789	1457.74
469.161	1487.12
469.534	1506.1
469.906	1549.49
470.278	1519.44
470.65	1554.24
471.022	1596.72
471.394	1597.85
471.766	1607.34
472.138	1624.97
472.51	1670.85
472.882	1707.46
473.253	1711.3
473.625	1746.78
473.997	1783.61
474.369	1801.46
474.74	1815.25
475.112	1839.88
475.484	1880.78
475.855	1947.22
476.227	1938.18
476.598	1994.23
476.97	2004.62
477.341	2070.16
477.713	2087.11
478.084	2096.15
478.455	2158.29
478.827	2188.57
479.198	2259.08
479.569	2272.64
479.94	2329.13
480.311	2349.47
480.682	2406.87
481.053	2476.02
481.424	2513.31
481.795	2539.98
482.166	2570.03
482.537	2618.39
482.908	2681.21
483.279	2702.46
483.65	2725.06
484.021	2775
484.391	2867.42
484.762	2905.62
485.133	2925.05
485.503	2958.95
485.874	3009.79
486.244	3088.89
486.615	3133.41
486.985	3162.11
487.356	3237.13
487.726	3297.02
488.097	3329.56
488.467	3358.94
488.837	3428.54
489.207	3499.5
489.578	3570.68
489.948	3620.85
490.318	3647.74
490.688	3703.11
491.058	3727.97
491.428	3777.91
491.798	3819.04
492.168	3896.1
492.538	3942.42
492.908	3981.07
493.278	4069.88
493.648	4074.17
494.017	4100.39
494.387	4164.11
494.757	4190.1
495.126	4279.59
495.496	4271.91
495.866	4364.11
496.235	4365.24
496.605	4428.06
496.974	4444.56
497.344	4492.92
497.713	4511.68
498.082	4577.66
498.452	4575.18
498.821	4663.76
499.19	4652.01
499.559	4740.6
499.928	4748.96
500.298	4752.35
500.667	4818.79
501.036	4835.28
501.405	4852.46
501.774	4903.53
502.143	4972.91
502.512	4978.1
502.88	5009.29
503.249	5019.23
503.618	5034.6
503.987	5088.61
504.356	5131.77
504.724	5146.23
505.093	5145.1
505.462	5178.78
505.83	5169.96
506.199	5242.96
506.567	5327.25
506.936	5316.17
507.304	5383.06
507.672	5371.54
508.041	5388.49
508.409	5457.41
508.777	5446.11
509.145	5530.18
509.514	5485.66
509.882	5571.99
510.25	5576.96
510.618	5594.81
510.986	5611.08
511.354	5651.08
511.722	5687.01
512.09	5753.68
512.458	5731.76
512.826	5777.86
513.193	5774.69
513.561	5894.46
513.929	5886.55
514.297	5908.7
514.664	5914.58
515.032	5938.08
515.4	5966.78
515.767	5988.02
516.135	6055.82
516.502	5943.05
516.869	6086.1
517.237	6141.01
517.604	6093.55
517.972	6150.05
518.339	6219.2
518.706	6231.86
519.073	6200.22
519.44	6237.96
519.808	6279.54
520.175	6279.76
520.542	6382.81
520.909	6388.91
521.276	6436.14
521.643	6425.52
522.009	6479.08
522.376	6503.49
522.743	6534.22
523.11	6565.63
523.477	6610.6
523.843	6677.04
524.21	6696.48
524.577	6732.63
524.943	6799.75
525.31	6758.85
525.676	6837.72
526.043	6838.39
526.409	6924.04
526.776	6929.01
527.142	6972.85
527.508	7033.64
527.874	7106.41
528.241	7112.06
528.607	7167.88
528.973	7246.29
529.339	7207.88
529.705	7286.29
530.071	7285.39
530.437	7364.26
530.803	7291.26
531.169	7451.26
531.535	7409.45
531.901	7419.4
532.267	7453.97
532.632	7495.78
532.998	7533.97
533.364	7591.14
533.73	7591.82
534.095	7693.51
534.461	7703.91
534.826	7717.24
535.192	7778.03
535.557	7871.13
535.923	7832.72
536.288	7856.45
536.653	7882.21
537.019	7897.35
537.384	7967.18
537.749	7941.87
538.114	7971.47
538.479	7986.16
538.845	8091.92
539.21	8066.16
539.575	8116.33
539.94	8132.37
540.305	8182.77
540.67	8155.65
541.034	8194.74
541.399	8274.29
541.764	8257.11
542.129	8320.61
542.494	8334.85
542.858	8330.78
543.223	8399.26
543.587	8505.47
543.952	8454.17
544.316	8521.51
544.681	8560.83
545.045	8557.44
545.41	8656.42
545.774	8718.34
546.138	8660.49
546.503	8711.11
546.867	8780.72
547.231	8843.31
547.595	8807.83
547.959	8830.66
548.324	8844.89
548.688	8863.88
549.052	8837.21
549.416	8900.71
549.779	8969.86
550.143	9022.29
550.507	9008.51
550.871	9098.45
551.235	9123.76
551.599	9137.99
551.962	9183.42
552.326	9137.09
552.689	9255.96
553.053	9189.97
553.417	9230.2
553.78	9272.23
554.143	9286.01
554.507	9325.79
554.87	9394.03
555.234	9487.36
555.597	9393.58
555.96	9519.45
556.323	9558.32
556.686	9549.96
557.05	9622.5
557.413	9664.08
557.776	9613.46
558.139	9679.9
558.502	9688.49
558.865	9711.99
559.228	9767.13
559.59	9778.43
559.953	9773.23
560.316	9952.44
560.679	9926.9
561.041	9929.84
561.404	10038.54
561.767	10085.54
562.129	10035.15
562.492	10154.01
562.854	10130.96
563.217	10060.91
563.579	10098.65
563.941	10200.11
564.304	10240.56
564.666	10321.47
565.028	10328.7
565.39	10393.78
565.753	10416.15
566.115	10492.31
566.477	10494.12
566.839	10454.8
567.201	10580.44
567.563	10601.68
567.925	10659.31
568.287	10712.42
568.648	10679.2
569.01	10738.86
569.372	10792.64
569.734	10787.44
570.095	10876.93
570.457	10921.45
570.819	10973.88
571.18	10922.13
571.542	11059.75
571.903	11005.74
572.265	11188.11
572.626	11174.32
572.987	11212.52
573.349	11191.05
573.71	11369.35
574.071	11312.63
574.432	11462.68
574.794	11551.49
575.155	11517.82
575.516	11638.49
575.877	11685.72
576.238	11740.19
576.599	11884.14
576.96	11932.72
577.32	11938.37
577.681	12045.04
578.042	12174.3
578.403	12242.77
578.763	12426.04
579.124	12452.03
579.485	12550.56
579.845	12660.16
580.206	12786.26
580.566	12868.07
580.927	13049.76
581.287	13184.44
581.648	13292.91
582.008	13458.78
582.368	13581.04
582.728	13798.44
583.089	13836.4
583.449	13951.2
583.809	14193
584.169	14434.35
584.529	14469.38
584.889	14764.51
585.249	14849.93
585.609	15089.7
585.969	15418.06
586.329	15550.93
586.688	15740.53
587.048	15970.81
587.408	16101.2
587.768	16428.42
588.127	16570.12
588.487	16896.89
588.846	17260.04
589.206	17255.07
589.565	17601.73
589.925	17925.79
590.284	18289.84
590.643	18477.41
591.003	18821.36
591.362	18962.59
591.721	19353.09
592.08	19636.93
592.44	19932.74
592.799	20318.72
593.158	20531.14
593.517	20743.11
593.876	21104.01
594.235	21282.08
594.593	21651.34
594.952	21915.29
595.311	22172.23
595.67	22657.86
596.029	22940.34
596.387	23381.24
596.746	23664.39
597.104	23654.22
597.463	24180.31
597.822	24536.69
598.18	24797.7
598.538	25058.48
598.897	25494.63
599.255	25714.28
599.613	26349.75
599.972	26329.86
600.33	26651.66
600.688	26907.92
601.046	27347.68
601.404	27781.35
601.762	27965.52
602.12	28231.28
602.478	28504.26
602.836	28821.77
603.194	28994.2
603.552	29341.98
603.91	29454.97
604.268	29826.04
604.625	30077.78
604.983	30392.12
605.341	30621.05
605.698	31045.44
606.056	31444.98
606.413	31609.04
606.771	31836.61
607.128	32112.08
607.485	32267.56
607.843	32549.58
608.2	32827.99
608.557	33097.36
608.914	33338.71
609.272	33638.59
609.629	33933.05
609.986	34368.29
610.343	34272.25
610.7	34751.78
611.057	34923.76
611.414	34965.56
611.771	35223.86
612.127	35547.24
612.484	35741.81
612.841	35925.09
613.198	36001.69
613.554	36201.92
613.911	36612.53
614.267	36880.77
614.624	36886.87
614.98	37049.8
615.337	37505.38
615.693	37476.68
616.05	37614.31
616.406	38092.94
616.762	37990.79
617.118	38185.82
617.475	38320.28
617.831	38467.17
618.187	38690.44
618.543	38743.54
618.899	39119.8
619.255	39172.68
619.611	39193.7
619.967	39494.71
620.323	39800.69
620.678	39620.36
621.034	39686.8
621.39	39820.8
621.746	40019.22
622.101	40418.75
622.457	40217.4
622.812	40330.85
623.168	40529.49
623.523	40594.57
623.879	40928.57
624.234	40736.94
624.589	40697.39
624.945	41073.43
625.3	41073.2
625.655	41121.11
626.01	41420.54
626.365	41451.72
626.72	41406.3
627.075	41464.6
627.43	41502.57
627.785	41465.73
628.14	41603.13
628.495	41717.7
628.85	41717.25
629.205	41680.42
629.559	41947.98
629.914	41725.16
630.269	41925.38
630.623	41826.85
630.978	41805.84
631.332	42085.38
631.687	42103.46
632.041	42017.81
632.396	42242.66
632.75	42046.51
633.104	42165.15
633.459	42027.52
633.813	42061.65
634.167	42175.32
634.521	42132.15
634.875	42272.94
635.229	42181.65
635.583	41926.74
635.937	42121.08
636.291	42116.79
636.645	42092.61
636.999	42204.92
637.352	42244.02
637.706	41991.37
638.06	42312.94
638.413	42227.97
638.767	42002.21
639.121	42208.99
639.474	41954.08
639.828	41989.79
640.181	42179.61
640.534	42039.5
640.888	41958.15
641.241	41832.05
641.594	41999.05
641.947	42202.89
642.301	41953.85
642.654	42168.99
643.007	42170.57
643.36	42054.19
643.713	41979.39
644.066	42313.17
644.419	42002.89
644.771	41650.59
645.124	41317.49
645.477	41315.91
645.83	40953.88
646.182	41013.77
646.535	40988.68
646.888	40851.28
647.24	40725.64
647.593	40965.86
647.945	40915.92
648.298	40642.02
648.65	40723.38
649.002	40581.01
649.355	40710.05
649.707	40677.5
650.059	40883.6
650.411	41377.37
650.763	41454.88
651.115	41803.12
651.467	41662.34
651.819	41736.46
652.171	41700.3
652.523	41527.65
652.875	41513.87
653.227	41280.65
653.578	41627.08
653.93	41548.22
654.282	41445.17
654.633	41098.06
654.985	41403.36
655.337	41524.49
655.688	41530.59
656.039	41576.69
656.391	41288.56
656.742	41442.91
657.094	41436.81
657.445	41618.5
657.796	41508.67
658.147	41344.15
658.498	41352.06
658.849	41488.33
659.2	41411.95
659.551	41240.88
659.902	41391.16
660.253	41222.35
660.604	41301.67
660.955	41128.11
661.306	41356.58
661.656	41357.94
662.007	41227.77
662.358	41237.49
662.708	41302.12
663.059	41201.78
663.409	40966.99
663.76	41345.06
664.11	41226.42
664.461	41315
664.811	41184.61
665.161	41265.74
665.511	41229.35
665.862	41197.04
666.212	41259.64
666.562	41255.79
666.912	41044.27
667.262	41069.13
667.612	41159.98
667.962	41284.49
668.312	41215.79
668.662	41320.88
669.011	41107.1
669.361	41060.77
669.711	41178.73
670.06	41004.73
670.41	41015.12
670.76	40985.74
671.109	41075.23
671.459	40954.33
671.808	41024.61
672.157	41126.08
672.507	40960.66
672.856	40864.84
673.205	40899.42
673.554	41095.12
673.904	41075.23
674.253	41202.69
674.602	40949.81
674.951	40385.99
675.3	40197.29
675.649	40799.08
675.998	40796.82
676.346	40825.07
676.695	40916.14
677.044	40722.93
677.393	40837.5
677.741	40808.12
678.09	40614
678.438	40567.9
678.787	40607.22
679.135	40698.75
679.484	40472.99
679.832	40517.51
680.181	40330.17
680.529	40392.77
680.877	40191.64
681.225	40262.15
681.573	40375.14
681.922	40103.28
682.27	40052.89
682.618	40171.53
682.966	39975.15
683.314	40094.02
683.661	39898.09
684.009	39819
684.357	39772.44
684.705	39765.89
685.053	39775.83
685.4	39877.3
685.748	39589.85
686.095	39471.21
686.443	39488.38
686.79	39288.61
687.138	39481.83
687.485	39392.11
687.832	39281.38
688.18	39316.64
688.527	39073.7
688.874	39021.05
689.221	39049.75
689.568	38911.22
689.915	38865.35
690.262	38963.2
690.609	38709.65
690.956	38733.37
691.303	38610.89
691.65	38479.6
691.997	38527.96
692.344	38236.44
692.69	38176.33
693.037	38224.91
693.383	38030.34
693.73	38188.3
694.077	37754.19
694.423	37641.2
694.769	37688.2
695.116	37557.81
695.462	37577.7
695.808	37435.1
696.155	37577.02
696.501	37222.45
696.847	37156.69
697.193	36954.66
697.539	37043.25
697.885	36916.7
698.231	36725.29
698.577	36714.9
698.923	36774.33
699.269	36531.4
699.614	36361.69
699.96	36369.82
700.306	36423.83
700.651	36153.78
700.997	36174.35
701.342	36056.16
701.688	35946.78
702.033	35762.6
702.379	35836.95
702.724	35638.54
703.069	35734.81
703.415	35425.44
703.76	35392.67
704.105	35412.78
704.45	35282.17
704.795	35158.33
705.14	35094.37
705.485	35054.37
705.83	34892.8
706.175	34857.09
706.52	34901.61
706.865	34751.11
707.209	34803.76
707.554	34590.66
707.899	34709.53
708.243	34468.18
708.588	34434.05
708.932	34309.31
709.277	34131.91
709.621	34206.04
709.966	33906.38
710.31	34154.51
710.654	33836.55
710.998	33909.77
711.342	33712.94
711.687	33698.7
712.031	33579.61
712.375	33534.64
712.719	33588.42
713.063	33489.67
713.407	33511.59
713.75	33445.38
714.094	33293.97
714.438	33169
714.782	33246.51
715.125	32965.84
715.469	33118.61
715.812	32989.57
716.156	32770.82
716.499	32781.21
716.843	32819.86
717.186	32628
717.53	32726.53
717.873	32789.58
718.216	32668.22
718.559	32593.65
718.902	32208.35
719.246	32433.43
719.589	32282.7
719.932	32233.88
720.275	32176.26
720.617	32136.94
720.96	31964.29
721.303	32032.76
721.646	32124.28
721.989	31800.22
722.331	32067.33
722.674	31957.51
723.016	31863.72
723.359	31695.59
723.701	31824.86
724.044	31588.48
724.386	31309.61
724.729	31575.6
725.071	31529.95
725.413	31558.87
725.755	31436.84
726.097	31333.34
726.439	31189.62
726.782	31186.68
727.124	31314.36
727.465	31084.99
727.807	31109.62
728.149	31000.02
728.491	30977.87
728.833	30919.57
729.175	30846.12
729.516	30832.57
729.858	30790.76
730.199	30739.91
730.541	30710.31
730.882	30619.01
731.224	30762.28
731.565	30493.59
731.906	30527.94
732.248	30506.02
732.589	30303.09
732.93	30271.9
733.271	30406.81
733.612	30339.47
733.953	30420.37
734.294	30269.19
734.635	30165.01
734.976	30264.67
735.317	30214.95
735.658	30044.56
735.999	30100.38
736.339	30038.24
736.68	30074.84
737.021	29916.2
737.361	29880.73
737.702	29867.17
738.042	29845.7
738.383	29740.16
738.723	29738.13
739.063	29768.86
739.404	29786.94
739.744	29672.37
740.084	29577.23
740.424	29513.5
740.764	29560.06
741.104	29620.62
741.444	29459.27
741.784	29435.31
742.124	29400.29
742.464	29318.71
742.804	29176.11
743.143	29297.01
743.483	29120.29
743.823	29117.81
744.162	29126.4
744.502	29092.27
744.841	28926.4
745.181	29042.1
745.52	28923.91
745.86	28940.64
746.199	28881.2
746.538	28947.87
746.877	28958.04
747.216	28967.08
747.556	28697.03
747.895	28794.2
748.234	28750.13
748.573	28627.88
748.911	28525.73
749.25	28436.7
749.589	28563.02
749.928	28474.21
750.267	28507.43
750.605	28424.27
750.944	28334.1
751.283	28330.48
751.621	28386.3
751.96	28185.85
752.298	28183.82
752.636	28201.45
752.975	28088.91
753.313	27939.31
753.651	28147.44
753.989	27973.88
754.327	27840.78
754.666	27782.25
755.004	27803.49
755.342	27901.34
755.679	27784.06
756.017	27598.3
756.355	27643.5
756.693	27401.92
757.031	27614.34
757.368	27435.59
757.706	27327.35
758.044	27258.42
758.381	27316.73
758.719	27065.21
759.056	27085.77
759.394	26996.73
