Data from hue_270_FLMS001491_00047.txt Node
Date: Tue Feb 07 15:57:15 GMT 2017
User: dcchb
Spectrometer: FLMS00149
Trigger mode: 0
Integration Time (sec): 2.000000E-2
Scans to average: 10
Electric dark correction enabled: true
Nonlinearity correction enabled: false
Boxcar width: 0
XAxis mode: Wavelengths
Number of Pixels in Spectrum: 2048
>>>>>Begin Spectral Data<<<<<
341.393	-3.19
341.776	-3.19
342.16	-3.19
342.543	-71.89
342.927	-55.39
343.31	-94.04
343.693	-69.86
344.077	-59.91
344.46	-53.81
344.843	-47.94
345.226	-48.84
345.61	-20.37
345.993	-37.99
346.376	-7.03
346.759	11.95
347.142	26.64
347.525	41.78
347.908	65.96
348.291	73.42
348.674	103.25
349.057	116.8
349.44	120.65
349.823	147.31
350.206	158.84
350.588	199.29
350.971	197.48
351.354	242.68
351.737	245.39
352.119	235.67
352.502	250.36
352.884	272.51
353.267	274.09
353.65	274.09
354.032	284.26
354.414	300.53
354.797	315.67
355.179	314.77
355.562	305.5
355.944	325.39
356.326	331.04
356.709	324.26
357.091	317.25
357.473	317.03
357.855	332.84
358.238	340.98
358.62	329.45
359.002	340.3
359.384	320.42
359.766	351.83
360.148	336.69
360.53	340.53
360.912	347.99
361.294	334.43
361.676	313.64
362.057	344.6
362.439	330.81
362.821	325.16
363.203	310.92
363.584	331.94
363.966	331.26
364.348	296.24
364.729	314.54
365.111	300.3
365.493	331.71
365.874	303.69
366.256	323.13
366.637	322.9
367.019	292.62
367.4	310.7
367.781	317.48
368.163	307.53
368.544	319.06
368.925	296.24
369.306	309.79
369.688	307.31
370.069	321.55
370.45	329.23
370.831	312.73
371.212	317.48
371.593	306.63
371.974	316.57
372.355	321.55
372.736	309.34
373.117	313.41
373.498	316.57
373.879	299.4
374.26	315.44
374.641	296.24
375.021	313.86
375.402	322
375.783	318.83
376.163	315.9
376.544	324.03
376.925	307.53
377.305	327.65
377.686	309.57
378.066	337.59
378.447	301.88
378.827	330.36
379.208	330.81
379.588	337.14
379.968	327.19
380.349	317.03
380.729	362
381.109	339.85
381.489	330.81
381.87	332.62
382.25	326.74
382.63	360.41
383.01	338.49
383.39	345.27
383.77	329.68
384.15	355.22
384.53	343.69
384.91	351.37
385.29	350.25
385.67	343.47
386.049	363.8
386.429	342.34
386.809	362.9
387.189	358.38
387.568	358.38
387.948	343.47
388.328	367.42
388.707	347.76
389.087	347.08
389.466	351.15
389.846	370.81
390.225	370.58
390.605	366.52
390.984	366.29
391.363	370.58
391.743	373.3
392.122	360.64
392.501	376.46
392.881	366.29
393.26	381.88
393.639	401.32
394.018	368.55
394.397	371.26
394.776	376.69
395.155	394.54
395.534	394.99
395.913	385.72
396.292	389.11
396.671	391.83
397.05	408.77
397.429	401.77
397.808	432.5
398.186	375.56
398.565	401.77
398.944	413.07
399.323	419.85
399.701	410.36
400.08	403.58
400.458	418.72
400.837	402.67
401.215	432.73
401.594	412.62
401.972	434.76
402.351	429.79
402.729	439.51
403.107	422.33
403.486	430.47
403.864	438.15
404.242	440.19
404.62	448.77
404.999	441.99
405.377	462.33
405.755	446.51
406.133	447.87
406.511	482.44
406.889	466.4
407.267	460.52
407.645	479.06
408.023	484.48
408.401	499.39
408.779	501.43
409.156	511.6
409.534	507.3
409.912	514.53
410.29	523.8
410.667	523.57
411.045	542.1
411.422	526.74
411.8	529
412.178	535.55
412.555	563.35
412.933	557.47
413.31	572.84
413.687	582.1
414.065	602.44
414.442	586.17
414.819	575.55
415.197	599.28
415.574	597.02
415.951	599.5
416.328	614.19
416.705	611.03
417.082	629.79
417.46	608.32
417.837	656.9
418.214	655.32
418.591	639.5
418.967	674.76
419.344	697.81
419.721	680.86
420.098	681.99
420.475	684.93
420.852	709.11
421.228	715.89
421.605	725.15
421.982	724.25
422.358	738.26
422.735	763.57
423.111	745.49
423.488	774.64
423.864	757.92
424.241	794.08
424.617	778.71
424.994	802.66
425.37	838.37
425.746	810.35
426.123	840.85
426.499	849.44
426.875	854.64
427.251	858.03
427.627	884.02
428.003	881.98
428.379	894.86
428.756	923.11
429.132	920.4
429.507	939.16
429.883	947.74
430.259	963.34
430.635	961.98
431.011	961.3
431.387	987.97
431.763	1031.13
432.138	996.78
432.514	1014.41
432.89	1021.87
433.265	1062.54
433.641	1067.51
434.016	1098.7
434.392	1085.82
434.767	1104.35
435.143	1153.84
435.518	1159.72
435.894	1147.29
436.269	1180.73
436.644	1182.09
437.02	1182.99
437.395	1238.36
437.77	1246.94
438.145	1250.79
438.52	1265.93
438.895	1292.37
439.271	1305.25
439.646	1325.36
440.021	1339.6
440.395	1366.04
440.77	1352.48
441.145	1369.65
441.52	1385.02
441.895	1389.09
442.27	1433.15
442.645	1408.52
443.019	1427.5
443.394	1411.01
443.769	1460.95
444.143	1473.83
444.518	1491.23
444.892	1486.26
445.267	1510.44
445.641	1521.06
446.016	1523.32
446.39	1527.62
446.764	1523.55
447.139	1534.62
447.513	1573.04
447.887	1564.45
448.262	1551.8
448.636	1565.35
449.01	1599.03
449.384	1620.04
449.758	1611.68
450.132	1629.31
450.506	1625.47
450.88	1655.07
451.254	1660.49
451.628	1688.51
452.002	1699.36
452.376	1694.62
452.75	1706.82
453.123	1737.33
453.497	1746.37
453.871	1755.41
454.244	1767.61
454.618	1800.15
454.992	1816.65
455.365	1841.73
455.739	1856.42
456.112	1849.19
456.486	1890.54
456.859	1885.12
457.232	1930.09
457.606	1924.89
457.979	1927.38
458.352	1977.32
458.725	2000.37
459.099	1992.24
459.472	2032.91
459.845	2051.67
460.218	2065.91
460.591	2082.4
460.964	2069.3
461.337	2133.25
461.71	2146.13
462.083	2187.71
462.456	2177.54
462.829	2209.18
463.201	2199.46
463.574	2236.75
463.947	2248.27
464.32	2285.56
464.692	2315.84
465.065	2339.12
465.438	2356.52
465.81	2357.42
466.183	2410.53
466.555	2426.35
466.928	2451.43
467.3	2453.01
467.672	2458.66
468.045	2523.52
468.417	2530.53
468.789	2561.49
469.161	2602.39
469.534	2595.16
469.906	2659.34
470.278	2670.18
470.65	2691.43
471.022	2719.67
471.394	2765.1
471.766	2784.08
472.138	2833.57
472.51	2890.97
472.882	2916.05
473.253	2950.4
473.625	2993.34
473.997	3009.61
474.369	3023.62
474.74	3055.94
475.112	3092.77
475.484	3145.2
475.855	3166.67
476.227	3207.8
476.598	3276.5
476.97	3312.2
477.341	3320.34
477.713	3380.67
478.084	3420.22
478.455	3494.57
478.827	3511.29
479.198	3644.85
479.569	3584.06
479.94	3684.85
480.311	3690.27
480.682	3730.72
481.053	3821.34
481.424	3835.13
481.795	3872.19
482.166	3974.1
482.537	3951.05
482.908	4051.62
483.279	4052.29
483.65	4157.15
484.021	4171.16
484.391	4217.49
484.762	4246.87
485.133	4295.45
485.503	4324.83
485.874	4420.42
486.244	4414.77
486.615	4503.58
486.985	4546.74
487.356	4661.54
487.726	4675.1
488.097	4766.4
488.467	4767.53
488.837	4847.53
489.207	4874.87
489.578	4899.05
489.948	4913.29
490.318	5035.32
490.688	4955.55
491.058	5067.86
491.428	5129.33
491.798	5189.89
492.168	5293.17
492.538	5275.99
492.908	5281.87
493.278	5416.78
493.648	5412.94
494.017	5468.75
494.387	5459.26
494.757	5477.12
495.126	5549.88
495.496	5585.81
495.866	5587.4
496.235	5606.6
496.605	5647.51
496.974	5704.91
497.344	5771.57
497.713	5734.06
498.082	5793.49
498.452	5824
498.821	5863.77
499.19	5889.99
499.559	5932.47
499.928	5964.33
500.298	5977.89
500.667	6010.44
501.036	5972.47
501.405	6062.41
501.774	6073.03
502.143	6065.12
502.512	6092.47
502.88	6153.03
503.249	6132.92
503.618	6167.04
503.987	6196.42
504.356	6237.32
504.724	6261.73
505.093	6230.32
505.462	6219.02
505.83	6306.47
506.199	6337.43
506.567	6453.14
506.936	6383.98
507.304	6431.67
507.672	6420.14
508.041	6437.99
508.409	6485.9
508.777	6481.84
509.145	6529.07
509.514	6580.59
509.882	6587.14
510.25	6599.12
510.618	6616.07
510.986	6559.8
511.354	6665.56
511.722	6719.34
512.09	6681.83
512.458	6703.52
512.826	6742.17
513.193	6763.64
513.561	6745.33
513.929	6752.79
514.297	6857.64
514.664	6860.81
515.032	6856.06
515.4	6925.21
515.767	6932.67
516.135	6925.21
516.502	6810.19
516.869	6971.31
517.237	6926.57
517.604	6887.7
517.972	6995.04
518.339	7012.22
518.706	7010.18
519.073	7055.83
519.44	7018.54
519.808	7134.02
520.175	7066
520.542	7069.16
520.909	7130.86
521.276	7096.73
521.643	7167.92
522.009	7214.92
522.376	7234.58
522.743	7225.77
523.11	7260.12
523.477	7294.47
523.843	7292.89
524.21	7379.21
524.577	7457.63
524.943	7399.33
525.31	7474.13
525.676	7543.5
526.043	7503.28
526.409	7516.38
526.776	7593.44
527.142	7568.81
527.508	7656.72
527.874	7669.37
528.241	7651.52
528.607	7627.34
528.973	7653.1
529.339	7741.69
529.705	7736.04
530.071	7767.9
530.437	7844.74
530.803	7828.92
531.169	7839.77
531.535	7823.72
531.901	7849.93
532.267	7865.3
532.632	7919.76
532.998	7922.7
533.364	7929.25
533.73	7881.35
534.095	7998.86
534.461	7994.56
534.826	8008.57
535.192	7979.87
535.557	8006.31
535.923	8029.59
536.288	8030.5
536.653	8064.84
537.019	8094.67
537.384	8055.13
537.749	8033.88
538.114	8090.61
538.479	8119.98
538.845	8118.85
539.21	8070.27
539.575	8145.07
539.94	8130.61
540.305	8222.35
540.67	8126.09
541.034	8144.84
541.399	8176.71
541.764	8238.85
542.129	8142.36
542.494	8213.77
542.858	8207.44
543.223	8209.02
543.587	8230.26
543.952	8303.26
544.316	8273.2
544.681	8210.6
545.045	8319.3
545.41	8310.04
545.774	8320.88
546.138	8232.98
546.503	8278.85
546.867	8305.29
547.231	8354.55
547.595	8347.1
547.959	8335.12
548.324	8352.07
548.688	8406.98
549.052	8418.06
549.416	8333.31
549.779	8343.93
550.143	8383.25
550.507	8446.76
550.871	8397.27
551.235	8431.16
551.599	8519.3
551.962	8446.76
552.326	8452.63
552.689	8521.56
553.053	8495.79
553.417	8479.97
553.78	8530.37
554.143	8510.03
554.507	8565.17
554.87	8588.45
555.234	8617.6
555.597	8577.37
555.96	8611.27
556.323	8679.29
556.686	8648.56
557.05	8743.47
557.413	8674.32
557.776	8746.18
558.139	8737.37
558.502	8757.26
558.865	8716.58
559.228	8831.83
559.59	8863.24
559.953	8860.53
560.316	8893.52
560.679	8914.09
561.041	8952.73
561.404	8944.6
561.767	9015.55
562.129	8921.09
562.492	9063.01
562.854	9049
563.217	9076.34
563.579	9064.59
563.941	9123.57
564.304	9219.39
564.666	9213.51
565.028	9267.3
565.39	9188.88
565.753	9285.6
566.115	9318.82
566.477	9382.55
566.839	9377.58
567.201	9436.11
567.563	9410.12
567.925	9475.2
568.287	9495.09
568.648	9506.39
569.01	9569.44
569.372	9602.88
569.734	9590.91
570.095	9659.38
570.457	9714.97
570.819	9667.06
571.18	9717.91
571.542	9770.79
571.903	9761.52
572.265	9796.55
572.626	9807.85
572.987	9886.72
573.349	9917.68
573.71	9925.36
574.071	9923.33
574.432	10025.24
574.794	10056.88
575.155	9980.05
575.516	10015.08
575.877	10053.49
576.238	10097.11
576.599	10191.79
576.96	10187.5
577.32	10233.6
577.681	10269.98
578.042	10335.97
578.403	10378.46
578.763	10380.04
579.124	10409.42
579.485	10408.51
579.845	10425.46
580.206	10444.89
580.566	10491.45
580.927	10546.14
581.287	10520.37
581.648	10552.01
582.008	10624.78
582.368	10687.15
582.728	10709.29
583.089	10675.62
583.449	10754.27
583.809	10723.98
584.169	10759.91
584.529	10810.08
584.889	10901.61
585.249	10797.88
585.609	10785.68
585.969	10894.37
586.329	10959.46
586.688	10944.99
587.048	10862.74
587.408	11008.72
587.768	10946.8
588.127	11040.36
588.487	11023.64
588.846	11086.23
589.206	11101.15
589.565	11139.57
589.925	11138.21
590.284	11126.46
590.643	11193.8
591.003	11221.6
591.362	11268.15
591.721	11243.29
592.08	11300.69
592.44	11330.07
592.799	11347.92
593.158	11385.44
593.517	11350.18
593.876	11433.34
594.235	11386.11
594.593	11423.63
594.952	11405.32
595.311	11393.12
595.67	11454.13
596.029	11507.01
596.387	11605.09
596.746	11593.11
597.104	11439.9
597.463	11523.51
597.822	11561.25
598.18	11597.86
598.538	11598.76
598.897	11696.16
599.255	11486.45
599.613	11755.82
599.972	11715.37
600.33	11708.14
600.688	11720.57
601.046	11715.14
601.404	11763.5
601.762	11777.74
602.12	11852.09
602.478	11819.1
602.836	11895.25
603.194	11774.35
603.552	11790.17
603.91	11793.56
604.268	11796.27
604.625	11925.31
604.983	11811.41
605.341	11843.5
605.698	11876.5
606.056	11874.69
606.413	11936.61
606.771	11956.04
607.128	11955.14
607.485	11878.76
607.843	11977.28
608.2	11991.29
608.557	12053.89
608.914	11999.43
609.272	12022.03
609.629	12100.67
609.986	12059.77
610.343	11993.33
610.7	12147
611.057	12067.45
611.414	12107.22
611.771	12129.82
612.127	12232.64
612.484	12172.76
612.841	12234.9
613.198	12094.79
613.554	12222.93
613.911	12231.97
614.267	12294.79
614.624	12243.72
614.98	12238.75
615.337	12322.36
615.693	12255.47
616.05	12350.83
616.406	12395.35
616.762	12351.29
617.118	12269.93
617.475	12365.97
617.831	12383.15
618.187	12389.48
618.543	12379.08
618.899	12500.43
619.255	12391.51
619.611	12373.43
619.967	12506.08
620.323	12445.29
620.678	12457.72
621.034	12416.37
621.39	12401
621.746	12345.64
622.101	12547.66
622.457	12457.95
622.812	12485.07
623.168	12404.62
623.523	12450.72
623.879	12552.41
624.234	12452.3
624.589	12494.56
624.945	12410.49
625.3	12487.78
625.655	12519.64
626.01	12467.67
626.365	12516.7
626.72	12448.23
627.075	12380.89
627.43	12464.05
627.785	12450.04
628.14	12360.32
628.495	12473.99
628.85	12446.42
629.205	12373.88
629.559	12440.32
629.914	12372.3
630.269	12416.37
630.623	12424.28
630.978	12325.75
631.332	12401.45
631.687	12382.92
632.041	12372.75
632.396	12290.27
632.75	12298.86
633.104	12328.91
633.459	12273.77
633.813	12263.38
634.167	12311.06
634.521	12254.56
634.875	12252.3
635.229	12248.01
635.583	12235.13
635.937	12138.64
636.291	12177.73
636.645	12203.94
636.999	12197.17
637.352	12177.05
637.706	12057.51
638.06	12103.61
638.413	12113.78
638.767	12103.16
639.121	12165.53
639.474	12024.74
639.828	12036.72
640.181	12001.46
640.534	12018.19
640.888	11935.03
641.241	11998.53
641.594	12003.95
641.947	12024.29
642.301	12023.84
642.654	11970.05
643.007	12055.47
643.36	11943.16
643.713	11939.77
644.066	11855.25
644.419	11844.63
644.771	11805.54
645.124	11756.27
645.477	11710.85
645.83	11550.4
646.182	11604.19
646.535	11552.66
646.888	11529.61
647.24	11523.28
647.593	11634.02
647.945	11539.1
648.298	11466.11
648.65	11496.62
649.002	11497.75
649.355	11474.7
649.707	11503.62
650.059	11484.42
650.411	11614.58
650.763	11639.44
651.115	11815.93
651.467	11751.53
651.819	11806.67
652.171	11756.95
652.523	11694.13
652.875	11716.27
653.227	11715.37
653.578	11755.37
653.93	11709.72
654.282	11657.07
654.633	11688.7
654.985	11692.77
655.337	11777.29
655.688	11755.14
656.039	11766.67
656.391	11601.02
656.742	11711.08
657.094	11669.27
657.445	11777.97
657.796	11695.26
658.147	11693.45
658.498	11618.42
658.849	11783.39
659.2	11758.31
659.551	11697.74
659.902	11805.54
660.253	11732.09
660.604	11751.08
660.955	11681.92
661.306	11728.7
661.656	11641.02
662.007	11707.23
662.358	11730.96
662.708	11689.83
663.059	11644.41
663.409	11641.25
663.76	11782.49
664.11	11706.33
664.461	11736.84
664.811	11783.39
665.161	11701.13
665.511	11684.18
665.862	11754.46
666.212	11754.69
666.562	11793.56
666.912	11712.88
667.262	11777.97
667.612	11702.26
667.962	11742.04
668.312	11738.42
668.662	11792.88
669.011	11684.41
669.361	11704.3
669.711	11748.36
670.06	11674.69
670.41	11733
670.76	11667.01
671.109	11741.81
671.459	11685.09
671.808	11574.81
672.157	11670.4
672.507	11598.76
672.856	11566.45
673.205	11605.77
673.554	11612.32
673.904	11646.9
674.253	11591.98
674.602	11592.89
674.951	11453
675.3	11415.72
675.649	11569.16
675.998	11539.78
676.346	11552.44
676.695	11542.95
677.044	11523.06
677.393	11463.85
677.741	11519.44
678.09	11509.05
678.438	11432.89
678.787	11411.88
679.135	11477.18
679.484	11363.74
679.832	11449.61
680.181	11349.28
680.529	11399.67
680.877	11293.23
681.225	11344.31
681.573	11413.91
681.922	11254.14
682.27	11273.8
682.618	11196.97
682.966	11289.17
683.314	11277.19
683.661	11203.74
684.009	11192.22
684.357	11110.19
684.705	11132.33
685.053	11089.4
685.4	11150.41
685.748	11044.2
686.095	11107.7
686.443	10940.25
686.79	10984.32
687.138	10980.02
687.485	11053.01
687.832	10924.88
688.18	10947.71
688.527	10857.99
688.874	10946.12
689.221	10894.83
689.568	10826.13
689.915	10822.74
690.262	10776.19
690.609	10751.1
690.956	10734.38
691.303	10633.82
691.65	10598.79
691.997	10617.32
692.344	10539.36
692.69	10529.19
693.037	10535.29
693.383	10464.33
693.73	10473.14
694.077	10413.26
694.423	10367.83
694.769	10456.87
695.116	10389.98
695.462	10294.62
695.808	10250.32
696.155	10267.05
696.501	10183.66
696.847	10245.13
697.193	10146.82
697.539	10189.08
697.885	10052.36
698.231	9982.08
698.577	10041.97
698.923	9981.18
699.269	9955.42
699.614	9841.07
699.96	9848.3
700.306	9866.38
700.651	9864.35
700.997	9767.85
701.342	9719.04
701.688	9752.03
702.033	9674.52
702.379	9637.68
702.724	9627.52
703.069	9645.37
703.415	9570.79
703.76	9457.8
704.105	9486.5
704.45	9487.86
704.795	9372.83
705.14	9412.61
705.485	9375.32
705.83	9347.75
706.175	9331.93
706.52	9286.73
706.865	9251.71
707.209	9255.1
707.554	9243.57
707.899	9225.04
708.243	9205.83
708.588	9150.47
708.932	9082.67
709.277	9043.12
709.621	9066.63
709.966	9025.72
710.31	9056.23
710.654	8924.26
710.998	9021.66
711.342	8985.27
711.687	8932.84
712.031	8907.08
712.375	8866.18
712.719	8918.83
713.063	8877.93
713.407	8960.87
713.75	8856.91
714.094	8843.13
714.438	8831.15
714.782	8777.59
715.125	8710.48
715.469	8778.5
715.812	8718.39
716.156	8685.39
716.499	8717.03
716.843	8687.2
717.186	8649.91
717.53	8664.15
717.873	8675
718.216	8717.03
718.559	8669.57
718.902	8609.01
719.246	8623.93
719.589	8636.81
719.932	8530.59
720.275	8566.53
720.617	8483.59
720.96	8561.33
721.303	8529.92
721.646	8520.43
721.989	8426.42
722.331	8536.92
722.674	8524.27
723.016	8477.71
723.359	8526.75
723.701	8469.58
724.044	8435.46
724.386	8365.85
724.729	8415.34
725.071	8357.27
725.413	8339.19
725.755	8387.77
726.097	8335.12
726.439	8278.17
726.782	8277.72
727.124	8359.75
727.465	8352.52
727.807	8322.92
728.149	8298.51
728.491	8310.26
728.833	8327.44
729.175	8262.13
729.516	8291.51
729.858	8288.79
730.199	8307.32
730.541	8303.71
730.882	8232.75
731.224	8344.16
731.565	8303.71
731.906	8267.78
732.248	8228
732.589	8242.47
732.93	8188.23
733.271	8250.15
733.612	8214.9
733.953	8222.58
734.294	8190.72
734.635	8147.33
734.976	8239.98
735.317	8184.62
735.658	8220.09
735.999	8185.29
736.339	8158.4
736.68	8227.78
737.021	8257.61
737.361	8138.74
737.702	8244.27
738.042	8215.35
738.383	8253.77
738.723	8257.16
739.063	8195.46
739.404	8260.77
739.744	8208.12
740.084	8246.76
740.424	8338.74
740.764	8290.83
741.104	8339.19
741.444	8253.31
741.784	8336.25
742.124	8293.31
742.464	8309.58
742.804	8365.63
743.143	8343.71
743.483	8419.64
743.823	8351.39
744.162	8364.5
744.502	8334.67
744.841	8396.36
745.181	8454.66
745.52	8438.85
745.86	8516.58
746.199	8557.71
746.538	8574.66
746.877	8610.14
747.216	8675.68
747.556	8567.2
747.895	8661.21
748.234	8712.06
748.573	8678.39
748.911	8811.49
749.25	8863.69
749.589	8801.32
749.928	8913.41
750.267	9040.64
750.605	9076.12
750.944	9115.44
751.283	9178.71
751.621	9264.36
751.96	9276.11
752.298	9316.11
752.636	9428.65
752.975	9461.64
753.313	9557.69
753.651	9717.23
753.989	9784.8
754.327	9914.74
754.666	9930.11
755.004	10099.82
755.342	10174.62
755.679	10282.41
756.017	10394.27
756.355	10511.11
756.693	10620.03
757.031	10768.95
757.368	10798.11
757.706	10965.79
758.044	11081.26
758.381	11295.49
758.719	11357.19
759.056	11518.09
759.394	11622.49
759.731	11685.54
760.068	11867
760.405	11981.35
760.743	12166.21
761.08	12355.13
761.417	12408.69
761.754	12656.36
762.091	12772.52
