Data from hue_36_FLMS001491_00073.txt Node
Date: Tue Feb 07 17:30:16 GMT 2017
User: dcchb
Spectrometer: FLMS00149
Trigger mode: 0
Integration Time (sec): 2.000000E-2
Scans to average: 10
Electric dark correction enabled: true
Nonlinearity correction enabled: false
Boxcar width: 0
XAxis mode: Wavelengths
Number of Pixels in Spectrum: 2048
>>>>>Begin Spectral Data<<<<<
341.393	-9.73
341.776	-9.73
342.16	-9.73
342.543	-59.45
342.927	-56.06
343.31	-59.45
343.693	-65.78
344.077	-65.55
344.46	-68.26
344.843	-60.35
345.226	-30.75
345.61	-43.63
345.993	-7.47
346.376	-2.5
346.759	31.17
347.142	36.82
347.525	49.7
347.908	57.84
348.291	65.29
348.674	79.08
349.057	83.83
349.44	120.66
349.823	124.5
350.206	172.86
350.588	214.22
350.971	221.45
351.354	238.4
351.737	232.3
352.119	268.45
352.502	276.14
352.884	284.95
353.267	298.74
353.65	301.9
354.032	302.58
354.414	315.91
354.797	312.97
355.179	338.73
355.562	310.49
355.944	327.43
356.326	329.92
356.709	339.41
357.091	329.47
357.473	344.16
357.855	350.94
358.238	346.42
358.62	356.13
359.002	333.08
359.384	353.65
359.766	353.42
360.148	310.94
360.53	333.99
360.912	388
361.294	341.45
361.676	334.89
362.057	326.3
362.439	331.28
362.821	331.28
363.203	327.43
363.584	326.3
363.966	343.93
364.348	317.72
364.729	346.42
365.111	334.44
365.493	318.4
365.874	337.38
366.256	326.98
366.637	324.72
367.019	324.27
367.4	341.45
367.781	335.8
368.163	332.63
368.544	319.98
368.925	324.27
369.306	323.37
369.688	326.53
370.069	310.49
370.45	320.2
370.831	317.04
371.212	315.91
371.593	317.04
371.974	317.27
372.355	334.44
372.736	340.54
373.117	316.14
373.498	323.14
373.879	340.09
374.26	324.05
374.641	336.93
375.021	307.77
375.402	324.05
375.783	327.66
376.163	344.16
376.544	317.94
376.925	329.69
377.305	331.95
377.686	349.13
378.066	345.51
378.447	320.66
378.827	333.54
379.208	336.25
379.588	335.34
379.968	328.11
380.349	329.24
380.729	356.13
381.109	334.89
381.489	350.94
381.87	333.99
382.25	336.25
382.63	370.37
383.01	352.74
383.39	369.47
383.77	343.03
384.15	336.93
384.53	340.09
384.91	346.42
385.29	366.3
385.67	374.67
386.049	349.81
386.429	359.75
386.809	373.76
387.189	357.26
387.568	348.23
387.948	347.77
388.328	373.31
388.707	352.29
389.087	358.39
389.466	366.53
389.846	362.46
390.225	363.82
390.605	373.31
390.984	396.81
391.363	384.83
391.743	357.26
392.122	392.07
392.501	374.21
392.881	390.94
393.26	372.18
393.639	390.48
394.018	393.42
394.397	383.93
394.776	374.89
395.155	376.02
395.534	375.34
395.913	374.89
396.292	405.17
396.671	395.68
397.05	393.2
397.429	399.75
397.808	380.54
398.186	401.56
398.565	395
398.944	380.09
399.323	405.85
399.701	386.19
400.08	394.78
400.458	400.2
400.837	404.27
401.215	391.16
401.594	411.73
401.972	430.26
402.351	413.76
402.729	405.4
403.107	408.34
403.486	406.08
403.864	402.24
404.242	395
404.62	417.38
404.999	414.44
405.377	417.38
405.755	423.03
406.133	446.75
406.511	429.13
406.889	444.95
407.267	432.97
407.645	409.24
408.023	425.06
408.401	450.82
408.779	451.27
409.156	465.06
409.534	471.84
409.912	467.09
410.29	456.7
410.667	441.1
411.045	456.47
411.422	467.09
411.8	464.15
412.178	475
412.555	454.44
412.933	485.85
413.31	469.13
413.687	472.97
414.065	506.41
414.442	490.59
414.819	482.23
415.197	479.75
415.574	498.73
415.951	495.79
416.328	495.34
416.705	490.14
417.082	483.14
417.46	516.81
417.837	514.55
418.214	502.57
418.591	508.22
418.967	513.42
419.344	529.46
419.721	541.89
420.098	503.02
420.475	523.36
420.852	528.33
421.228	528.79
421.605	549.58
421.982	543.7
422.358	569.69
422.735	545.73
423.111	521.78
423.488	550.93
423.864	537.37
424.241	567.65
424.617	554.77
424.994	579.41
425.37	561.33
425.746	554.77
426.123	564.94
426.499	570.37
426.875	567.65
427.251	576.47
427.627	590.03
428.003	599.52
428.379	592.06
428.756	585.96
429.132	617.82
429.507	608.78
429.883	611.04
430.259	632.74
430.635	623.92
431.011	631.16
431.387	626.18
431.763	629.8
432.138	643.36
432.514	651.04
432.89	629.8
433.265	647.2
433.641	674.32
434.016	688.78
434.392	675.22
434.767	669.8
435.143	658.27
435.518	695.79
435.894	690.82
436.269	702.11
436.644	704.83
437.02	721.32
437.395	708.44
437.77	719.97
438.145	721.1
438.52	712.74
438.895	712.96
439.271	738.27
439.646	734.2
440.021	753.41
440.395	746.18
440.77	733.98
441.145	743.47
441.52	755.9
441.895	777.59
442.27	792.96
442.645	762
443.019	771.04
443.394	777.59
443.769	796.58
444.143	775.78
444.518	774.2
444.892	772.85
445.267	768.55
445.641	791.38
446.016	824.6
446.39	769.91
446.764	839.06
447.139	811.94
447.513	829.34
447.887	826.4
448.262	820.53
448.636	817.82
449.01	863.92
449.384	825.73
449.758	831.83
450.132	858.95
450.506	856.69
450.88	851.26
451.254	863.92
451.628	882.67
452.002	878.83
452.376	891.49
452.75	907.76
453.123	863.47
453.497	915.22
453.871	909.79
454.244	941.2
454.618	950.92
454.992	928.1
455.365	931.94
455.739	980.98
456.112	978.94
456.486	973.97
456.859	995.44
457.232	972.62
457.606	1013.52
457.979	1010.58
458.352	1004.71
458.725	1046.06
459.099	1037.25
459.472	1057.59
459.845	1068.21
460.218	1073.4
460.591	1087.41
460.964	1084.03
461.337	1076.12
461.71	1121.09
462.083	1179.39
462.456	1133.06
462.829	1176.45
463.201	1162.67
463.574	1164.48
463.947	1181.2
464.32	1187.53
464.692	1224.36
465.065	1229.33
465.438	1242.44
465.81	1252.61
466.183	1256.68
466.555	1305.26
466.928	1309.33
467.3	1327.41
467.672	1347.75
468.045	1357.69
468.417	1347.75
468.789	1408.31
469.161	1378.93
469.534	1437.69
469.906	1437.91
470.278	1467.97
470.65	1488.31
471.022	1514.75
471.394	1570.57
471.766	1593.39
472.138	1598.81
472.51	1610.79
472.882	1660.28
473.253	1706.83
473.625	1724.91
473.997	1744.8
474.369	1786.83
474.74	1819.6
475.112	1860.5
475.484	1873.16
475.855	1956.54
476.227	1953.83
476.598	2003.55
476.97	2022.98
477.341	2075.41
477.713	2116.99
478.084	2155.64
478.455	2233.6
478.827	2275.63
479.198	2385.46
479.569	2340.72
479.94	2447.15
480.311	2475.85
480.682	2554.49
481.053	2626.81
481.424	2696.86
481.795	2739.12
482.166	2803.98
482.537	2911.1
482.908	2966.46
483.279	3023.64
483.65	3109.96
484.021	3193.57
484.391	3296.85
484.762	3319.9
485.133	3407.35
485.503	3460.23
485.874	3568.71
486.244	3704.07
486.615	3734.58
486.985	3763.05
487.356	3954.46
487.726	4013.89
488.097	4125.3
488.467	4166.2
488.837	4319.87
489.207	4402.36
489.578	4504.73
489.948	4554.22
490.318	4699.07
490.688	4748.79
491.058	4853.64
491.428	5015.45
491.798	5133.86
492.168	5156.23
492.538	5291.82
492.908	5377.25
493.278	5499.95
493.648	5513.29
494.017	5714.86
494.387	5774.07
494.757	5843.45
495.126	5995.31
495.496	6032.82
495.866	6119.15
496.235	6236.88
496.605	6339.03
496.974	6378.58
497.344	6487.5
497.713	6543.09
498.082	6658.57
498.452	6794.61
498.821	6797.55
499.19	6922.97
499.559	7019.01
499.928	7105.79
500.298	7196.86
500.667	7275.95
501.036	7329.28
501.405	7389.4
501.774	7447.02
502.143	7578.09
502.512	7675.04
502.88	7742.83
503.249	7749.61
503.618	7878.42
503.987	7950.51
504.356	8004.07
504.724	8098.53
505.093	8110.96
505.462	8265.31
505.83	8315.93
506.199	8394.57
506.567	8489.48
506.936	8554.34
507.304	8630.72
507.672	8669.81
508.041	8761.34
508.409	8852.63
508.777	8889.02
509.145	8970.37
509.514	8967.89
509.882	9060.76
510.25	9120.88
510.618	9214.66
510.986	9179.63
511.354	9379.4
511.722	9428.44
512.09	9510.02
512.458	9536.01
512.826	9660.75
513.193	9705.95
513.561	9749.33
513.929	9832.95
514.297	9938.03
514.664	9949.55
515.032	10001.76
515.4	10103.9
515.767	10165.14
516.135	10167.85
516.502	10123.56
516.869	10337.79
517.237	10316.78
517.604	10391.13
517.972	10482.42
518.339	10570.56
518.706	10632.47
519.073	10693.04
519.44	10706.6
519.808	10801.96
520.175	10850.32
520.542	10926.48
520.909	11096.64
521.276	10961.73
521.643	11093.48
522.009	11257.99
522.376	11214.38
522.743	11247.6
523.11	11440.81
523.477	11465.45
523.843	11510.19
524.21	11705.21
524.577	11750.86
524.943	11821.14
525.31	11861.14
525.676	12027.24
526.043	12029.95
526.409	12084.41
526.776	12194.02
527.142	12332.32
527.508	12313.33
527.874	12345.42
528.241	12496.83
528.607	12549.03
528.973	12651.86
529.339	12654.79
529.705	12777.28
530.071	12897.27
530.437	12953.77
530.803	12984.5
531.169	13054.33
531.535	13073.31
531.901	13144.5
532.267	13228.56
532.632	13309.24
532.998	13318.51
533.364	13366.41
533.73	13482.34
534.095	13589.69
534.461	13634.43
534.826	13573.87
535.192	13710.81
535.557	13815.89
535.923	13868.1
536.288	13832.39
536.653	13970.92
537.019	13931.37
537.384	14005.72
537.749	14067.86
538.114	14099.5
538.479	14200.06
538.845	14218.6
539.21	14153.51
539.575	14362.32
539.94	14376.11
540.305	14520.96
540.67	14497.23
541.034	14540.62
541.399	14672.59
541.764	14739.03
542.129	14725.47
542.494	14749.88
542.858	14849.99
543.223	14834.4
543.587	14989.65
543.952	14878.24
544.316	14987.61
544.681	15085.24
545.045	15075.75
545.41	15210.66
545.774	15177.67
546.138	15278.23
546.503	15280.04
546.867	15359.36
547.231	15548.28
547.595	15508.73
547.959	15635.05
548.324	15658.78
548.688	15649.07
549.052	15714.37
549.416	15753.47
549.779	15724.77
550.143	15864.88
550.507	15959.79
550.871	15952.79
551.235	15948.95
551.599	16089.28
551.962	16154.82
552.326	16149.62
552.689	16210.86
553.053	16235.04
553.417	16370.85
553.78	16530.4
554.143	16437.07
554.507	16607.68
554.87	16641.36
555.234	16703.5
555.597	16641.81
555.96	16819.88
556.323	16894.68
556.686	16879.32
557.05	16985.53
557.413	16966.09
557.776	17133.77
558.139	17170.16
558.502	17206.54
558.865	17278.4
559.228	17337.38
559.59	17418.96
559.953	17376.7
560.316	17568.34
560.679	17623.48
561.041	17711.38
561.404	17723.59
561.767	17909.57
562.129	17859.86
562.492	18047.42
562.854	17981.21
563.217	18068.44
563.579	18027.76
563.941	18216.46
564.304	18290.13
564.666	18388.88
565.028	18469.33
565.39	18462.78
565.753	18650.34
566.115	18571.93
566.477	18724.47
566.839	18744.35
567.201	18925.14
567.563	18922.88
567.925	19036.1
568.287	18968.98
568.648	19026.6
569.01	19119.26
569.372	19273.38
569.734	19302.08
570.095	19476.31
570.457	19492.58
570.819	19462.3
571.18	19718.11
571.542	19709.98
571.903	19862.29
572.265	19795.4
572.626	19912.23
572.987	19957.2
573.349	20126.01
573.71	20182.73
574.071	20296.85
574.432	20417.53
574.794	20563.96
575.155	20530.29
575.516	20511.54
575.877	20703.4
576.238	20897.52
576.599	20989.04
576.96	21133.44
577.32	21155.36
577.681	21324.4
578.042	21368.01
578.403	21566.88
578.763	21582.92
579.124	21835.34
579.485	22006.64
579.845	22084.38
580.206	22180.19
580.566	22313.3
580.927	22416.12
581.287	22579.51
581.648	22712.83
582.008	22965.03
582.368	23100.4
582.728	23303.1
583.089	23316.21
583.449	23578.12
583.809	23785.35
584.169	23835.97
584.529	24059.69
584.889	24428.5
585.249	24413.58
585.609	24593.69
585.969	24946.22
586.329	25052.21
586.688	25343.5
587.048	25424.85
587.408	25606.09
587.768	25933.54
588.127	26098.28
588.487	26214.21
588.846	26780.75
589.206	26748.44
589.565	26799.73
589.925	27184.13
590.284	27386.61
590.643	27511.58
591.003	27842.87
591.362	28127.61
591.721	28303.42
592.08	28592.23
592.44	28977.98
592.799	29092.55
593.158	29214.13
593.517	29384.75
593.876	29727.34
594.235	29852.76
594.593	30097.73
594.952	30381.56
595.311	30509.69
595.67	30737.48
596.029	31139.05
596.387	31405.49
596.746	31506.73
597.104	31740.85
597.463	31931.12
597.822	32260.61
598.18	32258.57
598.538	32428.06
598.897	32808.84
599.255	32734.72
599.613	33421.03
599.972	33312.1
600.33	33672.55
600.688	33578.76
601.046	33942.6
601.404	34299.2
601.762	34363.15
602.12	34731.28
602.478	34842.69
602.836	35079.97
603.194	35093.07
603.552	35230.02
603.91	35326.06
604.268	35589.56
604.625	35628.43
604.983	35922.43
605.341	35857.57
605.698	36348.86
606.056	36486.48
606.413	36581.4
606.771	36874.95
607.128	36958.79
607.485	36929.64
607.843	37112.91
608.2	37470.19
608.557	37705.21
608.914	37676.74
609.272	37932.32
609.629	38123.96
609.986	38406.66
610.343	38353.1
610.7	38708.12
611.057	38595.36
611.414	38731.17
611.771	38936.14
612.127	39189.69
612.484	39168.9
612.841	39382.68
613.198	39262.68
613.554	39354.43
613.911	39810.01
614.267	39926.85
614.624	39830.8
614.98	40034.19
615.337	40273.5
615.693	40021.76
616.05	40193.05
616.406	40611.8
616.762	40498.58
617.118	40656.77
617.475	40720.95
617.831	40808.86
618.187	41075.52
618.543	41021.96
618.899	41417.43
619.255	41224.44
619.611	41338.79
619.967	41533.81
620.323	41642.51
620.678	41704.2
621.034	41572.45
621.39	41614.03
621.746	41728.38
622.101	42113.91
622.457	41831.2
622.812	42097.41
623.168	42178.31
623.523	42224.64
623.879	42317.29
624.234	42022.61
624.589	42248.37
624.945	42435.03
625.3	42376.5
625.655	42428.47
626.01	42512.54
626.365	42462.6
626.72	42538.75
627.075	42511.64
627.43	42583.72
627.785	42558.64
628.14	42691.29
628.495	42755.7
628.85	42617.4
629.205	42673.21
629.559	42915.24
629.914	42561.58
630.269	42693.78
630.623	42771.52
630.978	42606.55
631.332	42944.17
631.687	42883.6
632.041	42773.78
632.396	42894.45
632.75	42769.71
633.104	42756.83
633.459	42645.87
633.813	42872.3
634.167	42673.44
634.521	42742.36
634.875	42846.77
635.229	42883.83
635.583	42695.81
635.937	42725.87
636.291	42653.1
636.645	42629.83
636.999	42677.28
637.352	42891.06
637.706	42525.65
638.06	42670.73
638.413	42649.71
638.767	42473.22
639.121	42623.95
639.474	42409.27
639.828	42471.64
640.181	42512.77
640.534	42464.41
640.888	42364.3
641.241	42204.07
641.594	42415.59
641.947	42383.28
642.301	42338.53
642.654	42286.11
643.007	42334.92
643.36	42339.21
643.713	42379.66
644.066	42509.83
644.419	42140.8
644.771	41932.22
645.124	41661.04
645.477	41542.17
645.83	41261.5
646.182	41301.95
646.535	41303.76
646.888	41191.45
647.24	40948.97
647.593	41256.08
647.945	41155.06
648.298	40884.33
648.65	40871.45
649.002	40851.34
649.355	41047.04
649.707	40825.13
650.059	41131.33
650.411	41584.2
650.763	41574.94
651.115	41990.97
651.467	41873.69
651.819	41816.29
652.171	41691.55
652.523	41701.49
652.875	41598.89
653.227	41433.7
653.578	41755.72
653.93	41627.59
654.282	41394.83
654.633	41492.68
654.985	41439.8
655.337	41486.13
655.688	41650.19
656.039	41668.04
656.391	41383.76
656.742	41442.51
657.094	41440.25
657.445	41540.81
657.796	41453.13
658.147	41318.9
658.498	41403.64
658.849	41562.73
659.2	41438.22
659.551	41222.86
659.902	41566.12
660.253	41503.08
660.604	41422.17
660.955	41233.03
661.306	41493.13
661.656	41400.25
662.007	41378.78
662.358	41387.82
662.708	41319.8
663.059	41226.47
663.409	40974.05
663.76	41342.18
664.11	41220.82
664.461	41338.33
664.811	41237.77
665.161	41212.24
665.511	41050.88
665.862	41086.14
666.212	41205.91
666.562	41252.01
666.912	41129.3
667.262	41019.92
667.612	41151.67
667.962	41048.17
668.312	40998.23
668.662	41354.38
669.011	41278.9
669.361	40974.05
669.711	41054.95
670.06	41087.72
670.41	40965.24
670.76	40829.65
671.109	41087.95
671.459	41091.56
671.808	41066.25
672.157	40963.43
672.507	40898.8
672.856	40847.73
673.205	40842.3
673.554	41083.43
673.904	40819.7
674.253	41084.56
674.602	40844.34
674.951	40419.49
675.3	40157.12
675.649	40915.75
675.998	40790.78
676.346	40780.61
676.695	40925.24
677.044	40607.51
677.393	40754.39
677.741	40761.4
678.09	40569.54
678.438	40546.49
678.787	40670.33
679.135	40678.92
679.484	40414.97
679.832	40622.87
680.181	40360.73
680.529	40404.12
680.877	40412.93
681.225	40346.27
681.573	40519.15
681.922	40199.15
682.27	40076.22
682.618	40232.83
682.966	39978.6
683.314	40138.14
683.661	40011.82
684.009	39875.77
684.357	39796.91
684.705	39789.45
685.053	39798.71
685.4	39818.83
685.748	39520.75
686.095	39502.68
686.443	39408.44
686.79	39367.54
687.138	39460.19
687.485	39366.63
687.832	39069.24
688.18	39230.14
688.527	39104.27
688.874	38948.11
689.221	38995.34
689.568	38854.56
689.915	38838.51
690.262	38815.46
690.609	38671.96
690.956	38562.59
691.303	38478.52
691.65	38438.07
691.997	38317.62
692.344	38117.85
692.69	38134.8
693.037	38224.29
693.383	37805.77
693.73	37978.65
694.077	37912.21
694.423	37882.83
694.769	37702.95
695.116	37640.8
695.462	37691.2
695.808	37312.9
696.155	37477.19
696.501	37266.35
696.847	37267.03
697.193	37039.69
697.539	37167.6
697.885	36864.55
698.231	36770.54
698.577	36956.08
698.923	36606.25
699.269	36583.66
699.614	36400.38
699.96	36371.46
700.306	36391.8
700.651	36261.41
700.997	35973.5
701.342	36054.86
701.688	35957.68
702.033	36011.02
702.379	35842.66
702.724	35722.66
703.069	35955.65
703.415	35426.4
703.76	35442.22
704.105	35444.93
704.45	35333.97
704.795	35299.4
705.14	35072.28
705.485	34928.56
705.83	34938.95
706.175	34954.1
706.52	34868.9
706.865	34701.22
707.209	34777.6
707.554	34558.4
707.899	34587.33
708.243	34397.5
708.588	34355.01
708.932	34137.62
709.277	34051.52
709.621	34224.17
709.966	34022.82
710.31	34025.31
710.654	33766.56
710.998	33837.29
711.342	33898.98
711.687	33723.84
712.031	33523.4
712.375	33369.5
712.719	33533.34
713.063	33530.86
713.407	33481.37
713.75	33331.31
714.094	33322.95
714.438	33129.51
714.782	33145.56
715.125	33045.9
715.469	33082.05
715.812	32869.63
716.156	32620.15
716.499	32701.95
716.843	32789.86
717.186	32685
717.53	32794.6
717.873	32710.54
718.216	32729.75
718.559	32488.85
718.902	32450.88
719.246	32318.46
719.589	32341.51
719.932	32092.02
720.275	32191.46
720.617	32042.31
720.96	32190.55
721.303	32068.3
721.646	32021.29
721.989	31784.23
722.331	32011.8
722.674	31851.35
723.016	31916.43
723.359	31824.01
723.701	31845.93
724.044	31467.18
724.386	31424.92
724.729	31659.94
725.071	31557.57
725.413	31539.27
725.755	31548.53
726.097	31260.86
726.439	31074.2
726.782	31215.89
727.124	31347.86
727.465	31014.31
727.807	31170.24
728.149	31054.08
728.491	30852.06
728.833	31001.88
729.175	30904.71
729.516	30852.06
729.858	30774.77
730.199	30740.42
730.541	30723.47
730.882	30577.49
731.224	30687.54
731.565	30545.62
731.906	30518.51
732.248	30560.31
732.589	30298.4
732.93	30302.92
733.271	30319.87
733.612	30429.69
733.953	30387.44
734.294	30169.59
734.635	30277.38
734.976	30163.49
735.317	30158.29
735.658	30034
735.999	30057.05
736.339	29942.02
736.68	30166.65
737.021	29871.74
737.361	29662.71
737.702	29966.88
738.042	29832.65
738.383	29749.94
738.723	29767.79
739.063	29664.06
739.404	29670.84
739.744	29676.27
740.084	29465.43
740.424	29510.62
740.764	29477.18
741.104	29577.74
741.444	29398.99
741.784	29172.33
742.124	29359.21
742.464	29180.91
742.804	29205.55
743.143	29095.49
743.483	29100.92
743.823	28937.3
744.162	28843.75
744.502	29025.66
744.841	28965.1
745.181	28934.82
745.52	28963.07
745.86	28930.75
746.199	28740.25
746.538	28759.91
746.877	28847.14
747.216	28806.23
747.556	28699.12
747.895	28748.83
748.234	28511.55
748.573	28462.74
748.911	28441.72
749.25	28374.16
749.589	28253.93
749.928	28269.75
750.267	28443.31
750.605	28247.15
750.944	28254.16
751.283	28173.93
751.621	28193.59
751.96	28088.06
752.298	27973.71
752.636	27922.64
752.975	27858.46
753.313	27911.12
753.651	27903.21
753.989	27651.01
754.327	27677
754.666	27592.93
755.004	27555.65
755.342	27611.69
755.679	27511.13
756.017	27378.7
756.355	27547.06
756.693	27238.14
757.031	27314.07
757.368	27157.01
757.706	26977.36
