Data from hue_210_FLMS001491_00014.txt Node
Date: Tue Feb 07 16:40:49 GMT 2017
User: dcchb
Spectrometer: FLMS00149
Trigger mode: 0
Integration Time (sec): 2.000000E-2
Scans to average: 10
Electric dark correction enabled: true
Nonlinearity correction enabled: false
Boxcar width: 0
XAxis mode: Wavelengths
Number of Pixels in Spectrum: 2048
>>>>>Begin Spectral Data<<<<<
341.393	-7.4
341.776	-7.4
342.16	-7.4
342.543	-37
342.927	-50.11
343.31	-65.7
343.693	-69.55
344.077	-62.31
344.46	-57.34
344.843	-55.54
345.226	-39.26
345.61	-18.93
345.993	-25.03
346.376	22.2
346.759	-9.66
347.142	19.49
347.525	41.41
347.908	31.02
348.291	82.77
348.674	90
349.057	116.44
349.44	118.7
349.823	147.62
350.206	151.92
350.588	182.2
350.971	206.38
351.354	238.24
351.737	247.51
352.119	238.24
352.502	269.88
352.884	288.18
353.267	283.44
353.65	285.25
354.032	294.29
354.414	310.78
354.797	314.17
355.179	326.15
355.562	308.07
355.944	314.4
356.326	319.6
356.709	337.67
357.091	336.09
357.473	347.17
357.855	340.61
358.238	355.98
358.62	343.32
359.002	341.97
359.384	343.55
359.766	338.58
360.148	331.57
360.53	336.09
360.912	332.25
361.294	327.73
361.676	327.73
362.057	336.77
362.439	311.69
362.821	316.66
363.203	322.76
363.584	321.63
363.966	311.01
364.348	313.95
364.729	341.06
365.111	304.46
365.493	334.96
365.874	320.5
366.256	321.63
366.637	300.16
367.019	317.56
367.4	309.2
367.781	330.67
368.163	325.25
368.544	319.6
368.925	292.25
369.306	315.08
369.688	305.36
370.069	341.06
370.45	308.3
370.831	304
371.212	316.21
371.593	312.36
371.974	308.75
372.355	305.36
372.736	336.09
373.117	305.13
373.498	325.7
373.879	319.37
374.26	319.37
374.641	334.96
375.021	297
375.402	308.52
375.783	313.95
376.163	327.96
376.544	315.53
376.925	303.33
377.305	320.95
377.686	325.25
378.066	327.51
378.447	333.61
378.827	335.87
379.208	344.91
379.588	309.65
379.968	331.8
380.349	316.66
380.729	317.34
381.109	325.25
381.489	337.22
381.87	319.14
382.25	353.49
382.63	324.79
383.01	323.89
383.39	345.13
383.77	349.43
384.15	357.34
384.53	337.45
384.91	348.3
385.29	327.05
385.67	354.62
386.049	353.72
386.429	343.78
386.809	360.72
387.189	374.06
387.568	351.46
387.948	351.23
388.328	352.59
388.707	352.82
389.087	347.17
389.466	356.88
389.846	339.26
390.225	361.63
390.605	360.95
390.984	351.91
391.363	367.28
391.743	373.61
392.122	379.48
392.501	376.09
392.881	376.09
393.26	372.7
393.639	384.23
394.018	377
394.397	396.43
394.776	392.36
395.155	405.7
395.534	387.39
395.913	386.94
396.292	395.53
396.671	401.63
397.05	406.37
397.429	389.65
397.808	392.59
398.186	397.79
398.565	403.66
398.944	420.84
399.323	401.4
399.701	408.41
400.08	404.11
400.458	419.48
400.837	462.64
401.215	421.51
401.594	435.3
401.972	422.64
402.351	431.68
402.729	440.04
403.107	424
403.486	448.18
403.864	429.88
404.242	449.31
404.62	446.37
404.999	448.18
405.377	440.72
405.755	438.46
406.133	467.84
406.511	494.05
406.889	482.3
407.267	481.17
407.645	483.66
408.023	482.98
408.401	515.3
408.779	491.34
409.156	518.01
409.534	508.29
409.912	524.79
410.29	520.04
410.667	535.86
411.045	545.8
411.422	580.38
411.8	573.83
412.178	536.31
412.555	570.89
412.933	593.49
413.31	598.68
413.687	620.15
414.065	628.97
414.442	608.18
414.819	629.64
415.197	635.07
415.574	641.62
415.951	651.34
416.328	679.13
416.705	696.31
417.082	713.26
417.46	668.74
417.837	694.05
418.214	722.3
418.591	710.32
418.967	709.64
419.344	739.7
419.721	734.73
420.098	736.76
420.475	744.44
420.852	778.79
421.228	800.26
421.605	814.5
421.982	820.83
422.358	835.06
422.735	855.63
423.111	851.56
423.488	873.48
423.864	879.13
424.241	898.11
424.617	916.42
424.994	932.46
425.37	939.69
425.746	958.22
426.123	963.2
426.499	968.17
426.875	969.07
427.251	1020.37
427.627	1013.59
428.003	1020.14
428.379	1073.47
428.756	1064.66
429.132	1070.99
429.507	1069.63
429.883	1073.47
430.259	1100.14
430.635	1121.83
431.011	1135.39
431.387	1140.37
431.763	1175.17
432.138	1191.44
432.514	1190.08
432.89	1216.75
433.265	1237.09
433.641	1266.92
434.016	1260.36
434.392	1314.37
434.767	1329.74
435.143	1338.33
435.518	1382.39
435.894	1384.2
436.269	1442.28
436.644	1446.12
437.02	1484.31
437.395	1494.48
437.77	1517.98
438.145	1525.67
438.52	1603.86
438.895	1604.31
439.271	1606.79
439.646	1597.3
440.021	1691.31
440.395	1672.78
440.77	1703.51
441.145	1708.94
441.52	1736.51
441.895	1755.04
442.27	1797.3
442.645	1769.05
443.019	1848.14
443.394	1846.56
443.769	1856.05
444.143	1851.99
444.518	1924.53
444.892	1899.67
445.267	1901.7
445.641	1952.77
446.016	1933.56
446.39	1970.85
446.764	1956.16
447.139	1957.07
447.513	2000.68
447.887	2007.91
448.262	2020.12
448.636	2061.47
449.01	2063.28
449.384	2098.53
449.758	2119.77
450.132	2148.7
450.506	2154.8
450.88	2137.4
451.254	2159.55
451.628	2170.39
452.002	2209.04
452.376	2253.33
452.75	2251.52
453.123	2279.09
453.497	2296.95
453.871	2335.14
454.244	2386.89
454.618	2386.89
454.992	2419.2
455.365	2403.16
455.739	2468.69
456.112	2474.79
456.486	2522.25
456.859	2499.2
457.232	2581.01
457.606	2605.41
457.979	2634.11
458.352	2665.3
458.725	2677.73
459.099	2709.14
459.472	2761.11
459.845	2759.98
460.218	2754.56
460.591	2818.74
460.964	2835.91
461.337	2891.28
461.71	2910.94
462.083	2978.51
462.456	2947.55
462.829	2987.55
463.201	3036.81
463.574	3067.09
463.947	3092.4
464.32	3146.19
464.692	3174.89
465.065	3186.19
465.438	3236.58
465.81	3313.87
466.183	3309.12
466.555	3381.44
466.928	3401.1
467.3	3426.86
467.672	3469.8
468.045	3531.72
468.417	3567.65
468.789	3609.23
469.161	3574.2
469.534	3649.9
469.906	3744.59
470.278	3779.62
470.65	3781.88
471.022	3858.26
471.394	3915.89
471.766	3983.91
472.138	4005.83
472.51	4083.56
472.882	4120.4
473.253	4164.24
473.625	4181.19
473.997	4330.56
474.369	4296.44
474.74	4366.72
475.112	4455.98
475.484	4495.98
475.855	4611.23
476.227	4590.22
476.598	4715.19
476.97	4693.94
477.341	4877.22
477.713	4898.46
478.084	4918.57
478.455	5033.82
478.827	5086.93
479.198	5196.98
479.569	5231.33
479.94	5388.84
480.311	5393.59
480.682	5484.21
481.053	5577.76
481.424	5675.61
481.795	5700.7
482.166	5777.08
482.537	5860.47
482.908	5971.65
483.279	5972.55
483.65	6102.27
484.021	6191.53
484.391	6278.76
484.762	6333
485.133	6407.12
485.503	6415.26
485.874	6570.05
486.244	6543.16
486.615	6754.46
486.985	6777.73
487.356	6882.59
487.726	6966.65
488.097	7093.66
488.467	7081
488.837	7174.78
489.207	7290.71
489.578	7347.66
489.948	7391.05
490.318	7502.23
490.688	7466.07
491.058	7647.99
491.428	7689.57
491.798	7701.55
492.168	7892.05
492.538	7890.24
492.908	7906.97
493.278	8045.49
493.648	8022.9
494.017	8160.97
494.387	8219.05
494.757	8258.14
495.126	8316
495.496	8257.01
495.866	8374.3
496.235	8473.05
496.605	8552.15
496.974	8567.74
497.344	8597.34
497.713	8601.86
498.082	8645.03
498.452	8773.61
498.821	8796.66
499.19	8746.72
499.559	8892.7
499.928	8852.71
500.298	8908.3
500.667	8955.3
501.036	8999.82
501.405	9000.72
501.774	9077.56
502.143	9114.39
502.512	9098.12
502.88	9201.85
503.249	9104
503.618	9239.59
503.987	9183.54
504.356	9129.53
504.724	9320.49
505.093	9286.59
505.462	9349.42
505.83	9339.02
506.199	9386.48
506.567	9473.25
506.936	9423.09
507.304	9577.66
507.672	9506.47
508.041	9574.95
508.409	9603.65
508.777	9578.79
509.145	9655.62
509.514	9590.09
509.882	9643.87
510.25	9669.18
510.618	9755.96
510.986	9748.5
511.354	9762.96
511.722	9799.57
512.09	9845.9
512.458	9834.15
512.826	9866.01
513.193	9907.14
513.561	9932.68
513.929	9871.89
514.297	9967.25
514.664	9993.01
515.032	10039.11
515.4	10047.7
515.767	9978.33
516.135	10029.62
516.502	9923.19
516.869	10078.89
517.237	10061.03
517.604	9997.99
517.972	10059
518.339	10085.67
518.706	10057.65
519.073	10127.93
519.44	10119.79
519.808	10176.29
520.175	10098.1
520.542	10156.4
520.909	10156.17
521.276	10118.43
521.643	10172.9
522.009	10265.55
522.376	10290.41
522.743	10252.67
523.11	10289.05
523.477	10272.33
523.843	10299.67
524.21	10328.82
524.577	10386.45
524.943	10323.17
525.31	10259
525.676	10446.56
526.043	10425.55
526.409	10456.05
526.776	10445.88
527.142	10421.25
527.508	10458.76
527.874	10433
528.241	10444.53
528.607	10374.02
528.973	10487.69
529.339	10418.77
529.705	10527.46
530.071	10542.6
530.437	10439.78
530.803	10432.55
531.169	10437.3
531.535	10421.48
531.901	10387.13
532.267	10336.51
532.632	10358.88
532.998	10360.91
533.364	10353.91
533.73	10354.59
534.095	10336.73
534.461	10312.55
534.826	10331.31
535.192	10335.38
535.557	10300.8
535.923	10246.34
536.288	10267.13
536.653	10257.64
537.019	10154.82
537.384	10162.5
537.749	10238.66
538.114	10180.35
538.479	10122.05
538.845	10102.84
539.21	9974.94
539.575	9999.57
539.94	9985.1
540.305	9987.14
540.67	9891.55
541.034	9917.99
541.399	9890.64
541.764	9842.28
542.129	9813.36
542.494	9887.48
542.858	9775.84
543.223	9704.66
543.587	9738.56
543.952	9739.46
544.316	9719.57
544.681	9572.46
545.045	9632.57
545.41	9633.02
545.774	9589.86
546.138	9584.21
546.503	9456.31
546.867	9467.15
547.231	9510.99
547.595	9466.02
547.959	9432.35
548.324	9406.36
548.688	9388.28
549.052	9389.41
549.416	9342.41
549.779	9201.62
550.143	9241.17
550.507	9317.78
550.871	9274.39
551.235	9167.05
551.599	9195.52
551.962	9179.7
552.326	9095.86
552.689	9121.85
553.053	9066.26
553.417	9073.94
553.78	9141.29
554.143	9039.37
554.507	8980.16
554.87	8962.31
555.234	9063.77
555.597	8918.92
555.96	8945.36
556.323	8957.79
556.686	8894.74
557.05	8909.65
557.413	8971.35
557.776	8881.18
558.139	8891.12
558.502	8866.04
558.865	8882.53
559.228	8835.08
559.59	8899.03
559.953	8804.12
560.316	8895.87
560.679	8815.19
561.041	8892.48
561.404	8902.65
561.767	8866.26
562.129	8852.03
562.492	8868.3
562.854	8887.05
563.217	8796.21
563.579	8842.99
563.941	8878.69
564.304	8828.52
564.666	8871.91
565.028	8862.65
565.39	8877.56
565.753	8873.95
566.115	8957.11
566.477	8906.04
566.839	8878.47
567.201	8939.48
567.563	8939.03
567.925	8911.23
568.287	8988.52
568.648	8922.53
569.01	8998.01
569.372	8995.98
569.734	8919.14
570.095	8972.7
570.457	9026.71
570.819	9013.15
571.18	8988.97
571.542	9043.43
571.903	9074.85
572.265	9076.65
572.626	9088.18
572.987	9082.98
573.349	9113.72
573.71	9111
574.071	9122.08
574.432	9163.66
574.794	9136.54
575.155	9133.38
575.516	9209.31
575.877	9172.47
576.238	9103.77
576.599	9196.88
576.96	9132.47
577.32	9130.44
577.681	9207.27
578.042	9216.99
578.403	9292.02
578.763	9205.24
579.124	9248.63
579.485	9279.81
579.845	9273.71
580.206	9308.74
580.566	9261.28
580.927	9230.55
581.287	9320.94
581.648	9333.37
582.008	9393.03
582.368	9271.45
582.728	9353.71
583.089	9347.61
583.449	9250.43
583.809	9374.5
584.169	9326.59
584.529	9338.79
584.889	9397.1
585.249	9337.66
585.609	9286.59
585.969	9383.31
586.329	9328.85
586.688	9402.97
587.048	9372.01
587.408	9404.55
587.768	9385.35
588.127	9374.27
588.487	9409.98
588.846	9434.16
589.206	9318.23
589.565	9356.42
589.925	9399.81
590.284	9461.73
590.643	9396.87
591.003	9420.15
591.362	9496.08
591.721	9482.29
592.08	9440.94
592.44	9484.33
592.799	9420.37
593.158	9471.22
593.517	9458.11
593.876	9460.82
594.235	9447.27
594.593	9437.77
594.952	9483.2
595.311	9449.98
595.67	9458.79
596.029	9481.39
596.387	9473.71
596.746	9528.85
597.104	9427.15
597.463	9440.03
597.822	9511.67
598.18	9490.65
598.538	9470.32
598.897	9523.42
599.255	9471.9
599.613	9578.11
599.972	9513.93
600.33	9558.22
600.688	9479.58
601.046	9483.2
601.404	9547.38
601.762	9502.86
602.12	9522.52
602.478	9525.68
602.836	9460.37
603.194	9582.63
603.552	9510.54
603.91	9451.11
604.268	9554.83
604.625	9444.78
604.983	9492.69
605.341	9469.86
605.698	9572.69
606.056	9516.87
606.413	9518
606.771	9537.88
607.128	9561.61
607.485	9548.96
607.843	9572.69
608.2	9562.74
608.557	9585.34
608.914	9533.37
609.272	9635.06
609.629	9649.29
609.986	9641.84
610.343	9585.34
610.7	9661.27
611.057	9657.2
611.414	9613.14
611.771	9661.95
612.127	9723.42
612.484	9676.86
612.841	9626.47
613.198	9659.46
613.554	9684.32
613.911	9760.03
614.267	9710.76
614.624	9717.32
614.98	9668.95
615.337	9757.77
615.693	9713.25
616.05	9759.57
616.406	9764.09
616.762	9753.92
617.118	9725
617.475	9751.89
617.831	9795.05
618.187	9783.3
618.543	9700.82
618.899	9757.09
619.255	9812
619.611	9735.62
619.967	9835.05
620.323	9854.71
620.678	9824.2
621.034	9772.68
621.39	9789.4
621.746	9848.16
622.101	9875.73
622.457	9830.76
622.812	9799.8
623.168	9891.32
623.523	9823.98
623.879	9864.43
624.234	9841.61
624.589	9856.52
624.945	9830.98
625.3	9869.18
625.655	9880.47
626.01	9859.68
626.365	9825.33
626.72	9836.63
627.075	9841.38
627.43	9791.89
627.785	9809.74
628.14	9774.94
628.495	9835.73
628.85	9795.51
629.205	9754.6
629.559	9817.2
629.914	9771.55
630.269	9750.08
630.623	9648.16
630.978	9788.05
631.332	9769.74
631.687	9775.17
632.041	9738.11
632.396	9734.04
632.75	9720.48
633.104	9703.3
633.459	9574.04
633.813	9617.66
634.167	9626.92
634.521	9605.23
634.875	9633.48
635.229	9558.68
635.583	9540.37
635.937	9578.11
636.291	9575.85
636.645	9586.47
636.999	9541.05
637.352	9591.22
637.706	9559.13
638.06	9574.95
638.413	9544.21
638.767	9494.72
639.121	9449.07
639.474	9394.16
639.828	9412.01
640.181	9443.42
640.534	9516.19
640.888	9430.32
641.241	9350.77
641.594	9463.08
641.947	9455.63
642.301	9459.69
642.654	9387.38
643.007	9432.58
643.36	9416.53
643.713	9336.53
644.066	9410.43
644.419	9278.46
644.771	9289.3
645.124	9200.27
645.477	9183.77
645.83	9122.53
646.182	9047.95
646.535	9008.86
646.888	9108.29
647.24	8997.33
647.593	9112.13
647.945	9061.74
648.298	9080.04
648.65	9083.43
649.002	9015.41
649.355	9023.32
649.707	9077.78
650.059	9091.79
650.411	9143.54
650.763	9174.96
651.115	9352.8
651.467	9198.23
651.819	9277.55
652.171	9280.94
652.523	9179.25
652.875	9223.32
653.227	9245.24
653.578	9247.72
653.93	9251.34
654.282	9233.71
654.633	9183.77
654.985	9253.15
655.337	9204.11
655.688	9240.49
656.039	9297.89
656.391	9209.98
656.742	9224.9
657.094	9216.31
657.445	9306.7
657.796	9278.46
658.147	9322.75
658.498	9263.54
658.849	9257.44
659.2	9328.17
659.551	9182.19
659.902	9282.52
660.253	9229.19
660.604	9361.17
660.955	9252.69
661.306	9260.15
661.656	9326.36
662.007	9220.83
662.358	9261.96
662.708	9259.47
663.059	9260.15
663.409	9161.17
663.76	9281.62
664.11	9343.99
664.461	9272.36
664.811	9276.42
665.161	9302.41
665.511	9228.51
665.862	9268.74
666.212	9230.77
666.562	9303.54
666.912	9268.51
667.262	9306.93
667.612	9310.77
667.962	9366.14
668.312	9308.74
668.662	9317.78
669.011	9287.27
669.361	9303.77
669.711	9235.29
670.06	9268.51
670.41	9197.55
670.76	9263.54
671.109	9309.64
671.459	9286.14
671.808	9235.29
672.157	9254.05
672.507	9151.23
672.856	9176.76
673.205	9234.62
673.554	9229.64
673.904	9228.06
674.253	9200.27
674.602	9211.79
674.951	9082.08
675.3	9021.29
675.649	9136.99
675.998	9078.24
676.346	9134.96
676.695	9181.06
677.044	9090.44
677.393	9084.79
677.741	9093.38
678.09	9085.92
678.438	9060.84
678.787	9098.12
679.135	9091.79
679.484	9012.93
679.832	9088.18
680.181	8990.78
680.529	9007.05
680.877	8962.98
681.225	8947.39
681.573	8992.59
681.922	8925.02
682.27	8968.18
682.618	8929.54
682.966	8886.6
683.314	8914.4
683.661	8810.9
684.009	8761.63
684.357	8798.24
684.705	8799.37
685.053	8826.04
685.4	8695.42
685.748	8765.02
686.095	8748.3
686.443	8708.3
686.79	8678.25
687.138	8701.3
687.485	8727.51
687.832	8670.79
688.18	8643.9
688.527	8610.45
688.874	8578.36
689.221	8542.66
689.568	8512.83
689.915	8456.78
690.262	8509.89
690.609	8495.2
690.956	8413.85
691.303	8425.37
691.65	8388.31
691.997	8394.86
692.344	8341.76
692.69	8301.08
693.037	8328.2
693.383	8219.05
693.73	8272.83
694.077	8192.61
694.423	8177.47
694.769	8185.15
695.116	8119.84
695.462	8076.91
695.808	8070.35
696.155	8115.55
696.501	7976.12
696.847	8005.72
697.193	7907.19
697.539	7964.14
697.885	7867.19
698.231	7868.32
698.577	7883.24
698.923	7842.11
699.269	7772.28
699.614	7701.1
699.96	7686.18
700.306	7677.59
700.651	7646.18
700.997	7662.91
701.342	7617.71
701.688	7625.17
702.033	7575
702.379	7527.09
702.724	7491.84
703.069	7557.6
703.415	7418.17
703.76	7422.91
704.105	7438.5
704.45	7349.47
704.795	7363.93
705.14	7400.31
705.485	7303.14
705.83	7299.3
706.175	7301.11
706.52	7258.85
706.865	7291.39
707.209	7202.58
707.554	7210.26
707.899	7271.05
708.243	7158.06
708.588	7122.81
708.932	7109.25
709.277	7160.32
709.621	7111.06
709.966	7082.13
710.31	7036.26
710.654	6974.11
710.998	7054.79
711.342	6980.89
711.687	6977.73
712.031	6968.01
712.375	6923.04
712.719	6905.86
713.063	6940.66
713.407	7004.17
713.75	6843.49
714.094	6888.91
714.438	6861.12
714.782	6831.52
715.125	6837.62
715.469	6821.57
715.812	6810.05
716.156	6760.78
716.499	6769.14
716.843	6836.03
717.186	6747.9
717.53	6788.13
717.873	6808.24
718.216	6756.04
718.559	6716.04
718.902	6638.3
719.246	6697.73
719.589	6695.47
719.932	6639.43
720.275	6656.6
720.617	6646.44
720.96	6639.2
721.303	6583.39
721.646	6655.47
721.989	6602.59
722.331	6655.47
722.674	6637.4
723.016	6603.95
723.359	6574.12
723.701	6573.44
724.044	6596.49
724.386	6526.21
724.729	6549.71
725.071	6582.93
725.413	6565.99
725.755	6569.83
726.097	6569.6
726.439	6521.92
726.782	6497.06
727.124	6542.94
727.465	6503.61
727.807	6511.52
728.149	6493.67
728.491	6481.47
728.833	6516.04
729.175	6475.82
729.516	6495.7
729.858	6476.5
730.199	6504.74
730.541	6463.16
730.882	6454.58
731.224	6520.34
731.565	6465.2
731.906	6469.04
732.248	6497.74
732.589	6456.84
732.93	6472.2
733.271	6434.92
733.612	6438.08
733.953	6490.06
734.294	6487.12
734.635	6464.07
734.976	6485.99
735.317	6415.71
735.658	6431.07
735.999	6470.85
736.339	6451.41
736.68	6499.55
737.021	6483.28
737.361	6467.46
737.702	6487.57
738.042	6495.7
738.383	6467.91
738.723	6489.15
739.063	6518.98
739.404	6488.02
739.744	6505.2
740.084	6475.59
740.424	6542.26
740.764	6540.45
741.104	6546.55
741.444	6599.43
741.784	6587.23
742.124	6578.64
742.464	6662.93
742.804	6635.81
743.143	6609.6
743.483	6666.32
743.823	6649.83
744.162	6671.29
744.502	6752.2
744.841	6684.85
745.181	6818.63
745.52	6810.95
745.86	6857.28
746.199	6816.37
746.538	6890.95
746.877	6956.48
747.216	6923.94
747.556	7010.49
747.895	7088.23
748.234	7058.4
748.573	7132.52
748.911	7166.65
749.25	7240.77
749.589	7339.07
749.928	7316.25
750.267	7402.12
750.605	7484.83
750.944	7528.22
751.283	7681.66
751.621	7694.54
751.96	7686.63
752.298	7800.3
752.636	7984.48
752.975	7993.52
753.313	8078.71
753.651	8222.67
753.989	8309.89
754.327	8448.42
754.666	8511.92
755.004	8645.93
755.342	8799.15
755.679	8913.49
756.017	9021.29
756.355	9108.74
756.693	9275.97
757.031	9414.95
757.368	9502.18
757.706	9617.88
758.044	9741.5
758.381	9946.46
758.719	10108.94
759.056	10258.77
759.394	10344.87
759.731	10576.73
760.068	10695.14
760.405	10793.9
760.743	11018.98
761.08	11183.94
761.417	11406.76
761.754	11594.33
762.091	11722.23
762.428	11824.15
762.765	11975.79
763.102	12246.74
763.438	12415.78
763.775	12468.88
764.112	12724.69
764.449	12929.43
764.785	13052.59
765.122	13246.49
765.458	13319.71
765.795	13486.71
766.131	13712.01
766.467	13854.83
766.804	13969.63
767.14	14062.51
767.476	14201.94
767.812	14335.27
768.148	14603.74
