Data from hue_240_FLMS001491_00025.txt Node
Date: Tue Feb 07 16:35:15 GMT 2017
User: dcchb
Spectrometer: FLMS00149
Trigger mode: 0
Integration Time (sec): 2.000000E-2
Scans to average: 10
Electric dark correction enabled: true
Nonlinearity correction enabled: false
Boxcar width: 0
XAxis mode: Wavelengths
Number of Pixels in Spectrum: 2048
>>>>>Begin Spectral Data<<<<<
341.393	6.5
341.776	6.5
342.16	6.5
342.543	-64.46
342.927	-71.24
343.31	-63.78
343.693	-78.02
344.077	-63.33
344.46	-70.34
344.843	-62.88
345.226	-57.91
345.61	-27.63
345.993	-21.3
346.376	20.06
346.759	2.2
347.142	17.8
347.525	44.69
347.908	80.17
348.291	74.74
348.674	98.02
349.057	107.51
349.44	122.2
349.823	131.69
350.206	153.84
350.588	179.83
350.971	221.18
351.354	206.72
351.737	218.92
352.119	236.55
352.502	261.18
352.884	267.06
353.267	279.71
353.65	284.91
354.032	283.33
354.414	302.99
354.797	310.9
355.179	322.42
355.562	325.36
355.944	322.65
356.326	309.99
356.709	324.68
357.091	322.42
357.473	333.49
357.855	320.16
358.238	337.56
358.62	342.08
359.002	315.42
359.384	312.93
359.766	321.97
360.148	332.59
360.53	337.34
360.912	325.36
361.294	334.85
361.676	334.85
362.057	323.55
362.439	308.86
362.821	304.12
363.203	316.32
363.584	337.56
363.966	319.03
364.348	308.86
364.729	328.52
365.111	296.88
365.493	324.45
365.874	317.45
366.256	327.84
366.637	314.06
367.019	323.32
367.4	294.63
367.781	281.07
368.163	309.54
368.544	310.22
368.925	320.61
369.306	320.84
369.688	312.93
370.069	322.65
370.45	294.4
370.831	310.44
371.212	316.09
371.593	334.62
371.974	303.21
372.355	308.41
372.736	320.39
373.117	328.3
373.498	317.9
373.879	304.57
374.26	285.13
374.641	310.44
375.021	319.71
375.402	328.75
375.783	305.47
376.163	317.9
376.544	326.71
376.925	328.52
377.305	323.1
377.686	334.62
378.066	320.16
378.447	318.13
378.827	335.3
379.208	333.49
379.588	313.16
379.968	321.07
380.349	324.68
380.729	338.24
381.109	313.61
381.489	328.97
381.87	342.76
382.25	308.86
382.63	347.96
383.01	341.63
383.39	361.52
383.77	333.95
384.15	344.12
384.53	338.69
384.91	328.07
385.29	346.38
385.67	330.78
386.049	344.79
386.429	325.81
386.809	326.94
387.189	333.95
387.568	379.14
387.948	350.44
388.328	357
388.707	344.79
389.087	339.37
389.466	357.9
389.846	371.46
390.225	356.32
390.605	356.09
390.984	359.93
391.363	357.9
391.743	375.07
392.122	376.2
392.501	382.31
392.881	378.69
393.26	368.97
393.639	378.01
394.018	386.83
394.397	373.04
394.776	365.13
395.155	375.98
395.534	362.65
395.913	372.14
396.292	379.37
396.671	384.79
397.05	388.41
397.429	388.18
397.808	383.44
398.186	400.61
398.565	382.76
398.944	396.54
399.323	401.29
399.701	402.64
400.08	402.42
400.458	377.56
400.837	421.85
401.215	411.91
401.594	414.17
401.972	404.9
402.351	415.07
402.729	417.33
403.107	426.6
403.486	421.85
403.864	408.75
404.242	432.93
404.62	441.51
404.999	431.34
405.377	447.16
405.755	445.13
406.133	437.67
406.511	449.42
406.889	464.34
407.267	450.33
407.645	482.19
408.023	478.8
408.401	464.34
408.779	477.67
409.156	490.78
409.534	476.09
409.912	476.99
410.29	498.46
410.667	505.92
411.045	528.97
411.422	504.56
411.8	525.35
412.178	531.68
412.555	545.24
412.933	540.95
413.31	574.17
413.687	539.14
414.065	557.89
414.442	570.1
414.819	566.48
415.197	577.1
415.574	567.39
415.951	602.87
416.328	599.93
416.705	584.11
417.082	589.53
417.46	590.66
417.837	611.23
418.214	640.38
418.591	627.95
418.967	617.55
419.344	630.66
419.721	652.58
420.098	651.9
420.475	650.55
420.852	655.07
421.228	668.4
421.605	687.61
421.982	692.35
422.358	709.08
422.735	712.02
423.111	702.3
423.488	730.77
423.864	725.12
424.241	737.1
424.617	750.66
424.994	755.86
425.37	795.4
425.746	772.8
426.123	791.11
426.499	793.14
426.875	812.13
427.251	816.42
427.627	831.56
428.003	836.98
428.379	828.62
428.756	846.25
429.132	846.47
429.507	874.04
429.883	852.12
430.259	877.21
430.635	878.34
431.011	887.38
431.387	910.43
431.763	921.73
432.138	937.09
432.514	936.19
432.89	970.09
433.265	962.4
433.641	1002.63
434.016	1022.06
434.392	1027.04
434.767	1020.26
435.143	1050.09
435.518	1094.83
435.894	1069.52
436.269	1081.27
436.644	1131.44
437.02	1100.03
437.395	1135.05
437.77	1164.66
438.145	1154.94
438.52	1197.43
438.895	1187.26
439.271	1204.21
439.646	1248.72
440.021	1225.9
440.395	1245.33
440.77	1248.95
441.145	1226.8
441.52	1307.71
441.895	1307.25
442.27	1309.51
442.645	1306.8
443.019	1357.42
443.394	1318.55
443.769	1369.17
444.143	1344.77
444.518	1422.96
444.892	1381.38
445.267	1375.27
445.641	1410.3
446.016	1400.13
446.39	1427.7
446.764	1452.79
447.139	1407.59
447.513	1443.3
447.887	1467.93
448.262	1476.97
448.636	1485.33
449.01	1497.31
449.384	1487.59
449.758	1500.24
450.132	1528.72
450.506	1533.24
450.88	1526.91
451.254	1551.77
451.628	1589.73
452.002	1617.75
452.376	1592.44
452.75	1618.21
453.123	1625.89
453.497	1621.6
453.871	1651.65
454.244	1685.77
454.618	1690.07
454.992	1706.79
455.365	1706.57
455.739	1749.05
456.112	1815.49
456.486	1791.53
456.859	1767.35
457.232	1825.66
457.606	1802.38
457.979	1866.79
458.352	1854.81
458.725	1902.94
459.099	1892.1
459.472	1950.85
459.845	1916.5
460.218	1995.15
460.591	2020.91
460.964	2001.92
461.337	2056.16
461.71	2074.92
462.083	2109.94
462.456	2119.21
462.829	2145.88
463.201	2139.32
463.574	2128.93
463.947	2160.79
464.32	2260.22
464.692	2232.43
465.065	2258.42
465.438	2299.54
465.81	2305.65
466.183	2346.32
466.555	2389.94
466.928	2376.83
467.3	2354.46
467.672	2425.19
468.045	2475.13
468.417	2490.5
468.789	2490.05
469.161	2542.02
469.534	2579.99
469.906	2597.39
470.278	2638.74
470.65	2655.69
471.022	2712.41
471.394	2758.06
471.766	2768.23
472.138	2762.58
472.51	2842.35
472.882	2871.96
473.253	2912.64
473.625	2952.41
473.997	3000.77
474.369	3030.82
474.74	3078.96
475.112	3096.81
475.484	3157.15
475.855	3172.06
476.227	3198.5
476.598	3287.77
476.97	3306.52
477.341	3387.65
477.713	3412.51
478.084	3441.66
478.455	3503.81
478.827	3540.19
479.198	3642.79
479.569	3624.48
479.94	3721.65
480.311	3729.34
480.682	3798.26
481.053	3872.38
481.424	3923.23
481.795	3983.12
482.166	3990.12
482.537	4035.54
482.908	4167.74
483.279	4144.92
483.65	4233.05
484.021	4305.14
484.391	4350.79
484.762	4367.51
485.133	4375.42
485.503	4472.14
485.874	4571.35
486.244	4585.36
486.615	4663.55
486.985	4732.02
487.356	4734.96
487.726	4815.41
488.097	4898.35
488.467	4901.96
488.837	4985.58
489.207	5038.46
489.578	5080.26
489.948	5164.33
490.318	5211.56
490.688	5180.82
491.058	5300.14
491.428	5351.67
491.798	5385.34
492.168	5472.57
492.538	5533.36
492.908	5527.48
493.278	5574.94
493.648	5630.08
494.017	5686.8
494.387	5714.6
494.757	5779.68
495.126	5825.78
495.496	5820.13
495.866	5873.01
496.235	5914.14
496.605	5965.89
496.974	5977.64
497.344	6039.78
497.713	6079.33
498.082	6044.98
498.452	6132.44
498.821	6190.97
499.19	6169.72
499.559	6271.19
499.928	6258.31
500.298	6317.07
500.667	6285.65
501.036	6280.91
501.405	6377.18
501.774	6363.39
502.143	6393.9
502.512	6379.21
502.88	6474.58
503.249	6459.89
503.618	6514.57
503.987	6531.3
504.356	6562.48
504.724	6582.82
505.093	6630.73
505.462	6715.93
505.83	6655.36
506.199	6745.75
506.567	6742.14
506.936	6738.07
507.304	6778.75
507.672	6803.15
508.041	6858.75
508.409	6856.03
508.777	6895.81
509.145	6941.46
509.514	6955.01
509.882	6960.44
510.25	6989.36
510.618	7048.35
510.986	7020.1
511.354	7030.49
511.722	7118.85
512.09	7177.61
512.458	7066.65
512.826	7192.3
513.193	7204.95
513.561	7188
513.929	7255.35
514.297	7268.9
514.664	7284.5
515.032	7306.19
515.4	7313.42
515.767	7393.42
516.135	7420.99
516.502	7304.84
516.869	7500.09
517.237	7405.17
517.604	7448.11
517.972	7439.52
518.339	7485.62
518.706	7444.72
519.073	7491.95
519.44	7523.14
519.808	7533.98
520.175	7523.36
520.542	7596.81
520.909	7649.01
521.276	7614.21
521.643	7728.1
522.009	7712.74
522.376	7672.96
522.743	7663.47
523.11	7781.89
523.477	7799.06
523.843	7846.29
524.21	7905.05
524.577	7922.67
524.943	7933.52
525.31	7895.1
525.676	7985.04
526.043	7950.69
526.409	7997.7
526.776	8064.36
527.142	8089
527.508	8051.03
527.874	8102.33
528.241	8096
528.607	8130.58
528.973	8130.8
529.339	8139.16
529.705	8192.72
530.071	8240.86
530.437	8207.41
530.803	8209.67
531.169	8300.06
531.535	8237.24
531.901	8269.1
532.267	8255.09
532.632	8210.35
532.998	8258.03
533.364	8232.72
533.73	8187.98
534.095	8348.42
534.461	8299.61
534.826	8324.24
535.192	8236.34
535.557	8334.87
535.923	8267.07
536.288	8350.46
536.653	8311.82
537.019	8310.91
537.384	8355.43
537.749	8279.95
538.114	8303
538.479	8336.22
538.845	8292.15
539.21	8193.85
539.575	8396.78
539.94	8335.09
540.305	8278.6
540.67	8278.14
541.034	8385.71
541.399	8336.9
541.764	8331.93
542.129	8257.58
542.494	8303.68
542.858	8369.89
543.223	8319.95
543.587	8303.68
543.952	8239.27
544.316	8260.52
544.681	8251.7
545.045	8300.97
545.41	8275.66
545.774	8276.79
546.138	8198.6
546.503	8257.81
546.867	8207.41
547.231	8325.15
547.595	8224.59
547.959	8279.73
548.324	8258.71
548.688	8278.14
549.052	8276.56
549.416	8287.41
549.779	8258.03
550.143	8257.35
550.507	8265.94
550.871	8226.85
551.235	8200.18
551.599	8243.12
551.962	8277.01
552.326	8281.76
552.689	8274.3
553.053	8254.19
553.417	8248.31
553.78	8314.75
554.143	8260.07
554.507	8279.95
554.87	8302.1
555.234	8339.84
555.597	8285.83
555.96	8287.86
556.323	8277.47
556.686	8273.17
557.05	8333.96
557.413	8324.24
557.776	8356.79
558.139	8374.41
558.502	8353.62
558.865	8306.39
559.228	8418.71
559.59	8385.26
559.953	8430.23
560.316	8521.75
560.679	8446.95
561.041	8481.08
561.404	8483.11
561.767	8519.95
562.129	8563.56
562.492	8573.96
562.854	8582.99
563.217	8583.67
563.579	8568.53
563.941	8590.9
564.304	8599.72
564.666	8664.8
565.028	8722.65
565.39	8693.5
565.753	8649.89
566.115	8746.83
566.477	8753.39
566.839	8747.74
567.201	8805.81
567.563	8823.89
567.925	8873.16
568.287	8891.24
568.648	8907.28
569.01	8891.91
569.372	8982.31
569.734	8945.7
570.095	8950.22
570.457	9005.58
570.819	8968.3
571.18	8959.26
571.542	9041.74
571.903	9113.38
572.265	9088.97
572.626	9062.53
572.987	9122.87
573.349	9119.25
573.71	9206.26
574.071	9208.74
574.432	9240.83
574.794	9293.26
575.155	9240.83
575.516	9264.56
575.877	9312.24
576.238	9328.74
576.599	9335.74
576.96	9382.3
577.32	9403.99
577.681	9437.66
578.042	9387.95
578.403	9385.46
578.763	9495.06
579.124	9455.74
579.485	9516.76
579.845	9509.07
580.206	9529.86
580.566	9545.68
580.927	9495.51
581.287	9593.14
581.648	9521.73
582.008	9607.15
582.368	9578.67
582.728	9705
583.089	9553.36
583.449	9637.66
583.809	9704.77
584.169	9639.92
584.529	9632.23
584.889	9720.14
585.249	9693.25
585.609	9639.92
585.969	9721.72
586.329	9696.19
586.688	9766.24
587.048	9689.41
587.408	9737.54
587.768	9650.99
588.127	9774.83
588.487	9731.44
588.846	9806.92
589.206	9735.05
589.565	9792
589.925	9830.87
590.284	9759.01
590.643	9812.57
591.003	9872.45
591.362	9861.83
591.721	9832
592.08	9843.75
592.44	9869.29
592.799	9872
593.158	9853.47
593.517	9865.22
593.876	9800.82
594.235	9893.92
594.593	9813.92
594.952	9872.23
595.311	9819.8
595.67	9884.66
596.029	9975.95
596.387	9921.49
596.746	9980.47
597.104	9935.73
597.463	9883.3
597.822	9958.33
598.18	9922.62
598.538	9916.97
598.897	9949.74
599.255	9876.29
599.613	10071.77
599.972	9976.18
600.33	10031.77
600.688	9944.54
601.046	9976.63
601.404	10014.37
601.762	10004.65
602.12	10078.77
602.478	10074.71
602.836	10053.69
603.194	10042.84
603.552	10024.54
603.91	9990.19
604.268	10048.72
604.625	10076.74
604.983	10064.99
605.341	9973.01
605.698	10052.33
606.056	10091.2
606.413	10059.34
606.771	10064.09
607.128	10009.17
607.485	10054.37
607.843	10079.23
608.2	10123.75
608.557	10194.03
608.914	10116.06
609.272	10174.59
609.629	10160.81
609.986	10255.27
610.343	10236.96
610.7	10215.27
611.057	10177.75
611.414	10244.87
611.771	10252.33
612.127	10233.12
612.484	10215.27
612.841	10272.22
613.198	10291.65
613.554	10263.4
613.911	10319.9
614.267	10296.4
614.624	10290.52
614.98	10295.72
615.337	10340.24
615.693	10399.22
616.05	10321.03
616.406	10404.87
616.762	10367.13
617.118	10372.55
617.475	10350.41
617.831	10353.8
618.187	10392.66
618.543	10397.41
618.899	10464.75
619.255	10469.72
619.611	10428.82
619.967	10456.62
620.323	10471.98
620.678	10450.06
621.034	10406.9
621.39	10385.66
621.746	10377.07
622.101	10457.07
622.457	10483.96
622.812	10385.21
623.168	10456.84
623.523	10422.27
623.879	10465.88
624.234	10338.88
624.589	10450.52
624.945	10410.74
625.3	10514.92
625.655	10423.17
626.01	10467.01
626.365	10411.65
626.72	10440.8
627.075	10360.8
627.43	10444.41
627.785	10485.32
628.14	10389.05
628.495	10456.84
628.85	10411.2
629.205	10374.13
629.559	10444.41
629.914	10405.77
630.269	10396.51
630.623	10380.91
630.978	10317.41
631.332	10395.15
631.687	10378.88
632.041	10267.92
632.396	10324.19
632.75	10281.03
633.104	10281.71
633.459	10303.4
633.813	10200.81
634.167	10312.89
634.521	10282.84
634.875	10269.73
635.229	10249.17
635.583	10247.36
635.937	10179.56
636.291	10148.38
636.645	10178.43
636.999	10193.8
637.352	10111.32
637.706	10081.26
638.06	10152.44
638.413	10096.85
638.767	10156.51
639.121	10047.81
639.474	10066.57
639.828	10008.27
640.181	10097.08
640.534	10053.92
640.888	10063.86
641.241	9974.14
641.594	10026.8
641.947	10024.76
642.301	9980.25
642.654	10032.22
643.007	9983.64
643.36	9970.3
643.713	9915.16
644.066	10000.81
644.419	9885.33
644.771	9908.84
645.124	9741.38
645.477	9766.69
645.83	9648.05
646.182	9609.41
646.535	9563.53
646.888	9660.25
647.24	9558.79
647.593	9627.04
647.945	9519.02
648.298	9500.48
648.65	9555.62
649.002	9476.98
649.355	9607.15
649.707	9609.18
650.059	9573.93
650.411	9706.58
650.763	9661.84
651.115	9832.23
651.467	9760.82
651.819	9782.06
652.171	9843.53
652.523	9668.62
652.875	9753.59
653.227	9650.76
653.578	9832.23
653.93	9783.42
654.282	9666.13
654.633	9638.33
654.985	9690.31
655.337	9655.73
655.688	9747.94
656.039	9716.52
656.391	9679.01
656.742	9712.46
657.094	9662.29
657.445	9739.8
657.796	9709.97
658.147	9702.51
658.498	9641.72
658.849	9716.75
659.2	9767.14
659.551	9668.62
659.902	9756.75
660.253	9721.04
660.604	9731.44
660.955	9675.62
661.306	9678.11
661.656	9652.8
662.007	9672.23
662.358	9657.77
662.708	9728.28
663.059	9706.58
663.409	9575.74
663.76	9706.58
664.11	9726.24
664.461	9694.6
664.811	9636.07
665.161	9639.92
665.511	9658.45
665.862	9694.83
666.212	9642.85
666.562	9682.63
666.912	9648.73
667.262	9652.12
667.612	9662.06
667.962	9686.24
668.312	9647.83
668.662	9650.31
669.011	9587.26
669.361	9630.65
669.711	9631.78
670.06	9606.7
670.41	9642.4
670.76	9624.78
671.109	9590.65
671.459	9645.57
671.808	9598.79
672.157	9642.85
672.507	9558.34
672.856	9575.06
673.205	9542.07
673.554	9613.02
673.904	9594.27
674.253	9614.61
674.602	9575.96
674.951	9395.4
675.3	9387.72
675.649	9507.26
675.998	9538.22
676.346	9495.97
676.695	9526.25
677.044	9497.77
677.393	9542.07
677.741	9518.11
678.09	9476.53
678.438	9435.18
678.787	9530.54
679.135	9465.68
679.484	9383.2
679.832	9474.04
680.181	9337.78
680.529	9383.65
680.877	9325.57
681.225	9344.56
681.573	9422.97
681.922	9342.97
682.27	9302.52
682.618	9319.7
682.966	9277.21
683.314	9341.39
683.661	9165.58
684.009	9128.74
684.357	9110.44
684.705	9204.22
685.053	9164.67
685.4	9152.02
685.748	9117.67
686.095	9075.41
686.443	9055.07
686.79	9048.07
687.138	9061.17
687.485	9078.35
687.832	8978.92
688.18	8979.82
688.527	8971.01
688.874	8987.96
689.221	8911.12
689.568	8880.16
689.915	8885.81
690.262	8828.64
690.609	8859.37
690.956	8725.36
691.303	8793.61
691.65	8761.3
691.997	8717.23
692.344	8742.76
692.69	8699.38
693.037	8728.98
693.383	8587.74
693.73	8668.64
694.077	8620.73
694.423	8558.59
694.769	8529.44
695.116	8513.17
695.462	8463.22
695.808	8538.25
696.155	8510.45
696.501	8423.45
696.847	8380.51
697.193	8333.06
697.539	8420.29
697.885	8284.47
698.231	8293.74
698.577	8277.01
698.923	8288.99
699.269	8215.09
699.614	8147.3
699.96	8133.06
700.306	8124.25
700.651	8109.79
700.997	8106.62
701.342	8059.62
701.688	8074.31
702.033	7996.57
702.379	8072.27
702.724	7952.95
703.069	7993.18
703.415	7918.83
703.76	7851.26
704.105	7926.74
704.45	7867.53
704.795	7804.94
705.14	7815.56
705.485	7790.02
705.83	7705.28
706.175	7766.29
706.52	7653.3
706.865	7652.85
707.209	7601.33
707.554	7647.43
707.899	7694.88
708.243	7610.36
708.588	7506.19
708.932	7541.21
709.277	7536.92
709.621	7502.57
709.966	7483.36
710.31	7514.32
710.654	7448.79
710.998	7465.96
711.342	7396.59
711.687	7364.95
712.031	7379.64
712.375	7383.25
712.719	7372.63
713.063	7312.75
713.407	7351.61
713.75	7340.99
714.094	7269.36
714.438	7325.63
714.782	7265.52
715.125	7222.58
715.469	7298.96
715.812	7166.53
716.156	7268.45
716.499	7158.4
716.843	7216.48
717.186	7162.47
717.53	7151.17
717.873	7092.86
718.216	7151.62
718.559	7134.67
718.902	7084.5
719.246	7119.3
719.589	7084.28
719.932	7037.05
720.275	7076.59
720.617	7032.75
720.96	7061.23
721.303	7084.73
721.646	7040.44
721.989	6926.32
722.331	7014.67
722.674	7048.35
723.016	6993.88
723.359	7025.07
723.701	6981
724.044	6991.62
724.386	6895.13
724.729	6938.97
725.071	6936.48
725.413	6941.68
725.755	6945.98
726.097	6916.37
726.439	6909.59
726.782	6891.06
727.124	6934.9
727.465	6862.81
727.807	6900.55
728.149	6866.43
728.491	6775.36
728.833	6810.84
729.175	6813.55
729.516	6818.3
729.858	6790.5
730.199	6837.73
730.541	6821.01
730.882	6809.03
731.224	6871.85
731.565	6834.34
731.906	6804.74
732.248	6825.75
732.589	6809.03
732.93	6742.59
733.271	6794.34
733.612	6776.71
733.953	6799.54
734.294	6760.44
734.635	6715.93
734.976	6761.8
735.317	6762.93
735.658	6781.23
735.999	6794.34
736.339	6725.64
736.68	6781.91
737.021	6790.95
737.361	6763.38
737.702	6781.23
738.042	6747.56
738.383	6741.69
738.723	6802.93
739.063	6798.86
739.404	6745.53
739.744	6725.42
740.084	6761.12
740.424	6792.08
740.764	6768.13
741.104	6855.36
741.444	6781.91
741.784	6753.89
742.124	6858.52
742.464	6796.6
742.804	6840.89
743.143	6790.27
743.483	6837.96
743.823	6817.84
744.162	6865.75
744.502	6851.29
744.841	6877.95
745.181	6972.42
745.52	6922.93
745.86	6920.21
746.199	6967.67
746.538	6943.49
746.877	6970.16
747.216	7042.02
747.556	7026.65
747.895	7046.76
748.234	7111.17
748.573	7070.94
748.911	7097.16
749.25	7219.19
749.589	7157.95
749.928	7212.41
750.267	7307.32
750.605	7307.1
750.944	7331.28
751.283	7325.63
751.621	7417.38
751.96	7425.28
752.298	7486.53
752.636	7584.6
752.975	7585.73
753.313	7633.64
753.651	7769.68
753.989	7718.61
754.327	7853.75
754.666	7835.22
755.004	7919.96
755.342	8066.17
755.679	8082.67
756.017	8157.7
756.355	8282.21
756.693	8321.76
757.031	8421.42
757.368	8387.29
757.706	8517.01
758.044	8575.31
758.381	8717.23
758.719	8777.11
759.056	8868.18
759.394	9020.5
759.731	8962.19
760.068	9134.39
760.405	9196.76
760.743	9251.68
761.08	9471.33
761.417	9478.34
761.754	9548.84
762.091	9662.74
762.428	9702.74
762.765	9790.65
763.102	9948.61
763.438	10014.37
763.775	10021.15
764.112	10183.4
764.449	10303.4
764.785	10341.37
765.122	10399.44
765.458	10463.85
765.795	10523.73
766.131	10627.91
766.467	10733.45
766.804	10745.65
767.14	10816.38
