Data from hue_230_FLMS001491_00100.txt Node
Date: Tue Feb 07 16:38:01 GMT 2017
User: dcchb
Spectrometer: FLMS00149
Trigger mode: 0
Integration Time (sec): 2.000000E-2
Scans to average: 10
Electric dark correction enabled: true
Nonlinearity correction enabled: false
Boxcar width: 0
XAxis mode: Wavelengths
Number of Pixels in Spectrum: 2048
>>>>>Begin Spectral Data<<<<<
341.393	-3.66
341.776	-3.66
342.16	-3.66
342.543	-65.8
342.927	-79.14
343.31	-62.41
343.693	-49.98
344.077	-59.7
344.46	-65.8
344.843	-59.02
345.226	-41.4
345.61	-17.67
345.993	-2.75
346.376	-14.05
346.759	-2.75
347.142	15.55
347.525	36.57
347.908	65.49
348.291	69.79
348.674	79.05
349.057	109.11
349.44	112.72
349.823	141.2
350.206	139.39
350.588	177.81
350.971	187.52
351.354	204.25
351.737	234.08
352.119	224.36
352.502	249.22
352.884	262.1
353.267	263.68
353.65	255.32
354.032	281.53
354.414	301.87
354.797	303.23
355.179	302.1
355.562	264.81
355.944	300.74
356.326	316.56
356.709	335.54
357.091	323.79
357.473	327.63
357.855	317.01
358.238	320.85
358.62	329.21
359.002	310.68
359.384	332.15
359.766	325.37
360.148	319.05
360.53	338.48
360.912	326.28
361.294	319.27
361.676	307.07
362.057	322.66
362.439	325.6
362.821	338.03
363.203	327.41
363.584	302.32
363.966	304.36
364.348	307.75
364.729	335.54
365.111	299.61
365.493	320.18
365.874	309.55
366.256	289.89
366.637	289.67
367.019	291.48
367.4	304.81
367.781	299.84
368.163	299.61
368.544	283.79
368.925	263.68
369.306	321.98
369.688	314.53
370.069	302.77
370.45	302.55
370.831	288.09
371.212	315.43
371.593	291.48
371.974	308.2
372.355	314.07
372.736	280.63
373.117	300.06
373.498	291.93
373.879	295.09
374.26	324.92
374.641	309.1
375.021	300.51
375.402	310.68
375.783	315.2
376.163	305.94
376.544	303
376.925	314.98
377.305	328.76
377.686	318.59
378.066	312.94
378.447	305.49
378.827	333.73
379.208	309.55
379.588	307.07
379.968	319.05
380.349	303.68
380.729	338.25
381.109	319.72
381.489	293.96
381.87	295.77
382.25	334.19
382.63	326.05
383.01	324.69
383.39	328.76
383.77	314.07
384.15	314.53
384.53	324.69
384.91	326.05
385.29	341.19
385.67	331.7
386.049	307.29
386.429	331.7
386.809	351.13
387.189	335.32
387.568	345.71
387.948	346.62
388.328	342.1
388.707	351.36
389.087	306.62
389.466	338.48
389.846	342.55
390.225	348.2
390.605	347.75
390.984	353.17
391.363	360.4
391.743	366.28
392.122	355.65
392.501	344.36
392.881	349.1
393.26	362.43
393.639	356.78
394.018	375.99
394.397	372.38
394.776	356.78
395.155	358.59
395.534	361.3
395.913	359.95
396.292	380.29
396.671	388.42
397.05	363.79
397.429	387.29
397.808	385.71
398.186	373.28
398.565	389.33
398.944	387.74
399.323	370.12
399.701	379.83
400.08	387.52
400.458	377.8
400.837	390.91
401.215	402.88
401.594	423.22
401.972	394.98
402.351	413.96
402.729	388.42
403.107	385.26
403.486	413.96
403.864	415.31
404.242	402.43
404.62	413.28
404.999	435.43
405.377	417.57
405.755	426.61
406.133	404.24
406.511	430.91
406.889	422.09
407.267	422.09
407.645	439.49
408.023	449.44
408.401	442.43
408.779	432.71
409.156	459.61
409.534	459.38
409.912	481.75
410.29	479.72
410.667	478.59
411.045	474.75
411.422	501.19
411.8	489.66
412.178	490.34
412.555	495.99
412.933	501.64
413.31	523.33
413.687	522.88
414.065	527.85
414.442	528.08
414.819	566.27
415.197	561.98
415.574	559.49
415.951	568.76
416.328	577.57
416.705	562.88
417.082	560.17
417.46	574.41
417.837	589.32
418.214	596.1
418.591	602.88
418.967	601.98
419.344	611.47
419.721	635.87
420.098	634.97
420.475	639.94
420.852	649.88
421.228	659.83
421.605	661.86
421.982	670.22
422.358	679.49
422.735	678.36
423.111	694.4
423.488	696.89
423.864	714.52
424.241	733.05
424.617	719.03
424.994	725.81
425.37	740.5
425.746	740.05
426.123	761.07
426.499	776.43
426.875	774.4
427.251	782.54
427.627	783.89
428.003	820.5
428.379	815.08
428.756	804.68
429.132	840.84
429.507	854.85
429.883	849.2
430.259	867.05
430.635	877.22
431.011	878.58
431.387	884.45
431.763	936.43
432.138	921.74
432.514	932.36
432.89	962.42
433.265	982.3
433.641	1009.65
434.016	962.19
434.392	996.32
434.767	1021.4
435.143	1014.39
435.518	1051.23
435.894	1038.12
436.269	1075.41
436.644	1079.03
437.02	1109.31
437.395	1115.18
437.77	1132.81
438.145	1161.06
438.52	1194.28
438.895	1184.11
439.271	1193.82
439.646	1229.76
440.021	1240.83
440.395	1245.57
440.77	1285.12
441.145	1248.29
441.52	1273.82
441.895	1295.97
442.27	1312.92
442.645	1336.19
443.019	1353.82
443.394	1341.39
443.769	1359.47
444.143	1355.63
444.518	1390.43
444.892	1353.14
445.267	1400.6
445.641	1409.86
446.016	1391.33
446.39	1399.69
446.764	1404.89
447.139	1436.3
447.513	1449.41
447.887	1467.49
448.262	1449.86
448.636	1470.2
449.01	1481.05
449.384	1497.32
449.758	1513.59
450.132	1529.18
450.506	1532.8
450.88	1543.65
451.254	1569.41
451.628	1577.54
452.002	1570.54
452.376	1582.06
452.75	1637.43
453.123	1619.58
453.497	1665.45
453.871	1643.98
454.244	1675.85
454.618	1668.84
454.992	1733.02
455.365	1716.97
455.739	1765.56
456.112	1746.8
456.486	1799.01
456.859	1800.36
457.232	1844.65
457.606	1817.99
457.979	1842.4
458.352	1870.64
458.725	1874.26
459.099	1901.38
459.472	1937.76
459.845	1969.4
460.218	1944.77
460.591	1959.91
460.964	1987.25
461.337	2035.61
461.71	2105.21
462.083	2063.18
462.456	2108.38
462.829	2105.66
463.201	2133.01
463.574	2126.68
463.947	2129.85
464.32	2215.49
464.692	2213.23
465.065	2209.39
465.438	2234.93
465.81	2267.69
466.183	2323.74
466.555	2328.94
466.928	2354.25
467.3	2361.48
467.672	2394.47
468.045	2442.38
468.417	2443.51
468.789	2448.48
469.161	2463.62
469.534	2498.2
469.906	2592.43
470.278	2591.3
470.65	2638.31
471.022	2658.19
471.394	2702.26
471.766	2729.83
472.138	2724.41
472.51	2783.16
472.882	2877.62
473.253	2867
473.625	2907.23
473.997	2958.07
474.369	2984.06
474.74	3027.9
475.112	3017.28
475.484	3098.18
475.855	3144.51
476.227	3138.63
476.598	3212.98
476.97	3256.82
477.341	3292.75
477.713	3331.17
478.084	3346.76
478.455	3414.11
478.827	3461.79
479.198	3507.66
479.569	3583.14
479.94	3611.61
480.311	3622.91
480.682	3723.48
481.053	3795.79
481.424	3862.45
481.795	3883.25
482.166	3911.49
482.537	3951.27
482.908	4009.12
483.279	4054.77
483.65	4141.32
484.021	4163.69
484.391	4233.97
484.762	4170.47
485.133	4285.95
485.503	4315.55
485.874	4412.95
486.244	4445.26
486.615	4521.42
486.985	4547.86
487.356	4629.67
487.726	4650
488.097	4730.23
488.467	4753.96
488.837	4818.81
489.207	4855.88
489.578	4984.46
489.948	4988.75
490.318	5058.13
490.688	5071.91
491.058	5094.51
491.428	5137.22
491.798	5188.07
492.168	5314.39
492.538	5308.74
492.908	5313.26
493.278	5463.77
493.648	5389.19
494.017	5441.62
494.387	5508.06
494.757	5540.6
495.126	5610.21
495.496	5575.63
495.866	5617.44
496.235	5700.15
496.605	5724.33
496.974	5777.43
497.344	5798.45
497.713	5817.88
498.082	5884.77
498.452	5866.02
498.821	5882.74
499.19	5926.81
499.559	5924.1
499.928	5909.18
500.298	5997.54
500.667	6016.07
501.036	6024.88
501.405	6059.91
501.774	6059.69
502.143	6119.34
502.512	6119.34
502.88	6164.54
503.249	6150.08
503.618	6214.94
503.987	6196.63
504.356	6233.69
504.724	6217.42
505.093	6267.59
505.462	6291.77
505.83	6300.58
506.199	6305.33
506.567	6400.24
506.936	6394.82
507.304	6423.07
507.672	6429.17
508.041	6452.67
508.409	6488.37
508.777	6574.7
509.145	6558.66
509.514	6549.16
509.882	6526.34
510.25	6536.96
510.618	6603.63
510.986	6597.07
511.354	6614.7
511.722	6633
512.09	6717.75
512.458	6660.8
512.826	6720.68
513.193	6726.33
513.561	6732.44
513.929	6718.65
514.297	6737.86
514.664	6774.69
515.032	6843.17
515.4	6783.06
515.767	6808.59
516.135	6801.81
516.502	6777.63
516.869	6860.12
517.237	6890.62
517.604	6832.32
517.972	6913.9
518.339	6939.66
518.706	6917.29
519.073	6844.52
519.44	6837.07
519.808	6953.22
520.175	6927.01
520.542	7000.68
520.909	7028.25
521.276	6969.04
521.643	6959.32
522.009	6962.94
522.376	7023.05
522.743	7027.12
523.11	7065.53
523.477	7119.54
523.843	7089.26
524.21	7150.05
524.577	7097.4
524.943	7125.42
525.31	7192.54
525.676	7147.11
526.043	7195.02
526.409	7184.85
526.776	7239.77
527.142	7225.98
527.508	7305.75
527.874	7259.43
528.241	7245.42
528.607	7279.09
528.973	7301.69
529.339	7244.74
529.705	7326.77
530.071	7363.38
530.437	7333.1
530.803	7319.31
531.169	7309.37
531.535	7267.11
531.901	7304.62
532.267	7289.94
532.632	7270.05
532.998	7293.55
533.364	7295.36
533.73	7289.94
534.095	7324.28
534.461	7313.44
534.826	7310.27
535.192	7269.82
535.557	7294.68
535.923	7244.96
536.288	7305.75
536.653	7253.78
537.019	7221.01
537.384	7171.29
537.749	7280.67
538.114	7239.99
538.479	7154.12
538.845	7242.25
539.21	7164.97
539.575	7206.32
539.94	7178.53
540.305	7190.05
540.67	7164.06
541.034	7154.57
541.399	7135.82
541.764	7168.81
542.129	7127.23
542.494	7060.34
542.858	7136.27
543.223	7074.57
543.587	7082.26
543.952	7107.12
544.316	7051.98
544.681	7077.29
545.045	7017.4
545.41	7026.21
545.774	7013.11
546.138	6999.32
546.503	7009.26
546.867	6952.32
547.231	6972.2
547.595	6997.74
547.959	6953.67
548.324	6953.45
548.688	6938.98
549.052	6905.31
549.416	6913
549.779	6917.29
550.143	6882.94
550.507	6880.91
550.871	6950.51
551.235	6849.95
551.599	6855.37
551.962	6882.94
552.326	6787.35
552.689	6887.69
553.053	6793
553.417	6828.93
553.78	6826.22
554.143	6842.04
554.507	6790.29
554.87	6827.8
555.234	6841.13
555.597	6763.62
555.96	6750.74
556.323	6788.03
556.686	6812.66
557.05	6803.62
557.413	6776.73
557.776	6832.55
558.139	6822.38
558.502	6796.39
558.865	6708.48
559.228	6832.55
559.59	6857.18
559.953	6794.81
560.316	6852.21
560.679	6794.36
561.041	6855.14
561.404	6806.78
561.767	6877.29
562.129	6838.2
562.492	6938.98
562.854	6908.7
563.217	6889.04
563.579	6857.4
563.941	6903.73
564.304	6914.58
564.666	6921.81
565.028	6913
565.39	6920.23
565.753	6924.75
566.115	6972.43
566.477	6949.38
566.839	7010.39
567.201	6951.19
567.563	6993.67
567.925	7040.9
568.287	7067.79
568.648	7031.86
569.01	7095.36
569.372	7112.09
569.734	7152.31
570.095	7106.21
570.457	7134.69
570.819	7165.87
571.18	7128.36
571.542	7197.06
571.903	7185.53
572.265	7146.44
572.626	7237.28
572.987	7221.46
573.349	7250.39
573.71	7280.22
574.071	7280.67
574.432	7245.42
574.794	7294.23
575.155	7345.53
575.516	7270.95
575.877	7271.18
576.238	7347.34
576.599	7401.34
576.96	7335.36
577.32	7372.65
577.681	7372.42
578.042	7412.87
578.403	7391.18
578.763	7446.32
579.124	7473.43
579.485	7482.92
579.845	7532.87
580.206	7600.44
580.566	7511.4
580.927	7601.11
581.287	7605.41
581.648	7566.54
582.008	7565.63
582.368	7594.11
582.728	7610.38
583.089	7625.97
583.449	7594.79
583.809	7589.14
584.169	7671.39
584.529	7652.19
584.889	7671.39
585.249	7666.87
585.609	7653.77
585.969	7740.32
586.329	7724.73
586.688	7753.88
587.048	7664.61
587.408	7760.43
587.768	7799.98
588.127	7788.45
588.487	7739.19
588.846	7779.41
589.206	7735.57
589.565	7792.52
589.925	7850.15
590.284	7825.06
590.643	7841.33
591.003	7858.28
591.362	7905.74
591.721	7834.1
592.08	7912.52
592.44	7880.65
592.799	8006.3
593.158	7841.79
593.517	7890.37
593.876	7940.99
594.235	7938.51
594.593	7923.37
594.952	7931.95
595.311	7886.08
595.67	7948
596.029	8015.79
596.387	7994.55
596.746	8030.93
597.104	7887.43
597.463	7974.21
597.822	7977.6
598.18	7985.96
598.538	7945.29
598.897	8050.14
599.255	7939.64
599.613	8053.31
599.972	8046.98
600.33	8032.74
600.688	7994.55
601.046	8107.77
601.404	8062.12
601.762	8136.69
602.12	8111.16
602.478	8131.95
602.836	8097.6
603.194	8109.35
603.552	8090.59
603.91	8029.58
604.268	8131.95
604.625	8061.67
604.983	8103.93
605.341	8047.88
605.698	8165.39
606.056	8123.81
606.413	8135.11
606.771	8132.63
607.128	8128.11
607.485	8100.76
607.843	8170.82
608.2	8130.14
608.557	8177.6
608.914	8169.23
609.272	8192.51
609.629	8256.01
609.986	8293.52
610.343	8157.48
610.7	8259.18
611.057	8230.02
611.414	8257.82
611.771	8219.85
612.127	8271.6
612.484	8225.96
612.841	8313.41
613.198	8235.9
613.554	8274.99
613.911	8327.2
614.267	8347.08
614.624	8313.86
614.98	8327.87
615.337	8333.98
615.693	8306.63
616.05	8385.73
616.406	8369.68
616.762	8379.4
617.118	8310.47
617.475	8387.08
617.831	8366.97
618.187	8350.47
618.543	8416.23
618.899	8477.47
619.255	8456.91
619.611	8443.35
619.967	8435.67
620.323	8470.24
620.678	8437.93
621.034	8433.86
621.39	8444.03
621.746	8425.5
622.101	8468.66
622.457	8392.28
622.812	8390.25
623.168	8409.91
623.523	8448.78
623.879	8475.89
624.234	8379.17
624.589	8435.67
624.945	8481.54
625.3	8409.23
625.655	8322
626.01	8412.39
626.365	8348.66
626.72	8439.06
627.075	8394.31
627.43	8437.93
627.785	8412.39
628.14	8378.04
628.495	8455.1
628.85	8430.7
629.205	8420.3
629.559	8395.22
629.914	8336.69
630.269	8380.75
630.623	8361.09
630.978	8372.39
631.332	8370.13
631.687	8325.16
632.041	8280.64
632.396	8347.99
632.75	8307.54
633.104	8335.11
633.459	8262.79
633.813	8293.75
634.167	8216.46
634.521	8299.17
634.875	8300.08
635.229	8307.99
635.583	8271.15
635.937	8166.75
636.291	8322.22
636.645	8152.51
636.999	8194.54
637.352	8223.02
637.706	8247.65
638.06	8181.89
638.413	8175.11
638.767	8173.08
639.121	8180.53
639.474	8173.75
639.828	8154.09
640.181	8164.04
640.534	8084.04
640.888	8165.17
641.241	8090.14
641.594	8031.38
641.947	8145.28
642.301	8044.94
642.654	8101.67
643.007	8128.11
643.36	8111.61
643.713	8117.94
644.066	8123.59
644.419	8010.14
644.771	7976.7
645.124	7954.1
645.477	7912.97
645.83	7873.87
646.182	7763.14
646.535	7782.13
646.888	7798.4
647.24	7751.84
647.593	7800.66
647.945	7785.52
648.298	7788.68
648.65	7762.92
649.002	7725.86
649.355	7794.55
649.707	7738.29
650.059	7783.93
650.411	7898.06
650.763	7908.22
651.115	7927.88
651.467	7941.67
651.819	7960.65
652.171	7979.86
652.523	7952.29
652.875	7924.5
653.227	7929.01
653.578	7964.95
653.93	7951.84
654.282	7881.33
654.633	7881.56
654.985	7918.17
655.337	7847.66
655.688	7955.45
656.039	7976.7
656.391	7927.43
656.742	7877.94
657.094	7885.17
657.445	7920.65
657.796	7910.71
658.147	7893.76
658.498	7911.84
658.849	7927.43
659.2	7923.82
659.551	7879.75
659.902	7954.78
660.253	7877.26
660.604	7928.56
660.955	7922.46
661.306	7909.13
661.656	7903.93
662.007	7931.95
662.358	7943.25
662.708	7868.68
663.059	7899.86
663.409	7865.97
663.76	7959.07
664.11	7920.65
664.461	7959.97
664.811	7904.83
665.161	7980.09
665.511	7954.55
665.862	7908.22
666.212	8022.35
666.562	7938.96
666.912	7875.91
667.262	7946.64
667.612	7929.24
667.962	7978.73
668.312	7983.25
668.662	7908.9
669.011	7890.82
669.361	7893.99
669.711	7940.77
670.06	7914.33
670.41	7906.87
670.76	7835.91
671.109	7861.67
671.459	7971.5
671.808	7943.48
672.157	7930.82
672.507	7877.94
672.856	7866.87
673.205	7857.6
673.554	7840.66
673.904	7923.37
674.253	7925.17
674.602	7855.12
674.951	7762.92
675.3	7728.57
675.649	7880.43
675.998	7798.85
676.346	7814.22
676.695	7865.97
677.044	7778.28
677.393	7846.08
677.741	7830.94
678.09	7774.22
678.438	7699.87
678.787	7735.35
679.135	7804.27
679.484	7738.29
679.832	7729.7
680.181	7674.11
680.529	7715.01
680.877	7681.79
681.225	7650.38
681.573	7690.83
681.922	7628.68
682.27	7648.34
682.618	7628.46
682.966	7649.25
683.314	7654.22
683.661	7609.7
684.009	7572.19
684.357	7585.07
684.705	7523.83
685.053	7482.25
685.4	7568.57
685.748	7520.89
686.095	7462.81
686.443	7468.24
686.79	7422.59
687.138	7441.8
687.485	7521.57
687.832	7419.2
688.18	7414
688.527	7335.13
688.874	7368.8
689.221	7334
689.568	7336.26
689.915	7243.61
690.262	7273.66
690.609	7336.26
690.956	7228.92
691.303	7252.65
691.65	7241.8
691.997	7185.08
692.344	7169.26
692.69	7096.95
693.037	7092.65
693.383	7073.67
693.73	7080.22
694.077	7029.6
694.423	7054.69
694.769	7008.59
695.116	6945.09
695.462	6923.17
695.808	6942.6
696.155	6905.99
696.501	6898.76
696.847	6888.14
697.193	6838.2
697.539	6834.35
697.885	6805.65
698.231	6804.52
698.577	6795.26
698.923	6801.59
699.269	6728.14
699.614	6696.5
699.96	6684.53
700.306	6646.11
700.651	6577.41
700.997	6618.54
701.342	6541.93
701.688	6558.43
702.033	6524.76
702.379	6551.65
702.724	6528.37
703.069	6540.58
703.415	6410.86
703.76	6428.72
704.105	6445.66
704.45	6468.49
704.795	6386.46
705.14	6313.46
705.485	6363.63
705.83	6370.86
706.175	6317.08
706.52	6306.01
706.865	6298.78
707.209	6258.78
707.554	6259
707.899	6297.19
708.243	6254.71
708.588	6168.16
708.932	6143.52
709.277	6117.54
709.621	6152.56
709.966	6139.46
710.31	6176.07
710.654	6068.72
710.998	6097.88
711.342	6090.19
711.687	6078.22
712.031	6035.51
712.375	6062.62
712.719	6040.02
713.063	6075.05
713.407	6057.2
713.75	6001.38
714.094	6020.59
714.438	5971.33
714.782	5965.22
715.125	5943.08
715.469	5906.24
715.812	5879.35
716.156	5822.4
716.499	5904.21
716.843	5938.78
717.186	5857.88
717.53	5896.98
717.873	5880.03
718.216	5841.16
718.559	5862.63
718.902	5807.94
719.246	5829.18
719.589	5821.05
719.932	5756.87
720.275	5800.94
720.617	5790.54
720.96	5784.44
721.303	5754.38
721.646	5814.49
721.989	5739.69
722.331	5746.02
722.674	5708.28
723.016	5744.67
723.359	5769.98
723.701	5721.16
724.044	5706.47
724.386	5677.1
724.729	5741.28
725.071	5733.37
725.413	5758.22
725.755	5718
726.097	5697.66
726.439	5684.78
726.782	5703.76
727.124	5715.74
727.465	5640.26
727.807	5673.93
728.149	5674.38
728.491	5641.62
728.833	5669.64
729.175	5585.57
729.516	5635.74
729.858	5663.54
730.199	5641.17
730.541	5616.76
730.882	5647.04
731.224	5676.19
731.565	5601.62
731.906	5647.72
732.248	5650.43
732.589	5615.63
732.93	5609.3
733.271	5629.19
733.612	5627.15
733.953	5610.21
734.294	5622.86
734.635	5598.23
734.976	5640.94
735.317	5669.19
735.658	5649.98
735.999	5637.1
736.339	5598.45
736.68	5673.03
737.021	5597.32
737.361	5600.26
737.702	5630.32
738.042	5656.98
738.383	5640.04
738.723	5686.14
739.063	5687.04
739.404	5725.91
739.744	5718
740.084	5698.11
740.424	5713.48
740.764	5647.49
741.104	5711.45
741.444	5707.15
741.784	5718.45
742.124	5676.87
742.464	5744.21
742.804	5732.69
743.143	5768.39
743.483	5828.05
743.823	5821.27
744.162	5772.69
744.502	5812.46
744.841	5825.12
745.181	5857.43
745.52	5907.37
745.86	5896.07
746.199	5900.82
746.538	5903.53
746.877	5934.49
747.216	5999.8
747.556	6037.31
747.895	6058.1
748.234	6089.97
748.573	6145.33
748.911	6138.78
749.25	6261.26
749.589	6239.34
749.928	6255.84
750.267	6307.59
750.605	6401.6
750.944	6411.99
751.283	6450.18
751.621	6515.49
751.96	6605.43
752.298	6610.86
752.636	6690.86
752.975	6722.27
753.313	6791.42
753.651	6941.02
753.989	6953.45
754.327	7007.91
754.666	7062.6
755.004	7220.33
755.342	7260.33
755.679	7382.36
756.017	7413.32
756.355	7573.54
756.693	7628.46
757.031	7735.12
757.368	7802.01
757.706	7889.47
758.044	7985.51
758.381	8147.09
758.719	8205.39
759.056	8286.07
759.394	8435.67
759.731	8507.76
760.068	8681.99
760.405	8711.59
760.743	8904.13
761.08	8990.91
761.417	9116.1
761.754	9201.3
762.091	9349.54
762.428	9382.76
762.765	9501.63
763.102	9725.35
763.438	9826.82
763.775	9870.21
764.112	9992.46
764.449	10143.65
764.785	10238.78
765.122	10288.5
765.458	10376.86
765.795	10493.24
766.131	10587.93
766.467	10700.02
766.804	10705.21
767.14	10781.82
767.476	11006
767.812	11060.91
768.148	11194.47
768.485	11236.72
768.821	11253.67
769.157	11351.52
769.492	11510.16
