Data from hue_80_FLMS001491_89.txt Node
Date: Mon Feb 06 15:23:54 GMT 2017
User: dcchb
Spectrometer: FLMS00149
Trigger mode: 0
Integration Time (sec): 2.000000E-2
Scans to average: 10
Electric dark correction enabled: true
Nonlinearity correction enabled: false
Boxcar width: 0
XAxis mode: Wavelengths
Number of Pixels in Spectrum: 2048
>>>>>Begin Spectral Data<<<<<
341.393	-3.77
341.776	-3.77
342.16	-3.77
342.543	-43.32
342.927	-49.42
343.31	-87.84
343.693	-63.2
344.077	-67.5
344.46	-78.57
344.843	-52.58
345.226	-45.58
345.61	-40.38
345.993	-23.43
346.376	-10.1
346.759	10.69
347.142	36.23
347.525	43.01
347.908	54.53
348.291	84.36
348.674	99.05
349.057	141.31
349.44	124.81
349.823	131.82
350.206	166.17
350.588	182.44
350.971	198.26
351.354	207.75
351.737	220.63
352.119	242.78
352.502	253.62
352.884	267.86
353.267	277.8
353.65	296.79
354.032	293.62
354.414	301.76
354.797	322.55
355.179	302.89
355.562	326.39
355.944	310.34
356.326	309.22
356.709	327.97
357.091	332.72
357.473	325.94
357.855	346.05
358.238	321.64
358.62	342.66
359.002	315.77
359.384	331.36
359.766	340.4
360.148	327.07
360.53	321.64
360.912	327.07
361.294	339.27
361.676	321.64
362.057	344.24
362.439	351.25
362.821	306.96
363.203	315.09
363.584	331.14
363.966	318.93
364.348	310.12
364.729	332.27
365.111	312.6
365.493	300.85
365.874	322.32
366.256	321.87
366.637	324.81
367.019	320.06
367.4	302.89
367.781	310.34
368.163	317.8
368.544	311.47
368.925	304.47
369.306	308.09
369.688	316.9
370.069	335.43
370.45	301.53
370.831	297.69
371.212	307.18
371.593	313.51
371.974	293.17
372.355	324.36
372.736	320.97
373.117	291.81
373.498	320.06
373.879	322.55
374.26	311.47
374.641	313.96
375.021	311.47
375.402	306.96
375.783	340.85
376.163	297.01
376.544	317.8
376.925	311.02
377.305	317.8
377.686	322.1
378.066	320.51
378.447	318.03
378.827	326.16
379.208	328.42
379.588	331.14
379.968	326.62
380.349	315.54
380.729	336.78
381.109	321.19
381.489	332.72
381.87	341.98
382.25	328.42
382.63	332.94
383.01	349.21
383.39	316.22
383.77	332.72
384.15	339.72
384.53	363
384.91	344.02
385.29	317.8
385.67	319.16
386.049	346.5
386.429	338.59
386.809	342.89
387.189	334.07
387.568	341.98
387.948	348.08
388.328	339.5
388.707	352.83
389.087	360.51
389.466	354.41
389.846	366.16
390.225	382.21
390.605	360.29
390.984	352.38
391.363	348.99
391.743	371.59
392.122	346.95
392.501	353.06
392.881	356.9
393.26	363.45
393.639	366.39
394.018	367.97
394.397	369.55
394.776	375.65
395.155	356.45
395.534	359.61
395.913	360.97
396.292	381.3
396.671	396.44
397.05	371.59
397.429	351.02
397.808	361.19
398.186	371.36
398.565	374.75
398.944	372.49
399.323	367.29
399.701	398.93
400.08	387.86
400.458	386.95
400.837	383.34
401.215	374.07
401.594	393.05
401.972	384.47
402.351	391.7
402.729	393.96
403.107	384.92
403.486	384.47
403.864	389.21
404.242	400.74
404.62	401.42
404.999	391.7
405.377	405.71
405.755	401.42
406.133	400.06
406.511	402.09
406.889	410.23
407.267	414.52
407.645	431.7
408.023	430.57
408.401	419.95
408.779	424.69
409.156	437.35
409.534	433.28
409.912	419.72
410.29	423.79
410.667	416.33
411.045	431.25
411.422	445.71
411.8	449.32
412.178	427.4
412.555	447.06
412.933	438.25
413.31	454.07
413.687	429.44
414.065	450.68
414.442	438.7
414.819	455.2
415.197	456.33
415.574	449.78
415.951	475.31
416.328	468.31
416.705	475.09
417.082	482.09
417.46	504.92
417.837	470.34
418.214	486.39
418.591	494.52
418.967	472.15
419.344	501.98
419.721	485.26
420.098	484.58
420.475	481.64
420.852	482.77
421.228	506.95
421.605	479.61
421.982	501.3
422.358	505.59
422.735	525.71
423.111	533.84
423.488	537.23
423.864	546.27
424.241	539.94
424.617	509.21
424.994	523.9
425.37	528.87
425.746	532.03
426.123	524.58
426.499	556.67
426.875	539.27
427.251	555.54
427.627	555.76
428.003	561.19
428.379	562.99
428.756	555.54
429.132	567.97
429.507	577
429.883	590.56
430.259	555.08
430.635	591.24
431.011	614.29
431.387	616.1
431.763	586.72
432.138	618.59
432.514	610.45
432.89	615.2
433.265	621.75
433.641	641.18
434.016	637.57
434.392	646.16
434.767	638.47
435.143	649.55
435.518	641.64
435.894	674.86
436.269	660.17
436.644	664.23
437.02	666.04
437.395	687.96
437.77	684.8
438.145	688.64
438.52	724.35
438.895	703.55
439.271	694.52
439.646	707.85
440.021	706.49
440.395	706.72
440.77	697.68
441.145	731.35
441.52	729.54
441.895	724.12
442.27	713.95
442.645	721.86
443.019	743.55
443.394	743.33
443.769	753.05
444.143	761.86
444.518	776.32
444.892	759.82
445.267	752.37
445.641	762.76
446.016	780.84
446.39	777.45
446.764	786.26
447.139	765.02
447.513	770.22
447.887	784.91
448.262	800.73
448.636	777.9
449.01	818.81
449.384	810.44
449.758	797.11
450.132	811.57
450.506	822.42
450.88	836.66
451.254	848.86
451.628	842.53
452.002	844.34
452.376	867.62
452.75	870.56
453.123	866.49
453.497	885.92
453.871	871.91
454.244	899.71
454.618	888.41
454.992	898.58
455.365	922.53
455.739	927.96
456.112	917.11
456.486	918.01
456.859	972.25
457.232	979.93
457.606	931.35
457.979	990.55
458.352	1003.89
458.725	1005.02
459.099	977.45
459.472	1039.37
459.845	1052.47
460.218	1045.92
460.591	1040.27
460.964	1073.04
461.337	1082.53
461.71	1096.76
462.083	1122.3
462.456	1113.49
462.829	1124.79
463.201	1120.04
463.574	1162.75
463.947	1172.24
464.32	1181.51
464.692	1209.98
465.065	1213.15
465.438	1220.38
465.81	1265.8
466.183	1285.23
466.555	1289.53
466.928	1329.3
467.3	1311.22
467.672	1341.28
468.045	1337.89
468.417	1373.37
468.789	1395.29
469.161	1425.8
469.534	1441.84
469.906	1426.93
470.278	1517.77
470.65	1518.45
471.022	1547.15
471.394	1547.6
471.766	1561.16
472.138	1624.43
472.51	1680.93
472.882	1703.3
473.253	1724.55
473.625	1765
473.997	1790.53
474.369	1845.67
474.74	1878.44
475.112	1922.51
475.484	1997.98
475.855	1980.36
476.227	2057.87
476.598	2132.22
476.97	2147.13
477.341	2220.8
477.713	2280.91
478.084	2323.63
478.455	2399.33
478.827	2417.41
479.198	2527.46
479.569	2583.05
479.94	2649.27
480.311	2728.13
480.682	2802.71
481.053	2882.93
481.424	2949.82
481.795	3044.96
482.166	3114.11
482.537	3238.4
482.908	3308.46
483.279	3401.11
483.65	3475.69
484.021	3578.51
484.391	3683.36
484.762	3746.41
485.133	3833.19
485.503	3935.56
485.874	4079.96
486.244	4161.54
486.615	4301.88
486.985	4404.02
487.356	4533.28
487.726	4610.8
488.097	4749.32
488.467	4888.98
488.837	5025.02
489.207	5189.54
489.578	5314.96
489.948	5341.85
490.318	5562.18
490.688	5677.89
491.058	5764.89
491.428	5886.92
491.798	5991.33
492.168	6227.93
492.538	6312
492.908	6416.63
493.278	6613.91
493.648	6716.28
494.017	6877.18
494.387	6959.21
494.757	7083.5
495.126	7242.37
495.496	7305.87
495.866	7474
496.235	7636.93
496.605	7753.99
496.974	7881.22
497.344	8033.31
497.713	8128.44
498.082	8247.09
498.452	8396.01
498.821	8493.86
499.19	8618.15
499.559	8751.7
499.928	8879.16
500.298	8995.31
500.667	9070.34
501.036	9127.97
501.405	9308.3
501.774	9306.72
502.143	9506.26
502.512	9651.79
502.88	9798.91
503.249	9778.34
503.618	9944.67
503.987	10032.8
504.356	10145.79
504.724	10268.5
505.093	10294.04
505.462	10403.41
505.83	10494.94
506.199	10574.93
506.567	10762.5
506.936	10758.43
507.304	10990.97
507.672	11023.51
508.041	11106.45
508.409	11213.56
508.777	11336.72
509.145	11416.49
509.514	11397.51
509.882	11522.93
510.25	11539.65
510.618	11806.77
510.986	11778.74
511.354	12042.24
511.722	12049.92
512.09	12191.16
512.458	12130.37
512.826	12256.7
513.193	12357.71
513.561	12344.6
513.929	12435.45
514.297	12513.41
514.664	12694.2
515.032	12644.71
515.4	12824.37
515.767	12829.79
516.135	12901.43
516.502	12908.43
516.869	13097.58
517.237	13136.9
517.604	13092.61
517.972	13228.2
518.339	13341.41
518.706	13380.74
519.073	13391.81
519.44	13496.21
519.808	13631.35
520.175	13636.1
520.542	13711.8
520.909	13776.66
521.276	13795.19
521.643	13917.9
522.009	14020.27
522.376	13981.4
522.743	14138.23
523.11	14115.41
523.477	14337.32
523.843	14374.83
524.21	14456.19
524.577	14542.97
524.943	14561.27
525.31	14621.16
525.676	14606.01
526.043	14770.76
526.409	14750.19
526.776	14830.19
527.142	14924.42
527.508	14986.57
527.874	15009.17
528.241	15173.68
528.607	15093.46
528.973	15170.07
529.339	15160.35
529.705	15276.51
530.071	15273.79
530.437	15351.53
530.803	15479.66
531.169	15471.98
531.535	15434.92
531.901	15521.7
532.267	15481.25
532.632	15531.41
532.998	15584.97
533.364	15604.18
533.73	15621.13
534.095	15757.17
534.461	15630.62
534.826	15741.13
535.192	15730.73
535.557	15826.55
535.923	15734.8
536.288	15781.58
536.653	15851.63
537.019	15725.76
537.384	15694.35
537.749	15835.59
538.114	15746.32
538.479	15791.29
538.845	15834
539.21	15704.74
539.575	15799.66
539.94	15832.87
540.305	15779.77
540.67	15822.25
541.034	15846.89
541.399	15777.28
541.764	15857.05
542.129	15891.63
542.494	15828.13
542.858	15776.15
543.223	15767.11
543.587	15819.09
543.952	15727.57
544.316	15766.21
544.681	15764.4
545.045	15850.95
545.41	15814.34
545.774	15800.11
546.138	15777.96
546.503	15827.68
546.867	15756.72
547.231	15851.86
547.595	15811.86
547.959	15736.83
548.324	15752.42
548.688	15800.79
549.052	15783.61
549.416	15712.88
549.779	15662.48
550.143	15673.78
550.507	15719.21
550.871	15748.81
551.235	15710.62
551.599	15701.35
551.962	15749.04
552.326	15730.73
552.689	15818.86
553.053	15748.36
553.417	15798.75
553.78	15810.28
554.143	15759.43
554.507	15810.5
554.87	15855.47
555.234	15878.75
555.597	15806.66
555.96	15878.52
556.323	15819.77
556.686	15767.11
557.05	15875.59
557.413	15883.72
557.776	15858.64
558.139	15927.79
558.502	15887.11
558.865	15944.06
559.228	16009.37
559.59	15919.43
559.953	16040.55
560.316	16068.57
560.679	15943.61
561.041	16074.9
561.404	16111.51
561.767	16185.86
562.129	16181.11
562.492	16268.57
562.854	16177.27
563.217	16184.96
563.579	16249.81
563.941	16369.81
564.304	16364.61
564.666	16417.94
565.028	16382.24
565.39	16411.62
565.753	16412.97
566.115	16514.21
566.477	16563.02
566.839	16507.21
567.201	16616.81
567.563	16533.65
567.925	16693.64
568.287	16720.99
568.648	16673.76
569.01	16801.89
569.372	16758.05
569.734	16725.51
570.095	16742.23
570.457	16881.66
570.819	16960.53
571.18	16818.84
571.542	16864.49
571.903	16923.47
572.265	17047.53
572.626	17042.79
572.987	16967.99
573.349	17103.35
573.71	17054.09
574.071	17065.84
574.432	17129.11
574.794	17293.85
575.155	17204.59
575.516	17065.38
575.877	17257.7
576.238	17201.65
576.599	17235.78
576.96	17274.42
577.32	17241.65
577.681	17371.14
578.042	17384.92
578.403	17349.9
578.763	17360.07
579.124	17325.49
579.485	17406.62
579.845	17360.52
580.206	17299.5
580.566	17356.68
580.927	17371.14
581.287	17473.28
581.648	17279.16
582.008	17439.84
582.368	17417.47
582.728	17371.14
583.089	17327.52
583.449	17462.21
583.809	17432.38
584.169	17474.64
584.529	17418.82
584.889	17507.86
585.249	17381.99
585.609	17379.73
585.969	17436.67
586.329	17359.84
586.688	17451.14
587.048	17317.81
587.408	17245.04
587.768	17324.81
588.127	17226.51
588.487	17320.52
588.846	17391.03
589.206	17198.04
589.565	17347.19
589.925	17328.43
590.284	17358.48
590.643	17331.82
591.003	17348.54
591.362	17377.69
591.721	17342.21
592.08	17422.21
592.44	17372.72
592.799	17402.55
593.158	17313.51
593.517	17287.98
593.876	17303.34
594.235	17350.12
594.593	17204.59
594.952	17326.17
595.311	17310.35
595.67	17335.89
596.029	17375.88
596.387	17363.68
596.746	17354.42
597.104	17199.62
597.463	17241.65
597.822	17267.19
598.18	17239.84
598.538	17295.44
598.897	17321.88
599.255	17165.49
599.613	17458.59
599.972	17274.19
600.33	17374.98
600.688	17311.48
601.046	17414.53
601.404	17334.53
601.762	17292.95
602.12	17413.85
602.478	17362.55
602.836	17457.01
603.194	17287.3
603.552	17324.59
603.91	17304.93
604.268	17401.65
604.625	17293.18
604.983	17379.05
605.341	17273.74
605.698	17427.86
606.056	17391.25
606.413	17408.43
606.771	17521.42
607.128	17508.08
607.485	17367.75
607.843	17375.21
608.2	17483.68
608.557	17518.03
608.914	17472.38
609.272	17501.76
609.629	17554.41
609.986	17603.45
610.343	17518.25
610.7	17701.75
611.057	17637.57
611.414	17558.93
611.771	17616.56
612.127	17667.85
612.484	17644.13
612.841	17646.16
613.198	17687.29
613.554	17736.1
613.911	17752.82
614.267	17792.6
614.624	17810.68
614.98	17793.28
615.337	17854.06
615.693	17781.07
616.05	17819.26
616.406	17955.53
616.762	17824.23
617.118	17854.52
617.475	17946.94
617.831	17954.85
618.187	17974.97
618.543	17912.82
618.899	18061.29
619.255	18021.29
619.611	17974.51
619.967	18152.36
620.323	18068.07
620.678	18074.85
621.034	17984.68
621.39	18009.77
621.746	17972.48
622.101	18080.95
622.457	18015.87
622.812	18088.86
623.168	18104.91
623.523	18106.94
623.879	18165.24
624.234	18043.21
624.589	18132.25
624.945	18026.72
625.3	18047.05
625.655	18114.85
626.01	18083.89
626.365	18152.14
626.72	18095.64
627.075	18152.14
627.43	18114.62
627.785	18136.32
628.14	18087.96
628.495	18101.74
628.85	18104.91
629.205	18021.29
629.559	18141.74
629.914	18022.65
630.269	18167.5
630.623	17993.5
630.978	17987.85
631.332	18068.97
631.687	18177.67
632.041	18020.61
632.396	18063.32
632.75	17938.36
633.104	17925.25
633.459	17853.39
633.813	17927.06
634.167	17895.87
634.521	17827.17
634.875	17817.91
635.229	17791.24
635.583	17748.76
635.937	17784.91
636.291	17683.9
636.645	17774.29
636.999	17699.27
637.352	17708.76
637.706	17602.32
638.06	17719.15
638.413	17687.74
638.767	17615.88
639.121	17580.63
639.474	17613.39
639.828	17609.33
640.181	17528.42
640.534	17607.52
640.888	17499.72
641.241	17465.6
641.594	17561.64
641.947	17481.19
642.301	17436.9
642.654	17430.35
643.007	17438.48
643.36	17456.11
643.713	17457.24
644.066	17471.48
644.419	17457.46
644.771	17250.46
645.124	17088.89
645.477	17111.71
645.83	16987.19
646.182	16935.44
646.535	16879.63
646.888	16919.17
647.24	16875.79
647.593	16937.25
647.945	16825.16
648.298	16856.12
648.65	16782.68
649.002	16769.35
649.355	16855.9
649.707	16808.67
650.059	16837.82
650.411	17068.32
650.763	17116.68
651.115	17363.91
651.467	17173.18
651.819	17208.21
652.171	17186.06
652.523	17160.52
652.875	17157.36
653.227	17077.14
653.578	17274.42
653.93	17220.18
654.282	17031.26
654.633	17082.79
654.985	17118.26
655.337	17169.11
655.688	17122.33
656.039	17221.99
656.391	17068.1
656.742	17081.43
657.094	17094.99
657.445	17167.75
657.796	17078.27
658.147	17074.42
658.498	17081.43
658.849	17139.05
659.2	17176.57
659.551	17100.41
659.902	17179.51
660.253	17210.92
660.604	17156
660.955	17154.42
661.306	17162.56
661.656	17125.5
662.007	17162.33
662.358	17112.39
662.708	17171.82
663.059	17207.75
663.409	17095.89
663.76	17176.79
664.11	17278.03
664.461	17276.68
664.811	17210.01
665.161	17199.84
665.511	17191.93
665.862	17243.69
666.212	17248.43
666.562	17291.59
666.912	17229
667.262	17299.05
667.612	17178.6
667.962	17258.37
668.312	17147.64
668.662	17390.57
669.011	17212.27
669.361	17144.7
669.711	17227.87
670.06	17217.7
670.41	17151.03
670.76	17177.7
671.109	17208.88
671.459	17055.89
671.808	17115.33
672.157	17180.64
672.507	16979.74
672.856	17018.83
673.205	17053.41
673.554	17116.23
673.904	17108.1
674.253	17020.87
674.602	17078.27
674.951	16731.83
675.3	16669.46
675.649	16959.62
675.998	16980.87
676.346	16942.45
676.695	16999.4
677.044	16893.41
677.393	16968.66
677.741	16854.77
678.09	16947.42
678.438	16790.14
678.787	16859.06
679.135	16783.13
679.484	16703.36
679.832	16758.27
680.181	16701.33
680.529	16760.99
680.877	16692.74
681.225	16748.56
681.573	16729.8
681.922	16608.9
682.27	16568.22
682.618	16573.87
682.966	16540.43
683.314	16527.77
683.661	16480.99
684.009	16391.5
684.357	16434.89
684.705	16345.18
685.053	16258.63
685.4	16315.57
685.748	16168.01
686.095	16091.4
686.443	16158.97
686.79	16130.04
687.138	16196.25
687.485	16167.33
687.832	16075.13
688.18	16161.23
688.527	15897.51
688.874	15936.15
689.221	15931.4
689.568	15863.38
689.915	15791.29
690.262	15917.39
690.609	15700.22
690.956	15758.07
691.303	15674.91
691.65	15557.4
691.997	15654.12
692.344	15446.67
692.69	15450.06
693.037	15480.79
693.383	15337.07
693.73	15363.28
694.077	15333.23
694.423	15291.87
694.769	15226.79
695.116	15164.64
695.462	15124.87
695.808	15037.19
696.155	15065.44
696.501	14897.53
696.847	14998.77
697.193	14783.64
697.539	14826.12
697.885	14760.36
698.231	14760.36
698.577	14686.46
698.923	14621.38
699.269	14606.24
699.614	14467.03
699.96	14431.33
700.306	14488.05
700.651	14350.65
700.997	14232.69
701.342	14350.43
701.688	14213.71
702.033	14203.54
702.379	14150.66
702.724	14069.76
703.069	14168.06
703.415	13932.59
703.76	14058.68
704.105	13902.98
704.45	13909.76
704.795	13737.34
705.14	13775.53
705.485	13777.11
705.83	13739.6
706.175	13709.54
706.52	13669.54
706.865	13624.12
707.209	13620.73
707.554	13518.13
707.899	13564.69
708.243	13561.97
708.588	13503.67
708.932	13374.41
709.277	13391.36
709.621	13277.24
709.966	13268.42
710.31	13325.14
710.654	13148.88
710.998	13179.61
711.342	13221.19
711.687	13151.14
712.031	13068.88
712.375	12973.74
712.719	13037.02
713.063	13017.81
713.407	13059.61
713.75	12920.41
714.094	12926.28
714.438	12875.89
714.782	12926.06
715.125	12779.4
715.469	12859.62
715.812	12781.66
716.156	12687.65
716.499	12702.11
716.843	12711.37
717.186	12639.74
717.53	12731.26
717.873	12723.58
718.216	12578.72
718.559	12622.79
718.902	12584.15
719.246	12543.47
719.589	12514.54
719.932	12464.15
720.275	12481.32
720.617	12449.01
720.96	12350.48
721.303	12439.97
721.646	12443.36
721.989	12340.76
722.331	12439.74
722.674	12394.32
723.016	12378.5
723.359	12295.11
723.701	12371.27
724.044	12248.11
724.386	12336.7
724.729	12267.77
725.071	12278.84
725.413	12199.07
725.755	12253.76
726.097	12217.15
726.439	12155.91
726.782	12082.01
727.124	12176.7
727.465	12124.27
727.807	12156.81
728.149	12073.88
728.491	12141.45
728.833	12074.1
729.175	12073.2
729.516	12086.76
729.858	12041.11
730.199	12081.33
730.541	12045.63
730.882	12071.17
731.224	12124.95
731.565	12073.2
731.906	11991.62
732.248	12038.62
732.589	11930.6
732.93	11948.91
733.271	11934.67
733.612	12028.91
733.953	12028.91
734.294	12041.79
734.635	11949.81
734.976	12001.56
735.317	11895.13
735.658	11886.09
735.999	11917.5
736.339	11952.75
736.68	11976.03
737.021	12004.73
737.361	11954.11
737.702	12022.81
738.042	12095.12
738.383	11973.77
738.723	11961.11
739.063	11942.81
739.404	11991.17
739.744	11954.56
740.084	12029.81
740.424	12026.65
740.764	11992.98
741.104	11984.16
741.444	12009.25
741.784	11990.72
742.124	12079.3
742.464	12054.67
742.804	12085.4
743.143	12082.01
743.483	12136.25
743.823	12092.63
744.162	12118.62
744.502	12095.12
744.841	12168.34
745.181	12216.02
745.52	12214.44
745.86	12305.51
746.199	12324.04
746.538	12346.41
746.877	12415.79
747.216	12408.56
747.556	12415.34
747.895	12465.51
748.234	12568.78
748.573	12549.35
748.911	12532.85
749.25	12642.9
749.589	12710.02
749.928	12841.54
750.267	12855.1
750.605	12885.61
750.944	12961.76
751.283	13028.88
751.621	13161.31
751.96	13119.27
752.298	13247.86
752.636	13354.52
752.975	13366.5
753.313	13392.03
753.651	13597
753.989	13600.62
754.327	13656.21
754.666	13783.66
755.004	13928.97
755.342	13987.95
755.679	14079.93
756.017	14080.83
756.355	14262.29
756.693	14341.39
