Data from hue_210_FLMS001491_00023.txt Node
Date: Tue Feb 07 16:40:57 GMT 2017
User: dcchb
Spectrometer: FLMS00149
Trigger mode: 0
Integration Time (sec): 2.000000E-2
Scans to average: 10
Electric dark correction enabled: true
Nonlinearity correction enabled: false
Boxcar width: 0
XAxis mode: Wavelengths
Number of Pixels in Spectrum: 2048
>>>>>Begin Spectral Data<<<<<
341.393	-29.19
341.776	-29.19
342.16	-29.19
342.543	-53.6
342.927	-59.02
343.31	-61.28
343.693	-82.3
344.077	-85.69
344.46	-69.42
344.843	-45.46
345.226	-32.13
345.61	-22.41
345.993	-38.69
346.376	-11.79
346.759	22.33
347.142	30.24
347.525	28.21
347.908	62.1
348.291	90.35
348.674	86.51
349.057	129.45
349.44	125.15
349.823	150.91
350.206	157.47
350.588	178.71
350.971	204.25
351.354	220.06
351.737	234.75
352.119	264.13
352.502	255.32
352.884	257.58
353.267	284.02
353.65	280.4
354.032	308.65
354.414	300.06
354.797	305.49
355.179	315.88
355.562	352.26
355.944	320.18
356.326	341.64
356.709	342.1
357.091	335.77
357.473	346.62
357.855	350.23
358.238	335.54
358.62	338.03
359.002	338.71
359.384	352.04
359.766	327.41
360.148	339.38
360.53	335.54
360.912	321.31
361.294	324.24
361.676	334.41
362.057	326.95
362.439	336.67
362.821	334.64
363.203	316.11
363.584	332.6
363.966	331.02
364.348	318.37
364.729	277.46
365.111	303
365.493	307.52
365.874	319.05
366.256	310.91
366.637	311.59
367.019	320.4
367.4	307.07
367.781	302.55
368.163	309.33
368.544	298.93
368.925	313.85
369.306	331.47
369.688	325.6
370.069	291.7
370.45	322.44
370.831	317.46
371.212	282.21
371.593	308.65
371.974	305.94
372.355	318.59
372.736	314.98
373.117	318.14
373.498	320.4
373.879	323.56
374.26	327.18
374.641	321.98
375.021	317.24
375.402	316.79
375.783	343.23
376.163	348.88
376.544	301.64
376.925	296.45
377.305	328.54
377.686	342.55
378.066	331.7
378.447	336.22
378.827	320.4
379.208	337.12
379.588	347.97
379.968	345.03
380.349	335.09
380.729	335.09
381.109	324.02
381.489	319.5
381.87	322.66
382.25	333.96
382.63	341.64
383.01	340.51
383.39	347.97
383.77	346.62
384.15	340.74
384.53	329.89
384.91	338.25
385.29	339.61
385.67	350.68
386.049	340.97
386.429	342.55
386.809	364.69
387.189	352.49
387.568	352.94
387.948	342.1
388.328	364.92
388.707	360.85
389.087	367.63
389.466	368.54
389.846	359.95
390.225	370.8
390.605	344.36
390.984	353.39
391.363	364.02
391.743	339.38
392.122	357.46
392.501	364.92
392.881	384.58
393.26	363.56
393.639	378.03
394.018	358.82
394.397	399.95
394.776	370.8
395.155	380.96
395.534	381.64
395.913	375.99
396.292	400.4
396.671	399.72
397.05	401.08
397.429	406.95
397.808	421.19
398.186	382.77
398.565	391.36
398.944	409.66
399.323	400.63
399.701	399.95
400.08	406.73
400.458	418.03
400.837	399.95
401.215	420.74
401.594	415.09
401.972	436.56
402.351	404.92
402.729	404.69
403.107	436.1
403.486	438.36
403.864	449.89
404.242	452.6
404.62	453.73
404.999	452.83
405.377	445.82
405.755	444.01
406.133	447.18
406.511	453.05
406.889	476.1
407.267	487.85
407.645	475.65
408.023	489.44
408.401	492.83
408.779	500.51
409.156	510.23
409.534	501.64
409.912	502.32
410.29	526.5
410.667	507.51
411.045	527.85
411.422	553.62
411.8	539.6
412.178	550.9
412.555	585.48
412.933	575.31
413.31	568.3
413.687	596.1
414.065	585.93
414.442	596.33
414.819	614.63
415.197	633.61
415.574	657.57
415.951	651.69
416.328	660.51
416.705	640.39
417.082	641.3
417.46	658.92
417.837	659.6
418.214	688.75
418.591	697.79
418.967	688.3
419.344	703.89
419.721	731.24
420.098	742.54
420.475	744.34
420.852	768.52
421.228	786.83
421.605	804.68
421.982	789.32
422.358	807.39
422.735	812.59
423.111	833.38
423.488	848.97
423.864	849.88
424.241	880.84
424.617	887.84
424.994	916.09
425.37	925.58
425.746	929.88
426.123	948.86
426.499	944.11
426.875	969.88
427.251	994.51
427.627	995.86
428.003	1022.3
428.379	1039.93
428.756	1030.66
429.132	1046.48
429.507	1039.48
429.883	1051.46
430.259	1099.14
430.635	1113.37
431.011	1127.39
431.387	1140.94
431.763	1171
432.138	1154.05
432.514	1168.74
432.89	1198.12
433.265	1229.53
433.641	1242.86
434.016	1272.69
434.392	1292.35
434.767	1307.04
435.143	1314.95
435.518	1367.61
435.894	1356.98
436.269	1406.02
436.644	1424.33
437.02	1420.03
437.395	1456.42
437.77	1500.03
438.145	1510.88
438.52	1545.45
438.895	1587.03
439.271	1580.03
439.646	1608.28
440.021	1638.56
440.395	1630.65
440.77	1640.37
441.145	1678.11
441.52	1717.43
441.895	1718.78
442.27	1740.02
442.645	1749.06
443.019	1765.79
443.394	1770.53
443.769	1806.24
444.143	1817.54
444.518	1888.95
444.892	1847.82
445.267	1885.78
445.641	1884.88
446.016	1866.8
446.39	1938.89
446.764	1936.63
447.139	1940.92
447.513	1966.91
447.887	1967.36
448.262	1975.05
448.636	1985.89
449.01	2042.84
449.384	2051.2
449.758	2065.44
450.132	2095.95
450.506	2106.12
450.88	2114.7
451.254	2098.89
451.628	2125.33
452.002	2151.54
452.376	2176.4
452.75	2193.8
453.123	2219.56
453.497	2239.45
453.871	2261.59
454.244	2298.2
454.618	2315.15
454.992	2348.14
455.365	2333
455.739	2404.41
456.112	2431.98
456.486	2441.7
456.859	2464.98
457.232	2536.84
457.606	2517.63
457.979	2531.42
458.352	2606.22
458.725	2631.98
459.099	2639.44
459.472	2730.96
459.845	2722.37
460.218	2758.98
460.591	2717.85
460.964	2771.64
461.337	2828.13
461.71	2850.28
462.083	2885.76
462.456	2881.69
462.829	2919.88
463.201	2976.38
463.574	2980.22
463.947	3022.93
464.32	3076.26
464.692	3095.24
465.065	3113.1
465.438	3195.81
465.81	3214.79
466.183	3226.54
466.555	3324.84
466.928	3283.49
467.3	3285.75
467.672	3386.54
468.045	3431.28
468.417	3436.48
468.789	3481
469.161	3543.82
469.534	3578.62
469.906	3646.42
470.278	3661.56
470.65	3680.54
471.022	3742.68
471.394	3826.98
471.766	3854.32
472.138	3880.99
472.51	3974.09
472.882	4026.29
473.253	4042.11
473.625	4138.83
473.997	4193.52
474.369	4195.55
474.74	4202.11
475.112	4321.65
475.484	4374.98
475.855	4417.24
476.227	4472.61
476.598	4577.24
476.97	4554.87
477.341	4784.01
477.713	4771.58
478.084	4754.18
478.455	4902.2
478.827	4907.63
479.198	5098.13
479.569	5048.86
479.94	5199.59
480.311	5243.66
480.682	5348.74
481.053	5457.22
481.424	5489.3
481.795	5546.7
482.166	5581.73
482.537	5671.9
482.908	5769.3
483.279	5770.43
483.65	5931.1
484.021	6036.86
484.391	6061.72
484.762	6119.34
485.133	6160.93
485.503	6225.78
485.874	6368.6
486.244	6441.37
486.615	6457.41
486.985	6595.49
487.356	6702.61
487.726	6759.78
488.097	6811.53
488.467	6821.47
488.837	6990.73
489.207	6982.37
489.578	7129.04
489.948	7189.37
490.318	7266.89
490.688	7225.53
491.058	7379.88
491.428	7409.25
491.798	7551.62
492.168	7608.8
492.538	7607.67
492.908	7763.14
493.278	7770.83
493.648	7747.55
494.017	7929.47
494.387	7903.7
494.757	7978.28
495.126	8101.89
495.496	8129.91
495.866	8119.52
496.235	8162.91
496.605	8329.23
496.974	8280.87
497.344	8410.13
497.713	8382.34
498.082	8365.16
498.452	8477.25
498.821	8535.1
499.19	8515.67
499.559	8533.52
499.928	8597.47
500.298	8644.93
500.667	8707.98
501.036	8750.91
501.405	8716.79
501.774	8772.83
502.143	8833.62
502.512	8774.87
502.88	8890.35
503.249	8877.24
503.618	8897.12
503.987	8903.45
504.356	8975.99
504.724	8981.87
505.093	8977.35
505.462	9033.84
505.83	9091.92
506.199	9205.37
506.567	9207.17
506.936	9134.18
507.304	9302.76
507.672	9256.89
508.041	9298.24
508.409	9314.06
508.777	9408.52
509.145	9392.93
509.514	9365.59
509.882	9396.09
510.25	9376.43
510.618	9441.74
510.986	9430.67
511.354	9431.8
511.722	9593.15
512.09	9573.49
512.458	9533.94
512.826	9589.08
513.193	9556.54
513.561	9545.47
513.929	9599.93
514.297	9651.91
514.664	9682.64
515.032	9661.4
515.4	9719.25
515.767	9633.6
516.135	9767.84
516.502	9695.07
516.869	9823.65
517.237	9835.41
517.604	9675.64
517.972	9801.96
518.339	9793.82
518.706	9720.15
519.073	9783.88
519.44	9819.13
519.808	9815.74
520.175	9808.51
520.542	9879.92
520.909	9888.51
521.276	9843.54
521.643	9883.31
522.009	9923.31
522.376	9887.16
522.743	9952.92
523.11	9979.81
523.477	10003.31
523.843	10042.86
524.21	10088.96
524.577	10061.84
524.943	10093.48
525.31	10055.06
525.676	10148.84
526.043	10100.48
526.409	10087.83
526.776	10208.73
527.142	10110.43
527.508	10198.56
527.874	10221.38
528.241	10137.32
528.607	10205.11
528.973	10209.86
529.339	10128.73
529.705	10207.82
530.071	10240.59
530.437	10210.99
530.803	10193.59
531.169	10175.06
531.535	10199.92
531.901	10102.74
532.267	10109.3
532.632	10093.93
532.998	10121.27
533.364	10118.56
533.73	10083.99
534.095	10134.61
534.461	10079.92
534.826	10068.17
535.192	10087.38
535.557	10059.35
535.923	10015.51
536.288	9988.17
536.653	9958.79
537.019	9938.45
537.384	9917.89
537.749	9950.43
538.114	9950.88
538.479	9921.96
538.845	9933.48
539.21	9826.59
539.575	9745.01
539.94	9771.9
540.305	9867.04
540.67	9704.34
541.034	9680.61
541.399	9719.25
541.764	9647.16
542.129	9598.58
542.494	9634.73
542.858	9625.02
543.223	9603.55
543.587	9579.14
543.952	9445.81
544.316	9464.79
544.681	9486.49
545.045	9457.11
545.41	9427.73
545.774	9427.73
546.138	9419.14
546.503	9413.5
546.867	9248.75
547.231	9280.17
547.595	9262.76
547.959	9279.49
548.324	9296.66
548.688	9245.82
549.052	9189.77
549.416	9174.86
549.779	9118.14
550.143	9047.63
550.507	9134.18
550.871	9061.87
551.235	9032.04
551.599	9040.62
551.962	9014.18
552.326	8980.96
552.689	8997.24
553.053	8905.03
553.417	8943.9
553.78	8938.93
554.143	8845.37
554.507	8877.69
554.87	8888.31
555.234	8868.2
555.597	8765.6
555.96	8853.51
556.323	8773.74
556.686	8703.68
557.05	8779.61
557.413	8730.8
557.776	8647.64
558.139	8754.76
558.502	8656
558.865	8737.13
559.228	8686.06
559.59	8648.32
559.953	8686.06
560.316	8745.49
560.679	8653.74
561.041	8702.78
561.404	8710.69
561.767	8704.81
562.129	8687.19
562.492	8714.98
562.854	8698.94
563.217	8692.84
563.579	8656
563.941	8638.37
564.304	8640.63
564.666	8724.25
565.028	8713.17
565.39	8705.72
565.753	8739.61
566.115	8766.28
566.477	8719.5
566.839	8794.75
567.201	8819.16
567.563	8745.49
567.925	8774.42
568.287	8744.36
568.648	8787.07
569.01	8792.95
569.372	8807.86
569.734	8766.73
570.095	8860.97
570.457	8848.76
570.819	8871.59
571.18	8867.75
571.542	8886.73
571.903	8872.94
572.265	8894.41
572.626	8846.73
572.987	8940.51
573.349	8915.43
573.71	8919.05
574.071	8934.64
574.432	8954.07
574.794	9025.71
575.155	8927.18
575.516	8960.85
575.877	8978.7
576.238	8998.37
576.599	8952.04
576.96	8983.22
577.32	8939.16
577.681	9008.08
578.042	9059.38
578.403	9052.6
578.763	9042.43
579.124	9085.82
579.485	9159.04
579.845	9144.12
580.206	9149.1
580.566	9098.7
580.927	9148.87
581.287	9140.73
581.648	9175.76
582.008	9145.48
582.368	9180.06
582.728	9210.11
583.089	9199.94
583.449	9174.41
583.809	9152.26
584.169	9218.02
584.529	9181.86
584.889	9290.56
585.249	9153.62
585.609	9231.81
585.969	9278.58
586.329	9208.3
586.688	9243.56
587.048	9213.5
587.408	9208.53
587.768	9234.52
588.127	9257.12
588.487	9224.8
588.846	9348.64
589.206	9190.45
589.565	9273.61
589.925	9285.82
590.284	9335.31
590.643	9335.31
591.003	9312.93
591.362	9342.31
591.721	9330.79
592.08	9334.85
592.44	9365.81
592.799	9346.6
593.158	9368.52
593.517	9303.44
593.876	9327.4
594.235	9342.54
594.593	9307.28
594.952	9364.68
595.311	9298.47
595.67	9285.14
596.029	9369.88
596.387	9435.64
596.746	9372.59
597.104	9289.43
597.463	9336.66
597.822	9334.85
598.18	9304.8
598.538	9342.31
598.897	9418.92
599.255	9376.21
599.613	9421.18
599.972	9420.95
600.33	9437.9
600.688	9399.94
601.046	9350.9
601.404	9469.54
601.762	9394.29
602.12	9447.62
602.478	9459.82
602.836	9447.17
603.194	9403.78
603.552	9446.04
603.91	9370.78
604.268	9467.05
604.625	9371.69
604.983	9456.43
605.341	9317.68
605.698	9525.36
606.056	9462.76
606.413	9473.38
606.771	9470.9
607.128	9484.45
607.485	9442.65
607.843	9424.57
608.2	9476.54
608.557	9526.94
608.914	9455.53
609.272	9507.5
609.629	9524
609.986	9592.47
610.343	9546.6
610.7	9589.76
611.057	9519.26
611.414	9554.73
611.771	9505.7
612.127	9634.96
612.484	9576.88
612.841	9557.9
613.198	9621.63
613.554	9620.95
613.911	9620.95
614.267	9583.21
614.624	9615.75
614.98	9667.05
615.337	9642.19
615.693	9596.32
616.05	9692.58
616.406	9679.03
616.762	9646.03
617.118	9624.34
617.475	9600.84
617.831	9660.27
618.187	9650.55
618.543	9762.19
618.899	9720.83
619.255	9711.34
619.611	9694.62
619.967	9739.81
620.323	9757.89
620.678	9708.4
621.034	9665.47
621.39	9686.26
621.746	9657.33
622.101	9776.88
622.457	9688.52
622.812	9644
623.168	9744.11
623.523	9704.56
623.879	9782.98
624.234	9734.62
624.589	9705.92
624.945	9719.48
625.3	9710.89
625.655	9735.97
626.01	9767.38
626.365	9754.73
626.72	9742.53
627.075	9740.49
627.43	9737.33
627.785	9691.91
628.14	9700.95
628.495	9687.61
628.85	9724.22
629.205	9671.79
629.559	9720.38
629.914	9645.58
630.269	9654.39
630.623	9686.26
630.978	9609.42
631.332	9594.51
631.687	9690.32
632.041	9592.47
632.396	9583.43
632.75	9639.25
633.104	9607.16
633.459	9593.15
633.813	9520.61
634.167	9475.41
634.521	9559.25
634.875	9585.02
635.229	9512.7
635.583	9536.88
635.937	9504.11
636.291	9460.05
636.645	9384.34
636.999	9415.98
637.352	9477.9
637.706	9402.65
638.06	9433.16
638.413	9409.2
638.767	9408.07
639.121	9407.85
639.474	9422.99
639.828	9354.97
640.181	9434.06
640.534	9287.85
640.888	9304.35
641.241	9250.56
641.594	9284.46
641.947	9332.82
642.301	9307.28
642.654	9267.74
643.007	9318.36
643.36	9333.27
643.713	9278.81
644.066	9325.59
644.419	9255.53
644.771	9151.36
645.124	9092.83
645.477	9126.27
645.83	9090.79
646.182	9054.18
646.535	9013.51
646.888	8987.29
647.24	8926.5
647.593	8988.87
647.945	8914.53
648.298	8902.77
648.65	8893.74
649.002	8960.63
649.355	8991.13
649.707	8921.3
650.059	8972.6
650.411	9085.37
650.763	9088.53
651.115	9214.86
651.467	9139.38
651.819	9154.52
652.171	9205.59
652.523	9155.42
652.875	9207.4
653.227	9096.22
653.578	9163.11
653.93	9149.32
654.282	9159.26
654.633	9059.61
654.985	9081.07
655.337	9157.46
655.688	9188.87
656.039	9184.12
656.391	9114.52
656.742	9106.16
657.094	9139.38
657.445	9206.95
657.796	9203.56
658.147	9176.44
658.498	9103.9
658.849	9118.36
659.2	9212.6
659.551	9147.29
659.902	9137.57
660.253	9165.14
660.604	9248.98
660.955	9194.74
661.306	9237.23
661.656	9174.18
662.007	9250.11
662.358	9213.27
662.708	9186.61
663.059	9175.31
663.409	9139.6
663.76	9219.15
664.11	9253.5
664.461	9209.21
664.811	9231.81
665.161	9195.42
665.511	9151.58
665.862	9258.92
666.212	9222.31
666.562	9255.99
666.912	9179.83
667.262	9209.21
667.612	9201.3
667.962	9201.07
668.312	9182.99
668.662	9170.56
669.011	9188.64
669.361	9157.46
669.711	9251.01
670.06	9185.25
670.41	9189.55
670.76	9216.66
671.109	9186.16
671.459	9192.48
671.808	9144.12
672.157	9197
672.507	9202.43
672.856	9113.62
673.205	9212.14
673.554	9125.59
673.904	9075.65
674.253	9161.3
674.602	9171.69
674.951	9016.22
675.3	8889.22
675.649	9152.26
675.998	9072.71
676.346	9093.05
676.695	9143.9
677.044	8995.65
677.393	9075.43
677.741	9043.56
678.09	9012.6
678.438	9042.88
678.787	9065.48
679.135	8981.64
679.484	8951.81
679.832	8979.61
680.181	8901.87
680.529	8959.04
680.877	8844.24
681.225	8899.61
681.573	8927.63
681.922	8873.17
682.27	8830.91
682.618	8816.67
682.966	8861.19
683.314	8784.81
683.661	8773.06
684.009	8682.67
684.357	8764.7
684.705	8778.26
685.053	8760.41
685.4	8699.84
685.748	8683.35
686.095	8596.34
686.443	8664.81
686.79	8621.88
687.138	8640.41
687.485	8622.1
687.832	8582.1
688.18	8536.23
688.527	8544.59
688.874	8471.15
689.221	8465.5
689.568	8453.97
689.915	8388.89
690.262	8386.4
690.609	8413.97
690.956	8397.48
691.303	8371.04
691.65	8294.43
691.997	8294.65
692.344	8231.83
692.69	8239.29
693.037	8213.3
693.383	8148.9
693.73	8186.41
694.077	8132.4
694.423	8138.05
694.769	8104.83
695.116	8069.58
695.462	8053.98
695.808	8008.56
696.155	8071.38
696.501	7971.05
696.847	7916.81
697.193	7857.6
697.539	7816.25
697.885	7808.11
698.231	7729.25
698.577	7761.11
698.923	7760.66
699.269	7696.25
699.614	7608.12
699.96	7672.98
700.306	7633.66
700.651	7618.74
700.997	7561.11
701.342	7531.96
701.688	7579.42
702.033	7501.23
702.379	7455.35
702.724	7442.02
703.069	7456.94
703.415	7334.91
703.76	7371.52
704.105	7295.36
704.45	7411.74
704.795	7313.66
705.14	7288.58
705.485	7231.63
705.83	7132.43
706.175	7219.65
706.52	7164.06
706.865	7152.31
707.209	7152.54
707.554	7137.85
707.899	7167.9
708.243	7098.3
708.588	7069.83
708.932	7022.6
709.277	6979.66
709.621	7025.99
709.966	6936.5
710.31	6963.84
710.654	6851.75
710.998	6874.58
711.342	6877.97
711.687	6913
712.031	6858.08
712.375	6828.7
712.719	6843.17
713.063	6840.23
713.407	6816.05
713.75	6775.15
714.094	6772.43
714.438	6729.72
714.782	6697.86
715.125	6684.53
715.469	6773.79
715.812	6737.86
716.156	6682.95
716.499	6713.68
716.843	6655.83
717.186	6655.15
717.53	6650.86
717.873	6662.83
718.216	6690.63
718.559	6599.56
718.902	6623.51
719.246	6564.98
719.589	6601.14
719.932	6628.48
720.275	6566.79
720.617	6602.04
720.96	6590.52
721.303	6593
721.646	6600.91
721.989	6527.24
722.331	6574.7
722.674	6534.25
723.016	6537.41
723.359	6546.45
723.701	6547.81
724.044	6496.51
724.386	6445.21
724.729	6494.48
725.071	6490.18
725.413	6491.76
725.755	6511.65
726.097	6441.6
726.439	6422.84
726.782	6418.77
727.124	6418.09
727.465	6433.23
727.807	6415.61
728.149	6360.02
728.491	6455.83
728.833	6415.61
729.175	6454.7
729.516	6413.35
729.858	6474.59
730.199	6396.4
730.541	6428.04
730.882	6439.79
731.224	6416.96
731.565	6356.17
731.906	6408.83
732.248	6420.58
732.589	6391.2
732.93	6350.07
733.271	6385.78
733.612	6447.92
733.953	6407.25
734.294	6407.25
734.635	6403.86
734.976	6440.92
735.317	6386.23
735.658	6414.93
735.999	6388.49
736.339	6373.12
736.68	6388.72
737.021	6422.39
737.361	6409.51
737.702	6459
738.042	6445.66
738.383	6457.19
738.723	6451.09
739.063	6446.34
739.404	6476.85
739.744	6523.63
740.084	6531.09
740.424	6491.54
740.764	6502.39
741.104	6518.88
741.444	6573.12
741.784	6479.56
742.124	6598.88
742.464	6542.38
742.804	6596.62
743.143	6585.77
743.483	6671.87
743.823	6646.56
744.162	6695.37
744.502	6708.93
744.841	6716.84
745.181	6843.39
745.52	6767.01
745.86	6821.25
746.199	6824.41
746.538	6862.83
746.877	6923.39
747.216	7008.36
747.556	7033.67
747.895	7030.06
748.234	7038.42
748.573	7139.2
748.911	7174.68
749.25	7242.03
749.589	7267.56
749.928	7399.54
750.267	7417.62
750.605	7469.59
750.944	7532.19
751.283	7677.72
751.621	7734.67
751.96	7771.05
752.298	7868
752.636	7912.29
752.975	8019.41
753.313	8087.88
753.651	8246.97
753.989	8295.33
754.327	8360.42
754.666	8472.5
755.004	8567.87
755.342	8732.38
755.679	8819.84
756.017	8990.68
756.355	9098.93
756.693	9185.03
757.031	9352.03
757.368	9465.7
757.706	9608.97
758.044	9738.91
758.381	9966.48
758.719	9981.84
759.056	10121.5
759.394	10312.68
759.731	10457.99
760.068	10564.65
760.405	10747.02
760.743	10925.55
761.08	11093.23
761.417	11230.17
761.754	11414.35
762.091	11576.6
762.428	11789.03
762.765	11858.63
763.102	12176.59
763.438	12203.25
763.775	12405.51
764.112	12594.88
764.449	12686.86
764.785	12946.28
765.122	12910.35
765.458	13157.58
765.795	13350.57
766.131	13498.81
766.467	13706.49
766.804	13774.51
767.14	13954.17
767.476	14055.41
767.812	14179.02
768.148	14431.89
768.485	14545.79
