Data from hue_210_FLMS001491_00042.txt Node
Date: Tue Feb 07 16:41:14 GMT 2017
User: dcchb
Spectrometer: FLMS00149
Trigger mode: 0
Integration Time (sec): 2.000000E-2
Scans to average: 10
Electric dark correction enabled: true
Nonlinearity correction enabled: false
Boxcar width: 0
XAxis mode: Wavelengths
Number of Pixels in Spectrum: 2048
>>>>>Begin Spectral Data<<<<<
341.393	-16.65
341.776	-16.65
342.16	-16.65
342.543	-50.55
342.927	-55.75
343.31	-55.3
343.693	-82.41
344.077	-74.28
344.46	-50.32
344.843	-44.67
345.226	-46.93
345.61	-44
345.993	-28.4
346.376	1.65
346.759	7.08
347.142	29.9
347.525	36.91
347.908	66.96
348.291	76.23
348.674	84.36
349.057	123.23
349.44	113.97
349.823	126.17
350.206	158.71
350.588	181.31
350.971	227.41
351.354	247.97
351.737	225.38
352.119	253.85
352.502	256.34
352.884	291.14
353.267	299.95
353.65	293.62
354.032	301.98
354.414	294.3
354.797	300.4
355.179	321.42
355.562	311.47
355.944	333.62
356.326	321.64
356.709	336.56
357.091	337.69
357.473	336.56
357.855	343.79
358.238	340.17
358.62	314.41
359.002	333.17
359.384	320.97
359.766	345.6
360.148	355.54
360.53	322.55
360.912	318.03
361.294	334.3
361.676	325.49
362.057	338.37
362.439	319.61
362.821	321.19
363.203	328.65
363.584	332.27
363.966	333.62
364.348	316.67
364.729	311.25
365.111	323
365.493	344.92
365.874	329.1
366.256	294.75
366.637	319.38
367.019	302.89
367.4	325.26
367.781	309.89
368.163	340.4
368.544	319.84
368.925	316.22
369.306	296.56
369.688	326.84
370.069	303.11
370.45	309.67
370.831	308.99
371.212	315.77
371.593	307.18
371.974	333.17
372.355	295.43
372.736	320.74
373.117	332.49
373.498	331.59
373.879	305.37
374.26	320.29
374.641	311.7
375.021	327.97
375.402	330.91
375.783	335.2
376.163	337.24
376.544	336.33
376.925	331.36
377.305	318.71
377.686	327.29
378.066	315.32
378.447	322.77
378.827	337.69
379.208	341.53
379.588	333.62
379.968	317.58
380.349	333.4
380.729	342.21
381.109	340.85
381.489	347.86
381.87	327.75
382.25	353.06
382.63	343.56
383.01	349.89
383.39	342.66
383.77	361.42
384.15	339.04
384.53	344.24
384.91	353.96
385.29	365.94
385.67	337.69
386.049	325.94
386.429	346.5
386.809	344.92
387.189	344.92
387.568	354.41
387.948	358.03
388.328	366.39
388.707	356.67
389.087	402.32
389.466	371.81
389.846	373.85
390.225	367.52
390.605	379.72
390.984	369.1
391.363	393.28
391.743	352.15
392.122	367.74
392.501	405.48
392.881	364.58
393.26	378.59
393.639	388.08
394.018	390.34
394.397	386.95
394.776	382.43
395.155	389.66
395.534	409.55
395.913	420.17
396.292	400.51
396.671	393.05
397.05	401.42
397.429	399.61
397.808	388.31
398.186	403.68
398.565	404.13
398.944	406.61
399.323	421.08
399.701	430.34
400.08	407.29
400.458	416.33
400.837	428.53
401.215	428.31
401.594	418.59
401.972	435.99
402.351	427.18
402.729	434.64
403.107	451.81
403.486	435.99
403.864	445.71
404.242	427.4
404.62	452.04
404.999	435.99
405.377	452.71
405.755	457.01
406.133	454.52
406.511	465.6
406.889	496.78
407.267	479.38
407.645	479.83
408.023	490.91
408.401	488.87
408.779	500.62
409.156	504.92
409.534	496.1
409.912	512.6
410.29	541.3
410.667	539.04
411.045	540.4
411.422	537.91
411.8	562.99
412.178	570.23
412.555	572.26
412.933	593.73
413.31	591.02
413.687	612.03
414.065	606.61
414.442	628.75
414.819	608.19
415.197	630.11
415.574	642.77
415.951	650.22
416.328	672.14
416.705	665.36
417.082	687.51
417.46	695.19
417.837	691.13
418.214	685.02
418.591	695.87
418.967	714.18
419.344	731.12
419.721	722.99
420.098	754.4
420.475	749.88
420.852	755.76
421.228	777.9
421.605	784.23
421.982	800.95
422.358	802.99
422.735	836.43
423.111	826.94
423.488	858.35
423.864	835.3
424.241	885.92
424.617	879.6
424.994	909.88
425.37	915.98
425.746	927.5
426.123	931.12
426.499	928.18
426.875	976.54
427.251	984.9
427.627	1000.27
428.003	1004.79
428.379	1025.58
428.756	1033.04
429.132	1046.14
429.507	1064
429.883	1060.38
430.259	1085.69
430.635	1068.74
431.011	1133.37
431.387	1151.9
431.763	1150.1
432.138	1164.56
432.514	1198.46
432.89	1212.24
433.265	1208.63
433.641	1230.55
434.016	1276.87
434.392	1288.62
434.767	1316.19
435.143	1338.57
435.518	1366.36
435.894	1378.79
436.269	1378.34
436.644	1408.4
437.02	1437.55
437.395	1424.89
437.77	1478
438.145	1474.61
438.52	1518.45
438.895	1559.58
439.271	1543.76
439.646	1592.12
440.021	1595.51
440.395	1616.3
440.77	1660.14
441.145	1663.98
441.52	1692.46
441.895	1735.17
442.27	1746.01
442.645	1713.47
443.019	1812.68
443.394	1792.34
443.769	1820.14
444.143	1809.06
444.518	1836.41
444.892	1839.12
445.267	1868.95
445.641	1899.68
446.016	1896.52
446.39	1929.51
446.764	1948.49
447.139	1927.48
447.513	1946.23
447.887	1965.67
448.262	2016.06
448.636	2009.74
449.01	2063.52
449.384	2018.77
449.758	2052.67
450.132	2055.61
450.506	2070.75
450.88	2128.15
451.254	2100.58
451.628	2144.87
452.002	2146
452.376	2188.04
452.75	2209.96
453.123	2230.07
453.497	2262.38
453.871	2267.13
454.244	2305.09
454.618	2310.52
454.992	2367.47
455.365	2349.16
455.739	2407.24
456.112	2431.65
456.486	2442.04
456.859	2471.64
457.232	2495.6
457.606	2487.69
457.979	2550.96
458.352	2601.81
458.725	2643.16
459.099	2638.19
459.472	2687.68
459.845	2668.48
460.218	2760.9
460.591	2731.98
460.964	2767.91
461.337	2789.6
461.71	2875.25
462.083	2929.03
462.456	2909.37
462.829	2929.94
463.201	2960.44
463.574	2943.5
463.947	3018.75
464.32	3098.29
464.692	3062.36
465.065	3114.34
465.438	3144.62
465.81	3169.25
466.183	3258.06
466.555	3270.04
466.928	3298.51
467.3	3303.03
467.672	3365.41
468.045	3455.35
468.417	3434.78
468.789	3477.04
469.161	3515.91
469.534	3536.02
469.906	3622.12
470.278	3649.47
470.65	3696.24
471.022	3753.19
471.394	3821.21
471.766	3861.89
472.138	3875.9
472.51	3937.14
472.882	3990.47
473.253	4019.17
473.625	4077.93
473.997	4176.01
474.369	4165.38
474.74	4218.94
475.112	4291.48
475.484	4340.07
475.855	4407.19
476.227	4494.42
476.598	4534.87
476.97	4619.61
477.341	4720.4
477.713	4759.27
478.084	4792.26
478.455	4868.87
478.827	4891.92
479.198	5053.95
479.569	5021.86
479.94	5178.47
480.311	5230.44
480.682	5287.84
481.053	5420.27
481.424	5458.46
481.795	5504.78
482.166	5525.58
482.537	5653.03
482.908	5770.77
483.279	5795.4
483.65	5915.17
484.021	5985.22
484.391	6027.48
484.762	6087.14
485.133	6161.26
485.503	6226.35
485.874	6300.7
486.244	6380.02
486.615	6493.69
486.985	6562.84
487.356	6693.23
487.726	6693
488.097	6786.33
488.467	6791.53
488.837	6957.85
489.207	6981.13
489.578	7060.9
489.948	7140.22
490.318	7215.25
490.688	7276.04
491.058	7331.63
491.428	7443.49
491.798	7494.11
492.168	7580.21
492.538	7604.62
492.908	7716.7
493.278	7784.5
493.648	7744.95
494.017	7939.52
494.387	7885.96
494.757	7973.42
495.126	8042.35
495.496	8036.02
495.866	8083.02
496.235	8104.04
496.605	8198.5
496.974	8260.64
497.344	8322.11
497.713	8344.26
498.082	8378.38
498.452	8487.08
498.821	8413.86
499.19	8416.8
499.559	8549
499.928	8546.96
500.298	8572.5
500.667	8666.74
501.036	8691.14
501.405	8763.68
501.774	8686.62
502.143	8758.26
502.512	8753.51
502.88	8832.61
503.249	8859.27
503.618	8864.92
503.987	8944.69
504.356	8810.46
504.724	8948.31
505.093	8940.4
505.462	9020.17
505.83	8987.18
506.199	9057.69
506.567	9141.53
506.936	9092.26
507.304	9273.5
507.672	9207.06
508.041	9210
508.409	9247.51
508.777	9268.75
509.145	9342.65
509.514	9284.35
509.882	9323.22
510.25	9353.27
510.618	9442.76
510.986	9344.46
511.354	9423.33
511.722	9449.09
512.09	9486.37
512.458	9534.74
512.826	9496.54
513.193	9538.58
513.561	9577.22
513.929	9519.37
514.297	9617.67
514.664	9638.91
515.032	9682.75
515.4	9619.93
515.767	9654.96
516.135	9692.7
516.502	9581.51
516.869	9751.9
517.237	9733.83
517.604	9644.34
517.972	9734.73
518.339	9798.91
518.706	9710.78
519.073	9688.4
519.44	9771.57
519.808	9817.67
520.175	9758.46
520.542	9854.05
520.909	9852.92
521.276	9782.19
521.643	9863.77
522.009	9860.83
522.376	9880.49
522.743	9912.8
523.11	9905.57
523.477	10045
523.843	9964.33
524.21	10026.47
524.577	10087.04
524.943	9985.12
525.31	10056.3
525.676	10038.68
526.043	10065.79
526.409	10030.09
526.776	10135.85
527.142	10058.34
527.508	10151.89
527.874	10155.96
528.241	10117.32
528.607	10102.63
528.973	10191.44
529.339	10108.96
529.705	10125.23
530.071	10148.28
530.437	10223.76
530.803	10150.99
531.169	10200.03
531.535	10086.59
531.901	10053.14
532.267	10129.75
532.632	10058.11
532.998	10071.67
533.364	10129.52
533.73	10035.51
534.095	10085.91
534.461	10059.02
534.826	10066.25
535.192	10055.63
535.557	10084.55
535.923	9982.41
536.288	10031.67
536.653	9986.25
537.019	9919.58
537.384	9947.61
537.749	9915.74
538.114	9843.65
538.479	9816.31
538.845	9866.48
539.21	9749.64
539.575	9751.45
539.94	9762.75
540.305	9722.98
540.67	9728.18
541.034	9641.85
541.399	9666.94
541.764	9648.63
542.129	9633.49
542.494	9592.59
542.858	9595.75
543.223	9571.34
543.587	9579.25
543.952	9511.01
544.316	9471.46
544.681	9467.62
545.045	9450.22
545.41	9455.19
545.774	9391.46
546.138	9381.97
546.503	9325.7
546.867	9303.33
547.231	9356.66
547.595	9351.46
547.959	9309.43
548.324	9217
548.688	9164.8
549.052	9175.65
549.416	9155.54
549.779	9098.14
550.143	9075.76
550.507	9129.1
550.871	9064.24
551.235	8994.86
551.599	9035.99
551.962	8951.93
552.326	8968.87
552.689	8984.24
553.053	8909.44
553.417	8859.05
553.78	8966.84
554.143	8892.04
554.507	8925.71
554.87	8872.61
555.234	8832.38
555.597	8807.07
555.96	8843.91
556.323	8831.93
556.686	8752.38
557.05	8779.5
557.413	8761.42
557.776	8770.24
558.139	8692.72
558.502	8716.45
558.865	8712.16
559.228	8788.54
559.59	8737.92
559.953	8709.22
560.316	8751.7
560.679	8731.82
561.041	8737.92
561.404	8723.01
561.767	8740.41
562.129	8704.7
562.492	8723.68
562.854	8649.11
563.217	8703.57
563.579	8685.27
563.941	8724.14
564.304	8688.2
564.666	8724.36
565.028	8720.97
565.39	8729.33
565.753	8768.43
566.115	8795.77
566.477	8747.19
566.839	8767.52
567.201	8865.37
567.563	8779.27
567.925	8834.41
568.287	8818.6
568.648	8880.06
569.01	8829.89
569.372	8833.51
569.734	8838.71
570.095	8881.87
570.457	8895.43
570.819	8898.37
571.18	8861.08
571.542	8888.88
571.903	8918.25
572.265	8936.33
572.626	9048.19
572.987	8946.28
573.349	8963.45
573.71	8944.24
574.071	8989.89
574.432	8988.99
574.794	9033.51
575.155	8954.41
575.516	8972.49
575.877	9014.97
576.238	9023.34
576.599	9078.25
576.96	9086.39
577.32	9114.86
577.681	9099.27
578.042	9112.15
578.403	9085.93
578.763	9042.54
579.124	9061.53
579.485	9187.4
579.845	9159.15
580.206	9170.22
580.566	9120.96
580.927	9140.62
581.287	9183.56
581.648	9157.8
582.008	9215.87
582.368	9201.41
582.728	9143.56
583.089	9258.36
583.449	9220.39
583.809	9247.74
584.169	9194.63
584.529	9196.21
584.889	9248.64
585.249	9203.22
585.609	9207.29
585.969	9249.54
586.329	9276.66
586.688	9228.08
587.048	9360.28
587.408	9257.45
587.768	9259.04
588.127	9243.44
588.487	9254.06
588.846	9321.41
589.206	9247.51
589.565	9268.3
589.925	9337
590.284	9290.9
590.643	9343.33
591.003	9385.13
591.362	9285.25
591.721	9304.01
592.08	9350.79
592.44	9357.79
592.799	9364.8
593.158	9366.15
593.517	9342.88
593.876	9405.92
594.235	9320.73
594.593	9368.41
594.952	9358.92
595.311	9261.52
595.67	9410.22
596.029	9397.56
596.387	9415.19
596.746	9391.91
597.104	9357.56
597.463	9377.23
597.822	9375.42
598.18	9370.22
598.538	9387.85
598.897	9406.6
599.255	9282.31
599.613	9447.51
599.972	9435.75
600.33	9404.8
600.688	9389.88
601.046	9480.5
601.404	9429.88
601.762	9407.73
602.12	9444.12
602.478	9395.3
602.836	9388.75
603.194	9404.57
603.552	9365.02
603.91	9359.15
604.268	9452.93
604.625	9361.41
604.983	9484.79
605.341	9392.82
605.698	9343.78
606.056	9391.91
606.413	9424.68
606.771	9417.22
607.128	9433.72
607.485	9376.1
607.843	9383.55
608.2	9480.05
608.557	9493.38
608.914	9439.37
609.272	9460.39
609.629	9505.58
609.986	9555.3
610.343	9488.86
610.7	9551.91
611.057	9577.45
611.414	9548.29
611.771	9518.24
612.127	9508.07
612.484	9559.59
612.841	9580.84
613.198	9551.01
613.554	9552.36
613.911	9575.19
614.267	9547.16
614.624	9586.94
614.98	9565.24
615.337	9580.61
615.693	9556.2
616.05	9558.46
616.406	9629.42
616.762	9549.88
617.118	9567.05
617.475	9636.43
617.831	9668.29
618.187	9602.98
618.543	9641.17
618.899	9674.39
619.255	9689.99
619.611	9612.25
619.967	9675.97
620.323	9725.92
620.678	9624.9
621.034	9621.51
621.39	9668.06
621.746	9645.69
622.101	9770.44
622.457	9628.52
622.812	9612.47
623.168	9712.36
623.523	9631.91
623.879	9749.42
624.234	9684.34
624.589	9673.94
624.945	9748.51
625.3	9657.44
625.655	9676.65
626.01	9599.59
626.365	9670.1
626.72	9652.02
627.075	9633.94
627.43	9620.61
627.785	9643.88
628.14	9681.4
628.495	9656.77
628.85	9639.37
629.205	9613.83
629.559	9615.64
629.914	9623.09
630.269	9542.19
630.623	9563.89
630.978	9570.67
631.332	9594.62
631.687	9678.46
632.041	9565.02
632.396	9565.92
632.75	9504
633.104	9494.74
633.459	9546.94
633.813	9450.9
634.167	9461.52
634.521	9486.6
634.875	9529.76
635.229	9411.57
635.583	9387.39
635.937	9449.31
636.291	9404.12
636.645	9409.09
636.999	9416.55
637.352	9491.8
637.706	9372.48
638.06	9359.15
638.413	9438.24
638.767	9307.85
639.121	9311.01
639.474	9343.33
639.828	9321.18
640.181	9315.76
640.534	9320.05
640.888	9269.66
641.241	9275.31
641.594	9283.22
641.947	9279.6
642.301	9244.8
642.654	9237.12
643.007	9272.82
643.36	9224.46
643.713	9249.09
644.066	9220.85
644.419	9174.52
644.771	9160.73
645.124	9064.24
645.477	9140.17
645.83	9030.79
646.182	9009.33
646.535	8925.49
646.888	8939.72
647.24	8928.2
647.593	8932.94
647.945	8890.01
648.298	8866.5
648.65	8863.11
649.002	8861.98
649.355	8871.48
649.707	8940.85
650.059	8996.67
650.411	9062.88
650.763	9125.25
651.115	9114.86
651.467	9077.57
651.819	9142.43
652.171	9049.55
652.523	9091.13
652.875	9108.76
653.227	9049.32
653.578	9127.29
653.93	9093.39
654.282	9039.83
654.633	9127.74
654.985	9066.72
655.337	9059.04
655.688	9092.71
656.039	9162.54
656.391	9032.38
656.742	9118.93
657.094	9081.41
657.445	9199.38
657.796	9143.33
658.147	9113.28
658.498	9079.15
658.849	9114.18
659.2	9110.11
659.551	9132.49
659.902	9130.9
660.253	9116.22
660.604	9129.55
660.955	9083.9
661.306	9136.1
661.656	9104.92
662.007	9176.33
662.358	9111.24
662.708	9150.56
663.059	9151.24
663.409	9068.08
663.76	9164.12
664.11	9151.02
664.461	9124.35
664.811	9126.38
665.161	9082.54
665.511	9095.42
665.862	9153.5
666.212	9175.42
666.562	9131.36
666.912	9132.49
667.262	9139.72
667.612	9117.12
667.962	9117.8
668.312	9134.07
668.662	9202.54
669.011	9104.01
669.361	9106.5
669.711	9124.58
670.06	9119.38
670.41	9047.97
670.76	9132.71
671.109	9166.16
671.459	9102.66
671.808	9077.57
672.157	9114.63
672.507	9053.62
672.856	9049.1
673.205	9058.36
673.554	9075.99
673.904	9040.06
674.253	9083
674.602	9037.8
674.951	8950.8
675.3	8880.06
675.649	9070.34
675.998	8927.07
676.346	8973.85
676.695	9063.11
677.044	9000.06
677.393	8966.39
677.741	9017.69
678.09	8970.46
678.438	8939.04
678.787	8973.17
679.135	8955.32
679.484	8892.94
679.832	8901.53
680.181	8869.22
680.529	8875.32
680.877	8827.64
681.225	8828.54
681.573	8892.94
681.922	8797.81
682.27	8815.88
682.618	8781.53
682.966	8784.02
683.314	8714.42
683.661	8715.55
684.009	8698.37
684.357	8699.05
684.705	8674.42
685.053	8728.65
685.4	8596.68
685.748	8574.08
686.095	8571.37
686.443	8553.29
686.79	8580.41
687.138	8521.88
687.485	8589
687.832	8499.96
688.18	8501.54
688.527	8455.22
688.874	8401.66
689.221	8352.85
689.568	8373.18
689.915	8351.94
690.262	8331.83
690.609	8301.1
690.956	8226.97
691.303	8314.43
691.65	8226.97
691.997	8239.4
692.344	8211.38
692.69	8127.31
693.037	8151.04
693.383	8057.26
693.73	8116.92
694.077	8062.68
694.423	8089.8
694.769	8017.26
695.116	7974.1
695.462	7956.92
695.808	7902.69
696.155	7958.28
696.501	7859.07
696.847	7877.38
697.193	7807.55
697.539	7829.92
697.885	7787.66
698.231	7700.43
698.577	7722.58
698.923	7732.07
699.269	7668.57
699.614	7629.02
699.96	7611.62
700.306	7555.8
700.651	7526.88
700.997	7553.77
701.342	7472.87
701.688	7471.74
702.033	7418.63
702.379	7463.15
702.724	7368.01
703.069	7322.82
703.415	7300.9
703.76	7298.41
704.105	7211.41
704.45	7259.99
704.795	7241.69
705.14	7212.76
705.485	7201.46
705.83	7136.15
706.175	7164.85
706.52	7094.12
706.865	7087.12
707.209	7095.03
707.554	7063.61
707.899	7051.86
708.243	7038.08
708.588	7000.56
708.932	6944.75
709.277	6979.32
709.621	6959.44
709.966	6900.45
710.31	6915.37
710.654	6804.41
710.998	6898.42
711.342	6860
711.687	6849.38
712.031	6781.59
712.375	6824.52
712.719	6799.89
713.063	6773
713.407	6807.8
713.75	6751.08
714.094	6826.78
714.438	6727.8
714.782	6764.86
715.125	6670.4
715.469	6699.1
715.812	6658.88
716.156	6618.88
716.499	6622.72
716.843	6688.26
717.186	6588.82
717.53	6623.63
717.873	6646
718.216	6622.72
718.559	6608.03
718.902	6518.09
719.246	6547.47
719.589	6523.97
719.932	6495.95
720.275	6502.27
720.617	6526.45
720.96	6499.79
721.303	6542.27
721.646	6520.58
721.989	6511.99
722.331	6504.08
722.674	6481.26
723.016	6482.84
723.359	6465.66
723.701	6466.79
724.044	6476.28
724.386	6447.81
724.729	6478.77
725.071	6425.21
725.413	6453.01
725.755	6447.36
726.097	6441.26
726.439	6382.28
726.782	6367.59
727.124	6427.47
727.465	6329.85
727.807	6446
728.149	6401.48
728.491	6381.6
728.833	6427.7
729.175	6351.99
729.516	6436.96
729.858	6397.87
730.199	6422.95
730.541	6386.57
730.882	6372.78
731.224	6459.11
731.565	6396.06
731.906	6389.73
732.248	6307.93
732.589	6333.46
732.93	6364.42
733.271	6376.17
733.612	6390.19
733.953	6402.39
734.294	6371.2
734.635	6367.13
734.976	6394.03
735.317	6363.52
735.658	6340.02
735.999	6345.44
736.339	6367.59
736.68	6381.6
737.021	6367.13
737.361	6349.28
737.702	6390.86
738.042	6357.64
738.383	6320.13
738.723	6432.9
739.063	6391.77
739.404	6447.13
739.744	6446.23
740.084	6422.73
740.424	6447.81
740.764	6474.48
741.104	6452.1
741.444	6500.69
741.784	6481.26
742.124	6504.76
742.464	6509.05
742.804	6532.78
743.143	6541.82
743.483	6557.86
743.823	6577.98
744.162	6572.1
744.502	6667.92
744.841	6680.35
745.181	6687.13
745.52	6677.86
745.86	6773
746.199	6770.97
746.538	6775.71
746.877	6863.62
747.216	6853
747.556	6877.86
747.895	6976.84
748.234	6963.28
748.573	6981.58
748.911	7062.48
749.25	7093.67
749.589	7144.97
749.928	7277.39
750.267	7334.57
750.605	7369.37
750.944	7437.16
751.283	7492.75
751.621	7602.58
751.96	7658.85
752.298	7759.19
752.636	7845.51
752.975	7880.09
753.313	7921.67
753.651	8064.72
753.989	8195.79
754.327	8233.3
754.666	8376.12
755.004	8523.24
755.342	8632.84
755.679	8755.09
756.017	8803.23
756.355	9047.29
756.693	9118.25
757.031	9215.42
757.368	9377.23
757.706	9500.39
758.044	9663.77
758.381	9757.33
758.719	9912.13
759.056	10138.11
759.394	10281.61
759.731	10356.18
760.068	10474.6
760.405	10734.93
760.743	10788.26
761.08	11039.78
761.417	11133.56
761.754	11276.38
762.091	11548.69
762.428	11593.21
762.765	11754.79
763.102	12010.38
763.438	12107.55
763.775	12232.07
764.112	12434.32
764.449	12655.11
764.785	12779.85
765.122	12932.39
765.458	13040.63
765.795	13249.44
766.131	13394.07
766.467	13599.04
766.804	13692.82
767.14	13811.46
767.476	14043.32
767.812	14154.27
768.148	14261.39
768.485	14375.51
768.821	14538.45
