Data from hue_130_FLMS001491_00021.txt Node
Date: Tue Feb 07 16:57:22 GMT 2017
User: dcchb
Spectrometer: FLMS00149
Trigger mode: 0
Integration Time (sec): 2.000000E-2
Scans to average: 10
Electric dark correction enabled: true
Nonlinearity correction enabled: false
Boxcar width: 0
XAxis mode: Wavelengths
Number of Pixels in Spectrum: 2048
>>>>>Begin Spectral Data<<<<<
341.393	-4.63
341.776	-4.63
342.16	-4.63
342.543	-61.35
342.927	-54.35
343.31	-67.23
343.693	-86.21
344.077	-58.87
344.46	-61.35
344.843	-66.55
345.226	-43.28
345.61	-21.81
345.993	-8.25
346.376	-11.41
346.759	11.41
347.142	4.63
347.525	39.43
347.908	58.87
348.291	101.58
348.674	93.67
349.057	115.36
349.44	140.45
349.823	139.77
350.206	161.24
350.588	174.35
350.971	229.49
351.354	223.16
351.737	241.69
352.119	236.49
352.502	276.72
352.884	270.84
353.267	276.04
353.65	281.01
354.032	294.57
354.414	310.61
354.797	295.47
355.179	306.32
355.562	329.82
355.944	328.47
356.326	335.92
356.709	333.44
357.091	347.67
357.473	346.32
357.855	345.41
358.238	329.14
358.62	330.27
359.002	337.28
359.384	341.57
359.766	341.35
360.148	333.66
360.53	334.34
360.912	315.36
361.294	338.41
361.676	318.07
362.057	341.12
362.439	323.95
362.821	343.38
363.203	341.8
363.584	332.76
363.966	325.75
364.348	324.62
364.729	327.56
365.111	329.14
365.493	328.47
365.874	311.97
366.256	299.54
366.637	326.43
367.019	309.03
367.4	316.94
367.781	314.91
368.163	309.03
368.544	329.6
368.925	316.04
369.306	304.06
369.688	313.1
370.069	317.84
370.45	310.61
370.831	305.64
371.212	310.16
371.593	308.13
371.974	302.7
372.355	320.56
372.736	320.1
373.117	330.27
373.498	303.16
373.879	309.03
374.26	337.51
374.641	295.92
375.021	328.92
375.402	328.47
375.783	320.33
376.163	328.47
376.544	335.02
376.925	338.64
377.305	329.82
377.686	313.33
378.066	335.25
378.447	324.62
378.827	326.66
379.208	337.96
379.588	339.09
379.968	330.27
380.349	328.92
380.729	316.94
381.109	348.35
381.489	319.2
381.87	340.22
382.25	349.71
382.63	338.18
383.01	351.74
383.39	342.7
383.77	330.95
384.15	371.18
384.53	346.77
384.91	352.87
385.29	344.74
385.67	372.98
386.049	355.81
386.429	356.04
386.809	349.26
387.189	332.53
387.568	344.51
387.948	370.72
388.328	350.84
388.707	365.3
389.087	339.54
389.466	373.44
389.846	353.32
390.225	373.66
390.605	371.63
390.984	376.6
391.363	377.28
391.743	370.95
392.122	374.34
392.501	380.67
392.881	385.19
393.26	396.71
393.639	392.65
394.018	382.48
394.397	404.4
394.776	413.66
395.155	392.19
395.534	391.74
395.913	394
396.292	396.26
396.671	406.2
397.05	401.46
397.429	408.24
397.808	409.59
398.186	396.26
398.565	387.22
398.944	412.76
399.323	395.81
399.701	398.75
400.08	411.18
400.458	417.73
400.837	411.63
401.215	429.25
401.594	407.11
401.972	415.24
402.351	434.9
402.729	402.81
403.107	417.05
403.486	430.61
403.864	437.62
404.242	420.67
404.62	449.37
404.999	427.67
405.377	454.56
405.755	432.87
406.133	435.13
406.511	455.92
406.889	452.3
407.267	435.36
407.645	442.59
408.023	447.78
408.401	467.22
408.779	450.95
409.156	464.06
409.534	461.57
409.912	461.34
410.29	461.12
410.667	501.12
411.045	487.11
411.422	476.48
411.8	503.38
412.178	486.43
412.555	487.33
412.933	486.65
413.31	494.11
413.687	497.28
414.065	525.52
414.442	526.88
414.819	511.74
415.197	499.08
415.574	519.65
415.951	514.22
416.328	511.29
416.705	524.62
417.082	523.72
417.46	543.83
417.837	539.99
418.214	549.7
418.591	529.59
418.967	535.47
419.344	533.88
419.721	549.7
420.098	548.35
420.475	542.7
420.852	567.33
421.228	569.59
421.605	570.04
421.982	582.7
422.358	589.93
422.735	571.17
423.111	582.24
423.488	582.47
423.864	585.86
424.241	590.15
424.617	591.74
424.994	584.05
425.37	612.98
425.746	600.32
426.123	615.24
426.499	600.1
426.875	619.08
427.251	638.29
427.627	643.71
428.003	633.99
428.379	633.54
428.756	647.1
429.132	642.36
429.507	649.14
429.883	698.17
430.259	675.8
430.635	673.54
431.011	687.33
431.387	679.87
431.763	701.34
432.138	718.51
432.514	711.73
432.89	721.68
433.265	734.56
433.641	708.57
434.016	742.69
434.392	761.22
434.767	748.34
435.143	754.22
435.518	747.21
435.894	747.44
436.269	770.71
436.644	775.01
437.02	788.57
437.395	800.77
437.77	769.58
438.145	814.55
438.52	807.32
438.895	808.23
439.271	815.46
439.646	855.68
440.021	844.61
440.395	857.94
440.77	841.9
441.145	844.84
441.52	870.37
441.895	872.86
442.27	838.28
442.645	859.75
443.019	892.74
443.394	899.3
443.769	881.9
444.143	907.21
444.518	897.04
444.892	904.27
445.267	904.5
445.641	913.31
446.016	940.2
446.39	943.14
446.764	939.52
447.139	950.37
447.513	962.8
447.887	951.05
448.262	937.72
448.636	951.05
449.01	981.56
449.384	1012.74
449.758	969.35
450.132	1006.41
450.506	1009.13
450.88	1000.09
451.254	1017.49
451.628	1030.59
452.002	1037.83
452.376	1036.47
452.75	1043.25
453.123	1076.92
453.497	1072.18
453.871	1089.8
454.244	1130.7
454.618	1098.62
454.992	1134.55
455.365	1117.6
455.739	1154.66
456.112	1138.84
456.486	1169.35
456.859	1179.74
457.232	1180.87
457.606	1204.6
457.979	1217.93
458.352	1245.28
458.725	1252.51
459.099	1252.51
459.472	1280.76
459.845	1288.44
460.218	1301.1
460.591	1315.33
460.964	1342.9
461.337	1364.37
461.71	1395.33
462.083	1371.38
462.456	1415.22
462.829	1398.72
463.201	1440.08
463.574	1445.95
463.947	1478.94
464.32	1484.59
464.692	1508.55
465.065	1543.35
465.438	1548.09
465.81	1570.69
466.183	1605.27
466.555	1630.13
466.928	1654.31
467.3	1668.54
467.672	1688.88
468.045	1731.37
468.417	1730.91
468.789	1746.28
469.161	1792.83
469.534	1859.5
469.906	1868.99
470.278	1887.97
470.65	1958.25
471.022	1977.69
471.394	2033.05
471.766	2026.73
472.138	2079.38
472.51	2133.16
472.882	2162.54
473.253	2205.03
473.625	2245.7
473.997	2268.75
474.369	2327.28
474.74	2365.93
475.112	2424.91
475.484	2473.27
475.855	2577.22
476.227	2604.56
476.598	2683.88
476.97	2744.45
477.341	2839.36
477.713	2882.07
478.084	2921.39
478.455	3032.12
478.827	3104.89
479.198	3217.43
479.569	3256.98
479.94	3390.98
480.311	3421.49
480.682	3553.69
481.053	3654.93
481.424	3730.64
481.795	3830.97
482.166	3934.02
482.537	4015.6
482.908	4137.41
483.279	4219.44
483.65	4352.09
484.021	4449.04
484.391	4600.44
484.762	4689.26
485.133	4767.45
485.503	4915.92
485.874	5103.03
486.244	5166.3
486.615	5315.91
486.985	5397.49
487.356	5566.52
487.726	5665.73
488.097	5879.28
488.467	5971.71
488.837	6163.34
489.207	6308.65
489.578	6372.83
489.948	6609.88
490.318	6680.84
490.688	6840.39
491.058	7044.45
491.428	7194.73
491.798	7267.94
492.168	7499.8
492.538	7601.72
492.908	7767.59
493.278	7876.29
493.648	8037.42
494.017	8211.2
494.387	8336.39
494.757	8375.03
495.126	8595.37
495.496	8680.34
495.866	8855.93
496.235	8946.77
496.605	9183.37
496.974	9234.22
497.344	9377.04
497.713	9495.68
498.082	9586.3
498.452	9807.99
498.821	9837.82
499.19	9917.82
499.559	10124.14
499.928	10214.53
500.298	10396.45
500.667	10499.05
501.036	10436.22
501.405	10703.56
501.774	10675.54
502.143	10887.28
502.512	10944.91
502.88	11041.18
503.249	11115.3
503.618	11211.12
503.987	11285.69
504.356	11432.81
504.724	11485.01
505.093	11563.2
505.462	11570.43
505.83	11716.87
506.199	11857.43
506.567	11990.53
506.936	12001.15
507.304	12164.09
507.672	12305.1
508.041	12301.48
508.409	12411.09
508.777	12429.39
509.145	12642.72
509.514	12603.85
509.882	12783.73
510.25	12727.91
510.618	12853.11
510.986	12793.45
511.354	13049.49
511.722	13007.23
512.09	13147.79
512.458	13136.72
512.826	13209.26
513.193	13282.02
513.561	13248.8
513.929	13381.46
514.297	13521.57
514.664	13609.02
515.032	13528.8
515.4	13732.86
515.767	13682.01
516.135	13735.12
516.502	13700.77
516.869	13941.44
517.237	13899.41
517.604	13911.39
517.972	14013.3
518.339	14056.01
518.706	14022.57
519.073	14084.49
519.44	14231.83
519.808	14350.92
520.175	14154.77
520.542	14352.28
520.909	14363.58
521.276	14366.29
521.643	14453.07
522.009	14491.03
522.376	14599.5
522.743	14675.89
523.11	14725.6
523.477	14825.71
523.843	14764.7
524.21	14907.07
524.577	14943.45
524.943	15008.08
525.31	15034.52
525.676	15178.47
526.043	15080.85
526.409	15095.99
526.776	15370.1
527.142	15227.51
527.508	15197
527.874	15232.48
528.241	15293.95
528.607	15275.87
528.973	15364.23
529.339	15368.3
529.705	15392.25
530.071	15447.39
530.437	15417.11
530.803	15536.88
531.169	15527.84
531.535	15485.13
531.901	15479.25
532.267	15445.81
532.632	15448.52
532.998	15489.65
533.364	15538.69
533.73	15516.09
534.095	15481.29
534.461	15509.76
534.826	15481.29
535.192	15540.72
535.557	15529.42
535.923	15419.14
536.288	15532.81
536.653	15528.97
537.019	15411.01
537.384	15421.4
537.749	15499.59
538.114	15423.44
538.479	15296.43
538.845	15419.82
539.21	15366.49
539.575	15302.99
539.94	15246.94
540.305	15270.45
540.67	15250.79
541.034	15296.89
541.399	15124.01
541.764	15159.26
542.129	15142.99
542.494	15150
542.858	15090.34
543.223	15127.62
543.587	15075.2
543.952	14996.1
544.316	15124.91
544.681	14885.6
545.045	14994.97
545.41	15012.37
545.774	14952.49
546.138	14873.62
546.503	14875.43
546.867	14883.11
547.231	14882.43
547.595	14790.46
547.959	14786.39
548.324	14742.55
548.688	14737.13
549.052	14749.78
549.416	14747.3
549.779	14651.71
550.143	14675.21
550.507	14701.87
550.871	14591.59
551.235	14581.42
551.599	14564.93
551.962	14563.12
552.326	14508.21
552.689	14532.84
553.053	14430.24
553.417	14396.12
553.78	14555.21
554.143	14481.31
554.507	14476.57
554.87	14389.57
555.234	14429.34
555.597	14426.4
555.96	14293.07
556.323	14413.52
556.686	14341.43
557.05	14390.24
557.413	14340.3
557.776	14398.83
558.139	14322
558.502	14282.9
558.865	14302.11
559.228	14335.33
559.59	14329.68
559.953	14311.15
560.316	14410.58
560.679	14363.13
561.041	14401.54
561.404	14346.85
561.767	14408.1
562.129	14407.42
562.492	14452.16
562.854	14391.37
563.217	14330.58
563.579	14371.71
563.941	14376.46
564.304	14482.44
564.666	14511.37
565.028	14557.02
565.39	14578.71
565.753	14601.76
566.115	14579.16
566.477	14582.78
566.839	14560.18
567.201	14676.56
567.563	14648.99
567.925	14735.09
568.287	14632.72
568.648	14674.98
569.01	14680.86
569.372	14795.66
569.734	14641.76
570.095	14778.48
570.457	14833.62
570.819	14785.26
571.18	14771.25
571.542	14910.46
571.903	14751.36
572.265	14831.81
572.626	14849.44
572.987	14870
573.349	14911.36
573.71	14886.5
574.071	14948.42
574.432	14906.84
574.794	14995.42
575.155	14955.88
575.516	14961.3
575.877	15020.28
576.238	14924.92
576.599	14923.34
576.96	14973.28
577.32	14979.83
577.681	15116.78
578.042	15040.62
578.403	15112.03
578.763	15015.54
579.124	14974.63
579.485	15081.3
579.845	15001.75
580.206	14916.33
580.566	15001.75
580.927	14950.91
581.287	15105.7
581.648	14959.72
582.008	15073.84
582.368	15017.57
582.728	14968.76
583.089	14987.97
583.449	14966.73
583.809	15046.95
584.169	15002.43
584.529	14943
584.889	15070.9
585.249	15023.67
585.609	14932.6
585.969	15060.06
586.329	14867.74
586.688	14976.44
587.048	14919.49
587.408	14847.18
587.768	14846.05
588.127	14925.37
588.487	14843.56
588.846	14918.82
589.206	14821.42
589.565	14819.16
589.925	14825.49
590.284	14896.44
590.643	14819.61
591.003	14887.41
591.362	14910.68
591.721	14793.4
592.08	14891.47
592.44	14846.95
592.799	14831.36
593.158	14858.93
593.517	14757.69
593.876	14806.5
594.235	14779.39
594.593	14815.54
594.952	14739.61
595.311	14787.75
595.67	14766.5
596.029	14800.63
596.387	14759.5
596.746	14830.01
597.104	14784.81
597.463	14672.72
597.822	14828.42
598.18	14745.94
598.538	14712.49
598.897	14886.95
599.255	14618.71
599.613	14914.98
599.972	14779.84
600.33	14756.34
600.688	14666.39
601.046	14765.83
601.404	14851.47
601.762	14742.78
602.12	14833.17
602.478	14913.17
602.836	14811.93
603.194	14814.41
603.552	14854.64
603.91	14712.95
604.268	14750.69
604.625	14681.08
604.983	14717.92
605.341	14762.21
605.698	14741.19
606.056	14759.95
606.413	14725.6
606.771	14882.21
607.128	14830.23
607.485	14761.31
607.843	14767.18
608.2	14837.91
608.557	14845.82
608.914	14802.89
609.272	14832.04
609.629	14917.23
609.986	14950.68
610.343	14875.43
610.7	14947.06
611.057	14929.21
611.414	14839.72
611.771	14890.12
612.127	15015.31
612.484	14967.86
612.841	15035.65
613.198	14977.12
613.554	14938.48
613.911	15084.01
614.267	15037.91
614.624	15003.11
614.98	15073.84
615.337	15106.16
615.693	15034.07
616.05	15092.15
616.406	15132.37
616.762	15124.69
617.118	15085.82
617.475	15076.33
617.831	15034.29
618.187	15166.27
618.543	15071.36
618.899	15200.84
619.255	15033.39
619.611	15089.43
619.967	15151.13
620.323	15263.67
620.678	15137.34
621.034	15185.48
621.39	15259.82
621.746	15189.32
622.101	15331.91
622.457	15128.75
622.812	15195.42
623.168	15215.08
623.523	15277.23
623.879	15265.93
624.234	15199.26
624.589	15110
624.945	15207.85
625.3	15342.53
625.655	15179.83
626.01	15253.95
626.365	15260.28
626.72	15209.88
627.075	15199.71
627.43	15145.48
627.785	15173.95
628.14	15152.93
628.495	15200.62
628.85	15171.24
629.205	15067.51
629.559	15260.28
629.914	15189.32
630.269	15118.36
630.623	15112.71
630.978	15045.37
631.332	15189.54
631.687	15154.06
632.041	15051.92
632.396	15048.3
632.75	15027.74
633.104	15076.33
633.459	14944.13
633.813	14974.18
634.167	15004.46
634.521	14948.65
634.875	14931.25
635.229	14948.42
635.583	14852.83
635.937	14865.94
636.291	14827.75
636.645	14885.6
636.999	14817.8
637.352	14888.31
637.706	14828.2
638.06	14827.97
638.413	14728.09
638.767	14738.93
639.121	14738.93
639.474	14669.33
639.828	14808.99
640.181	14761.98
640.534	14662.1
640.888	14665.04
641.241	14659.39
641.594	14636.79
641.947	14745.04
642.301	14656.45
642.654	14706.17
643.007	14673.17
643.36	14645.6
643.713	14561.76
644.066	14644.25
644.419	14582.55
644.771	14526.96
645.124	14356.35
645.477	14292.17
645.83	14228.67
646.182	14153.19
646.535	14103.92
646.888	14177.37
647.24	14072.51
647.593	14071.61
647.945	14094.66
648.298	13975.34
648.65	14050.14
649.002	13912.52
649.355	14058.05
649.707	14039.97
650.059	14161.32
650.411	14281.09
650.763	14284.48
651.115	14396.57
651.467	14435.21
651.819	14384.37
652.171	14399.96
652.523	14395.67
652.875	14293.97
653.227	14298.27
653.578	14367.64
653.93	14373.29
654.282	14325.84
654.633	14275.67
654.985	14327.19
655.337	14333.07
655.688	14340.07
656.039	14464.37
656.391	14314.54
656.742	14395.67
657.094	14375.78
657.445	14418.94
657.796	14355.67
658.147	14332.62
658.498	14415.1
658.849	14450.58
659.2	14416.46
659.551	14463.46
659.902	14367.87
660.253	14298.72
660.604	14351.37
660.955	14357.25
661.306	14463.46
661.656	14488.09
662.007	14432.28
662.358	14421.2
662.708	14446.29
663.059	14453.07
663.409	14363.35
663.76	14426.63
664.11	14481.54
664.461	14460.3
664.811	14424.14
665.161	14500.97
665.511	14338.04
665.862	14400.41
666.212	14472.27
666.562	14444.48
666.912	14395.44
667.262	14410.13
667.612	14344.14
667.962	14471.82
668.312	14372.62
668.662	14442.45
669.011	14377.81
669.361	14363.8
669.711	14388.89
670.06	14401.32
670.41	14350.24
670.76	14349.11
671.109	14383.46
671.459	14396.8
671.808	14411.03
672.157	14404.93
672.507	14367.42
672.856	14396.57
673.205	14333.97
673.554	14361.09
673.904	14347.98
674.253	14327.19
674.602	14401.54
674.951	14007.2
675.3	13983.02
675.649	14231.15
675.998	14266.4
676.346	14207.88
676.695	14228.44
677.044	14185.73
677.393	14131.94
677.741	14190.02
678.09	14198.61
678.438	14132.17
678.787	14116.58
679.135	14125.39
679.484	14084.26
679.832	14121.55
680.181	13952.29
680.529	13992.06
680.877	14006.98
681.225	13856.92
681.573	13977.82
681.922	13910.71
682.27	13946.64
682.618	13870.93
682.966	13824.61
683.314	13826.19
683.661	13818.73
684.009	13710.71
684.357	13771.5
684.705	13711.62
685.053	13748.45
685.4	13638.17
685.748	13558.4
686.095	13650.15
686.443	13557.04
686.79	13575.35
687.138	13545.52
687.485	13530.6
687.832	13432.08
688.18	13489.48
688.527	13347.78
688.874	13348.91
689.221	13380.33
689.568	13297.84
689.915	13258.3
690.262	13250.61
690.609	13218.07
690.956	13159.32
691.303	13069.83
691.65	13069.15
691.997	13101.24
692.344	12924.97
692.69	12911.64
693.037	12877.51
693.383	12793
693.73	12802.71
694.077	12833.45
694.423	12749.38
694.769	12726.33
695.116	12649.5
695.462	12642.04
695.808	12563.4
696.155	12516.62
696.501	12465.32
696.847	12430.75
697.193	12366.57
697.539	12432.1
697.885	12311.2
698.231	12296.51
698.577	12277.76
698.923	12211.32
699.269	12147.82
699.614	12145.1
699.96	11992.34
700.306	11995.05
700.651	11922.51
700.997	11961.83
701.342	11882.74
701.688	11868.05
702.033	11807.49
702.379	11848.39
702.724	11772.01
703.069	11821.05
703.415	11595.51
703.76	11629.19
704.105	11696.53
704.45	11644.78
704.795	11486.36
705.14	11453.15
705.485	11525.91
705.83	11376.99
706.175	11442.75
706.52	11383.32
706.865	11343.09
707.209	11314.84
707.554	11215.86
707.899	11303.77
708.243	11219.03
708.588	11199.14
708.932	11125.02
709.277	11093.83
709.621	11132.7
709.966	10961.18
710.31	11052.25
710.654	10883.89
710.998	10964.12
711.342	11001.86
711.687	10934.74
712.031	10829.66
712.375	10854.97
712.719	10764.35
713.063	10864.91
713.407	10823.78
713.75	10744.69
714.094	10734.52
714.438	10701.3
714.782	10749.66
715.125	10666.73
715.469	10723.45
715.812	10683.22
716.156	10592.83
716.499	10594.86
716.843	10572.49
717.186	10523.68
717.53	10584.47
717.873	10507.41
718.216	10468.76
718.559	10460.18
718.902	10433.96
719.246	10492.72
719.589	10391.03
719.932	10447.3
720.275	10364.13
720.617	10396.68
720.96	10379.5
721.303	10381.08
721.646	10396.45
721.989	10332.04
722.331	10246.17
722.674	10249.34
723.016	10318.03
723.359	10335.66
723.701	10285.27
724.044	10267.19
724.386	10166.17
724.729	10228.54
725.071	10180.18
725.413	10229.9
725.755	10215.66
726.097	10179.28
726.439	10189.45
726.782	10164.82
727.124	10201.88
727.465	10173.18
727.807	10054.76
728.149	10114.42
728.491	10137.25
728.833	10135.21
729.175	10098.6
729.516	10142.67
729.858	10064.26
730.199	10041.66
730.541	10080.75
730.882	10036.01
731.224	10072.39
731.565	10000.08
731.906	9990.36
732.248	10037.14
732.589	9985.16
732.93	9962.34
733.271	10000.08
733.612	9981.77
733.953	10010.02
734.294	9972.05
734.635	9975.44
734.976	10031.94
735.317	9986.97
735.658	10008.21
735.999	9974.31
736.339	10084.37
736.68	10111.94
737.021	10038.72
737.361	10015.67
737.702	10094.76
738.042	10078.49
738.383	10003.69
738.723	10096.57
739.063	10040.3
739.404	10110.58
739.744	10132.73
740.084	10082.11
740.424	10063.13
740.764	10050.47
741.104	10118.04
741.444	10094.08
741.784	10137.25
742.124	10242.1
742.464	10187.64
742.804	10181.99
743.143	10183.57
743.483	10227.41
743.823	10231.93
744.162	10311.03
744.502	10291.14
744.841	10295.44
745.181	10313.06
745.52	10325.27
745.86	10462.44
746.199	10496.11
746.538	10555.09
746.877	10524.81
747.216	10593.28
747.556	10596.22
747.895	10671.02
748.234	10593.73
748.573	10737.23
748.911	10787.85
749.25	10816.1
749.589	10891.8
749.928	10996.43
750.267	11038.92
750.605	11078.47
750.944	11196.65
751.283	11213.6
751.621	11383.77
751.96	11357.1
752.298	11519.58
752.636	11594.16
752.975	11692.23
753.313	11761.84
753.651	11941.04
753.989	11982.4
754.327	12079.34
754.666	12173.35
755.004	12374.02
755.342	12499.45
755.679	12625.32
756.017	12689.95
