Data from hue_30_FLMS001491_59.txt Node
Date: Mon Feb 06 15:05:36 GMT 2017
User: dcchb
Spectrometer: FLMS00149
Trigger mode: 0
Integration Time (sec): 2.000000E-2
Scans to average: 10
Electric dark correction enabled: true
Nonlinearity correction enabled: false
Boxcar width: 0
XAxis mode: Wavelengths
Number of Pixels in Spectrum: 2048
>>>>>Begin Spectral Data<<<<<
341.393	2.58
341.776	2.58
342.16	2.58
342.543	-59.11
342.927	-70.86
343.31	-81.03
343.693	-65.89
344.077	-64.98
344.46	-44.87
344.843	-59.56
345.226	-41.26
345.61	-50.52
345.993	-19.11
346.376	-13.91
346.759	13.21
347.142	18.63
347.525	44.17
347.908	61.57
348.291	83.94
348.674	106.31
349.057	113.32
349.44	138.4
349.823	140.43
350.206	171.62
350.588	201.9
350.971	222.01
351.354	231.28
351.737	237.61
352.119	239.87
352.502	271.05
352.884	266.98
353.267	274.67
353.65	263.14
354.032	290.71
354.414	325.97
354.797	302.01
355.179	312.18
355.562	323.25
355.944	325.51
356.326	304.95
356.709	312.86
357.091	338.62
357.473	358.51
357.855	318.73
358.238	332.29
358.62	329.36
359.002	356.25
359.384	326.42
359.766	341.11
360.148	327.55
360.53	334.1
360.912	340.65
361.294	311.28
361.676	354.21
362.057	327.77
362.439	351.73
362.821	335.01
363.203	337.49
363.584	327.77
363.966	304.5
364.348	329.81
364.729	337.04
365.111	304.95
365.493	324.38
365.874	306.98
366.256	325.29
366.637	309.47
367.019	333.2
367.4	324.38
367.781	324.84
368.163	314.89
368.544	320.54
368.925	313.08
369.306	329.36
369.688	298.17
370.069	310.6
370.45	303.82
370.831	325.06
371.212	311.05
371.593	304.72
371.974	294.55
372.355	328.23
372.736	312.18
373.117	315.57
373.498	318.06
373.879	296.36
374.26	308.34
374.641	296.81
375.021	330.26
375.402	312.18
375.783	314.44
376.163	312.18
376.544	314.67
376.925	318.28
377.305	309.47
377.686	318.51
378.066	340.88
378.447	319.19
378.827	330.49
379.208	322.8
379.588	335.68
379.968	331.16
380.349	337.27
380.729	322.58
381.109	344.95
381.489	344.5
381.87	349.92
382.25	328.45
382.63	315.34
383.01	316.7
383.39	345.63
383.77	347.66
384.15	328.9
384.53	346.98
384.91	335.91
385.29	353.99
385.67	338.85
386.049	345.4
386.429	355.57
386.809	338.17
387.189	329.13
387.568	347.43
387.948	360.32
388.328	358.51
388.707	353.31
389.087	352.41
389.466	379.75
389.846	357.38
390.225	370.71
390.605	375.23
390.984	360.77
391.363	371.61
391.743	356.93
392.122	365.74
392.501	370.03
392.881	387.66
393.26	360.99
393.639	377.04
394.018	389.02
394.397	383.59
394.776	391.95
395.155	391.5
395.534	371.84
395.913	378.17
396.292	384.5
396.671	369.58
397.05	373.65
397.429	374.33
397.808	393.08
398.186	376.81
398.565	393.31
398.944	379.52
399.323	366.64
399.701	390.37
400.08	397.83
400.458	400.31
400.837	392.4
401.215	404.83
401.594	411.84
401.972	390.15
402.351	408.45
402.729	385.4
403.107	404.83
403.486	394.21
403.864	409.35
404.242	402.8
404.62	400.09
404.999	404.38
405.377	419.3
405.755	407.32
406.133	414.78
406.511	419.75
406.889	427.43
407.267	428.34
407.645	409.13
408.023	434.89
408.401	428.56
408.779	433.53
409.156	417.72
409.534	436.7
409.912	422.23
410.29	423.36
410.667	446.87
411.045	443.93
411.422	459.75
411.8	450.71
412.178	451.39
412.555	443.48
412.933	445.51
413.31	454.1
413.687	481.44
414.065	477.6
414.442	448.67
414.819	488
415.197	475.57
415.574	463.59
415.951	488.67
416.328	476.92
416.705	484.15
417.082	464.49
417.46	474.89
417.837	490.71
418.214	498.84
418.591	512.63
418.967	489.13
419.344	500.2
419.721	520.76
420.098	517.15
420.475	507.2
420.852	525.96
421.228	509.01
421.605	534.55
421.982	526.86
422.358	528.67
422.735	509.24
423.111	506.3
423.488	535.68
423.864	527.32
424.241	544.27
424.617	523.7
424.994	552.4
425.37	560.08
425.746	543.36
426.123	553.76
426.499	541.78
426.875	558.28
427.251	559.18
427.627	560.76
428.003	556.69
428.379	578.84
428.756	577.26
429.132	589.46
429.507	583.36
429.883	583.59
430.259	621.33
430.635	603.92
431.011	599.63
431.387	591.27
431.763	620.65
432.138	623.13
432.514	633.08
432.89	629.69
433.265	622.46
433.641	619.52
434.016	629.69
434.392	637.6
434.767	664.49
435.143	636.69
435.518	669.69
435.894	663.36
436.269	661.32
436.644	680.76
437.02	669.01
437.395	694.32
437.77	706.29
438.145	696.35
438.52	706.52
438.895	688.44
439.271	709.68
439.646	713.75
440.021	709.01
440.395	712.62
440.77	720.53
441.145	721.66
441.52	756.69
441.895	730.25
442.27	727.99
442.645	742.68
443.019	760.76
443.394	752.62
443.769	760.98
444.143	747.65
444.518	746.29
444.892	748.1
445.267	785.61
445.641	774.09
446.016	775.67
446.39	777.03
446.764	776.35
447.139	779.74
447.513	797.82
447.887	765.5
448.262	815.9
448.636	821.32
449.01	796.69
449.384	839.17
449.758	837.14
450.132	824.94
450.506	837.36
450.88	825.61
451.254	850.7
451.628	827.2
452.002	843.92
452.376	850.47
452.75	837.36
453.123	852.05
453.497	870.36
453.871	884.14
454.244	889.79
454.618	916.46
454.992	900.64
455.365	893.86
455.739	908.32
456.112	965.27
456.486	946.29
456.859	949.9
457.232	961.2
457.606	957.36
457.979	987.42
458.352	983.12
458.725	1002.33
459.099	1004.82
459.472	1049.34
459.845	1032.39
460.218	1027.42
460.591	1045.5
460.964	1069.45
461.337	1049.79
461.71	1061.99
462.083	1107.41
462.456	1092.05
462.829	1092.73
463.201	1125.49
463.574	1118.04
463.947	1101.76
464.32	1196.68
464.692	1177.7
465.065	1167.3
465.438	1177.24
465.81	1206.85
466.183	1211.59
466.555	1236.68
466.928	1258.82
467.3	1276.9
467.672	1277.81
468.045	1295.88
468.417	1293.85
468.789	1322.55
469.161	1339.95
469.534	1382.66
469.906	1412.94
470.278	1427.63
470.65	1413.4
471.022	1437.12
471.394	1443.9
471.766	1470.79
472.138	1482.77
472.51	1506.95
472.882	1564.58
473.253	1551.02
473.625	1593.05
473.997	1608.19
474.369	1626.95
474.74	1690
475.112	1679.83
475.484	1710.79
475.855	1751.69
476.227	1778.36
476.598	1830.11
476.97	1864.23
477.341	1895.64
477.713	1933.61
478.084	1933.83
478.455	1949.2
478.827	2021.51
479.198	2087.73
479.569	2084.34
479.94	2189.19
480.311	2188.74
480.682	2211.11
481.053	2287.5
481.424	2332.92
481.795	2383.77
482.166	2396.87
482.537	2451.79
482.908	2514.84
483.279	2563.65
483.65	2619.24
484.021	2681.61
484.391	2725.22
484.762	2788.95
485.133	2813.36
485.503	2889.51
485.874	2949.85
486.244	2980.13
486.615	3064.43
486.985	3139
487.356	3191.43
487.726	3231.43
488.097	3310.97
488.467	3360.46
488.837	3407.47
489.207	3430.97
489.578	3533.34
489.948	3617.86
490.318	3662.6
490.688	3662.6
491.058	3764.29
491.428	3798.19
491.798	3914.12
492.168	4002.48
492.538	3957.96
492.908	4032.08
493.278	4119.76
493.648	4134.23
494.017	4216.26
494.387	4260.55
494.757	4338.29
495.126	4386.42
495.496	4403.15
495.866	4418.06
496.235	4530.6
496.605	4576.48
496.974	4609.7
497.344	4701.44
497.713	4719.52
498.082	4795.9
498.452	4854.66
498.821	4881.55
499.19	4861.67
499.559	4946.64
499.928	4979.85
500.298	5041.1
500.667	5101.89
501.036	5112.05
501.405	5195.44
501.774	5202.9
502.143	5218.04
502.512	5250.13
502.88	5345.95
503.249	5365.83
503.618	5384.82
503.987	5441.31
504.356	5503.46
504.724	5491.03
505.093	5536
505.462	5594.3
505.83	5648.31
506.199	5654.87
506.567	5703.23
506.936	5747.74
507.304	5838.14
507.672	5819.61
508.041	5862.54
508.409	5882.66
508.777	5910
509.145	5989.09
509.514	5958.81
509.882	6046.49
510.25	6061.41
510.618	6069.32
510.986	6152.25
511.354	6216.21
511.722	6230.22
512.09	6253.72
512.458	6249.88
512.826	6277.67
513.193	6371
513.561	6420.04
513.929	6411.46
514.297	6461.62
514.664	6523.54
515.032	6518.12
515.4	6474.96
515.767	6595.18
516.135	6621.17
516.502	6606.03
516.869	6696.19
517.237	6666.36
517.604	6743.42
517.972	6717.89
518.339	6814.16
518.706	6761.95
519.073	6830.88
519.44	6887.15
519.808	6934.38
520.175	6906.58
520.542	6990.65
520.909	7023.87
521.276	6967.6
521.643	7056.64
522.009	7112.91
522.376	7176.41
522.743	7210.08
523.11	7274.71
523.477	7267.25
523.843	7277.2
524.21	7380.92
524.577	7443.29
524.943	7445.78
525.31	7553.57
525.676	7603.29
526.043	7596.96
526.409	7597.41
526.776	7663.4
527.142	7791.76
527.508	7756.73
527.874	7853.45
528.241	7872.43
528.607	7925.09
528.973	7926.9
529.339	7945.88
529.705	8019.55
530.071	8121.24
530.437	8087.8
530.803	8142.71
531.169	8203.05
531.535	8234.23
531.901	8254.35
532.267	8256.83
532.632	8337.51
532.998	8346.77
533.364	8414.11
533.73	8392.87
534.095	8498.41
534.461	8462.02
534.826	8533.89
535.192	8541.57
535.557	8689.59
535.923	8656.59
536.288	8690.94
536.653	8723.03
537.019	8727.1
537.384	8770.94
537.749	8769.81
538.114	8845.74
538.479	8917.6
538.845	8882.58
539.21	8918.96
539.575	8964.16
539.94	8996.25
540.305	9059.52
540.67	9069.24
541.034	9121.67
541.399	9153.53
541.764	9217.48
542.129	9148.33
542.494	9262.91
542.858	9311.72
543.223	9290.25
543.587	9351.27
543.952	9434.88
544.316	9378.38
544.681	9435.56
545.045	9469.91
545.41	9546.29
545.774	9526.63
546.138	9628.77
546.503	9625.61
546.867	9593.52
547.231	9774.08
547.595	9737.02
547.959	9735.89
548.324	9759.16
548.688	9777.47
549.052	9834.42
549.416	9883
549.779	9906.96
550.143	9906.51
550.507	10006.84
550.871	10067.63
551.235	10056.56
551.599	10154.41
551.962	10178.81
552.326	10201.64
552.689	10268.76
553.053	10181.53
553.417	10231.24
553.78	10422.88
554.143	10282.31
554.507	10367.74
554.87	10385.59
555.234	10510.56
555.597	10476.66
555.96	10495.42
556.323	10483.21
556.686	10556.21
557.05	10603.44
557.413	10673.94
557.776	10696.31
558.139	10746.48
558.502	10741.74
558.865	10722.98
559.228	10839.81
559.59	10847.72
559.953	10894.05
560.316	10920.72
560.679	10980.38
561.041	11070.32
561.404	11070.09
561.767	11137.21
562.129	11119.58
562.492	11301.72
562.854	11232.35
563.217	11202.74
563.579	11263.76
563.941	11377.2
564.304	11334.49
564.666	11433.7
565.028	11524.09
565.39	11446.8
565.753	11450.42
566.115	11647.7
566.477	11615.84
566.839	11596.4
567.201	11705.55
567.563	11761.6
567.925	11737.19
568.287	11866.68
568.648	11800.92
569.01	11932.67
569.372	11994.36
569.734	11917.75
570.095	12082.72
570.457	12151.19
570.819	12172.43
571.18	12153.68
571.542	12225.99
571.903	12262.38
572.265	12374.91
572.626	12425.76
572.987	12414.91
573.349	12504.18
573.71	12662.14
574.071	12632.54
574.432	12734.91
574.794	12861.91
575.155	12873.66
575.516	12932.19
575.877	12999.53
576.238	13056.93
576.599	13195.01
576.96	13251.28
577.32	13359.3
577.681	13475.45
578.042	13511.38
578.403	13626.18
578.763	13610.14
579.124	13805.61
579.485	13913.86
579.845	14093.51
580.206	14143.46
580.566	14229.1
580.927	14422.32
581.287	14508.42
581.648	14638.13
582.008	14874.28
582.368	15003.55
582.728	15174.16
583.089	15315.4
583.449	15468.62
583.809	15702.74
584.169	15787.25
584.529	15967.59
584.889	16273.34
585.249	16367.8
585.609	16556.95
585.969	16818.19
586.329	16970.05
586.688	17184.05
587.048	17428.12
587.408	17589.69
587.768	17848.22
588.127	18104.93
588.487	18306.51
588.846	18578.59
589.206	18739.04
589.565	18962.99
589.925	19365.24
590.284	19441.85
590.643	19699.24
591.003	20008.39
591.362	20323.86
591.721	20460.58
592.08	20710.29
592.44	21061.47
592.799	21183.72
593.158	21383.04
593.517	21649.93
593.876	21913.65
594.235	22320.42
594.593	22533.29
594.952	22843.79
595.311	22985.94
595.67	23206.72
596.029	23695.3
596.387	23938.68
596.746	24208.5
597.104	24289.86
597.463	24583.86
597.822	25001.93
598.18	24962.38
598.538	25236.72
598.897	25628.13
599.255	25636.03
599.613	26311.72
599.972	26325.96
600.33	26622
600.688	26719.17
601.046	27137.01
601.404	27300.4
601.762	27492.94
602.12	27879.82
602.478	28089.76
602.836	28316.42
603.194	28351.44
603.552	28698.78
603.91	28808.15
604.268	29279.1
604.625	29206.56
604.983	29580.79
605.341	29765.64
605.698	30005.64
606.056	30312.75
606.413	30357.72
606.771	30642.91
607.128	30856.24
607.485	30911.83
607.843	31139.85
608.2	31423.91
608.557	31653.96
608.914	31577.12
609.272	31980.5
609.629	32148.63
609.986	32377.55
610.343	32318.35
610.7	32721.27
611.057	32917.65
611.414	32931.66
611.771	33221.15
612.127	33472.67
612.484	33574.81
612.841	33772.77
613.198	33798.98
613.554	33862.49
613.911	34245.98
614.267	34340.21
614.624	34466.76
614.98	34441.23
615.337	34911.95
615.693	34837.6
616.05	34893.42
616.406	35250.47
616.762	35259.28
617.118	35371.37
617.475	35387.19
617.831	35480.52
618.187	35892.49
618.543	35864.24
618.899	36155.31
619.255	36151.69
619.611	36302.2
619.967	36491.57
620.323	36579.25
620.678	36418.12
621.034	36556.65
621.39	36605.24
621.746	36624.9
622.101	37158.9
622.457	36870.32
622.812	37040.25
623.168	37044.32
623.523	37184.66
623.879	37312.56
624.234	37132.46
624.589	37245.9
624.945	37394.37
625.3	37419.23
625.655	37489.73
626.01	37602.5
626.365	37640.24
626.72	37663.97
627.075	37783.96
627.43	37748.94
627.785	37837.52
628.14	37866.9
628.495	37973.34
628.85	37853.79
629.205	37947.58
629.559	38035.26
629.914	38041.13
630.269	38111.19
630.623	38053.56
630.978	37921.36
631.332	38212.43
631.687	38197.06
632.041	38090.17
632.396	38225.99
632.75	38094.24
633.104	38316.83
633.459	38143.28
633.813	37981.47
634.167	38078.87
634.521	38111.19
634.875	38192.99
635.229	38163.16
635.583	37977.63
635.937	38056.05
636.291	38117.51
636.645	38247.45
636.999	37998.2
637.352	38118.64
637.706	38028.03
638.06	38174.24
638.413	38010.4
638.767	37851.53
639.121	37916.16
639.474	37835.94
639.828	37929.95
640.181	37908.93
640.534	38046.1
640.888	37882.49
641.241	37673.01
641.594	37839.1
641.947	37867.58
642.301	37844.75
642.654	37901.7
643.007	37904.19
643.36	37868.03
643.713	37829.39
644.066	37906.22
644.419	37642.72
644.771	37488.6
645.124	37251.55
645.477	37091.1
645.83	36918
646.182	36716.42
646.535	36668.06
646.888	36776.76
647.24	36593.71
647.593	36692.02
647.945	36638.46
648.298	36542.19
648.65	36519.59
649.002	36566.6
649.355	36661.96
649.707	36498.35
650.059	36676.87
650.411	36957.77
650.763	37192.12
651.115	37541.71
651.467	37357.53
651.819	37370.87
652.171	37415.16
652.523	37252.68
652.875	37197.31
653.227	37040.48
653.578	37327.93
653.93	37129.74
654.282	37158.22
654.633	37068.95
654.985	37200.02
655.337	37235.05
655.688	37102.63
656.039	37275.28
656.391	36939.24
656.742	37061.05
657.094	37188.95
657.445	37136.07
657.796	37097.65
658.147	37054.04
658.498	36920.94
658.849	36978.11
659.2	36991.22
659.551	36917.09
659.902	37067.82
660.253	37066.92
660.604	36995.06
660.955	36897.89
661.306	36943.31
661.656	37058.11
662.007	36833.03
662.358	36889.75
662.708	36833.03
663.059	36932.69
663.409	36537.44
663.76	36931.56
664.11	36910.77
664.461	36815.18
664.811	36898.34
665.161	36782.41
665.511	36693.15
665.862	36789.19
666.212	36860.82
666.562	36957.32
666.912	36860.82
667.262	36818.11
667.612	36893.14
667.962	36833.93
668.312	36757.1
668.662	36924.1
669.011	36711.45
669.361	36712.35
669.711	36795.97
670.06	36675.74
670.41	36729.75
670.76	36552.81
671.109	36883.2
671.459	36703.54
671.808	36575.41
672.157	36684.33
672.507	36551.45
672.856	36489.31
673.205	36481.63
673.554	36646.82
673.904	36451.57
674.253	36648.17
674.602	36611.11
674.951	36090
675.3	35929.32
675.649	36490.44
675.998	36434.17
676.346	36527.5
676.695	36501.06
677.044	36242.54
677.393	36341.74
677.741	36388.52
678.09	36263.1
678.438	36216.77
678.787	36267.85
679.135	36234.4
679.484	35996.67
679.832	36205.02
680.181	36033.5
680.529	36080.51
680.877	36027.17
681.225	35872.83
681.573	36231.01
681.922	35885.71
682.27	35914.41
682.618	35901.75
682.966	35752.38
683.314	35831.7
683.661	35856.33
684.009	35616.34
684.357	35613.17
684.705	35510.8
685.053	35454.76
685.4	35398.26
685.748	35250.7
686.095	35250.25
686.443	35129.8
686.79	35032.85
687.138	35230.58
687.485	35133.86
687.832	34957.82
688.18	34810.03
688.527	34772.07
688.874	34725.06
689.221	34699.98
689.568	34534.56
689.915	34576.14
690.262	34485.52
690.609	34336.15
690.956	34305.86
691.303	34443.94
691.65	34169.37
691.997	34238.75
692.344	33947.68
692.69	34056.15
693.037	33992.88
693.383	33718.99
693.73	33838.76
694.077	33652.32
694.423	33664.98
694.769	33524.19
695.116	33363.52
695.462	33342.72
695.808	33213.24
696.155	33316.74
696.501	33149.74
696.847	33071.32
697.193	32884.21
697.539	33052.34
697.885	32799.24
698.231	32615.51
698.577	32606.47
698.923	32664.32
699.269	32594.72
699.614	32226.6
699.96	32269.31
700.306	32234.28
700.651	32177.11
700.997	32076.32
701.342	32072.7
701.688	31961.74
702.033	31907.51
702.379	31877.45
702.724	31770.34
703.069	31738.25
703.415	31488.31
703.76	31529.21
704.105	31312.04
704.45	31401.53
704.795	31113.63
705.14	31065.95
705.485	31034.09
705.83	30972.84
706.175	30978.27
706.52	30878.38
706.865	30893.07
707.209	30765.39
707.554	30644.49
707.899	30697.6
708.243	30464.38
708.588	30429.81
708.932	30234.78
709.277	30191.85
709.621	30316.59
709.966	30072.75
710.31	30162.47
710.654	29986.66
710.998	29855.81
711.342	30062.13
711.687	29794.8
712.031	29709.37
712.375	29510.74
712.719	29687
713.063	29647
713.407	29684.74
713.75	29377.63
714.094	29574.01
714.438	29331.76
714.782	29413.34
715.125	29269.39
715.469	29275.71
715.812	29076.17
716.156	28985.33
716.499	29023.29
716.843	29089.73
717.186	28921.37
717.53	29004.08
717.873	29021.93
718.216	28870.53
718.559	28750.3
718.902	28506.24
719.246	28609.97
719.589	28372.46
719.932	28401.84
720.275	28428.73
720.617	28408.62
720.96	28467.82
721.303	28396.19
721.646	28229.87
721.989	28211.56
722.331	28203.43
722.674	28069.64
723.016	28146.48
723.359	28075.07
723.701	28167.95
724.044	27735.87
724.386	27818.8
724.729	27917.1
725.071	27856.54
725.413	27831.46
725.755	27777.45
726.097	27579.94
726.439	27553.05
726.782	27531.58
727.124	27746.04
727.465	27514.63
727.807	27559.37
728.149	27497.91
728.491	27476.66
728.833	27371.81
729.175	27376.55
729.516	27154.87
729.858	27264.92
730.199	27299.72
730.541	27219.04
730.882	27064.47
731.224	27188.54
731.565	27008.2
731.906	26988.54
732.248	27077.13
732.589	26809.11
732.93	26793.29
733.271	26689.79
733.612	26899.5
733.953	26758.94
734.294	26640.53
734.635	26623.58
734.976	26710.58
735.317	26566.63
735.658	26561.43
735.999	26584.48
736.339	26428.56
736.68	26472.17
737.021	26457.03
737.361	26220.43
737.702	26378.39
738.042	26370.7
738.383	26220.43
738.723	26367.54
739.063	26159.41
739.404	26235.57
739.744	26140.88
740.084	26024.73
740.424	26104.05
740.764	25984.27
741.104	26138.39
741.444	25991.51
741.784	25867.22
742.124	25847.55
742.464	25993.77
742.804	25817.73
743.143	25820.44
743.483	25742.47
743.823	25588.13
744.162	25721.91
744.502	25703.15
744.841	25657.28
745.181	25642.36
745.52	25545.87
745.86	25565.75
746.199	25374.12
746.538	25412.31
746.877	25444.85
747.216	25527.11
747.556	25387.68
747.895	25377.74
748.234	25250.96
748.573	25249.15
748.911	25241.24
749.25	25297.74
749.589	25188.14
749.928	25003.96
750.267	25071.98
750.605	24947.92
750.944	24981.81
751.283	24895.04
751.621	25003.96
751.96	24854.81
752.298	24886.9
752.636	24839.9
752.975	24691.65
753.313	24633.58
753.651	24719.45
753.989	24498.89
754.327	24466.8
754.666	24490.3
755.004	24548.15
755.342	24491.66
755.679	24395.16
756.017	24235.39
756.355	24362.17
756.693	24207.37
757.031	24202.17
757.368	24118.56
757.706	24105.23
758.044	23952.92
758.381	23940.94
758.719	23748.63
759.056	23918.79
759.394	23809.87
