Data from hue_100_FLMS001491_00039.txt Node
Date: Tue Feb 07 17:03:05 GMT 2017
User: dcchb
Spectrometer: FLMS00149
Trigger mode: 0
Integration Time (sec): 2.000000E-2
Scans to average: 10
Electric dark correction enabled: true
Nonlinearity correction enabled: false
Boxcar width: 0
XAxis mode: Wavelengths
Number of Pixels in Spectrum: 2048
>>>>>Begin Spectral Data<<<<<
341.393	-12.2
341.776	-12.2
342.16	-12.2
342.543	-75.48
342.927	-77.51
343.31	-83.61
343.693	-67.79
344.077	-67.12
344.46	-71.64
344.843	-59.21
345.226	-41.35
345.61	-17.4
345.993	-31.19
346.376	18.3
346.759	18.08
347.142	22.15
347.525	32.32
347.908	63.95
348.291	76.16
348.674	83.16
349.057	125.19
349.44	123.16
349.823	147.57
350.206	153.44
350.588	198.86
350.971	189.83
351.354	233.44
351.737	241.58
352.119	236.38
352.502	272.99
352.884	284.06
353.267	296.04
353.65	298.3
354.032	298.3
354.414	326.32
354.797	314.57
355.179	314.79
355.562	322.7
355.944	324.51
356.326	324.74
356.709	341.01
357.091	343.27
357.473	346.43
357.855	341.69
358.238	344.62
358.62	335.13
359.002	346.88
359.384	354.11
359.766	342.14
360.148	357.73
360.53	345.3
360.912	361.8
361.294	344.85
361.676	334.91
362.057	338.97
362.439	350.95
362.821	350.73
363.203	360.67
363.584	332.42
363.966	333.1
364.348	336.26
364.729	327.22
365.111	325.64
365.493	328.8
365.874	337.17
366.256	338.75
366.637	328.13
367.019	313.21
367.4	323.38
367.781	343.49
368.163	333.32
368.544	328.13
368.925	327
369.306	328.35
369.688	317.05
370.069	333.55
370.45	318.86
370.831	322.03
371.212	327.68
371.593	319.09
371.974	333.1
372.355	300.11
372.736	328.58
373.117	347.79
373.498	340.1
373.879	339.2
374.26	326.32
374.641	327.22
375.021	335.13
375.402	334.91
375.783	348.92
376.163	358.41
376.544	347.79
376.925	355.02
377.305	330.16
377.686	333.1
378.066	345.08
378.447	354.11
378.827	337.62
379.208	352.53
379.588	332.65
379.968	362.25
380.349	350.05
380.729	348.01
381.109	354.34
381.489	372.65
381.87	350.95
382.25	355.47
382.63	379.88
383.01	353.66
383.39	347.56
383.77	360.22
384.15	373.32
384.53	378.52
384.91	347.34
385.29	380.33
385.67	365.87
386.049	380.33
386.429	354.34
386.809	357.96
387.189	382.36
387.568	352.76
387.948	381.68
388.328	369.48
388.707	376.71
389.087	392.76
389.466	416.03
389.846	372.87
390.225	388.01
390.605	389.37
390.984	375.58
391.363	396.37
391.743	379.88
392.122	383.49
392.501	398.41
392.881	383.49
393.26	392.08
393.639	405.64
394.018	401.35
394.397	408.58
394.776	424.62
395.155	426.43
395.534	422.81
395.913	404.28
396.292	425.53
396.671	416.49
397.05	413.55
397.429	415.13
397.808	426.66
398.186	414.68
398.565	423.72
398.944	428.46
399.323	421.23
399.701	443.6
400.08	461.46
400.458	448.12
400.837	445.41
401.215	450.61
401.594	455.13
401.972	441.12
402.351	459.42
402.729	440.89
403.107	456.94
403.486	454
403.864	445.41
404.242	478.18
404.62	446.09
404.999	465.07
405.377	475.24
405.755	475.02
406.133	510.95
406.511	481.57
406.889	504.85
407.267	491.29
407.645	508.69
408.023	493.09
408.401	519.76
408.779	514.11
409.156	483.6
409.534	517.95
409.912	529.48
410.29	511.85
410.667	521.34
411.045	536.71
411.422	539.65
411.8	547.78
412.178	535.13
412.555	553.21
412.933	562.02
413.31	544.39
413.687	550.27
414.065	566.76
414.442	570.61
414.819	593.43
415.197	558.18
415.574	564.28
415.951	588.01
416.328	591.17
416.705	583.49
417.082	597.5
417.46	596.59
417.837	604.28
418.214	635.92
418.591	592.75
418.967	612.19
419.344	620.1
419.721	630.27
420.098	630.72
420.475	621.23
420.852	625.52
421.228	646.99
421.605	660.1
421.982	644.28
422.358	628.46
422.735	670.26
423.111	683.6
423.488	656.25
423.864	682.92
424.241	697.83
424.617	681.56
424.994	688.57
425.37	708.23
425.746	704.61
426.123	716.82
426.499	694.67
426.875	716.14
427.251	737.38
427.627	738.96
428.003	744.84
428.379	759.3
428.756	751.39
429.132	741
429.507	751.62
429.883	771.96
430.259	770.83
430.635	780.09
431.011	785.74
431.387	802.69
431.763	800.66
432.138	831.62
432.514	844.95
432.89	823.03
433.265	836.81
433.641	857.38
434.016	847.44
434.392	905.06
434.767	888.56
435.143	880.65
435.518	880.2
435.894	899.41
436.269	911.39
436.644	916.81
437.02	930.82
437.395	925.4
437.77	923.82
438.145	954.78
438.52	965.85
438.895	966.75
439.271	981.9
439.646	978.73
440.021	995.91
440.395	1022.12
440.77	978.28
441.145	992.74
441.52	1009.46
441.895	1013.08
442.27	1023.25
442.645	1033.19
443.019	1048.56
443.394	1086.3
443.769	1064.38
444.143	1067.99
444.518	1085.62
444.892	1081.1
445.267	1083.14
445.641	1103.25
446.016	1087.2
446.39	1085.17
446.764	1124.72
447.139	1116.35
447.513	1139.86
447.887	1130.59
448.262	1127.43
448.636	1162
449.01	1157.94
449.384	1160.2
449.758	1179.63
450.132	1183.25
450.506	1205.62
450.88	1183.47
451.254	1195.22
451.628	1214.21
452.002	1261.89
452.376	1276.8
452.75	1251.27
453.123	1289.46
453.497	1272.96
453.871	1296.24
454.244	1330.81
454.618	1321.32
454.992	1357.48
455.365	1370.59
455.739	1382.56
456.112	1392.51
456.486	1415.78
456.859	1398.38
457.232	1453.3
457.606	1440.19
457.979	1458.94
458.352	1486.97
458.725	1515.67
459.099	1512.05
459.472	1519.28
459.845	1561.99
460.218	1593.4
460.591	1587.08
460.964	1580.98
461.337	1634.76
461.71	1646.28
462.083	1715.89
462.456	1719.05
462.829	1708.88
463.201	1747.52
463.574	1751.82
463.947	1783.68
464.32	1801.76
464.692	1855.77
465.065	1844.92
465.438	1875.43
465.81	1924.02
466.183	1926.73
466.555	1969.44
466.928	1992.26
467.3	2004.24
467.672	2040.4
468.045	2103.22
468.417	2091.24
468.789	2109.78
469.161	2184.35
469.534	2214.41
469.906	2258.02
470.278	2293.5
470.65	2315.65
471.022	2366.72
471.394	2426.6
471.766	2439.03
472.138	2497.34
472.51	2554.51
472.882	2606.94
473.253	2659.59
473.625	2670.66
473.997	2760.15
474.369	2800.38
474.74	2857.78
475.112	2925.57
475.484	2983.2
475.855	3069.75
476.227	3100.26
476.598	3211.44
476.97	3284.21
477.341	3335.28
477.713	3409.4
478.084	3455.73
478.455	3600.13
478.827	3636.97
479.198	3811.2
479.569	3852.33
479.94	3988.6
480.311	4079.89
480.682	4174.35
481.053	4276.72
481.424	4399.43
481.795	4445.53
482.166	4597.39
482.537	4709.71
482.908	4864.5
483.279	4956.25
483.65	5119.64
484.021	5226.08
484.391	5361.44
484.762	5412.74
485.133	5546.29
485.503	5735.89
485.874	5870.13
486.244	5954.87
486.615	6181.08
486.985	6284.81
487.356	6448.42
487.726	6630.33
488.097	6793.49
488.467	6881.85
488.837	7062.19
489.207	7233.03
489.578	7442.97
489.948	7541.5
490.318	7748.27
490.688	7792.11
491.058	8080.69
491.428	8191.42
491.798	8366.33
492.168	8671.86
492.538	8706.44
492.908	8898.98
493.278	9083.38
493.648	9173.32
494.017	9402.69
494.387	9502.57
494.757	9733.53
495.126	9797.93
495.496	9968.1
495.866	10141.65
496.235	10352.95
496.605	10421.42
496.974	10610.57
497.344	10785.93
497.713	10902.99
498.082	11006.04
498.452	11157.22
498.821	11307.5
499.19	11361.96
499.559	11505.46
499.928	11700.71
500.298	11819.8
500.667	11993.58
501.036	12025.22
501.405	12174.82
501.774	12273.12
502.143	12449.16
502.512	12530.52
502.88	12749.72
503.249	12760.12
503.618	12846.22
503.987	13022.03
504.356	13126.89
504.724	13201.46
505.093	13274
505.462	13373.66
505.83	13576.82
506.199	13615.01
506.567	13794.21
506.936	13864.49
507.304	14046.41
507.672	14106.52
508.041	14194.88
508.409	14380.19
508.777	14377.93
509.145	14538.37
509.514	14539.96
509.882	14693.17
510.25	14707.86
510.618	14728.2
510.986	14775.43
511.354	15022.88
511.722	15145.59
512.09	15187.62
512.458	15092.26
512.826	15338.35
513.193	15424.91
513.561	15426.49
513.929	15553.26
514.297	15656.76
514.664	15718.23
515.032	15761.62
515.4	15902.18
515.767	15954.83
516.135	15932.24
516.502	15918
516.869	16207.26
517.237	16132.46
517.604	16148.95
517.972	16261.04
518.339	16375.16
518.706	16364.09
519.073	16427.14
519.44	16523.86
519.808	16724.76
520.175	16643.18
520.542	16730.63
520.909	16804.76
521.276	16790.07
521.643	16787.13
522.009	16923.62
522.376	16960.01
522.743	17076.84
523.11	17043.17
523.477	17294.01
523.843	17306.44
524.21	17472.76
524.577	17499.65
524.943	17550.05
525.31	17552.98
525.676	17559.31
526.043	17713.43
526.409	17750.04
526.776	17862.58
527.142	17915.69
527.508	17908.68
527.874	17893.77
528.241	18011.28
528.607	18051.73
528.973	18164.04
529.339	18124.27
529.705	18121.11
530.071	18230.03
530.437	18213.31
530.803	18224.15
531.169	18310.7
531.535	18286.07
531.901	18287.43
532.267	18314.77
532.632	18301.44
532.998	18269.8
533.364	18412.85
533.73	18308.67
534.095	18369.01
534.461	18394.09
534.826	18436.58
535.192	18436.8
535.557	18536.91
535.923	18353.87
536.288	18377.6
536.653	18430.02
537.019	18425.28
537.384	18393.19
537.749	18444.49
538.114	18402.23
538.479	18382.79
538.845	18413.98
539.21	18312.96
539.575	18264.83
539.94	18267.99
540.305	18378.27
540.67	18361.55
541.034	18334.89
541.399	18275.68
541.764	18278.39
542.129	18269.58
542.494	18218.05
542.858	18255.34
543.223	18192.06
543.587	18223.25
543.952	18215.11
544.316	18111.16
544.681	18067.55
545.045	18182.12
545.41	18228.45
545.774	18065.06
546.138	18036.59
546.503	17993.65
546.867	17987.55
547.231	17994.78
547.595	17917.72
547.959	17928.12
548.324	17901.22
548.688	17831.4
549.052	17781.23
549.416	17872.52
549.779	17897.83
550.143	17816.71
550.507	17889.02
550.871	17906.42
551.235	17791.4
551.599	17749.82
551.962	17803.83
552.326	17737.39
552.689	17770.61
553.053	17684.05
553.417	17659.87
553.78	17804.5
554.143	17701.68
554.507	17703.72
554.87	17769.25
555.234	17859.64
555.597	17699.87
555.96	17735.8
556.323	17717.05
556.686	17689.48
557.05	17709.82
557.413	17725.41
557.776	17742.36
558.139	17762.47
558.502	17672.53
558.865	17639.76
559.228	17844.5
559.59	17779.87
559.953	17793.43
560.316	17867.78
560.679	17767.22
561.041	17880.66
561.404	17882.24
561.767	17842.69
562.129	17911.85
562.492	17889.25
562.854	17948
563.217	17841.56
563.579	17907.55
563.941	17904.61
564.304	17988.45
564.666	18150.94
565.028	18018.74
565.39	18039.98
565.753	18164.04
566.115	18212.63
566.477	18169.92
566.839	18177.6
567.201	18293.53
567.563	18218.05
567.925	18440.19
568.287	18331.5
568.648	18333.08
569.01	18424.83
569.372	18517.93
569.734	18417.14
570.095	18571.72
570.457	18465.73
570.819	18538.72
571.18	18525.39
571.542	18631.15
571.903	18642.22
572.265	18639.51
572.626	18778.94
572.987	18681.32
573.349	18731.71
573.71	18683.35
574.071	18803.57
574.432	18781.2
574.794	18866.85
575.155	18827.08
575.516	18752.73
575.877	18929.67
576.238	18858.71
576.599	19001.31
576.96	18895.32
577.32	18823.23
577.681	19050.8
578.042	18966.73
578.403	18892.38
578.763	18995.21
579.124	18891.93
579.485	19093.74
579.845	19042.66
580.206	18924.93
580.566	18993.4
580.927	18961.99
581.287	18962.67
581.648	18891.48
582.008	19012.16
582.368	19041.99
582.728	18959.95
583.089	19002.44
583.449	18922.44
583.809	19007.86
584.169	18971.25
584.529	18921.54
584.889	19013.74
585.249	18901.88
585.609	18815.55
585.969	18926.51
586.329	18891.25
586.688	18945.49
587.048	18880.18
587.408	18864.36
587.768	18785.49
588.127	18903.46
588.487	18727.64
588.846	18826.4
589.206	18762.67
589.565	18811.93
589.925	18806.74
590.284	18683.58
590.643	18806.06
591.003	18839.5
591.362	18934.42
591.721	18747.08
592.08	18733.97
592.44	18870.92
592.799	18895.32
593.158	18773.52
593.517	18789.34
593.876	18916.56
594.235	18739.62
594.593	18692.62
594.952	18801.54
595.311	18626.63
595.67	18760.18
596.029	18831.37
596.387	18774.87
596.746	18838.6
597.104	18727.42
597.463	18707.98
597.822	18753.63
598.18	18692.84
598.538	18636.8
598.897	18696.23
599.255	18514.77
599.613	18854.42
599.972	18721.99
600.33	18708.43
600.688	18626.85
601.046	18759.51
601.404	18788.43
601.762	18721.77
602.12	18737.13
602.478	18858.26
602.836	18820.97
603.194	18684.25
603.552	18771.26
603.91	18663.46
604.268	18741.65
604.625	18645.61
604.983	18791.37
605.341	18693.29
605.698	18766.96
606.056	18861.2
606.413	18678.15
606.771	18865.49
607.128	18784.59
607.485	18719.28
607.843	18750.24
608.2	18905.49
608.557	18811.93
608.914	18787.75
609.272	18940.52
609.629	18831.14
609.986	18980.07
610.343	18855.32
610.7	19050.57
611.057	18998.37
611.414	18934.87
611.771	18990.46
612.127	19001.99
612.484	19052.15
612.841	19113.17
613.198	18986.62
613.554	19081.76
613.911	19080.85
614.267	19098.48
614.624	19138.48
614.98	19026.17
615.337	19108.2
615.693	19100.97
616.05	19106.62
616.406	19120.85
616.762	19141.64
617.118	19165.82
617.475	19086.28
617.831	19140.97
618.187	19152.26
618.543	19293.28
618.899	19425.25
619.255	19281.75
619.611	19294.41
619.967	19386.16
620.323	19415.31
620.678	19304.13
621.034	19317.46
621.39	19225.48
621.746	19214.64
622.101	19429.32
622.457	19298.25
622.812	19366.72
623.168	19360.62
623.523	19355.42
623.879	19513.61
624.234	19270
624.589	19322.88
624.945	19327.4
625.3	19416.21
625.655	19348.42
626.01	19364.46
626.365	19392.03
626.72	19263.67
627.075	19272.94
627.43	19371.02
627.785	19243.56
628.14	19307.74
628.495	19302.32
628.85	19328.76
629.205	19185.94
629.559	19321.53
629.914	19259.38
630.269	19212.15
630.623	19168.54
630.978	19162.89
631.332	19271.58
631.687	19316.55
632.041	19164.47
632.396	19204.01
632.75	19072.04
633.104	19085.37
633.459	18978.71
633.813	19023.68
634.167	19046.5
634.521	18973.74
634.875	18987.75
635.229	18952.04
635.583	18899.16
635.937	18858.26
636.291	18772.39
636.645	18907.75
636.999	18793.4
637.352	18846.74
637.706	18723.8
638.06	18825.72
638.413	18748.21
638.767	18697.59
639.121	18723.8
639.474	18658.27
639.828	18580.08
640.181	18652.39
640.534	18674.76
640.888	18670.24
641.241	18557.93
641.594	18573.52
641.947	18699.62
642.301	18640.87
642.654	18597.7
643.007	18577.14
643.36	18577.59
643.713	18483.36
644.066	18646.97
644.419	18413.53
644.771	18357.71
645.124	18248.33
645.477	18154.55
645.83	18110.03
646.182	17997.72
646.535	17865.29
646.888	18079.75
647.24	17913.65
647.593	18063.71
647.945	17952.97
648.298	17748.46
648.65	17790.94
649.002	17727.44
649.355	17896.03
649.707	17856.25
650.059	17966.31
650.411	18131.73
650.763	18122.46
651.115	18339.4
651.467	18251.27
651.819	18245.17
652.171	18184.38
652.523	18228.22
652.875	18117.04
653.227	18162.23
653.578	18216.02
653.93	18157.04
654.282	18108
654.633	18206.98
654.985	18106.64
655.337	18224.61
655.688	18101.9
656.039	18227.54
656.391	18077.49
656.742	18142.35
657.094	18115.46
657.445	18240.65
657.796	18148.9
658.147	18147.09
658.498	18087.66
658.849	18180.54
659.2	18171.05
659.551	18176.92
659.902	18188.45
660.253	18163.59
660.604	18254.21
660.955	18164.49
661.306	18219.18
661.656	18205.85
662.007	18235
662.358	18202.91
662.708	18166.53
663.059	18206.07
663.409	18136.7
663.76	18272.29
664.11	18111.39
664.461	18209.01
664.811	18151.84
665.161	18240.88
665.511	18186.87
665.862	18190.71
666.212	18222.57
666.562	18205.62
666.912	18217.37
667.262	18113.2
667.612	18161.1
667.962	18356.81
668.312	18171.73
668.662	18216.47
669.011	18252.63
669.361	18267.99
669.711	18218.28
670.06	18224.61
670.41	18166.3
670.76	18058.73
671.109	18158.39
671.459	18239.07
671.808	17988
672.157	18257.6
672.507	18112.29
672.856	18002.01
673.205	18057.38
673.554	18100.77
673.904	17985.29
674.253	18029.13
674.602	18000.88
674.951	17753.66
675.3	17640.44
675.649	17937.38
675.998	17939.19
676.346	17922.47
676.695	17902.58
677.044	17836.82
677.393	17937.61
677.741	17866.2
678.09	17835.46
678.438	17785.3
678.787	17811.74
679.135	17771.28
679.484	17662.13
679.832	17777.39
680.181	17627.79
680.529	17680.44
680.877	17646.99
681.225	17549.6
681.573	17609.03
681.922	17558.63
682.27	17499.2
682.618	17338.98
682.966	17443.61
683.314	17505.3
683.661	17344.4
684.009	17275.93
684.357	17286.33
684.705	17279.77
685.053	17212.43
685.4	17247.68
685.748	17128.14
686.095	17110.96
686.443	17018.54
686.79	17084.75
687.138	17142.37
687.485	17025.09
687.832	16925.88
688.18	16981.93
688.527	16818.77
688.874	16861.03
689.221	16738.54
689.568	16676.85
689.915	16740.12
690.262	16630.75
690.609	16629.39
690.956	16540.81
691.303	16452.9
691.65	16378.78
691.997	16429.62
692.344	16386.91
692.69	16258.33
693.037	16294.49
693.383	16113.7
693.73	16266.92
694.077	16148.73
694.423	16131.1
694.769	16050.88
695.116	15963.2
695.462	16051.33
695.808	15872.58
696.155	15863.76
696.501	15724.11
696.847	15709.19
697.193	15628.52
697.539	15706.48
697.885	15523.43
698.231	15590.1
698.577	15525.92
698.923	15468.75
699.269	15355.3
699.614	15286.38
699.96	15194.18
700.306	15137.91
700.651	15108.76
700.997	15144.23
701.342	15048.64
701.688	14999.15
702.033	14965.71
702.379	14917.12
702.724	14867.63
703.069	14937.23
703.415	14677.35
703.76	14673.06
704.105	14709.67
704.45	14603.68
704.795	14563.01
705.14	14556.45
705.485	14510.8
705.83	14334.99
706.175	14377.25
706.52	14398.72
706.865	14275.56
707.209	14266.74
707.554	14220.87
707.899	14260.42
708.243	14121.21
708.588	14124.15
708.932	14031.5
709.277	14008.45
709.621	13938.16
709.966	13870.37
710.31	14001.89
710.654	13802.57
710.998	13822.69
711.342	13844.83
711.687	13785.63
712.031	13589.7
712.375	13654.1
712.719	13665.63
713.063	13615.24
713.407	13657.27
713.75	13617.5
714.094	13633.99
714.438	13501.79
714.782	13594.44
715.125	13496.82
715.469	13512.64
715.812	13382.25
716.156	13347.45
716.499	13333.66
716.843	13362.13
717.186	13195.36
717.53	13306.99
717.873	13271.74
718.216	13243.95
718.559	13235.13
718.902	13088.7
719.246	13167.79
719.589	13151.97
719.932	13068.58
720.275	13072.88
720.617	13063.84
720.96	13058.19
721.303	13043.95
721.646	13004.63
721.989	12901.81
722.331	13022.03
722.674	12983.84
723.016	13016.15
723.359	13008.25
723.701	13010.51
724.044	12948.81
724.386	12875.37
724.729	12916.5
725.071	13022.48
725.413	12861.13
725.755	12791.3
726.097	12771.64
726.439	12778.87
726.782	12796.27
727.124	12879.66
727.465	12786.33
727.807	12728.7
728.149	12758.53
728.491	12716.95
728.833	12737.29
729.175	12668.14
729.516	12708.82
729.858	12672.44
730.199	12703.85
730.541	12631.08
730.882	12701.36
731.224	12684.41
731.565	12631.53
731.906	12620.69
732.248	12708.82
732.589	12664.98
732.93	12578.88
733.271	12621.59
733.612	12628.37
733.953	12644.19
734.294	12646.9
734.635	12577.75
734.976	12619.56
735.317	12511.99
735.658	12518.54
735.999	12533.68
736.339	12499.56
736.68	12569.16
737.021	12535.26
737.361	12606
737.702	12651.87
738.042	12571.42
738.383	12581.82
738.723	12609.39
739.063	12580.01
739.404	12635.37
739.744	12620.69
740.084	12570.52
740.424	12633.57
740.764	12611.19
741.104	12671.31
741.444	12509.28
741.784	12646.9
742.124	12640.57
742.464	12629.05
742.804	12639.89
743.143	12712.43
743.483	12707.01
743.823	12706.33
744.162	12742.72
744.502	12816.16
744.841	12752.43
745.181	12885.99
745.52	12882.83
745.86	12944.97
746.199	12921.24
746.538	12993.56
746.877	13192.65
747.216	13163.04
747.556	13121.01
747.895	13230.39
748.234	13167.11
748.573	13263.83
748.911	13319.88
749.25	13456.37
749.589	13483.04
749.928	13600.55
750.267	13731.39
750.605	13707.21
750.944	13793.76
751.283	13815.23
751.621	13944.04
751.96	14026.07
752.298	14151.94
752.636	14219.74
752.975	14279.17
753.313	14395.1
753.651	14571.82
753.989	14603.01
754.327	14660.86
754.666	14811.36
755.004	15035.99
755.342	15129.32
755.679	15322.08
