Data from hue_34_FLMS001491_00011.txt Node
Date: Tue Feb 07 17:25:15 GMT 2017
User: dcchb
Spectrometer: FLMS00149
Trigger mode: 0
Integration Time (sec): 2.000000E-2
Scans to average: 10
Electric dark correction enabled: true
Nonlinearity correction enabled: false
Boxcar width: 0
XAxis mode: Wavelengths
Number of Pixels in Spectrum: 2048
>>>>>Begin Spectral Data<<<<<
341.393	-14.9
341.776	-14.9
342.16	-14.9
342.543	-54
342.927	-51.06
343.31	-51.96
343.693	-64.62
344.077	-57.84
344.46	-50.83
344.843	-64.39
345.226	-49.7
345.61	-14.45
345.993	-44.73
346.376	-34.56
346.759	32.1
347.142	34.59
347.525	41.82
347.908	35.04
348.291	66.23
348.674	104.19
349.057	119.11
349.44	126.56
349.823	148.71
350.206	166.11
350.588	201.36
350.971	231.87
351.354	226
351.737	220.35
352.119	250.4
352.502	264.64
352.884	266.67
353.267	294.24
353.65	300.8
354.032	297.41
354.414	308.25
354.797	332.21
355.179	317.97
355.562	319.1
355.944	317.97
356.326	317.75
356.709	322.94
357.091	340.12
357.473	357.29
357.855	339.89
358.238	327.24
358.62	354.13
359.002	337.63
359.384	361.36
359.766	348.03
360.148	352.32
360.53	351.87
360.912	320.46
361.294	329.05
361.676	348.71
362.057	340.57
362.439	350.06
362.821	341.93
363.203	330.4
363.584	343.51
363.966	319.33
364.348	332.66
364.729	314.13
365.111	324.53
365.493	329.72
365.874	322.27
366.256	306.9
366.637	315.49
367.019	326.56
367.4	331.53
367.781	320.91
368.163	327.24
368.544	311.87
368.925	328.37
369.306	319.33
369.688	310.97
370.069	311.64
370.45	333.11
370.831	338.08
371.212	313
371.593	316.84
371.974	328.14
372.355	313.45
372.736	323.4
373.117	326.56
373.498	329.05
373.879	315.03
374.26	314.81
374.641	303.51
375.021	325.88
375.402	324.98
375.783	329.05
376.163	327.46
376.544	319.1
376.925	320.91
377.305	316.84
377.686	348.93
378.066	317.52
378.447	325.66
378.827	329.05
379.208	331.08
379.588	349.16
379.968	331.53
380.349	341.02
380.729	334.69
381.109	354.81
381.489	336.28
381.87	335.82
382.25	353.9
382.63	336.95
383.01	349.84
383.39	353.68
383.77	342.15
384.15	341.25
384.53	347.58
384.91	353.23
385.29	329.72
385.67	362.94
386.049	356.39
386.429	339.89
386.809	358.87
387.189	357.29
387.568	367.69
387.948	355.94
388.328	380.57
388.707	350.97
389.087	375.82
389.466	372.89
389.846	347.58
390.225	367.46
390.605	382.15
390.984	374.69
391.363	361.81
391.743	362.94
392.122	385.54
392.501	378.99
392.881	385.09
393.26	366.11
393.639	385.09
394.018	374.92
394.397	371.76
394.776	372.89
395.155	368.59
395.534	370.4
395.913	406.78
396.292	390.51
396.671	385.54
397.05	384.41
397.429	388.03
397.808	387.57
398.186	398.65
398.565	384.18
398.944	370.17
399.323	388.93
399.701	406.78
400.08	392.77
400.458	413.34
400.837	419.21
401.215	400.68
401.594	418.76
401.972	400.91
402.351	386.44
402.729	414.01
403.107	411.98
403.486	410.17
403.864	400.23
404.242	408.36
404.62	408.14
404.999	423.51
405.377	432.55
405.755	414.01
406.133	436.16
406.511	426.22
406.889	436.16
407.267	426.67
407.645	426.22
408.023	425.99
408.401	444.97
408.779	452.21
409.156	451.53
409.534	438.42
409.912	461.24
410.29	462.37
410.667	469.15
411.045	447.91
411.422	449.72
411.8	476.84
412.178	488.59
412.555	480.23
412.933	485.88
413.31	485.43
413.687	469.15
414.065	492.88
414.442	463.96
414.819	471.19
415.197	497.4
415.574	498.76
415.951	478.87
416.328	483.62
416.705	493.56
417.082	512.99
417.46	496.27
417.837	526.55
418.214	515.03
418.591	532.66
418.967	529.04
419.344	515.71
419.721	531.3
420.098	516.38
420.475	531.75
420.852	527.46
421.228	533.11
421.605	544.86
421.982	544.18
422.358	554.58
422.735	547.34
423.111	540.11
423.488	519.1
423.864	550.28
424.241	574.69
424.617	571.3
424.994	554.12
425.37	572.2
425.746	571.52
426.123	575.14
426.499	555.48
426.875	570.85
427.251	586.67
427.627	578.53
428.003	605.42
428.379	613.56
428.756	584.86
429.132	615.59
429.507	593.67
429.883	609.04
430.259	600.45
430.635	611.52
431.011	591.19
431.387	637.96
431.763	649.49
432.138	669.38
432.514	621.01
432.89	674.35
433.265	664.86
433.641	668.02
434.016	661.24
434.392	666.21
434.767	696.27
435.143	672.09
435.518	708.24
435.894	707.11
436.269	725.87
436.644	701.01
437.02	717.96
437.395	710.5
437.77	720.67
438.145	750.28
438.52	719.54
438.895	747.57
439.271	742.59
439.646	745.08
440.021	764.51
440.395	740.56
440.77	736.72
441.145	749.6
441.52	769.49
441.895	768.58
442.27	790.73
442.645	759.99
443.019	782.37
443.394	781.24
443.769	795.7
444.143	772.2
444.518	785.3
444.892	794.8
445.267	807.45
445.641	809.26
446.016	816.26
446.39	814.46
446.764	828.69
447.139	845.19
447.513	835.47
447.887	838.41
448.262	846.55
448.636	831.18
449.01	841.57
449.384	840.44
449.758	833.21
450.132	853.33
450.506	876.15
450.88	868.92
451.254	882.25
451.628	888.35
452.002	925.41
452.376	913.89
452.75	926.77
453.123	897.84
453.497	938.07
453.871	925.87
454.244	966.77
454.618	966.77
454.992	951.18
455.365	948.46
455.739	976.26
456.112	981.23
456.486	991.4
456.859	1031.85
457.232	1021.23
457.606	1012.42
457.979	1038.63
458.352	1028.01
458.725	1055.58
459.099	1034.34
459.472	1089.93
459.845	1092.19
460.218	1092.19
460.591	1110.27
460.964	1110.72
461.337	1113.88
461.71	1132.64
462.083	1165.86
462.456	1172.86
462.829	1175.58
463.201	1191.62
463.574	1202.24
463.947	1234.11
464.32	1234.78
464.692	1229.13
465.065	1243.6
465.438	1291.28
465.81	1332.86
466.183	1308.68
466.555	1327.66
466.928	1338.74
467.3	1351.84
467.672	1357.49
468.045	1362.01
468.417	1372.86
468.789	1408.56
469.161	1450.6
469.534	1474.1
469.906	1487.43
470.278	1503.48
470.65	1544.83
471.022	1527.88
471.394	1581.22
471.766	1583.02
472.138	1647.43
472.51	1692.17
472.882	1702.57
473.253	1709.12
473.625	1725.39
473.997	1796.13
474.369	1829.8
474.74	1815.11
475.112	1869.12
475.484	1910.92
475.855	1947.76
476.227	1984.59
476.598	2040.19
476.97	2062.11
477.341	2116.79
477.713	2169.67
478.084	2209.22
478.455	2257.36
478.827	2307.75
479.198	2375.09
479.569	2379.39
479.94	2477.69
480.311	2510.23
480.682	2591.13
481.053	2705.48
481.424	2748.87
481.795	2790.45
482.166	2830.9
482.537	2910.45
482.908	2989.31
483.279	3052.14
483.65	3111.34
484.021	3227.95
484.391	3264.11
484.762	3371.45
485.133	3377.78
485.503	3486.93
485.874	3594.5
486.244	3628.85
486.615	3737.99
486.985	3785.68
487.356	3917.43
487.726	3968.5
488.097	4086.46
488.467	4147.93
488.837	4254.82
489.207	4316.06
489.578	4417.75
489.948	4465.21
490.318	4608.71
490.688	4668.37
491.058	4787.91
491.428	4829.27
491.798	4950.39
492.168	5061.35
492.538	5126.88
492.908	5251.85
493.278	5321.46
493.648	5387.67
494.017	5510.38
494.387	5563.26
494.757	5601.22
495.126	5696.81
495.496	5764.38
495.866	5860.43
496.235	5962.8
496.605	6009.12
496.974	6139.06
497.344	6208.89
497.713	6257.25
498.082	6341.99
498.452	6408.89
498.821	6458.6
499.19	6535.66
499.559	6617.02
499.928	6716.45
500.298	6753.96
500.667	6847.29
501.036	6836.22
501.405	6970.68
501.774	7046.38
502.143	7072.6
502.512	7110.11
502.88	7208.41
503.249	7236.43
503.618	7352.36
503.987	7390.55
504.356	7425.36
504.724	7460.16
505.093	7529.31
505.462	7598.01
505.83	7646.59
506.199	7821.96
506.567	7854.72
506.936	7850.2
507.304	7985.79
507.672	8013.36
508.041	8110.54
508.409	8150.53
508.777	8159.35
509.145	8309.17
509.514	8282.73
509.882	8302.62
510.25	8348.95
510.618	8457.19
510.986	8520.92
511.354	8546.68
511.722	8600.69
512.09	8673.46
512.458	8628.26
512.826	8854.92
513.193	8836.17
513.561	8967.69
513.929	8878.42
514.297	8957.52
514.664	8992.09
515.032	9153.22
515.4	9196.16
515.767	9206.33
516.135	9283.61
516.502	9187.12
516.869	9387.56
517.237	9358.86
517.604	9374.23
517.972	9479.31
518.339	9480.22
518.706	9543.94
519.073	9554.79
519.44	9694.67
519.808	9698.74
520.175	9757.5
520.542	9843.82
520.909	9879.53
521.276	9897.38
521.643	9955.68
522.009	10045.63
522.376	10131.27
522.743	10172.18
523.11	10182.12
523.477	10328.56
523.843	10347.99
524.21	10464.37
524.577	10547.76
524.943	10573.52
525.31	10591.83
525.676	10681.09
526.043	10697.36
526.409	10817.81
526.776	10936.22
527.142	10914.76
527.508	10961.99
527.874	11056.45
528.241	11107.52
528.607	11222.09
528.973	11173.28
529.339	11330.34
529.705	11382.31
530.071	11441.97
530.437	11499.37
530.803	11558.35
531.169	11564.23
531.535	11581.63
531.901	11713.38
532.267	11791.34
532.632	11766.71
532.998	11879.25
533.364	11987.27
533.73	11935.29
534.095	12124.67
534.461	12084.89
534.826	12143.42
535.192	12110.2
535.557	12248.05
535.923	12291.44
536.288	12323.31
536.653	12324.66
537.019	12418.67
537.384	12494.83
537.749	12450.31
538.114	12533.02
538.479	12631.77
538.845	12600.81
539.21	12625.67
539.575	12699.12
539.94	12796.74
540.305	12849.85
540.67	12789.28
541.034	12888.49
541.399	12962.84
541.764	12924.65
542.129	12982.5
542.494	13050.29
542.858	13179.33
543.223	13203.51
543.587	13226.11
543.952	13245.77
544.316	13372.77
544.681	13363.73
545.045	13476.72
545.41	13489.38
545.774	13605.31
546.138	13651.86
546.503	13660.45
546.867	13661.8
547.231	13808.69
547.595	13737.28
547.959	13857.28
548.324	13884.62
548.688	13879.42
549.052	13944.28
549.416	14059.98
549.779	14008.23
550.143	14029.25
550.507	14154.67
550.871	14068.8
551.235	14236.7
551.599	14247.55
551.962	14384.49
552.326	14410.48
552.689	14469.24
553.053	14429.24
553.417	14502.46
553.78	14669.46
554.143	14621.55
554.507	14706.52
554.87	14790.36
555.234	14865.84
555.597	14813.86
555.96	14911.71
556.323	14896.57
556.686	14984.03
557.05	15040.52
557.413	15138.83
557.776	15111.71
558.139	15162.33
558.502	15250.69
558.865	15188.54
559.228	15371.14
559.59	15373.17
559.953	15471.25
560.316	15575.65
560.679	15690.45
561.041	15613.84
561.404	15755.53
561.767	15798.24
562.129	15774.06
562.492	15929.99
562.854	15943.55
563.217	15928.18
563.579	16032.59
563.941	16120.72
564.304	16069.87
564.666	16220.6
565.028	16260.15
565.39	16246.14
565.753	16470.99
566.115	16447.94
566.477	16537.88
566.839	16539.47
567.201	16657.88
567.563	16619.01
567.925	16729.97
568.287	16826.24
568.648	16855.39
569.01	16979.45
569.372	17090.41
569.734	16948.72
570.095	17248.37
570.457	17354.81
570.819	17262.39
571.18	17330.86
571.542	17428.48
571.903	17467.35
572.265	17577.86
572.626	17685.65
572.987	17698.08
573.349	17833.9
573.71	17898.07
574.071	17894.68
574.432	18000.9
574.794	18209.25
575.155	18210.61
575.516	18243.6
575.877	18436.14
576.238	18456.48
576.599	18628
576.96	18706.19
577.32	18746.19
577.681	18928.78
578.042	19016.24
578.403	19144.6
578.763	19205.16
579.124	19444.02
579.485	19503
579.845	19756.78
580.206	19877.91
580.566	19978.47
580.927	20170.33
581.287	20290.55
581.648	20437.67
582.008	20708.85
582.368	20672.46
582.728	20953.14
583.089	21113.36
583.449	21336.18
583.809	21505.66
584.169	21807.58
584.529	21900.91
584.889	22218.64
585.249	22295.25
585.609	22469.03
585.969	22634.67
586.329	22912.86
586.688	23094.1
587.048	23337.25
587.408	23550.81
587.768	23637.36
588.127	23952.15
588.487	24186.72
588.846	24585.81
589.206	24667.16
589.565	24992.13
589.925	25210.65
590.284	25464.43
590.643	25709.62
591.003	25998.65
591.362	26243.84
591.721	26379.89
592.08	26590.73
592.44	27001.79
592.799	27228.68
593.158	27364.04
593.517	27566.52
593.876	27853.29
594.235	28051.25
594.593	28282.43
594.952	28570.56
595.311	28692.59
595.67	29139.36
596.029	29520.59
596.387	29647.82
596.746	29910.64
597.104	30032.44
597.463	30488.48
597.822	30620.23
598.18	30670.62
598.538	30967.34
598.897	31430.15
599.255	31364.61
599.613	32049.11
599.972	31931.6
600.33	32299.05
600.688	32379.5
601.046	32635.31
601.404	32915.31
601.762	33100.39
602.12	33490.21
602.478	33627.83
602.836	33842.97
603.194	33866.02
603.552	34174.26
603.91	34068.04
604.268	34463.29
604.625	34572.66
604.983	35004.74
605.341	34819.66
605.698	35268.01
606.056	35338.07
606.413	35450.38
606.771	35754.33
607.128	35961.55
607.485	35900.09
607.843	36176.69
608.2	36475.44
608.557	36655.1
608.914	36694.87
609.272	36995.65
609.629	37135.99
609.986	37403.32
610.343	37324.68
610.7	37776.87
611.057	37790.66
611.414	37818.45
611.771	38102.29
612.127	38174.38
612.484	38260.25
612.841	38538.21
613.198	38594.25
613.554	38547.25
613.911	39015.94
614.267	39052.55
614.624	39170.74
614.98	39325.08
615.337	39327.12
615.693	39541.57
616.05	39551.29
616.406	39942.47
616.762	39930.72
617.118	39980.21
617.475	39928.23
617.831	40207.32
618.187	40353.98
618.543	40382.91
618.899	40699.28
619.255	40731.15
619.611	40699.28
619.967	40918.94
620.323	41070.57
620.678	40906.06
621.034	40937.47
621.39	41153.06
621.746	41012.04
622.101	41582.42
622.457	41418.59
622.812	41388.98
623.168	41585.36
623.523	41657.22
623.879	41806.82
624.234	41530.67
624.589	41735.64
624.945	41913.26
625.3	41767.96
625.655	41881.17
626.01	41988.74
626.365	41957.55
626.72	42084.78
627.075	42124.1
627.43	42224.21
627.785	42067.83
628.14	42219.69
628.495	42267.83
628.85	42290.2
629.205	42121.39
629.559	42424.21
629.914	42275.74
630.269	42367.26
630.623	42267.6
630.978	42165.23
631.332	42514.38
631.687	42488.39
632.041	42364.32
632.396	42487.94
632.75	42280.03
633.104	42378.33
633.459	42151.45
633.813	42284.33
634.167	42305.34
634.521	42285
634.875	42416.98
635.229	42372.91
635.583	42211.79
635.937	42288.62
636.291	42200.94
636.645	42290.2
636.999	42144.89
637.352	42360.26
637.706	42154.16
638.06	42372.01
638.413	42228.51
638.767	42137.21
639.121	42215.85
639.474	41928.4
639.828	42140.38
640.181	41939.7
640.534	42069.64
640.888	41926.82
641.241	41825.36
641.594	41978.12
641.947	42175.63
642.301	41920.27
642.654	41957.33
643.007	41984.45
643.36	41802.53
643.713	41850.44
644.066	42075.74
644.419	41802.76
644.771	41526.83
645.124	41141.53
645.477	41201.87
645.83	40924.14
646.182	40733.41
646.535	40767.76
646.888	40621.32
647.24	40665.84
647.593	40735.44
647.945	40637.82
648.298	40603.69
648.65	40515.11
649.002	40255
649.355	40670.58
649.707	40480.76
650.059	40651.83
650.411	41212.72
650.763	41064.92
651.115	41617
651.467	41339.49
651.819	41471.69
652.171	41321.41
652.523	41357.34
652.875	41223.56
653.227	41148.31
653.578	41429.43
653.93	41209.1
654.282	41139.72
654.633	41065.83
654.985	41027.18
655.337	41061.08
655.688	41189.89
656.039	41355.31
656.391	40913.29
656.742	41020.18
657.094	41175.2
657.445	41138.59
657.796	41112.83
658.147	41091.82
658.498	41033.96
658.849	41090.91
659.2	41036.22
659.551	40993.96
659.902	41153.51
660.253	41003.23
660.604	41086.62
660.955	40915.32
661.306	41045.71
661.656	40958.26
662.007	40917.13
662.358	40872.61
662.708	40846.4
663.059	40932.95
663.409	40705.84
663.76	40901.76
664.11	40918.03
664.461	41082.78
664.811	40986.06
665.161	41004.59
665.511	40825.38
665.862	41053.85
666.212	41017.69
666.562	40927.75
666.912	40857.02
667.262	40754.65
667.612	40882.1
667.962	40868.77
668.312	40809.11
668.662	40926.17
669.011	40816.34
669.361	40772.95
669.711	40689.34
670.06	40688.89
670.41	40735.21
670.76	40779.28
671.109	40812.27
671.459	40883.91
671.808	40709.23
672.157	40738.15
672.507	40531.83
672.856	40498.84
673.205	40656.57
673.554	40672.17
673.904	40513.07
674.253	40858.6
674.602	40516.01
674.951	40016.82
675.3	39795.8
675.649	40402.79
675.998	40461.32
676.346	40534.99
676.695	40596.23
677.044	40376.58
677.393	40469.68
677.741	40527.99
678.09	40230.37
678.438	40292.51
678.787	40417.26
679.135	40304.72
679.484	39983.82
679.832	40071.05
680.181	39991.96
680.529	40103.37
680.877	39991.28
681.225	39971.84
681.573	40223.14
681.922	39856.82
682.27	39642.36
682.618	39743.83
682.966	39672.19
683.314	39706.54
683.661	39554.23
684.009	39565.98
684.357	39491.63
684.705	39448.02
685.053	39455.7
685.4	39345.19
685.748	39215.71
686.095	39051.87
686.443	39129.61
686.79	39034.02
687.138	39053.22
687.485	39122.38
687.832	38909.05
688.18	38947.24
688.527	38751.09
688.874	38636.29
689.221	38699.79
689.568	38668.83
689.915	38550.64
690.262	38555.38
690.609	38413.47
690.956	38229.29
691.303	38286.47
691.65	38043.08
691.997	38105.68
692.344	37779.13
692.69	37866.82
693.037	37694.62
693.383	37495.3
693.73	37706.14
694.077	37451.91
694.423	37446.94
694.769	37315.87
695.116	37342.08
695.462	37318.81
695.808	37062.54
696.155	37206.72
696.501	36862.77
696.847	36837.46
697.193	36624.81
697.539	36735.77
697.885	36276.12
698.231	36350.02
698.577	36308.89
698.923	36378.04
699.269	36025.73
699.614	35995
699.96	36013.53
700.306	36095.11
700.651	35805.63
700.997	35833.42
701.342	35606.76
701.688	35610.6
702.033	35517.95
702.379	35549.81
702.724	35422.13
703.069	35419.65
703.415	34964.52
703.76	35126.77
704.105	35030.73
704.45	34981.92
704.795	34764.75
705.14	34686.33
705.485	34568.82
705.83	34565.66
706.175	34585.77
706.52	34397.75
706.865	34217.87
707.209	34210.64
707.554	34213.35
707.899	34267.59
708.243	34002.06
708.588	34063.75
708.932	33832.34
709.277	33779.92
709.621	33756.19
709.966	33446.14
710.31	33672.58
710.654	33278.69
710.998	33425.8
711.342	33411.56
711.687	33368.63
712.031	33245.69
712.375	33106.71
712.719	33094.96
713.063	33049.77
713.407	33046.38
713.75	32899.49
714.094	32791.02
714.438	32835.31
714.782	32760.51
715.125	32618.59
715.469	32754.63
715.812	32573.62
716.156	32402.1
716.499	32327.53
716.843	32404.59
717.186	32316.9
717.53	32395.55
717.873	32365.72
718.216	32318.26
718.559	32132.28
718.902	31903.36
719.246	31942.45
719.589	31892.96
719.932	31739.74
720.275	31875.79
720.617	31695.45
720.96	31736.58
721.303	31611.39
721.646	31659.75
721.989	31419.53
722.331	31628.11
722.674	31462.24
723.016	31570.26
723.359	31405.74
723.701	31448.9
724.044	31189.02
724.386	31116.26
724.729	31293.65
725.071	31218.63
725.413	31078.29
725.755	31003.27
726.097	31057.73
726.439	30796.27
726.782	30787.45
727.124	30930.73
727.465	30786.78
727.807	30772.99
728.149	30681.02
728.491	30696.83
728.833	30689.6
729.175	30537.29
729.516	30553.79
729.858	30408.93
730.199	30421.14
730.541	30422.27
730.882	30391.76
731.224	30467.91
731.565	30202.16
731.906	30161.03
732.248	30283.06
732.589	30037.64
732.93	29982.73
733.271	29977.98
733.612	30007.59
733.953	29983.18
734.294	29978.89
734.635	29731.89
734.976	29927.59
735.317	29751.77
735.658	29635.39
735.999	29596.75
736.339	29646.69
736.68	29678.1
737.021	29541.38
737.361	29487.83
737.702	29570.54
738.042	29515.85
738.383	29348.62
738.723	29548.16
739.063	29275.4
739.404	29368.28
739.744	29356.3
740.084	29240.6
740.424	29294.16
740.764	29175.52
741.104	29233.14
741.444	29001.51
741.784	28993.83
742.124	28960.83
742.464	28926.03
742.804	28965.58
743.143	28909.99
743.483	28939.59
743.823	28779.82
744.162	28785.7
744.502	28909.54
744.841	28511.81
745.181	28729.88
745.52	28623.44
745.86	28634.06
746.199	28575.99
746.538	28546.83
746.877	28528.53
747.216	28530.34
747.556	28319.04
747.895	28407.63
748.234	28249.89
748.573	28152.49
748.911	28133.06
749.25	28195.66
749.589	28071.14
749.928	28060.07
750.267	28108.65
750.605	28036.79
750.944	27949.79
751.283	27995.89
751.621	28101.2
751.96	27620.53
752.298	27807.42
752.636	27650.36
752.975	27529.01
753.313	27600.19
753.651	27633.64
753.989	27366.53
754.327	27462.79
754.666	27315.23
755.004	27279.97
755.342	27315.91
755.679	27416.69
756.017	27190.71
756.355	27218.73
756.693	27150.26
757.031	27085.18
