Data from hue_250_FLMS001491_00014.txt Node
Date: Tue Feb 07 16:00:37 GMT 2017
User: dcchb
Spectrometer: FLMS00149
Trigger mode: 0
Integration Time (sec): 2.000000E-2
Scans to average: 10
Electric dark correction enabled: true
Nonlinearity correction enabled: false
Boxcar width: 0
XAxis mode: Wavelengths
Number of Pixels in Spectrum: 2048
>>>>>Begin Spectral Data<<<<<
341.393	-22.57
341.776	-22.57
342.16	-22.57
342.543	-58.73
342.927	-75.45
343.31	-63.02
343.693	-46.07
344.077	-61.89
344.46	-71.16
344.843	-71.61
345.226	-42.46
345.61	-21.89
345.993	-26.19
346.376	-1.55
346.759	24.66
347.142	35.73
347.525	55.85
347.908	56.3
348.291	67.15
348.674	60.37
349.057	105.79
349.44	111.66
349.823	133.81
350.206	155.28
350.588	183.07
350.971	204.99
351.354	205.9
351.737	227.82
352.119	232.11
352.502	230.76
352.884	274.6
353.267	263.52
353.65	280.92
354.032	287.7
354.414	306.46
354.797	287.48
355.179	313.92
355.562	319.79
355.944	305.78
356.326	308.49
356.709	328.16
357.091	325.67
357.473	320.92
357.855	329.96
358.238	339
358.62	332.67
359.002	332.45
359.384	331.77
359.766	332.45
360.148	319.79
360.53	318.44
360.912	340.13
361.294	333.58
361.676	329.51
362.057	353.24
362.439	308.04
362.821	314.82
363.203	318.21
363.584	303.98
363.966	318.21
364.348	312.79
364.729	286.8
365.111	313.24
365.493	302.17
365.874	308.27
366.256	316.18
366.637	284.31
367.019	297.65
367.4	323.64
367.781	311.66
368.163	286.57
368.544	287.7
368.925	313.24
369.306	334.26
369.688	279.79
370.069	276.63
370.45	289.96
370.831	296.07
371.212	290.19
371.593	313.69
371.974	316.18
372.355	321.83
372.736	284.99
373.117	297.2
373.498	306.23
373.879	327.7
374.26	288.38
374.641	297.87
375.021	318.66
375.402	318.21
375.783	313.24
376.163	319.57
376.544	319.12
376.925	319.57
377.305	309.17
377.686	298.78
378.066	323.18
378.447	300.36
378.827	298.55
379.208	333.8
379.588	329.74
379.968	318.66
380.349	336.29
380.729	326.12
381.109	326.8
381.489	339.68
381.87	328.61
382.25	334.48
382.63	326.8
383.01	324.54
383.39	321.6
383.77	329.29
384.15	317.08
384.53	313.01
384.91	346.46
385.29	335.61
385.67	331.09
386.049	336.52
386.429	347.36
386.809	354.37
387.189	347.14
387.568	350.3
387.948	344.65
388.328	353.92
388.707	344.43
389.087	345.1
389.466	363.18
389.846	353.47
390.225	346.69
390.605	341.04
390.984	357.53
391.363	350.53
391.743	343.07
392.122	356.18
392.501	354.37
392.881	369.06
393.26	387.14
393.639	338.32
394.018	375.39
394.397	371.77
394.776	355.95
395.155	374.26
395.534	368.38
395.913	383.75
396.292	395.05
396.671	369.51
397.05	380.81
397.429	386.23
397.808	362.96
398.186	382.62
398.565	381.49
398.944	375.84
399.323	371.77
399.701	395.95
400.08	376.06
400.458	375.84
400.837	402.28
401.215	385.1
401.594	414.03
401.972	388.72
402.351	400.7
402.729	408.38
403.107	423.75
403.486	440.69
403.864	424.88
404.242	416.74
404.62	425.1
404.999	424.88
405.377	426.23
405.755	440.69
406.133	428.94
406.511	430.07
406.889	448.83
407.267	430.3
407.645	475.27
408.023	437.76
408.401	436.63
408.779	445.44
409.156	493.35
409.534	482.95
409.912	472.33
410.29	477.98
410.667	484.54
411.045	500.81
411.422	502.61
411.8	498.55
412.178	505.33
412.555	507.59
412.933	522.95
413.31	544.42
413.687	549.39
414.065	544.19
414.442	537.64
414.819	548.26
415.197	548.49
415.574	589.17
415.951	565.21
416.328	567.7
416.705	586.91
417.082	600.01
417.46	602.72
417.837	620.58
418.214	603.4
418.591	623.51
418.967	620.12
419.344	651.54
419.721	621.93
420.098	629.84
420.475	646.11
420.852	660.12
421.228	689.05
421.605	682.04
421.982	663.97
422.358	677.75
422.735	681.82
423.111	703.74
423.488	720.46
423.864	715.26
424.241	735.38
424.617	770.18
424.994	774.92
425.37	770.4
425.746	776.96
426.123	776.96
426.499	776.51
426.875	812.89
427.251	806.11
427.627	815.37
428.003	818.09
428.379	828.48
428.756	846.79
429.132	864.19
429.507	873
429.883	862.38
430.259	903.06
430.635	925.88
431.011	875.03
431.387	944.41
431.763	936.95
432.138	932.21
432.514	947.12
432.89	952.55
433.265	987.8
433.641	981.25
434.016	1001.36
434.392	1035.48
434.767	1031.41
435.143	1054.46
435.518	1087.91
435.894	1098.98
436.269	1113.22
436.644	1104.18
437.02	1125.87
437.395	1153.22
437.77	1146.21
438.145	1185.53
438.52	1212.88
438.895	1206.1
439.271	1217.4
439.646	1230.28
440.021	1259.66
440.395	1246.55
440.77	1265.31
441.145	1280.45
441.52	1314.12
441.895	1303.5
442.27	1330.39
442.645	1307.56
443.019	1343.04
443.394	1342.82
443.769	1361.12
444.143	1363.16
444.518	1398.18
444.892	1363.38
445.267	1376.26
445.641	1401.12
446.016	1435.24
446.39	1475.02
446.764	1456.94
447.139	1432.76
447.513	1480.22
447.887	1468.46
448.262	1482.93
448.636	1491.97
449.01	1502.36
449.384	1532.87
449.758	1534.9
450.132	1561.12
450.506	1541.23
450.88	1568.8
451.254	1547.56
451.628	1590.49
452.002	1618.97
452.376	1615.8
452.75	1612.19
453.123	1653.54
453.497	1643.15
453.871	1666.43
454.244	1678.85
454.618	1692.19
454.992	1717.5
455.365	1728.8
455.739	1750.04
456.112	1761.34
456.486	1794.11
456.859	1812.18
457.232	1854.22
457.606	1842.69
457.979	1850.6
458.352	1945.06
458.725	1903.71
459.099	1898.51
459.472	1962.24
459.845	1969.92
460.218	2017.83
460.591	2022.35
460.964	2011.05
461.337	2079.52
461.71	2083.14
462.083	2076.58
462.456	2150.71
462.829	2081.33
463.201	2143.02
463.574	2161.78
463.947	2190.93
464.32	2229.8
464.692	2261.66
465.065	2235.45
465.438	2264.38
465.81	2299.18
466.183	2311.61
466.555	2368.1
466.928	2396.12
467.3	2373.07
467.672	2443.13
468.045	2470.02
468.417	2487.42
468.789	2472.96
469.161	2525.39
469.534	2577.14
469.906	2610.13
470.278	2595.44
470.65	2669.34
471.022	2675.44
471.394	2781.65
471.766	2791.82
472.138	2781.42
472.51	2824.13
472.882	2902.32
473.253	2890.8
473.625	2911.59
473.997	2989.55
474.369	2988.88
474.74	3032.26
475.112	3078.37
475.484	3101.19
475.855	3185.71
476.227	3193.16
476.598	3287.85
476.97	3272.94
477.341	3342.31
477.713	3373.5
478.084	3406.04
478.455	3468.64
478.827	3513.38
479.198	3564.23
479.569	3578.01
479.94	3688.29
480.311	3669.08
480.682	3766.48
481.053	3867.05
481.424	3896.65
481.795	3928.51
482.166	3978
482.537	4043.09
482.908	4074.72
483.279	4106.13
483.65	4169.41
484.021	4255.28
484.391	4287.15
484.762	4279.92
485.133	4356.75
485.503	4430.42
485.874	4505.22
486.244	4511.55
486.615	4638.1
486.985	4629.96
487.356	4721.49
487.726	4767.59
488.097	4816.85
488.467	4843.06
488.837	4963.74
489.207	4986.11
489.578	5076.5
489.948	5057.52
490.318	5168.71
490.688	5145.43
491.058	5272.21
491.428	5349.04
491.798	5270.4
492.168	5370.73
492.538	5420.45
492.908	5441.24
493.278	5515.82
493.648	5520.11
494.017	5605.3
494.387	5589.03
494.757	5651.41
495.126	5693.66
495.496	5692.08
495.866	5736.83
496.235	5801.46
496.605	5859.99
496.974	5912.42
497.344	5905.86
497.713	5938.4
498.082	5960.1
498.452	6013.66
498.821	6054.56
499.19	6104.95
499.559	6071.96
499.928	6158.06
500.298	6152.86
500.667	6185.85
501.036	6205.74
501.405	6250.49
501.774	6210.94
502.143	6273.08
502.512	6269.02
502.88	6369.58
503.249	6328.9
503.618	6349.01
503.987	6356.7
504.356	6332.52
504.724	6421.1
505.093	6482.12
505.462	6485.96
505.83	6483.93
506.199	6532.29
506.567	6630.36
506.936	6600.31
507.304	6609.12
507.672	6611.61
508.041	6664.49
508.409	6668.55
508.777	6748.55
509.145	6745.61
509.514	6779.29
509.882	6752.39
510.25	6775.22
510.618	6817.25
510.986	6873.29
511.354	6847.76
511.722	6898.6
512.09	6905.16
512.458	6899.06
512.826	6962.56
513.193	6927.3
513.561	6987.87
513.929	6993.97
514.297	7021.54
514.664	7064.7
515.032	7092.27
515.4	7129.56
515.767	7080.07
516.135	7097.47
516.502	7087.3
516.869	7152.16
517.237	7185.83
517.604	7196.9
517.972	7221.99
518.339	7195.77
518.706	7151.25
519.073	7237.35
519.44	7190.8
519.808	7343.34
520.175	7247.75
520.542	7376.56
520.909	7356.67
521.276	7315.77
521.643	7376.11
522.009	7377.46
522.376	7433.05
522.743	7370.46
523.11	7494.07
523.477	7508.31
523.843	7478.93
524.21	7571.35
524.577	7532.94
524.943	7603.9
525.31	7637.34
525.676	7640.51
526.043	7647.74
526.409	7670.11
526.776	7688.64
527.142	7701.75
527.508	7700.84
527.874	7771.8
528.241	7740.16
528.607	7736.55
528.973	7786.49
529.339	7798.69
529.705	7801.18
530.071	7817.9
530.437	7834.4
530.803	7872.82
531.169	7831.46
531.535	7820.84
531.901	7867.17
532.267	7810.67
532.632	7841.18
532.998	7871.01
533.364	7873.95
533.73	7879.37
534.095	7877.56
534.461	7855.64
534.826	7888.18
535.192	7888.18
535.557	7932.7
535.923	7893.83
536.288	7929.99
536.653	7885.24
537.019	7839.82
537.384	7891.35
537.749	7856.32
538.114	7814.06
538.479	7864
538.845	7883.21
539.21	7776.77
539.575	7869.43
539.94	7852.93
540.305	7831.01
540.67	7840.95
541.034	7880.95
541.399	7885.7
541.764	7794.63
542.129	7827.62
542.494	7763.44
542.858	7796.89
543.223	7755.3
543.587	7795.98
543.952	7776.55
544.316	7825.36
544.681	7748.3
545.045	7738.58
545.41	7738.13
545.774	7780.84
546.138	7711.69
546.503	7772.93
546.867	7716.89
547.231	7728.19
547.595	7738.36
547.959	7685.48
548.324	7681.41
548.688	7725.25
549.052	7772.25
549.416	7696.78
549.779	7691.13
550.143	7644.8
550.507	7701.97
550.871	7664.23
551.235	7629.43
551.599	7727.51
551.962	7708.98
552.326	7664.69
552.689	7684.35
553.053	7677.34
553.417	7645.7
553.78	7703.55
554.143	7673.5
554.507	7646.15
554.87	7654.97
555.234	7699.26
555.597	7712.37
555.96	7691.58
556.323	7678.02
556.686	7621.75
557.05	7673.72
557.413	7673.27
557.776	7680.73
558.139	7663.78
558.502	7685.7
558.865	7653.61
559.228	7736.55
559.59	7699.26
559.953	7703.1
560.316	7760.95
560.679	7689.32
561.041	7788.07
561.404	7758.24
561.767	7763.44
562.129	7762.99
562.492	7833.72
562.854	7826.72
563.217	7817.9
563.579	7865.58
563.941	7856.77
564.304	7882.98
564.666	7895.41
565.028	7927.96
565.39	7938.35
565.753	7904.91
566.115	7931.35
566.477	7985.81
566.839	7987.84
567.201	8036.2
567.563	7976.99
567.925	8042.75
568.287	8030.33
568.648	8083.66
569.01	8089.53
569.372	8122.98
569.734	8035.3
570.095	8155.29
570.457	8163.2
570.819	8153.26
571.18	8167.5
571.542	8165.24
571.903	8216.31
572.265	8237.78
572.626	8171.79
572.987	8220.83
573.349	8234.84
573.71	8250.88
574.071	8298.12
574.432	8257.66
574.794	8385.8
575.155	8388.28
575.516	8377.21
575.877	8384.44
576.238	8441.61
576.599	8395.06
576.96	8461.73
577.32	8461.5
577.681	8491.78
578.042	8509.18
578.403	8519.35
578.763	8516.64
579.124	8557.32
579.485	8564.32
579.845	8616.3
580.206	8594.6
580.566	8645.22
580.927	8603.87
581.287	8689.07
581.648	8630.54
582.008	8762.96
582.368	8672.34
582.728	8719.8
583.089	8717.99
583.449	8675.96
583.809	8744.43
584.169	8787.82
584.529	8733.36
584.889	8753.47
585.249	8725.45
585.609	8762.96
585.969	8851.09
586.329	8775.62
586.688	8833.02
587.048	8812
587.408	8825.11
587.768	8813.36
588.127	8847.25
588.487	8845.22
588.846	8915.05
589.206	8818.1
589.565	8880.25
589.925	8899
590.284	8897.2
590.643	8973.8
591.003	8930.41
591.362	9002.96
591.721	8941.71
592.08	8933.58
592.44	8960.02
592.799	8948.27
593.158	8986.23
593.517	8968.83
593.876	9040.92
594.235	8986.23
594.593	8998.89
594.952	9048.38
595.311	8925.44
595.67	9127.47
596.029	8995.27
596.387	9096.74
596.746	9160.69
597.104	9032.56
597.463	9052.45
597.822	9111.65
598.18	9074.37
598.538	9054.03
598.897	9091.77
599.255	9059.45
599.613	9176.96
599.972	9147.58
600.33	9178.32
600.688	9136.06
601.046	9129.73
601.404	9165.89
601.762	9129.96
602.12	9211.31
602.478	9148.71
602.836	9258.54
603.194	9162.73
603.552	9157.75
603.91	9164.99
604.268	9170.63
604.625	9127.92
604.983	9189.39
605.341	9193.68
605.698	9205.66
606.056	9188.49
606.413	9240.46
606.771	9233.91
607.128	9256.51
607.485	9222.16
607.843	9156.4
608.2	9301.25
608.557	9233.23
608.914	9273.91
609.272	9313.23
609.629	9291.54
609.986	9379.67
610.343	9292.21
610.7	9347.13
611.057	9375.15
611.414	9285.43
611.771	9294.93
612.127	9462.38
612.484	9382.15
612.841	9417.86
613.198	9406.11
613.554	9390.29
613.911	9436.39
614.267	9412.21
614.624	9301.48
614.98	9386
615.337	9450.18
615.693	9465.54
616.05	9455.82
616.406	9569.04
616.762	9473.45
617.118	9409.95
617.475	9509.61
617.831	9501.47
618.187	9462.38
618.543	9491.08
618.899	9577.4
619.255	9515.03
619.611	9533.79
619.967	9499.67
620.323	9588.25
620.678	9523.17
621.034	9449.72
621.39	9511.42
621.746	9453.11
622.101	9634.58
622.457	9524.3
622.812	9560.45
623.168	9569.27
623.523	9521.36
623.879	9593
624.234	9438.65
624.589	9514.81
624.945	9522.94
625.3	9611.98
625.655	9518.2
626.01	9549.38
626.365	9570.62
626.72	9531.76
627.075	9521.59
627.43	9499.44
627.785	9489.72
628.14	9463.51
628.495	9505.77
628.85	9464.19
629.205	9439.55
629.559	9538.08
629.914	9515.94
630.269	9494.47
630.623	9512.09
630.978	9467.35
631.332	9491.76
631.687	9444.98
632.041	9456.73
632.396	9415.83
632.75	9385.32
633.104	9476.84
633.459	9416.73
633.813	9334.47
634.167	9377.41
634.521	9352.32
634.875	9336.28
635.229	9365.21
635.583	9281.82
635.937	9295.6
636.291	9297.64
636.645	9226.9
636.999	9286.79
637.352	9302.38
637.706	9212.44
638.06	9287.02
638.413	9226
638.767	9213.35
639.121	9323.85
639.474	9197.98
639.828	9222.84
640.181	9215.38
640.534	9245.66
640.888	9187.13
641.241	9129.51
641.594	9164.99
641.947	9259.22
642.301	9169.96
642.654	9223.51
643.007	9191.88
643.36	9086.57
643.713	9085.21
644.066	9153.69
644.419	9109.85
644.771	9025.33
645.124	8976.52
645.477	8915.27
645.83	8890.64
646.182	8831.21
646.535	8833.92
646.888	8786.24
647.24	8751.66
647.593	8880.92
647.945	8767.03
648.298	8740.59
648.65	8761.15
649.002	8743.53
649.355	8835.5
649.707	8836.86
650.059	8844.09
650.411	8946.69
650.763	8917.53
651.115	9028.94
651.467	8956.85
651.819	8992.79
652.171	8967.93
652.523	8938.55
652.875	8977.19
653.227	8895.61
653.578	8969.51
653.93	9020.81
654.282	8913.47
654.633	8899.91
654.985	8955.5
655.337	8916.63
655.688	8956.63
656.039	8912.79
656.391	8869.63
656.742	8908.95
657.094	8915.27
657.445	8937.19
657.796	8934.03
658.147	8911.66
658.498	8969.74
658.849	8964.54
659.2	8901.49
659.551	8956.18
659.902	8995.72
660.253	8945.33
660.604	8958.44
660.955	8922.05
661.306	8960.24
661.656	8917.31
662.007	9013.12
662.358	8932
662.708	8933.13
663.059	8993.01
663.409	8922.28
663.76	8938.55
664.11	8937.42
664.461	8997.76
664.811	8977.87
665.161	8926.8
665.511	8949.85
665.862	8937.87
666.212	8970.41
666.562	8956.63
666.912	9021.71
667.262	8948.72
667.612	9011.09
667.962	8958.66
668.312	8946.01
668.662	9023.75
669.011	8959.57
669.361	8961.83
669.711	8935.39
670.06	8999.57
670.41	8972.67
670.76	8895.61
671.109	8959.79
671.459	8911.21
671.808	8936.52
672.157	8957.76
672.507	8850.19
672.856	8897.87
673.205	8919.79
673.554	8939.91
673.904	8860.81
674.253	8950.53
674.602	8857.2
674.951	8709.63
675.3	8689.97
675.649	8822.85
675.998	8833.02
676.346	8799.12
676.695	8850.19
677.044	8705.11
677.393	8850.42
677.741	8812
678.09	8742.17
678.438	8764.32
678.787	8792.34
679.135	8739.91
679.484	8632.57
679.832	8744.21
680.181	8657.65
680.529	8682.74
680.877	8559.58
681.225	8651.1
681.573	8694.26
681.922	8660.37
682.27	8593.93
682.618	8567.94
682.966	8599.12
683.314	8593.93
683.661	8535.62
684.009	8512.35
684.357	8493.82
684.705	8453.82
685.053	8390.32
685.4	8443.2
685.748	8480.94
686.095	8405.68
686.443	8412.01
686.79	8342.18
687.138	8457.21
687.485	8431.44
687.832	8344.44
688.18	8334.05
688.527	8253.37
688.874	8272.81
689.221	8228.96
689.568	8246.82
689.915	8182.41
690.262	8182.86
690.609	8168.4
690.956	8174.95
691.303	8070.32
691.65	8085.01
691.997	8050.44
692.344	8096.31
692.69	8015.86
693.037	7997.78
693.383	7985.13
693.73	7920.5
694.077	7918.69
694.423	7869.43
694.769	7839.14
695.116	7858.13
695.462	7824.23
695.808	7873.27
696.155	7840.95
696.501	7750.78
696.847	7828.07
697.193	7682.54
697.539	7726.6
697.885	7687.74
698.231	7635.99
698.577	7602.09
698.923	7581.98
699.269	7549.21
699.614	7507.18
699.96	7533.84
700.306	7451.81
700.651	7470.57
700.997	7397.12
701.342	7421.08
701.688	7361.42
702.033	7358.7
702.379	7313.06
702.724	7310.34
703.069	7318.48
703.415	7217.47
703.76	7210.01
704.105	7184.92
704.45	7171.59
704.795	7160.07
705.14	7116.23
705.485	7126.62
705.83	7079.39
706.175	7031.71
706.52	7081.2
706.865	7085.72
707.209	7007.53
707.554	7002.78
707.899	6973.86
708.243	6976.34
708.588	6948.09
708.932	6933.86
709.277	6920.07
709.621	6899.96
709.966	6834.42
710.31	6840.3
710.654	6823.13
710.998	6801.21
711.342	6855.22
711.687	6833.75
712.031	6746.07
712.375	6742.45
712.719	6772.51
713.063	6711.26
713.407	6719.4
713.75	6719.17
714.094	6731.15
714.438	6676.69
714.782	6669.68
715.125	6668.33
715.469	6692.28
715.812	6516.24
716.156	6553.75
716.499	6611.38
716.843	6567.09
717.186	6577.03
717.53	6614.32
717.873	6577.48
718.216	6612.96
718.559	6499.29
718.902	6458.84
719.246	6498.39
719.589	6493.64
719.932	6521.44
720.275	6493.42
720.617	6477.82
720.96	6437.6
721.303	6401.44
721.646	6484.6
721.989	6451.38
722.331	6461.33
722.674	6389.24
723.016	6396.7
723.359	6392.63
723.701	6422.46
724.044	6372.06
724.386	6357.83
724.729	6393.53
725.071	6335.68
725.413	6394.21
725.755	6343.36
726.097	6313.53
726.439	6340.65
726.782	6367.77
727.124	6308.56
727.465	6282.8
727.807	6315.57
728.149	6323.7
728.491	6302.69
728.833	6298.17
729.175	6306.98
729.516	6290.94
729.858	6280.09
730.199	6320.09
730.541	6282.12
730.882	6280.32
731.224	6312.63
731.565	6279.64
731.906	6240.99
732.248	6322.8
732.589	6230.37
732.93	6204.16
733.271	6260.88
733.612	6284.83
733.953	6287.77
734.294	6249.58
734.635	6214.78
734.976	6247.77
735.317	6215.01
735.658	6241.67
735.999	6198.06
736.339	6224.95
736.68	6277.15
737.021	6205.29
737.361	6259.98
737.702	6282.12
738.042	6309.47
738.383	6233.99
738.723	6283.7
739.063	6238.96
739.404	6288.9
739.744	6277.83
740.084	6235.12
740.424	6255.23
740.764	6241.45
741.104	6328.45
741.444	6284.83
741.784	6298.39
742.124	6294.33
742.464	6322.57
742.804	6309.92
743.143	6313.53
743.483	6339.97
743.823	6354.89
744.162	6360.09
744.502	6330.03
744.841	6439.18
745.181	6398.73
745.52	6399.86
745.86	6425.62
746.199	6491.61
746.538	6473.76
746.877	6525.96
747.216	6614.77
747.556	6538.61
747.895	6638.5
748.234	6590.59
748.573	6668.78
748.911	6709
749.25	6775.67
749.589	6744.26
749.928	6881.66
750.267	6857.25
750.605	6914.65
750.944	6939.51
751.283	6965.27
751.621	7032.39
751.96	7101.08
752.298	7173.62
752.636	7246.84
752.975	7287.97
753.313	7383.56
753.651	7429.89
753.989	7417.23
754.327	7582.43
754.666	7699.26
755.004	7698.81
755.342	7752.82
755.679	7848.41
756.017	7913.72
756.355	8052.92
756.693	8159.81
757.031	8282.52
757.368	8249.53
757.706	8407.04
758.044	8560.03
758.381	8638.67
758.719	8701.49
759.056	8763.19
759.394	8895.16
759.731	8903.97
760.068	9079.56
760.405	9170.86
760.743	9175.38
761.08	9388.03
761.417	9404.75
761.754	9473
762.091	9695.37
762.428	9755.03
762.765	9783.05
763.102	10014
763.438	10019.2
763.775	10123.83
764.112	10263.04
764.449	10351.17
764.785	10421.22
765.122	10512.52
765.458	10672.06
765.795	10658.05
766.131	10775.79
766.467	10922.23
766.804	10952.51
767.14	11017.37
767.476	11076.12
767.812	11191.37
768.148	11243.57
768.485	11324.93
768.821	11330.35
769.157	11406.28
769.492	11528.99
