Data from hue_320_FLMS001491_45.txt Node
Date: Mon Feb 06 15:47:15 GMT 2017
User: dcchb
Spectrometer: FLMS00149
Trigger mode: 0
Integration Time (sec): 2.000000E-2
Scans to average: 10
Electric dark correction enabled: true
Nonlinearity correction enabled: false
Boxcar width: 0
XAxis mode: Wavelengths
Number of Pixels in Spectrum: 2048
>>>>>Begin Spectral Data<<<<<
341.393	-18.97
341.776	-18.97
342.16	-18.97
342.543	-63.71
342.927	-64.39
343.31	-68.68
343.693	-68.68
344.077	-55.13
344.46	-59.65
344.843	-46.54
345.226	-40.44
345.61	-25.75
345.993	-28.46
346.376	14.25
346.759	12.22
347.142	29.62
347.525	38.21
347.908	52.67
348.291	55.15
348.674	88.15
349.057	103.06
349.44	130.41
349.823	135.6
350.206	143.97
350.588	193.68
350.971	211.76
351.354	232.55
351.737	228.71
352.119	247.92
352.502	241.82
352.884	263.74
353.267	273.23
353.65	294.7
354.032	289.95
354.414	301.25
354.797	288.59
355.179	320.23
355.562	323.17
355.944	305.77
356.326	324.53
356.709	339.44
357.091	315.94
357.473	348.03
357.855	340.34
358.238	325.2
358.62	344.86
359.002	340.12
359.384	324.53
359.766	310.74
360.148	334.92
360.53	299.89
360.912	342.6
361.294	306.9
361.676	309.38
362.057	316.62
362.439	316.62
362.821	322.94
363.203	322.27
363.584	307.58
363.966	315.94
364.348	327.01
364.729	315.49
365.111	318.42
365.493	317.29
365.874	318.42
366.256	294.92
366.637	297.86
367.019	303.51
367.4	316.84
367.781	314.58
368.163	298.76
368.544	297.41
368.925	316.39
369.306	310.97
369.688	294.47
370.069	295.83
370.45	295.6
370.831	286.11
371.212	307.58
371.593	281.14
371.974	293.57
372.355	296.96
372.736	311.87
373.117	310.97
373.498	296.5
373.879	302.83
374.26	300.12
374.641	294.92
375.021	320.68
375.402	304.41
375.783	291.08
376.163	296.28
376.544	308.25
376.925	308.03
377.305	299.44
377.686	322.49
378.066	315.94
378.447	300.12
378.827	315.71
379.208	324.53
379.588	313.9
379.968	318.88
380.349	294.7
380.729	324.98
381.109	340.12
381.489	325.88
381.87	325.2
382.25	334.69
382.63	323.4
383.01	305.54
383.39	346.67
383.77	325.88
384.15	328.14
384.53	339.21
384.91	339.89
385.29	341.25
385.67	320.23
386.049	346.22
386.429	346.22
386.809	332.21
387.189	339.67
387.568	343.28
387.948	331.3
388.328	358.2
388.707	353.68
389.087	333.11
389.466	322.04
389.846	342.83
390.225	363.85
390.605	356.39
390.984	376.95
391.363	356.61
391.743	334.92
392.122	328.59
392.501	369.04
392.881	355.71
393.26	355.49
393.639	357.74
394.018	358.2
394.397	355.94
394.776	362.26
395.155	377.86
395.534	358.42
395.913	382.38
396.292	378.08
396.671	360.46
397.05	369.5
397.429	364.07
397.808	367.69
398.186	376.73
398.565	354.13
398.944	385.31
399.323	389.61
399.701	385.31
400.08	378.31
400.458	381.7
400.837	375.6
401.215	407.91
401.594	386.44
401.972	385.31
402.351	390.96
402.729	377.63
403.107	416.5
403.486	390.51
403.864	442.49
404.242	433.45
404.62	425.77
404.999	392.32
405.377	408.59
405.755	401.59
406.133	394.35
406.511	437.74
406.889	442.71
407.267	412.88
407.645	431.64
408.023	421.47
408.401	442.04
408.779	427.57
409.156	446.56
409.534	436.16
409.912	458.76
410.29	450.17
410.667	443.84
411.045	481.81
411.422	475.71
411.8	493.79
412.178	478.65
412.555	483.17
412.933	486.56
413.31	490.17
413.687	508.7
414.065	483.17
414.442	527.46
414.819	516.61
415.197	503.73
415.574	545.76
415.951	542.82
416.328	552.99
416.705	561.36
417.082	563.84
417.46	558.19
417.837	564.75
418.214	578.3
418.591	581.92
418.967	596.38
419.344	586.89
419.721	589.38
420.098	583.05
420.475	611.3
420.852	597.96
421.228	618.08
421.605	636.83
421.982	624.18
422.358	631.86
422.735	653.1
423.111	617.4
423.488	635.93
423.864	679.32
424.241	671.41
424.617	677.74
424.994	675.7
425.37	661.69
425.746	692.43
426.123	676.15
426.499	693.56
426.875	699.2
427.251	717.96
427.627	723.38
428.003	737.62
428.379	755.7
428.756	749.6
429.132	747.79
429.507	776.49
429.883	757.96
430.259	779.88
430.635	789.15
431.011	802.48
431.387	805.64
431.763	806.55
432.138	800.22
432.514	808.13
432.89	828.01
433.265	821.46
433.641	873.66
434.016	861.01
434.392	877.51
434.767	891.74
435.143	877.51
435.518	887.67
435.894	900.1
436.269	919.09
436.644	917.5
437.02	927.67
437.395	926.54
437.77	922.25
438.145	937.39
438.52	972.87
438.895	955.24
439.271	966.77
439.646	994.56
440.021	995.24
440.395	992.3
440.77	983.04
441.145	988.91
441.52	1010.84
441.895	1001.8
442.27	1030.27
442.645	1013.09
443.019	1021.68
443.394	1020.1
443.769	1038.63
444.143	1028.24
444.518	1045.64
444.892	1051.06
445.267	1033.43
445.641	1043.6
446.016	1054.45
446.39	1047.67
446.764	1060.33
447.139	1079.99
447.513	1075.92
447.887	1076.82
448.262	1100.55
448.636	1072.08
449.01	1105.97
449.384	1122.02
449.758	1105.75
450.132	1106.88
450.506	1109.59
450.88	1114.34
451.254	1112.98
451.628	1128.12
452.002	1129.93
452.376	1151.62
452.75	1131.74
453.123	1147.1
453.497	1152.07
453.871	1156.14
454.244	1165.18
454.618	1169.25
454.992	1221.45
455.365	1181
455.739	1220.77
456.112	1213.54
456.486	1220.77
456.859	1237.04
457.232	1257.38
457.606	1200.43
457.979	1270.94
458.352	1260.32
458.725	1265.97
459.099	1264.84
459.472	1276.36
459.845	1284.73
460.218	1322.01
460.591	1339.19
460.964	1336.7
461.337	1348.91
461.71	1370.6
462.083	1388.23
462.456	1348.91
462.829	1375.57
463.201	1380.77
463.574	1373.31
463.947	1375.12
464.32	1439.52
464.692	1443.82
465.065	1420.32
465.438	1443.82
465.81	1449.69
466.183	1489.92
466.555	1491.05
466.928	1490.82
467.3	1501.9
467.672	1510.48
468.045	1523.14
468.417	1532.63
468.789	1538.28
469.161	1537.83
469.534	1561.1
469.906	1567.43
470.278	1597.03
470.65	1620.08
471.022	1619.18
471.394	1662.34
471.766	1694.66
472.138	1675.68
472.51	1693.3
472.882	1730.36
473.253	1742.12
473.625	1751.83
473.997	1778.72
474.369	1731.72
474.74	1787.99
475.112	1796.35
475.484	1843.58
475.855	1857.82
476.227	1849.46
476.598	1888.1
476.97	1927.2
477.341	1943.01
477.713	1947.76
478.084	1981.43
478.455	2028.66
478.827	2031.15
479.198	2054.2
479.569	2080.86
479.94	2075.21
480.311	2108.66
480.682	2142.33
481.053	2206.74
481.424	2204.02
481.795	2215.55
482.166	2236.11
482.537	2244.7
482.908	2298.94
483.279	2309.33
483.65	2315.43
484.021	2338.03
484.391	2371.93
484.762	2415.77
485.133	2409.44
485.503	2413.74
485.874	2500.06
486.244	2499.16
486.615	2547.29
486.985	2568.08
487.356	2556.56
487.726	2609.66
488.097	2661.64
488.467	2616.89
488.837	2688.08
489.207	2672.71
489.578	2719.72
489.948	2727.4
490.318	2799.71
490.688	2755.42
491.058	2824.8
491.428	2853.95
491.798	2861.86
492.168	2935.53
492.538	2898.02
492.908	2913.16
493.278	2990.44
493.648	2987.05
494.017	2999.26
494.387	3029.54
494.757	3020.5
495.126	3071.57
495.496	3042.87
495.866	3073.61
496.235	3119.71
496.605	3140.27
496.974	3129.42
497.344	3149.76
497.713	3181.85
498.082	3149.54
498.452	3233.15
498.821	3214.17
499.19	3221.62
499.559	3276.09
499.928	3260.49
500.298	3248.06
500.667	3274.05
501.036	3298.46
501.405	3272.24
501.774	3298.68
502.143	3325.12
502.512	3348.17
502.88	3383.2
503.249	3344.78
503.618	3398.79
503.987	3385.69
504.356	3382.52
504.724	3402.41
505.093	3462.07
505.462	3442.18
505.83	3436.08
506.199	3494.61
506.567	3465.23
506.936	3485.12
507.304	3500.49
507.672	3532.8
508.041	3510.43
508.409	3552.46
508.777	3574.61
509.145	3558.11
509.514	3574.61
509.882	3564.21
510.25	3622.29
510.618	3625
510.986	3632.69
511.354	3660.48
511.722	3674.27
512.09	3679.01
512.458	3678.11
512.826	3719.46
513.193	3705
513.561	3681.95
513.929	3708.84
514.297	3714.49
514.664	3717.66
515.032	3748.16
515.4	3717.2
515.767	3738.22
516.135	3798.11
516.502	3706.81
516.869	3801.04
517.237	3841.27
517.604	3784.55
517.972	3815.73
518.339	3841.5
518.706	3829.07
519.073	3841.72
519.44	3812.8
519.808	3827.48
520.175	3869.74
520.542	3869.52
520.909	3865.9
521.276	3902.74
521.643	3925.33
522.009	3932.11
522.376	3916.97
522.743	3954.03
523.11	3921.94
523.477	4004.2
523.843	3995.39
524.21	4046.91
524.577	4023.19
524.943	4053.92
525.31	4073.58
525.676	4095.95
526.043	4130.53
526.409	4078.1
526.776	4114.71
527.142	4145.89
527.508	4174.82
527.874	4194.25
528.241	4201.26
528.607	4172.56
528.973	4294.82
529.339	4283.07
529.705	4295.04
530.071	4310.41
530.437	4319.9
530.803	4376.85
531.169	4374.14
531.535	4318.32
531.901	4366.9
532.267	4425.21
532.632	4432.21
532.998	4449.16
533.364	4454.36
533.73	4466.56
534.095	4512.89
534.461	4479.22
534.826	4555.83
535.192	4551.53
535.557	4546.11
535.923	4551.98
536.288	4588.82
536.653	4598.99
537.019	4615.94
537.384	4623.4
537.749	4700.23
538.114	4643.96
538.479	4679.67
538.845	4758.99
539.21	4701.59
539.575	4810.74
539.94	4801.02
540.305	4791.07
540.67	4823.16
541.034	4799.21
541.399	4883.95
541.764	4890.06
542.129	4863.84
542.494	4898.19
542.858	4945.42
543.223	4951.75
543.587	5023.84
543.952	5015.93
544.316	4977.06
544.681	4975.93
545.045	5068.81
545.41	5035.81
545.774	5082.14
546.138	5103.38
546.503	5124.4
546.867	5129.14
547.231	5123.5
547.595	5163.49
547.959	5181.57
548.324	5211.4
548.688	5180.89
549.052	5238.07
549.416	5252.31
549.779	5275.58
550.143	5258.41
550.507	5322.81
550.871	5310.16
551.235	5332.3
551.599	5390.83
551.962	5357.84
552.326	5381.79
552.689	5430.61
553.053	5453.66
553.417	5392.64
553.78	5476.71
554.143	5494.11
554.507	5439.65
554.87	5476.71
555.234	5578.62
555.597	5507.21
555.96	5572.07
556.323	5581.79
556.686	5562.35
557.05	5646.19
557.413	5618.4
557.776	5619.3
558.139	5650.71
558.502	5659.3
558.865	5640.09
559.228	5722.8
559.59	5744.5
559.953	5718.73
560.316	5750.82
560.679	5787.21
561.041	5820.65
561.404	5796.7
561.767	5803.48
562.129	5824.49
562.492	5888.45
562.854	5932.29
563.217	5881.67
563.579	5973.64
563.941	5980.2
564.304	5944.94
564.666	5956.24
565.028	6011.38
565.39	5944.04
565.753	6045.28
566.115	6062.45
566.477	6046.41
566.839	6109.01
567.201	6125.5
567.563	6134.54
567.925	6203.01
568.287	6142.9
568.648	6149.46
569.01	6192.85
569.372	6252.51
569.734	6290.7
570.095	6321.66
570.457	6358.94
570.819	6318.27
571.18	6349.23
571.542	6430.13
571.903	6414.08
572.265	6418.15
572.626	6525.04
572.987	6541.99
573.349	6571.82
573.71	6629.67
574.071	6724.58
574.432	6721.19
574.794	6730.91
575.155	6801.64
575.516	6788.76
575.877	6911.7
576.238	6933.17
576.599	6980.85
576.96	7057.46
577.32	7139.26
577.681	7174.51
578.042	7238.02
578.403	7334.96
578.763	7351.01
579.124	7564.34
579.485	7572.24
579.845	7798.45
580.206	7829.41
580.566	7867.6
580.927	8034.83
581.287	8163.64
581.648	8200.02
582.008	8398.21
582.368	8473.46
582.728	8649.96
583.089	8777.18
583.449	8896.96
583.809	9018.31
584.169	9211.3
584.529	9347.79
584.889	9621
585.249	9722.02
585.609	9911.62
585.969	10185.96
586.329	10213.3
586.688	10515.9
587.048	10679.73
587.408	10866.85
587.768	11114.98
588.127	11381.41
588.487	11510.22
588.846	11836.77
589.206	11984.78
589.565	12256.42
589.925	12564.43
590.284	12742.28
590.643	13000.8
591.003	13262.04
591.362	13565.99
591.721	13847.56
592.08	14161.45
592.44	14464.72
592.799	14686.18
593.158	14883.01
593.517	15161.65
593.876	15497.23
594.235	15787.85
594.593	16101.06
594.952	16343.54
595.311	16498.34
595.67	16931.55
596.029	17329.28
596.387	17562.49
596.746	17876.38
597.104	18134.9
597.463	18370.83
597.822	18717.49
598.18	18961.55
598.538	19267.98
598.897	19686.73
599.255	19795.65
599.613	20282.87
599.972	20522.64
600.33	20760.6
600.688	21004.21
601.046	21317.87
601.404	21755.15
601.762	21851.19
602.12	22369.82
602.478	22606.43
602.836	22758.29
603.194	22895.46
603.552	23232.4
603.91	23478.94
604.268	23870.57
604.625	23956.9
604.983	24327.51
605.341	24466.26
605.698	24857.44
606.056	25157.09
606.413	25278.67
606.771	25605.22
607.128	25958.65
607.485	26016.05
607.843	26206.33
608.2	26477.28
608.557	26842.92
608.914	26917.27
609.272	27197.94
609.629	27519.52
609.986	27893.07
610.343	27718.16
610.7	28260.29
611.057	28364.69
611.414	28424.8
611.771	28744.12
612.127	28953.83
612.484	29161.96
612.841	29357.43
613.198	29492.35
613.554	29671.55
613.911	30000.58
614.267	30081.94
614.624	30285.32
614.98	30412.32
615.337	30769.83
615.693	30814.8
616.05	30844.4
616.406	31300.89
616.762	31220.21
617.118	31387.21
617.475	31566.87
617.831	31823.13
618.187	31952.85
618.543	32015.67
618.899	32403.23
619.255	32353.97
619.611	32362.55
619.967	32545.6
620.323	32864.46
620.678	32824.69
621.034	32908.08
621.39	32944.23
621.746	33028.98
622.101	33369.98
622.457	33375.18
622.812	33430.77
623.168	33751.22
623.523	33688.62
623.879	33971.78
624.234	33678.9
624.589	33860.59
624.945	33993.02
625.3	34228.72
625.655	34276.85
626.01	34264.88
626.365	34435.94
626.72	34433.01
627.075	34389.62
627.43	34443.85
627.785	34586
628.14	34591.65
628.495	34724.52
628.85	34753.68
629.205	34682.04
629.559	35003.61
629.914	34926.78
630.269	35074.8
630.623	34873.9
630.978	34792.32
631.332	35015.59
631.687	35065.98
632.041	35084.06
632.396	35195.92
632.75	35122.03
633.104	35214.46
633.459	35032.09
633.813	35104.63
634.167	35134.46
634.521	35216.72
634.875	35165.42
635.229	35251.97
635.583	35228.92
635.937	35199.31
636.291	35176.26
636.645	35197.51
636.999	35102.59
637.352	35143.5
637.706	35124.29
638.06	35346.66
638.413	35336.71
638.767	35246.09
639.121	35338.52
639.474	35167.23
639.828	35290.84
640.181	35141.46
640.534	35275.7
640.888	35164.74
641.241	35080.22
641.594	35050.84
641.947	35292.42
642.301	35111.41
642.654	35137.62
643.007	35185.3
643.36	35107.11
643.713	35110.28
644.066	35366.32
644.419	35017.4
644.771	34830.96
645.124	34447.92
645.477	34488.82
645.83	34233.46
646.182	34150.98
646.535	34122.51
646.888	34129.51
647.24	33969.06
647.593	34226.68
647.945	34124.99
648.298	33949.18
648.65	33970.87
649.002	33894.26
649.355	33978.33
649.707	33962.51
650.059	34105.56
650.411	34564.3
650.763	34521.82
651.115	34840.23
651.467	34734.02
651.819	34665.77
652.171	34799.55
652.523	34535.38
652.875	34658.76
653.227	34603.85
653.578	34834.13
653.93	34697.18
654.282	34565.88
654.633	34561.14
654.985	34573.12
655.337	34575.83
655.688	34627.13
656.039	34659.67
656.391	34416.51
656.742	34486.34
657.094	34522.95
657.445	34640.46
657.796	34440.69
658.147	34561.37
658.498	34457.87
658.849	34622.38
659.2	34446.11
659.551	34526.56
659.902	34586
660.253	34585.32
660.604	34454.25
660.955	34271.88
661.306	34564.3
661.656	34406.57
662.007	34432.78
662.358	34490.63
662.708	34433.01
663.059	34370.86
663.409	34286.8
663.76	34437.07
664.11	34452.89
664.461	34351.2
664.811	34448.83
665.161	34428.04
665.511	34419.22
665.862	34424.65
666.212	34458.09
666.562	34409.73
666.912	34293.58
667.262	34439.11
667.612	34314.59
667.962	34421.03
668.312	34260.13
668.662	34526.34
669.011	34315.95
669.361	34290.19
669.711	34382.16
670.06	34266.91
670.41	34303.29
670.76	34170.19
671.109	34171.09
671.459	34137.65
671.808	34167.7
672.157	34298.77
672.507	33990.76
672.856	34145.33
673.205	34218.32
673.554	34237.31
673.904	34046.12
674.253	34263.75
674.602	34265.1
674.951	33626.47
675.3	33459.93
675.649	34191.88
675.998	33898.11
676.346	34044.32
676.695	34076.41
677.044	33799.35
677.393	33993.92
677.741	34025.79
678.09	33937.43
678.438	33794.61
678.787	33920.7
679.135	33850.88
679.484	33670.09
679.832	33788.05
680.181	33520.71
680.529	33770.88
680.877	33628.73
681.225	33769.07
681.573	33756.87
681.922	33448.17
682.27	33354.17
682.618	33563.43
682.966	33362.3
683.314	33384.67
683.661	33257.22
684.009	33227.39
684.357	33164.34
684.705	33150.33
685.053	33155.75
685.4	33103.55
685.748	32955.98
686.095	32945.36
686.443	32858.36
686.79	32793.28
687.138	32800.51
687.485	32868.3
687.832	32723.67
688.18	32726.61
688.527	32584.02
688.874	32553.73
689.221	32563.9
689.568	32405.04
689.915	32238.49
690.262	32346.51
690.609	32249.34
690.956	32166.4
691.303	32191.26
691.65	31939.06
691.997	31958.04
692.344	31683.7
692.69	31755.56
693.037	31696.81
693.383	31598.96
693.73	31558.96
694.077	31346.99
694.423	31440.32
694.769	31196.03
695.116	31286.2
695.462	31264.95
695.808	31169.36
696.155	31186.31
696.501	31005.98
696.847	30916.94
697.193	30655.25
697.539	30823.16
697.885	30691.86
698.231	30602.15
698.577	30640.56
698.923	30499.55
699.269	30326
699.614	30277.41
699.96	30265.66
700.306	30145.44
700.651	30094.82
700.997	29976.63
701.342	29996.74
701.688	29904.99
702.033	29867.03
702.379	29757.65
702.724	29670.19
703.069	29617.09
703.415	29375.74
703.76	29332.35
704.105	29419.58
704.45	29388.17
704.795	29159.25
705.14	29094.84
705.485	29115.41
705.83	28973.72
706.175	28965.35
706.52	28899.14
706.865	28888.52
707.209	28782.99
707.554	28605.82
707.899	28665.48
708.243	28733.5
708.588	28456.22
708.932	28322.66
709.277	28477.23
709.621	28267.75
709.966	28041.54
710.31	28181.87
710.654	28023.91
710.998	27981.88
711.342	28113.17
711.687	27900.98
712.031	27759.74
712.375	27716.12
712.719	27868.66
713.063	27570.81
713.407	27771.04
713.75	27644.48
714.094	27643.13
714.438	27421.67
714.782	27584.83
715.125	27378.96
715.469	27383.25
715.812	27213.76
716.156	27159.75
716.499	27139.19
716.843	27201.78
717.186	26970.83
717.53	27181.45
717.873	27153.2
718.216	26976.48
718.559	26939.64
718.902	26722.25
719.246	26800.89
719.589	26752.76
719.932	26683.15
720.275	26689.48
720.617	26709.14
720.96	26536.27
721.303	26390.96
721.646	26511.18
721.989	26246.78
722.331	26509.83
722.674	26371.3
723.016	26382.37
723.359	26229.61
723.701	26279.32
724.044	26079.1
724.386	26028.26
724.729	26131.53
725.071	26040.46
725.413	26054.47
725.755	26017.86
726.097	25819.22
726.439	25732.22
726.782	25790.52
727.124	25942.83
727.465	25827.58
727.807	25694.71
728.149	25586.23
728.491	25623.07
728.833	25587.59
729.175	25616.29
729.516	25508.04
729.858	25508.27
730.199	25558.66
730.541	25496.07
730.882	25423.3
731.224	25457.88
731.565	25261.04
731.906	25274.38
732.248	25241.16
732.589	25093.14
732.93	25053.59
733.271	25071.9
733.612	25086.81
733.953	25248.84
734.294	25024.21
734.635	24988.28
734.976	25035.51
735.317	24888.17
735.658	24846.14
735.999	24855.41
736.339	24857.89
736.68	24920.04
737.021	24836.42
737.361	24568.41
737.702	24772.24
738.042	24676.88
738.383	24609.76
738.723	24665.81
739.063	24475.53
739.404	24544
739.744	24531.35
740.084	24382.65
740.424	24619.48
740.764	24388.98
741.104	24458.81
741.444	24348.53
741.784	24191.47
742.124	24245.48
742.464	24276.66
742.804	24086.39
743.143	24145.82
743.483	24170.68
743.823	24064.69
744.162	24076.22
744.502	24061.98
744.841	23961.87
745.181	23891.59
745.52	23815.21
745.86	23870.57
746.199	23885.04
746.538	23748.99
746.877	23996.67
747.216	23792.38
747.556	23668.54
747.895	23840.97
748.234	23659.73
748.573	23667.64
748.911	23610.69
749.25	23437.82
749.589	23430.58
749.928	23528.21
750.267	23494.09
750.605	23363.92
750.944	23308.33
751.283	23231.27
751.621	23367.31
751.96	23170.93
752.298	23159.63
752.636	23203.92
752.975	23056.36
753.313	22964.16
753.651	23123.93
753.989	22788.57
754.327	22880.99
754.666	22866.53
755.004	22799.19
755.342	22785.86
755.679	22681.45
756.017	22548.8
756.355	22737.5
756.693	22642.36
757.031	22583.83
757.368	22343.83
757.706	22436.94
758.044	22374.57
758.381	22388.13
758.719	22182.48
759.056	22190.17
759.394	22136.61
759.731	22050.51
760.068	22036.5
