Data from hue_350_FLMS001491_84.txt Node
Date: Mon Feb 06 15:38:38 GMT 2017
User: dcchb
Spectrometer: FLMS00149
Trigger mode: 0
Integration Time (sec): 2.000000E-2
Scans to average: 10
Electric dark correction enabled: true
Nonlinearity correction enabled: false
Boxcar width: 0
XAxis mode: Wavelengths
Number of Pixels in Spectrum: 2048
>>>>>Begin Spectral Data<<<<<
341.393	11.68
341.776	11.68
342.16	11.68
342.543	-57.02
342.927	-50.92
343.31	-78.94
343.693	-65.38
344.077	-69.22
344.46	-61.31
344.843	-50.92
345.226	-40.07
345.61	-25.61
345.993	-27.87
346.376	12.13
346.759	11.68
347.142	32.24
347.525	42.19
347.908	61.85
348.291	81.06
348.674	86.48
349.057	91.68
349.44	141.62
349.823	147.04
350.206	178.46
350.588	163.77
350.971	206.03
351.354	220.94
351.737	258.23
352.119	261.39
352.502	298.45
352.884	280.15
353.267	302.29
353.65	291.22
354.032	306.81
354.414	308.17
354.797	330.54
355.179	335.51
355.562	321.73
355.944	326.93
356.326	320.82
356.709	339.36
357.091	346.13
357.473	353.37
357.855	347.04
358.238	339.36
358.62	328.06
359.002	343.42
359.384	345.46
359.766	356.98
360.148	342.52
360.53	352.69
360.912	345.01
361.294	339.58
361.676	332.8
362.057	336.19
362.439	342.97
362.821	322.18
363.203	334.84
363.584	323.76
363.966	318.11
364.348	332.58
364.729	330.09
365.111	316.31
365.493	297.1
365.874	325.8
366.256	300.03
366.637	327.6
367.019	323.54
367.4	314.05
367.781	305.68
368.163	319.47
368.544	315.4
368.925	314.95
369.306	311.11
369.688	312.01
370.069	302.75
370.45	302.52
370.831	334.16
371.212	316.98
371.593	306.81
371.974	298.9
372.355	311.79
372.736	317.66
373.117	303.2
373.498	324.89
373.879	338.68
374.26	330.99
374.641	318.57
375.021	310.2
375.402	305.46
375.783	310.43
376.163	337.77
376.544	327.6
376.925	317.21
377.305	338.68
377.686	320.6
378.066	327.38
378.447	340.26
378.827	331.67
379.208	335.74
379.588	338.68
379.968	332.8
380.349	338.45
380.729	324.21
381.109	332.12
381.489	330.99
381.87	342.97
382.25	339.58
382.63	339.13
383.01	342.97
383.39	354.27
383.77	339.58
384.15	324.44
384.53	356.53
384.91	341.16
385.29	347.49
385.67	352.91
386.049	337.77
386.429	348.17
386.809	363.99
387.189	352.69
387.568	332.8
387.948	351.78
388.328	363.08
388.707	358.34
389.087	352.46
389.466	361.28
389.846	353.14
390.225	343.2
390.605	356.3
390.984	375.96
391.363	372.8
391.743	373.93
392.122	372.8
392.501	351.56
392.881	382.74
393.26	352.24
393.639	381.84
394.018	399.01
394.397	369.86
394.776	395.63
395.155	365.8
395.534	372.35
395.913	362.41
396.292	360.6
396.671	369.19
397.05	373.03
397.429	404.66
397.808	397.21
398.186	371.22
398.565	391.56
398.944	374.16
399.323	376.64
399.701	374.38
400.08	375.51
400.458	385.91
400.837	401.73
401.215	387.04
401.594	400.14
401.972	387.26
402.351	394.95
402.729	405.34
403.107	412.8
403.486	389.3
403.864	410.09
404.242	403.31
404.62	402.4
404.999	420.26
405.377	430.43
405.755	422.29
406.133	416.19
406.511	401.73
406.889	444.21
407.267	413.48
407.645	425.23
408.023	437.88
408.401	426.58
408.779	420.03
409.156	448.51
409.534	414.61
409.912	455.28
410.29	460.93
410.667	432.23
411.045	440.82
411.422	445.79
411.8	466.13
412.178	455.74
412.555	460.93
412.933	466.81
413.31	477.88
413.687	461.39
414.065	456.41
414.442	466.81
414.819	481.05
415.197	507.71
415.574	501.61
415.951	512.91
416.328	497.54
416.705	494.38
417.082	486.92
417.46	500.03
417.837	509.97
418.214	504.32
418.591	503.64
418.967	506.58
419.344	488.5
419.721	521.27
420.098	530.54
420.475	525.57
420.852	515.4
421.228	531.67
421.605	532.34
421.982	544.1
422.358	539.58
422.735	565.11
423.111	540.71
423.488	564.66
423.864	543.19
424.241	553.36
424.617	586.35
424.994	553.14
425.37	569.63
425.746	561.5
426.123	551.1
426.499	572.8
426.875	585.22
427.251	589.52
427.627	595.17
428.003	577.99
428.379	610.08
428.756	612.79
429.132	589.29
429.507	627.94
429.883	633.13
430.259	622.96
430.635	618.9
431.011	627.94
431.387	627.94
431.763	656.41
432.138	660.03
432.514	661.15
432.89	658.44
433.265	695.96
433.641	678.78
434.016	676.52
434.392	678.56
434.767	686.92
435.143	709.29
435.518	696.86
435.894	714.26
436.269	712.68
436.644	729.18
437.02	717.65
437.395	724.88
437.77	731.44
438.145	716.75
438.52	760.36
438.895	737.54
439.271	757.2
439.646	770.98
440.021	782.28
440.395	772.79
440.77	764.43
441.145	751.32
441.52	777.99
441.895	801.72
442.27	781.38
442.645	768.04
443.019	796.74
443.394	811.43
443.769	809.63
444.143	806.46
444.518	821.83
444.892	791.1
445.267	820.02
445.641	818.44
446.016	818.89
446.39	821.15
446.764	863.86
447.139	843.07
447.513	808.27
447.887	848.95
448.262	851.88
448.636	854.82
449.01	840.36
449.384	859.34
449.758	848.95
450.132	865.67
450.506	868.38
450.88	886.69
451.254	887.14
451.628	897.31
452.002	913.8
452.376	921.71
452.75	916.06
453.123	911.09
453.497	913.35
453.871	917.65
454.244	947.93
454.618	944.31
454.992	933.01
455.365	929.4
455.739	968.72
456.112	955.84
456.486	984.99
456.859	989.73
457.232	1005.1
457.606	1003.97
457.979	993.8
458.352	1015.5
458.725	1049.39
459.099	1056.4
459.472	1040.13
459.845	1064.76
460.218	1053.46
460.591	1069.96
460.964	1049.17
461.337	1093.69
461.71	1102.95
462.083	1113.8
462.456	1123.29
462.829	1140.46
463.201	1120.8
463.574	1150.18
463.947	1137.98
464.32	1190.18
464.692	1183.63
465.065	1183.85
465.438	1206.68
465.81	1213.91
466.183	1222.95
466.555	1207.58
466.928	1246.22
467.3	1253.91
467.672	1248.03
468.045	1278.99
468.417	1290.06
468.789	1303.4
469.161	1338.43
469.534	1344.98
469.906	1366.67
470.278	1405.99
470.65	1386.33
471.022	1413.23
471.394	1444.19
471.766	1445.54
472.138	1472.66
472.51	1509.72
472.882	1512.66
473.253	1537.74
473.625	1530.96
473.997	1559.21
474.369	1575.26
474.74	1592.2
475.112	1604.63
475.484	1641.69
475.855	1667
476.227	1686.89
476.598	1765.31
476.97	1742.03
477.341	1777.74
477.713	1791.75
478.084	1823.16
478.455	1873.1
478.827	1889.37
479.198	1928.47
479.569	1955.36
479.94	1978.18
480.311	2005.98
480.682	2057.28
481.053	2078.29
481.424	2147.67
481.795	2152.19
482.166	2172.08
482.537	2196.48
482.908	2269.02
483.279	2294.78
483.65	2349.25
484.021	2366.19
484.391	2380.88
484.762	2421.79
485.133	2418.85
485.503	2457.27
485.874	2537.94
486.244	2534.78
486.615	2587.43
486.985	2656.13
487.356	2677.83
487.726	2657.49
488.097	2725.96
488.467	2758.5
488.837	2827.65
489.207	2833.53
489.578	2893.64
489.948	2917.82
490.318	2990.36
490.688	2990.13
491.058	3035.56
491.428	3041.88
491.798	3098.6
492.168	3137.02
492.538	3155.78
492.908	3193.74
493.278	3257.02
493.648	3252.27
494.017	3301.09
494.387	3310.8
494.757	3360.74
495.126	3421.99
495.496	3415.21
495.866	3394.19
496.235	3464.92
496.605	3492.94
496.974	3491.14
497.344	3532.49
497.713	3582.66
498.082	3570.23
498.452	3643.68
498.821	3675.54
499.19	3664.24
499.559	3676.22
499.928	3678.93
500.298	3745.14
500.667	3758.47
501.036	3734.29
501.405	3795.31
501.774	3749.66
502.143	3853.61
502.512	3872.82
502.88	3833.95
503.249	3850.9
503.618	3918.92
503.987	3918.47
504.356	3983.1
504.724	3970.45
505.093	3948.98
505.462	4035.3
505.83	4025.36
506.199	4037.79
506.567	4083.89
506.936	4052.48
507.304	4104.68
507.672	4167.05
508.041	4143.78
508.409	4172.93
508.777	4204.11
509.145	4244.56
509.514	4239.37
509.882	4277.56
510.25	4244.79
510.618	4298.8
510.986	4257.67
511.354	4330.21
511.722	4339.25
512.09	4352.81
512.458	4354.84
512.826	4381.74
513.193	4395.97
513.561	4451.56
513.929	4429.42
514.297	4461.06
514.664	4492.69
515.032	4464.9
515.4	4501.05
515.767	4539.92
516.135	4559.36
516.502	4479.36
516.869	4603.65
517.237	4654.72
517.604	4582.41
517.972	4664.89
518.339	4629.64
518.706	4631.9
519.073	4668.28
519.44	4706.25
519.808	4678
520.175	4726.36
520.542	4748.51
520.909	4767.71
521.276	4787.83
521.643	4808.84
522.009	4828.5
522.376	4871.21
522.743	4868.5
523.11	4874.15
523.477	4913.92
523.843	4993.47
524.21	5008.61
524.577	5025.79
524.943	5043.41
525.31	5055.62
525.676	5075.05
526.043	5128.61
526.409	5112.79
526.776	5192.34
527.142	5176.06
527.508	5196.85
527.874	5237.76
528.241	5215.84
528.607	5276.85
528.973	5303.07
529.339	5277.53
529.705	5383.97
530.071	5392.1
530.437	5417.41
530.803	5476.85
531.169	5466.45
531.535	5473.91
531.901	5481.14
532.267	5503.29
532.632	5587.81
532.998	5605.88
533.364	5613.79
533.73	5630.06
534.095	5663.74
534.461	5690.85
534.826	5697.18
535.192	5689.27
535.557	5750.74
535.923	5744.64
536.288	5725.88
536.653	5826.67
537.019	5784.86
537.384	5817.86
537.749	5870.06
538.114	5854.69
538.479	5855.82
538.845	5922.71
539.21	5890.17
539.575	5963.61
539.94	5961.58
540.305	6033.9
540.67	6037.28
541.034	6098.3
541.399	6058.3
541.764	6130.16
542.129	6184.63
542.494	6113.89
542.858	6191.63
543.223	6187.11
543.587	6208.81
543.952	6225.3
544.316	6249.71
544.681	6251.97
545.045	6308.46
545.41	6348.46
545.774	6388.01
546.138	6392.3
546.503	6420.55
546.867	6399.08
547.231	6444.28
547.595	6517.5
547.959	6506.42
548.324	6550.27
548.688	6582.81
549.052	6560.89
549.416	6517.27
549.779	6569.47
550.143	6570.15
550.507	6665.97
550.871	6665.52
551.235	6673.43
551.599	6736.93
551.962	6776.93
552.326	6801.78
552.689	6789.13
553.053	6770.37
553.417	6797.72
553.78	6835.91
554.143	6913.87
554.507	6920.2
554.87	6870.03
555.234	6950.26
555.597	6957.26
555.96	6978.5
556.323	7028.22
556.686	6997.49
557.05	6971.72
557.413	7078.16
557.776	7105.05
558.139	7110.48
558.502	7131.04
558.865	7189.57
559.228	7248.78
559.59	7249.46
559.953	7256.91
560.316	7310.02
560.679	7295.78
561.041	7406.51
561.404	7357.48
561.767	7350.47
562.129	7401.99
562.492	7482.67
562.854	7448.55
563.217	7466.63
563.579	7460.52
563.941	7540.07
564.304	7576.45
564.666	7588.43
565.028	7593.85
565.39	7638.82
565.753	7618.71
566.115	7670.69
566.477	7704.59
566.839	7726.28
567.201	7851.93
567.563	7851.93
567.925	7813.96
568.287	7885.15
568.648	7870.68
569.01	7969.89
569.372	7957.23
569.734	7891.7
570.095	8044.46
570.457	8101.86
570.819	8020.51
571.18	8100.06
571.542	8139.83
571.903	8214.63
572.265	8247.4
572.626	8233.39
572.987	8303.89
573.349	8378.01
573.71	8437.22
574.071	8441.74
574.432	8484.45
574.794	8606.26
575.155	8578.23
575.516	8634.73
575.877	8699.36
576.238	8759.7
576.599	8804.44
576.96	8820.49
577.32	8917.89
577.681	9057.54
578.042	9104.32
578.403	9105.68
578.763	9229.97
579.124	9302.28
579.485	9403.98
579.845	9510.41
580.206	9596.97
580.566	9671.54
580.927	9753.57
581.287	9937.75
581.648	9995.15
582.008	10194.01
582.368	10203.28
582.728	10431.29
583.089	10486.89
583.449	10692.76
583.809	10830.38
584.169	10941.79
584.529	11116.7
584.889	11403.47
585.249	11472.17
585.609	11582
585.969	11870.35
586.329	11986.28
586.688	12231.7
587.048	12364.8
587.408	12550.56
587.768	12857.67
588.127	13052.69
588.487	13211.79
588.846	13527.71
589.206	13684.54
589.565	13931.77
589.925	14192.32
590.284	14415.14
590.643	14776.04
591.003	14892.19
591.362	15238.4
591.721	15417.38
592.08	15771.04
592.44	15998.6
592.799	16335.32
593.158	16496.9
593.517	16784.8
593.876	17084.68
594.235	17258.01
594.593	17589.75
594.952	18002.17
595.311	18208.94
595.67	18607.35
596.029	18884.4
596.387	19170.5
596.746	19442.36
597.104	19699.75
597.463	19985.84
597.822	20303.8
598.18	20537.02
598.538	20718.03
598.897	21194.63
599.255	21277.79
599.613	21847.49
599.972	21921.39
600.33	22328.83
600.688	22562.05
601.046	22813.34
601.404	23234.35
601.762	23450.61
602.12	23764.73
602.478	24049.92
602.836	24279.52
603.194	24489.68
603.552	24737.58
603.91	24980.52
604.268	25417.34
604.625	25484.23
604.983	25852.36
605.341	26185.91
605.698	26350.42
606.056	26677.42
606.413	26841.71
606.771	27268.82
607.128	27349.72
607.485	27481.24
607.843	27844.62
608.2	28093.43
608.557	28399.63
608.914	28566.18
609.272	28885.72
609.629	29069.9
609.986	29505.59
610.343	29553.73
610.7	29961.63
611.057	30042.08
611.414	30204.11
611.771	30364.33
612.127	30741.95
612.484	30760.7
612.841	31170.18
613.198	31110.3
613.554	31400.01
613.911	31624.18
614.267	31760.45
614.624	31862.14
614.98	32077.05
615.337	32294.67
615.693	32462.35
616.05	32667.32
616.406	32994.77
616.762	32975.11
617.118	33102.79
617.475	33189.57
617.831	33451.93
618.187	33578.71
618.543	33619.84
618.899	34040.62
619.255	34190.22
619.611	34135.53
619.967	34464.79
620.323	34610.77
620.678	34499.36
621.034	34575.29
621.39	34764.89
621.746	34702.52
622.101	35151.32
622.457	35228.61
622.812	35300.24
623.168	35485.1
623.523	35513.12
623.879	35696.62
624.234	35470.64
624.589	35707.69
624.945	35827.91
625.3	36047.34
625.655	35981.81
626.01	36073.56
626.365	36324.4
626.72	36177.28
627.075	36173.44
627.43	36330.27
627.785	36332.31
628.14	36462.47
628.495	36565.75
628.85	36563.71
629.205	36612.75
629.559	36740.88
629.914	36772.07
630.269	36768.23
630.623	36781.11
630.978	36634.22
631.332	36803.71
631.687	37001.89
632.041	36877.15
632.396	37095.23
632.75	36828.11
633.104	36942.23
633.459	36840.77
633.813	36950.14
634.167	36955.79
634.521	37053.19
634.875	37039.86
635.229	37163.25
635.583	36965.29
635.937	37078.05
636.291	36869.47
636.645	37018.62
636.999	36957.83
637.352	37031.5
637.706	36976.58
638.06	37033.08
638.413	37053.42
638.767	36914.21
639.121	37198.27
639.474	36827.66
639.828	36875.12
640.181	37071.05
640.534	37094.77
640.888	36981.56
641.241	36680.55
641.594	36819.75
641.947	36988.79
642.301	36867.21
642.654	36978.62
643.007	36925.96
643.36	37008.9
643.713	36906.76
644.066	37106.75
644.419	36780.43
644.771	36565.3
645.124	36250.5
645.477	36253.44
645.83	35968.48
646.182	35783.62
646.535	35785.66
646.888	35888.48
647.24	35773.68
647.593	35982.49
647.945	35843.73
648.298	35799.67
648.65	35723.06
649.002	35574.14
649.355	35821.13
649.707	35702.95
650.059	35952.88
650.411	36235.59
650.763	36237.17
651.115	36693.43
651.467	36521.91
651.819	36555.35
652.171	36499.53
652.523	36438.52
652.875	36401.46
653.227	36285.08
653.578	36503.6
653.93	36477.16
654.282	36454.56
654.633	36369.14
654.985	36312.65
655.337	36269.03
655.688	36304.51
656.039	36501.79
656.391	36165.31
656.742	36309.26
657.094	36316.49
657.445	36268.13
657.796	36352.42
658.147	36195.14
658.498	36271.97
658.849	36215.25
659.2	36172.31
659.551	36192.88
659.902	36365.53
660.253	36232.87
660.604	36288.92
660.955	36203.95
661.306	36329.37
661.656	36141.13
662.007	36174.8
662.358	36207.56
662.708	36170.28
663.059	36121.24
663.409	35974.58
663.76	36210.73
664.11	36224.29
664.461	36258.64
664.811	36289.14
665.161	36184.06
665.511	36043.95
665.862	36003.73
666.212	36217.06
666.562	36184.06
666.912	36120.34
667.262	36081.69
667.612	36075.59
667.962	36228.58
668.312	36081.01
668.662	36200.79
669.011	36040.34
669.361	36091.18
669.711	36013.22
670.06	36011.86
670.41	36074.24
670.76	35997.4
671.109	36007.34
671.459	35953.56
671.808	35919.89
672.157	36004.18
672.507	35775.03
672.856	35773
673.205	35824.52
673.554	35951.3
673.904	35885.54
674.253	36045.99
674.602	35869.27
674.951	35492.56
675.3	35332.79
675.649	35761.47
675.998	35849.61
676.346	35787.01
676.695	36012.32
677.044	35633.57
677.393	35668.6
677.741	35758.54
678.09	35710.85
678.438	35537.98
678.787	35718.31
679.135	35600.8
679.484	35375.5
679.832	35534.36
680.181	35358.55
680.529	35519
680.877	35307.25
681.225	35328.72
681.573	35457.98
681.922	35251.43
682.27	35153.58
682.618	35140.02
682.966	34903.87
683.314	35172.11
683.661	35028.16
684.009	35000.14
684.357	34698.68
684.705	34765.12
685.053	34905.23
685.4	34699.36
685.748	34637.21
686.095	34593.82
686.443	34512.92
686.79	34418.69
687.138	34346.37
687.485	34646.25
687.832	34361.96
688.18	34350.44
688.527	34198.58
688.874	34172.14
689.221	34116.09
689.568	34092.82
689.915	33986.61
690.262	33922.43
690.609	33857.57
690.956	33788.42
691.303	33720.4
691.65	33588.65
691.997	33568.09
692.344	33395.66
692.69	33356.34
693.037	33317.7
693.383	33147.08
693.73	33251.03
694.077	32946.63
694.423	32993.64
694.769	32952.51
695.116	32978.05
695.462	32805.17
695.808	32688.34
696.155	32755.9
696.501	32445.18
696.847	32563.37
697.193	32410.83
697.539	32428.23
697.885	32148.46
698.231	32049.48
698.577	32111.4
698.923	31988.69
699.269	31827.34
699.614	31756.61
699.96	31713.22
700.306	31709.83
700.651	31542.15
700.997	31452.66
701.342	31461.25
701.688	31436.39
702.033	31298.32
702.379	31183.52
702.724	31162.73
703.069	31275.04
703.415	30817.42
703.76	30894.71
704.105	30905.11
704.45	30845.9
704.795	30633.93
705.14	30529.97
705.485	30640.48
705.83	30491.11
706.175	30421.28
706.52	30244.33
706.865	30228.97
707.209	30225.58
707.554	30131.79
707.899	30028.52
708.243	29988.52
708.588	30056.77
708.932	29860.39
709.277	29756.44
709.621	29758.47
709.966	29708.75
710.31	29703.78
710.654	29497.23
710.998	29606.83
711.342	29370.91
711.687	29327.75
712.031	29299.95
712.375	29187.86
712.719	29300.4
713.063	29055.21
713.407	29162.55
713.75	29048.88
714.094	29117.58
714.438	28843.46
714.782	29050.46
715.125	28698.84
715.469	28853.63
715.812	28722.11
716.156	28466.98
716.499	28617.03
716.843	28568.9
717.186	28387.88
717.53	28517.37
717.873	28499.74
718.216	28376.58
718.559	28294.1
718.902	28126.42
719.246	28182.69
719.589	28033.99
719.932	27916.94
720.275	28015.69
720.617	27953.32
720.96	27826.09
721.303	27884.62
721.646	27842.81
721.989	27691.4
722.331	27749.93
722.674	27819.08
723.016	27585.87
723.359	27604.4
723.701	27524.18
724.044	27536.61
724.386	27353.79
724.729	27445.08
725.071	27376.61
725.413	27389.04
725.755	27420.23
726.097	27137.29
726.439	27144.07
726.782	27178.88
727.124	27276.27
727.465	27103.62
727.807	27183.17
728.149	27002.38
728.491	26988.6
728.833	26918.09
729.175	26981.59
729.516	26913.12
729.858	26821.82
730.199	26728.94
730.541	26763.29
730.882	26740.92
731.224	26720.36
731.565	26515.84
731.906	26549.06
732.248	26621.15
732.589	26478.78
732.93	26349.52
733.271	26391.1
733.612	26378.22
733.953	26310.2
734.294	26329.63
734.635	26202.4
734.976	26267.49
735.317	26237.66
735.658	26065.68
735.999	26113.37
736.339	26145.91
736.68	26174.61
737.021	25947.72
737.361	25954.5
737.702	26038.11
738.042	25977.78
738.383	25922.86
738.723	25917.44
739.063	25752.25
739.404	25717.45
739.744	25743.21
740.084	25566.26
740.424	25676.32
740.764	25586.15
741.104	25759.03
741.444	25563.1
741.784	25496.66
742.124	25495.3
742.464	25392.93
742.804	25397
743.143	25328.75
743.483	25363.33
743.823	25234.07
744.162	25310
744.502	25297.57
744.841	25185.48
745.181	25216.89
745.52	25135.31
745.86	25105.71
746.199	25111.13
746.538	24966.96
746.877	25078.82
747.216	25062.1
747.556	24981.65
747.895	24923.12
748.234	24877.69
748.573	24844.25
748.911	24828.43
749.25	24878.37
749.589	24751.59
749.928	24726.28
750.267	24763.8
750.605	24616.91
750.944	24650.81
751.283	24586.18
751.621	24601.54
751.96	24315
752.298	24489.91
752.636	24389.34
752.975	24324.71
753.313	24205.62
753.651	24308.89
753.989	24165.4
754.327	24160.88
754.666	23999.07
755.004	24054.66
755.342	24126.07
755.679	23960.43
756.017	23980.32
756.355	23957.04
756.693	23768.57
757.031	23810.83
757.368	23575.35
757.706	23585.52
758.044	23533.77
758.381	23591.17
758.719	23381.91
759.056	23522.93
759.394	23398.64
759.731	23272.09
760.068	23274.57
760.405	23171.07
760.743	23088.14
