Data from hue_120_FLMS001491_00052.txt Node
Date: Tue Feb 07 16:59:39 GMT 2017
User: dcchb
Spectrometer: FLMS00149
Trigger mode: 0
Integration Time (sec): 2.000000E-2
Scans to average: 10
Electric dark correction enabled: true
Nonlinearity correction enabled: false
Boxcar width: 0
XAxis mode: Wavelengths
Number of Pixels in Spectrum: 2048
>>>>>Begin Spectral Data<<<<<
341.393	-19.35
341.776	-19.35
342.16	-19.35
342.543	-47.82
342.927	-42.4
343.31	-62.96
343.693	-57.31
344.077	-68.84
344.46	-64.09
344.843	-68.39
345.226	-50.99
345.61	-31.33
345.993	-17.99
346.376	-18.9
346.759	18.39
347.142	25.62
347.525	64.94
347.908	49.57
348.291	74.21
348.674	91.16
349.057	116.92
349.44	116.92
349.823	145.39
350.206	165.5
350.588	211.15
350.971	206.86
351.354	227.65
351.737	228.33
352.119	259.29
352.502	262.68
352.884	277.59
353.267	277.14
353.65	272.62
354.032	289.79
354.414	292.96
354.797	296.8
355.179	317.59
355.562	309.23
355.944	328.21
356.326	327.53
356.709	316.46
357.091	322.11
357.473	344.26
357.855	331.38
358.238	348.78
358.62	329.57
359.002	343.13
359.384	348.78
359.766	336.8
360.148	346.06
360.53	340.64
360.912	350.81
361.294	333.86
361.676	332.28
362.057	335.67
362.439	337.03
362.821	316.23
363.203	329.12
363.584	325.95
363.966	323.01
364.348	314.2
364.729	330.25
365.111	329.79
365.493	324.14
365.874	299.96
366.256	324.82
366.637	322.56
367.019	333.64
367.4	305.39
367.781	322.11
368.163	317.59
368.544	327.76
368.925	318.49
369.306	317.14
369.688	300.87
370.069	317.82
370.45	312.84
370.831	326.18
371.212	309.23
371.593	329.12
371.974	311.94
372.355	304.48
372.736	336.57
373.117	298.38
373.498	308.55
373.879	326.18
374.26	314.88
374.641	330.25
375.021	318.27
375.402	318.72
375.783	299.96
376.163	331.6
376.544	328.21
376.925	311.04
377.305	320.75
377.686	334.77
378.066	331.38
378.447	313.75
378.827	311.49
379.208	333.41
379.588	345.16
379.968	338.83
380.349	332.73
380.729	347.65
381.109	335.44
381.489	335.67
381.87	335.22
382.25	332.96
382.63	337.7
383.01	351.04
383.39	354.88
383.77	358.49
384.15	349.68
384.53	338.15
384.91	364.59
385.29	367.53
385.67	348.32
386.049	356.23
386.429	355.56
386.809	373.41
387.189	328.21
387.568	358.95
387.948	328.21
388.328	349.45
388.707	346.74
389.087	360.3
389.466	366.18
389.846	365.27
390.225	375.67
390.605	377.48
390.984	355.33
391.363	364.59
391.743	379.28
392.122	382.22
392.501	363.69
392.881	378.15
393.26	382
393.639	376.57
394.018	377.93
394.397	389.68
394.776	386.52
395.155	360.3
395.534	368.66
395.913	374.76
396.292	389.45
396.671	376.35
397.05	408.89
397.429	387.19
397.808	403.01
398.186	403.46
398.565	411.15
398.944	375.89
399.323	399.4
399.701	384.71
400.08	393.52
400.458	406.4
400.837	404.37
401.215	399.62
401.594	396.01
401.972	410.47
402.351	414.09
402.729	414.76
403.107	406.63
403.486	413.86
403.864	403.69
404.242	412.05
404.62	429
404.999	440.98
405.377	433.52
405.755	436.46
406.133	398.49
406.511	432.39
406.889	446.85
407.267	449.11
407.645	440.07
408.023	460.19
408.401	451.82
408.779	435.33
409.156	439.4
409.534	464.25
409.912	434.65
410.29	451.15
410.667	450.02
411.045	471.48
411.422	467.42
411.8	470.13
412.178	476.46
412.555	478.04
412.933	461.09
413.31	457.93
413.687	459.73
414.065	486.4
414.442	494.31
414.819	490.92
415.197	505.61
415.574	503.8
415.951	525.49
416.328	504.48
416.705	516.91
417.082	508.09
417.46	493.41
417.837	505.38
418.214	504.93
418.591	503.35
418.967	523.91
419.344	551.03
419.721	523.69
420.098	516.23
420.475	528.21
420.852	551.93
421.228	548.09
421.605	530.47
421.982	557.36
422.358	542.22
422.735	536.57
423.111	545.83
423.488	562.78
423.864	547.64
424.241	558.71
424.617	570.47
424.994	577.47
425.37	573.18
425.746	576.79
426.123	579.5
426.499	581.54
426.875	601.42
427.251	582.44
427.627	581.09
428.003	603.68
428.379	610.46
428.756	607.53
429.132	617.02
429.507	637.36
429.883	599.17
430.259	628.54
430.635	626.28
431.011	642.33
431.387	631.93
431.763	654.08
432.138	654.08
432.514	655.89
432.89	660.63
433.265	671.03
433.641	688.65
434.016	687.3
434.392	702.89
434.767	699.73
435.143	685.26
435.518	710.57
435.894	714.87
436.269	711.25
436.644	731.59
437.02	744.92
437.395	743.12
437.77	715.09
438.145	738.14
438.52	744.47
438.895	763.91
439.271	754.42
439.646	761.19
440.021	750.35
440.395	769.1
440.77	760.06
441.145	779.73
441.52	791.48
441.895	798.26
442.27	799.39
442.645	777.92
443.019	808.65
443.394	829.44
443.769	813.85
444.143	792.83
444.518	809.1
444.892	800.06
445.267	831.7
445.641	838.48
446.016	832.61
446.39	859.5
446.764	835.09
447.139	838.71
447.513	851.36
447.887	884.81
448.262	880.29
448.636	861.98
449.01	871.02
449.384	909.21
449.758	881.42
450.132	907.18
450.506	910.34
450.88	907.41
451.254	904.24
451.628	912.6
452.002	936.11
452.376	935.43
452.75	958.03
453.123	970.45
453.497	957.57
453.871	978.36
454.244	991.92
454.618	973.17
454.992	999.83
455.365	987.18
455.739	1028.98
456.112	1022.2
456.486	1010.45
456.859	1035.54
457.232	1064.92
457.606	1067.4
457.979	1099.94
458.352	1090
458.725	1088.87
459.099	1120.06
459.472	1130
459.845	1141.07
460.218	1175.65
460.591	1168.19
460.964	1177.91
461.337	1193.5
461.71	1195.76
462.083	1243.67
462.456	1208.64
462.829	1232.14
463.201	1248.87
463.574	1271.92
463.947	1302.65
464.32	1305.36
464.692	1346.04
465.065	1332.93
465.438	1370.44
465.81	1358.92
466.183	1384.91
466.555	1425.13
466.928	1431.91
467.3	1453.61
467.672	1449.09
468.045	1499.71
468.417	1524.79
468.789	1498.8
469.161	1514.17
469.534	1597.33
469.906	1626.93
470.278	1623.09
470.65	1633.49
471.022	1720.72
471.394	1713.49
471.766	1764.33
472.138	1767.5
472.51	1828.51
472.882	1855.18
473.253	1855.63
473.625	1917.1
473.997	1978.79
474.369	1978.11
474.74	2026.92
475.112	2075.06
475.484	2124.55
475.855	2185.56
476.227	2223.98
476.598	2273.02
476.97	2327.48
477.341	2373.13
477.713	2460.59
478.084	2470.98
478.455	2578.77
478.827	2646.57
479.198	2709.62
479.569	2761.82
479.94	2912.55
480.311	2907.58
480.682	3002.49
481.053	3075.03
481.424	3167.69
481.795	3248.59
482.166	3347.79
482.537	3410.39
482.908	3542.82
483.279	3598.86
483.65	3718.63
484.021	3806.76
484.391	3869.81
484.762	4000.88
485.133	4082.92
485.503	4193.65
485.874	4312.51
486.244	4430.7
486.615	4526.75
486.985	4666.63
487.356	4816.46
487.726	4851.71
488.097	5018.26
488.467	5085.37
488.837	5293.5
489.207	5401.98
489.578	5542.09
489.948	5607.17
490.318	5772.14
490.688	5885.35
491.058	6019.14
491.428	6144.56
491.798	6266.36
492.168	6462.97
492.538	6563.98
492.908	6694.15
493.278	6869.73
493.648	6875.84
494.017	7072.89
494.387	7175.04
494.757	7212.78
495.126	7401.47
495.496	7518.08
495.866	7661.58
496.235	7774.57
496.605	7918.75
496.974	7999.42
497.344	8159.19
497.713	8235.8
498.082	8310.6
498.452	8491.39
498.821	8634.43
499.19	8736.58
499.559	8769.35
499.928	8941.09
500.298	8973.63
500.667	9109.68
501.036	9102.22
501.405	9298.15
501.774	9271.48
502.143	9398.03
502.512	9524.81
502.88	9654.52
503.249	9716.21
503.618	9816.55
503.987	9836.44
504.356	9951.46
504.724	10068.97
505.093	10113.72
505.462	10177.22
505.83	10229.42
506.199	10398
506.567	10517.55
506.936	10508.06
507.304	10603.65
507.672	10681.16
508.041	10694.94
508.409	10779.01
508.777	10874.6
509.145	10925.9
509.514	10946.01
509.882	11035.5
510.25	11107.59
510.618	11174.03
510.986	11220.13
511.354	11306.68
511.722	11357.53
512.09	11434.81
512.458	11451.08
512.826	11525.66
513.193	11630.06
513.561	11578.09
513.929	11693.56
514.297	11723.39
514.664	11768.14
515.032	11779.21
515.4	11884.74
515.767	11901.92
516.135	11943.73
516.502	11805.65
516.869	12040.67
517.237	12051.52
517.604	12050.39
517.972	12155.02
518.339	12276.15
518.706	12108.24
519.073	12210.84
519.44	12230.27
519.808	12291.06
520.175	12249.93
520.542	12438.63
520.909	12394.56
521.276	12387.78
521.643	12475.01
522.009	12562.01
522.376	12555.23
522.743	12585.06
523.11	12662.35
523.477	12772.86
523.843	12736.7
524.21	12831.16
524.577	12879.07
524.943	12860.99
525.31	12852.18
525.676	12906.86
526.043	12978.5
526.409	12917.49
526.776	13001.55
527.142	13068.67
527.508	13041.1
527.874	13095.79
528.241	13044.71
528.607	13059.85
528.973	13158.83
529.339	13148.44
529.705	13171.26
530.071	13164.03
530.437	13238.15
530.803	13206.07
531.169	13182.79
531.535	13201.55
531.901	13102.57
532.267	13105.73
532.632	13179.17
532.998	13149.34
533.364	13204.26
533.73	13100.31
534.095	13162.45
534.461	13094.43
534.826	13101.21
535.192	13090.81
535.557	13162.22
535.923	13168.55
536.288	13082
536.653	13069.12
537.019	13013.53
537.384	12993.64
537.749	12993.19
538.114	12936.24
538.479	12943.47
538.845	12929.24
539.21	12854.44
539.575	12858.28
539.94	12832.52
540.305	12850.37
540.67	12765.85
541.034	12803.82
541.399	12767.43
541.764	12762.69
542.129	12740.31
542.494	12657.15
542.858	12660.32
543.223	12621.67
543.587	12623.71
543.952	12643.59
544.316	12552.07
544.681	12579.87
545.045	12459.19
545.41	12417.84
545.774	12479.98
546.138	12365.18
546.503	12450.15
546.867	12385.3
547.231	12368.8
547.595	12369.93
547.959	12261.68
548.324	12207.9
548.688	12236.15
549.052	12184.17
549.416	12140.78
549.779	12111.63
550.143	12115.47
550.507	12078.64
550.871	12095.13
551.235	12101.01
551.599	12071.86
551.962	11977.4
552.326	12014.46
552.689	11994.57
553.053	11926.78
553.417	11935.82
553.78	11990.05
554.143	11829.6
554.507	11937.4
554.87	11927.91
555.234	11945.76
555.597	11857.85
555.96	11844.75
556.323	11822.37
556.686	11821.92
557.05	11935.59
557.413	11899.88
557.776	11824.86
558.139	11814.24
558.502	11744.86
558.865	11847.91
559.228	11767.68
559.59	11786.67
559.953	11822.6
560.316	11858.76
560.679	11829.15
561.041	11844.52
561.404	11757.74
561.767	11857.63
562.129	11733.79
562.492	11901.69
562.854	11776.05
563.217	11824.63
563.579	11842.26
563.941	11806.1
564.304	11859.43
564.666	11868.25
565.028	11878.87
565.39	11866.44
565.753	11933.78
566.115	11955.02
566.477	11965.19
566.839	11952.99
567.201	11968.36
567.563	11896.72
567.925	12013.1
568.287	11997.51
568.648	11957.51
569.01	12025.53
569.372	12096.04
569.734	12035.7
570.095	12128.35
570.457	12057.62
570.819	12081.12
571.18	12149.6
571.542	12180.1
571.903	12105.08
572.265	12094.46
572.626	12155.25
572.987	12166.32
573.349	12099.65
573.71	12195.7
574.071	12212.64
574.432	12267.33
574.794	12258.29
575.155	12324.28
575.516	12201.8
575.877	12193.89
576.238	12204.06
576.599	12255.58
576.96	12306.2
577.32	12197.5
577.681	12230.95
578.042	12305.75
578.403	12260.33
578.763	12242.47
579.124	12286.09
579.485	12374.22
579.845	12316.37
580.206	12313.21
580.566	12282.02
580.927	12312.98
581.287	12339.65
581.648	12225.75
582.008	12296.26
582.368	12306.43
582.728	12360.44
583.089	12301
583.449	12334.45
583.809	12308.91
584.169	12264.85
584.529	12212.87
584.889	12303.49
585.249	12262.81
585.609	12194.57
585.969	12216.03
586.329	12197.05
586.688	12247.9
587.048	12153.44
587.408	12155.02
587.768	12188.24
588.127	12146.43
588.487	12039.77
588.846	12211.74
589.206	12114.57
589.565	12181.01
589.925	12138.3
590.284	12103.72
590.643	12085.87
591.003	12118.18
591.362	12198.86
591.721	12131.52
592.08	12079.09
592.44	12147.79
592.799	12168.13
593.158	12053.1
593.517	12058.07
593.876	12072.08
594.235	12022.37
594.593	12082.7
594.952	12096.49
595.311	12030.73
595.67	12061.46
596.029	12153.44
596.387	12119.77
596.746	12097.17
597.104	12024.18
597.463	12064.85
597.822	12058.07
598.18	12004.51
598.538	12012.88
598.897	12068.92
599.255	12027.34
599.613	12098.52
599.972	11993.44
600.33	12077.28
600.688	11919.09
601.046	12155.7
601.404	12050.84
601.762	12062.59
602.12	12042.93
602.478	12071.18
602.836	12069.15
603.194	11988.92
603.552	11939.43
603.91	11973.78
604.268	11979.66
604.625	11958.87
604.983	12057.85
605.341	11989.83
605.698	11950.96
606.056	12000.67
606.413	11986.89
606.771	12041.12
607.128	12157.96
607.485	12012.88
607.843	11964.74
608.2	12141.69
608.557	12094.46
608.914	12016.27
609.272	12083.38
609.629	12148.01
609.986	12153.89
610.343	12086.77
610.7	12253.77
611.057	12141.23
611.414	12051.75
611.771	12147.34
612.127	12097.85
612.484	12158.18
612.841	12211.52
613.198	12189.59
613.554	12147.11
613.911	12212.64
614.267	12282.25
614.624	12282.25
614.98	12292.87
615.337	12344.17
615.693	12304.17
616.05	12252.19
616.406	12378.06
616.762	12335.81
617.118	12303.72
617.475	12345.52
617.831	12361.79
618.187	12342.36
618.543	12318.18
618.899	12414
619.255	12369.03
619.611	12400.21
619.967	12320.44
620.323	12409.7
620.678	12353.88
621.034	12395.47
621.39	12316.6
621.746	12307.56
622.101	12462.81
622.457	12416.26
622.812	12459.87
623.168	12519.3
623.523	12426.88
623.879	12449.7
624.234	12329.03
624.589	12509.36
624.945	12413.54
625.3	12423.49
625.655	12414.67
626.01	12445.86
626.365	12369.93
626.72	12446.31
627.075	12403.6
627.43	12390.72
627.785	12312.3
628.14	12362.47
628.495	12408.35
628.85	12423.49
629.205	12328.57
629.559	12370.38
629.914	12359.31
630.269	12354.56
630.623	12289.71
630.978	12277.95
631.332	12336.03
631.687	12330.61
632.041	12279.31
632.396	12288.58
632.75	12252.64
633.104	12246.32
633.459	12223.04
633.813	12195.92
634.167	12184.17
634.521	12201.57
634.875	12259.2
635.229	12258.07
635.583	12070.28
635.937	12081.35
636.291	12066.89
636.645	12055.14
636.999	12028.47
637.352	12023.5
637.706	12092.65
638.06	12045.42
638.413	11988.47
638.767	12022.59
639.121	12091.29
639.474	11906.66
639.828	12002.71
640.181	11948.47
640.534	11939.66
640.888	11951.63
641.241	11908.25
641.594	11988.92
641.947	11936.49
642.301	11897.17
642.654	11868.02
643.007	11835.25
643.36	11824.41
643.713	11761.13
644.066	11917.29
644.419	11818.98
644.771	11673.22
645.124	11668.7
645.477	11542.15
645.83	11541.48
646.182	11596.16
646.535	11430.07
646.888	11541.48
647.24	11456.73
647.593	11536.28
647.945	11520.01
648.298	11478.88
648.65	11482.04
649.002	11424.19
649.355	11451.76
649.707	11467.81
650.059	11463.74
650.411	11622.38
650.763	11548.93
651.115	11848.13
651.467	11724.07
651.819	11751.64
652.171	11724.75
652.523	11679.33
652.875	11742.83
653.227	11547.8
653.578	11662.6
653.93	11605.66
654.282	11602.27
654.633	11612.21
654.985	11672.55
655.337	11672.77
655.688	11740.34
656.039	11687.69
656.391	11586.45
656.742	11653.34
657.094	11725.65
657.445	11700.57
657.796	11714.13
658.147	11674.81
658.498	11682.49
658.849	11660.34
659.2	11723.84
659.551	11627.8
659.902	11676.84
660.253	11633.45
660.604	11727.69
660.955	11710.06
661.306	11781.7
661.656	11738.53
662.007	11771.53
662.358	11745.31
662.708	11661.93
663.059	11779.89
663.409	11714.13
663.76	11824.86
664.11	11709.38
664.461	11805.88
664.811	11723.39
665.161	11614.24
665.511	11690.17
665.862	11782.83
666.212	11783.5
666.562	11764.52
666.912	11724.07
667.262	11741.02
667.612	11792.77
667.962	11701.25
668.312	11660.12
668.662	11790.06
669.011	11722.49
669.361	11708.93
669.711	11690.4
670.06	11766.1
670.41	11667.57
670.76	11733.11
671.109	11759.55
671.459	11697.4
671.808	11694.47
672.157	11761.81
672.507	11603.4
672.856	11669.38
673.205	11667.35
673.554	11651.76
673.904	11630.06
674.253	11708.7
674.602	11567.92
674.951	11507.35
675.3	11387.81
675.649	11560.01
675.998	11528.6
676.346	11529.05
676.695	11659.67
677.044	11514.13
677.393	11517.52
677.741	11535.15
678.09	11508.93
678.438	11453.79
678.787	11419.9
679.135	11481.14
679.484	11412.67
679.832	11397.07
680.181	11365.44
680.529	11397.75
680.877	11321.59
681.225	11357.3
681.573	11379.9
681.922	11266.68
682.27	11282.5
682.618	11244.99
682.966	11230.75
683.314	11243.18
683.661	11143.07
684.009	11104.43
684.357	11111.66
684.705	11078.44
685.053	11155.95
685.4	11115.72
685.748	11047.48
686.095	10980.36
686.443	10993.92
686.79	10970.19
687.138	10973.58
687.485	10918.22
687.832	10946.46
688.18	10959.12
688.527	10890.87
688.874	10870.99
689.221	10873.02
689.568	10823.3
689.915	10751.89
690.262	10812.91
690.609	10713.93
690.956	10717.32
691.303	10653.82
691.65	10581.5
691.997	10563.2
692.344	10574.95
692.69	10529.3
693.037	10508.06
693.383	10392.13
693.73	10402.52
694.077	10377.21
694.423	10319.14
694.769	10305.58
695.116	10293.6
695.462	10246.14
695.808	10238.69
696.155	10263.77
696.501	10176.31
696.847	10209.08
697.193	10055.41
697.539	10143.55
697.885	10005.02
698.231	9980.16
698.577	10011.12
698.923	9912.82
699.269	9916.43
699.614	9825.59
699.96	9918.47
700.306	9814.97
700.651	9781.3
700.997	9736.33
701.342	9709.21
701.688	9681.19
702.033	9592.15
702.379	9599.83
702.724	9648.42
703.069	9621.07
703.415	9508.31
703.76	9471.7
704.105	9463.34
704.45	9406.84
704.795	9356.9
705.14	9290.69
705.485	9308.77
705.83	9240.07
706.175	9276
706.52	9243.01
706.865	9189.22
707.209	9219.73
707.554	9205.27
707.899	9162.78
708.243	9127.3
708.588	9149.9
708.932	9069.9
709.277	9052.5
709.621	9045.5
709.966	9031.49
710.31	9025.38
710.654	8895.9
710.998	8938.61
711.342	8910.81
711.687	8874.2
712.031	8865.39
712.375	8809.57
712.719	8857.93
713.063	8831.72
713.407	8809.34
713.75	8798.05
714.094	8828.78
714.438	8773.64
714.782	8723.47
715.125	8690.03
715.469	8774.09
715.812	8641.67
716.156	8586.98
716.499	8553.98
716.843	8646.19
717.186	8601.21
717.53	8584.49
717.873	8599.86
718.216	8624.26
718.559	8564.38
718.902	8541.78
719.246	8540.2
719.589	8532.06
719.932	8436.7
720.275	8451.16
720.617	8536.36
720.96	8520.54
721.303	8417.49
721.646	8459.52
721.989	8425.4
722.331	8476.02
722.674	8397.83
723.016	8391.5
723.359	8370.26
723.701	8408.23
724.044	8380.2
724.386	8353.99
724.729	8337.49
725.071	8355.57
725.413	8337.49
725.755	8338.62
726.097	8313.09
726.439	8271.05
726.782	8267.21
727.124	8263.37
727.465	8281
727.807	8290.26
728.149	8273.31
728.491	8242.58
728.833	8270.15
729.175	8234.67
729.516	8253.43
729.858	8265.63
730.199	8304.5
730.541	8255.91
730.882	8201.23
731.224	8298.85
731.565	8163.71
731.906	8178.17
732.248	8245.74
732.589	8202.81
732.93	8184.28
733.271	8254.78
733.612	8205.29
733.953	8183.15
734.294	8161
734.635	8205.29
734.976	8226.99
735.317	8159.19
735.658	8204.39
735.999	8198.06
736.339	8230.38
736.68	8277.38
737.021	8242.35
737.361	8224.28
737.702	8245.29
738.042	8188.34
738.383	8154.9
738.723	8317.15
739.063	8336.81
739.404	8292.52
739.744	8302.24
740.084	8205.97
740.424	8280.09
740.764	8316.02
741.104	8302.24
741.444	8294.1
741.784	8345.18
742.124	8304.73
742.464	8295.23
742.804	8340.88
743.143	8310.6
743.483	8453.87
743.823	8378.17
744.162	8442.35
744.502	8407.77
744.841	8439.18
745.181	8525.74
745.52	8535
745.86	8534.55
746.199	8556.02
746.538	8633.08
746.877	8702.23
747.216	8725.51
747.556	8759.63
747.895	8820.64
748.234	8773.64
748.573	8861.55
748.911	8876.01
749.25	8951.71
749.589	8973.41
749.928	9064.25
750.267	9180.41
750.605	9220.86
750.944	9285.94
751.283	9325.04
751.621	9331.36
751.96	9509.21
752.298	9607.29
752.636	9718.25
752.975	9784.23
753.313	9851.35
753.651	9993.72
753.989	10012.25
754.327	10231.91
754.666	10220.16
755.004	10320.49
755.342	10525.68
755.679	10578.79
756.017	10724.77
756.355	10918.67
756.693	11033.24
757.031	11103.52
757.368	11320.92
757.706	11372.22
758.044	11554.58
758.381	11625.54
758.719	11753.67
759.056	11984.85
759.394	12001.8
759.731	12142.59
