Data from hue_38_FLMS001491_00066.txt Node
Date: Tue Feb 07 17:31:49 GMT 2017
User: dcchb
Spectrometer: FLMS00149
Trigger mode: 0
Integration Time (sec): 2.000000E-2
Scans to average: 10
Electric dark correction enabled: true
Nonlinearity correction enabled: false
Boxcar width: 0
XAxis mode: Wavelengths
Number of Pixels in Spectrum: 2048
>>>>>Begin Spectral Data<<<<<
341.393	-1.51
341.776	-1.51
342.16	-1.51
342.543	-52.36
342.927	-59.59
343.31	-64.56
343.693	-49.65
344.077	-59.81
344.46	-72.24
344.843	-38.8
345.226	-54.84
345.61	-40.38
345.993	-11.91
346.376	-8.06
346.759	15.44
347.142	18.6
347.525	47.98
347.908	43.01
348.291	77.81
348.674	88.88
349.057	108.54
349.44	134.76
349.823	143.57
350.206	171.82
350.588	204.13
350.971	203.91
351.354	221.99
351.737	245.04
352.119	263.34
352.502	277.58
352.884	292.72
353.267	280.97
353.65	309.44
354.032	307.41
354.414	320.51
354.797	335.43
355.179	330.91
355.562	333.62
355.944	351.93
356.326	326.16
356.709	335.2
357.091	341.3
357.473	340.63
357.855	344.69
358.238	363.22
358.62	355.54
359.002	342.66
359.384	359.38
359.766	357.35
360.148	347.63
360.53	335.88
360.912	340.17
361.294	349.44
361.676	347.41
362.057	315.09
362.439	347.63
362.821	359.38
363.203	332.72
363.584	318.03
363.966	328.88
364.348	341.76
364.729	343.11
365.111	316.45
365.493	335.43
365.874	328.42
366.256	366.39
366.637	320.51
367.019	305.83
367.4	308.76
367.781	317.8
368.163	313.06
368.544	332.49
368.925	322.1
369.306	338.37
369.688	328.42
370.069	330.91
370.45	320.51
370.831	322.1
371.212	314.19
371.593	317.12
371.974	327.29
372.355	326.84
372.736	330.23
373.117	318.25
373.498	314.19
373.879	313.96
374.26	315.54
374.641	316.45
375.021	349.67
375.402	328.88
375.783	325.49
376.163	314.41
376.544	335.2
376.925	330.01
377.305	344.02
377.686	323.45
378.066	335.66
378.447	351.25
378.827	320.51
379.208	350.12
379.588	360.06
379.968	351.7
380.349	335.43
380.729	334.75
381.109	341.98
381.489	372.72
381.87	342.89
382.25	366.84
382.63	358.71
383.01	339.27
383.39	351.93
383.77	378.37
384.15	356.45
384.53	354.64
384.91	357.35
385.29	354.64
385.67	342.21
386.049	363.22
386.429	371.59
386.809	377.24
387.189	370.68
387.568	340.63
387.948	369.33
388.328	370
388.707	358.03
389.087	380.4
389.466	366.61
389.846	396.44
390.225	379.04
390.605	385.37
390.984	390.79
391.363	368.65
391.743	376.33
392.122	383.34
392.501	374.07
392.881	384.92
393.26	383.79
393.639	389.89
394.018	385.6
394.397	401.19
394.776	412.72
395.155	405.48
395.534	393.28
395.913	375.2
396.292	396.44
396.671	405.94
397.05	405.03
397.429	382.43
397.808	400.06
398.186	397.57
398.565	407.52
398.944	409.55
399.323	429.89
399.701	397.57
400.08	404.81
400.458	424.92
400.837	418.36
401.215	421.53
401.594	420.17
401.972	403
402.351	414.97
402.729	433.05
403.107	425.37
403.486	422.88
403.864	432.6
404.242	437.8
404.62	421.98
404.999	426.05
405.377	459.95
405.755	429.21
406.133	447.29
406.511	428.53
406.889	443.45
407.267	454.97
407.645	453.84
408.023	453.62
408.401	462.88
408.779	467.18
409.156	443.22
409.534	454.52
409.912	465.6
410.29	502.88
410.667	467.4
411.045	481.41
411.422	480.06
411.8	484.58
412.178	478.48
412.555	506.72
412.933	499.72
413.31	506.27
413.687	489.78
414.065	505.14
414.442	497.91
414.819	521.64
415.197	515.31
415.574	515.54
415.951	537.68
416.328	518.93
416.705	516.67
417.082	533.84
417.46	544.01
417.837	526.61
418.214	551.47
418.591	533.62
418.967	555.54
419.344	548.53
419.721	550.56
420.098	556.67
420.475	551.02
420.852	555.76
421.228	560.06
421.605	558.7
421.982	556.44
422.358	574.74
422.735	569.55
423.111	584.46
423.488	579.49
423.864	571.58
424.241	606.61
424.617	602.31
424.994	603.9
425.37	613.39
425.746	598.02
426.123	607.74
426.499	612.71
426.875	610.45
427.251	625.36
427.627	630.11
428.003	626.95
428.379	625.59
428.756	636.44
429.132	662.2
429.507	653.16
429.883	645.25
430.259	663.56
430.635	650.45
431.011	666.49
431.387	667.4
431.763	673.5
432.138	691.13
432.514	677.79
432.89	686.61
433.265	726.38
433.641	716.66
434.016	720.5
434.392	741.29
434.767	713.72
435.143	739.03
435.518	743.33
435.894	765.25
436.269	753.95
436.644	758.02
437.02	761.41
437.395	791.69
437.77	796.66
438.145	790.11
438.52	785.81
438.895	801.63
439.271	784.91
439.646	808.18
440.021	825.13
440.395	834.4
440.77	824.23
441.145	802.08
441.52	826.94
441.895	841.4
442.27	845.02
442.645	854.96
443.019	850.22
443.394	838.24
443.769	878.69
444.143	851.8
444.518	882.08
444.892	868.75
445.267	883.66
445.641	889.99
446.016	889.54
446.39	894.51
446.764	919.59
447.139	879.37
447.513	914.4
447.887	899.48
448.262	926.37
448.636	915.3
449.01	932.48
449.384	905.58
449.758	944.23
450.132	968.41
450.506	945.36
450.88	948.97
451.254	965.92
451.628	977.9
452.002	969.99
452.376	977.22
452.75	990.55
453.123	995.98
453.497	1010.67
453.871	1002.08
454.244	1033.49
454.618	1034.39
454.992	1038.69
455.365	1033.26
455.739	1071.45
456.112	1086.14
456.486	1094.96
456.859	1086.37
457.232	1138.35
457.606	1120.27
457.979	1136.54
458.352	1176.08
458.725	1136.09
459.099	1172.02
459.472	1193.71
459.845	1207.5
460.218	1216.31
460.591	1242.75
460.964	1222.86
461.337	1261.51
461.71	1287.04
462.083	1287.27
462.456	1298.34
462.829	1301.73
463.201	1323.65
463.574	1329.75
463.947	1349.87
464.32	1383.31
464.692	1374.95
465.065	1417.66
465.438	1404.78
465.81	1447.04
466.183	1454.27
466.555	1499.69
466.928	1492.23
467.3	1498.79
467.672	1513.03
468.045	1583.53
468.417	1578.56
468.789	1563.42
469.161	1634.6
469.534	1649.52
469.906	1671.21
470.278	1689.97
470.65	1742.85
471.022	1749.18
471.394	1740.59
471.766	1806.12
472.138	1861.26
472.51	1870.08
472.882	1928.83
473.253	1930.19
473.625	1965.22
473.997	1972.45
474.369	2017.42
474.74	2056.29
475.112	2144.87
475.484	2155.49
475.855	2210.18
476.227	2246.57
476.598	2318.65
476.97	2351.65
477.341	2421.93
477.713	2451.76
478.084	2491.3
478.455	2569.95
478.827	2599.32
479.198	2696.5
479.569	2725.65
479.94	2816.49
480.311	2871.63
480.682	2957.73
481.053	3063.49
481.424	3126.77
481.795	3185.52
482.166	3251.51
482.537	3331.28
482.908	3360.43
483.279	3454.44
483.65	3553.88
484.021	3663.7
484.391	3742.57
484.762	3754.32
485.133	3880.42
485.503	3975.33
485.874	4051.94
486.244	4142.56
486.615	4244.93
486.985	4330.35
487.356	4439.05
487.726	4553.62
488.097	4657.58
488.467	4711.36
488.837	4808.53
489.207	4981.63
489.578	5085.59
489.948	5171.69
490.318	5277.9
490.688	5356.77
491.058	5425.69
491.428	5597.89
491.798	5647.38
492.168	5804.89
492.538	5864.78
492.908	6056.86
493.278	6129.63
493.648	6143.86
494.017	6308.15
494.387	6354.48
494.757	6509.73
495.126	6584.53
495.496	6685.32
495.866	6796.95
496.235	6899.1
496.605	6987.46
496.974	7063.16
497.344	7168.02
497.713	7229.49
498.082	7338.18
498.452	7490.04
498.821	7540.89
499.19	7626.31
499.559	7721.22
499.928	7795.35
500.298	7855.46
500.667	8020.2
501.036	8035.34
501.405	8185.62
501.774	8233.07
502.143	8313.75
502.512	8351.49
502.88	8443.69
503.249	8497.02
503.618	8594.87
503.987	8685.94
504.356	8762.1
504.724	8877.13
505.093	8895.88
505.462	8910.34
505.83	9065.14
506.199	9225.59
506.567	9306.04
506.936	9283.67
507.304	9415.87
507.672	9509.43
508.041	9570.67
508.409	9589.2
508.777	9714.62
509.145	9832.81
509.514	9804.56
509.882	9871.68
510.25	9949.41
510.618	10138.79
510.986	10087.71
511.354	10185.11
511.722	10307.14
512.09	10464.2
512.458	10409.74
512.826	10520.47
513.193	10622.16
513.561	10611.54
513.929	10682.5
514.297	10756.85
514.664	10880.24
515.032	10952.55
515.4	11090.17
515.767	11117.74
516.135	11199.1
516.502	11098.54
516.869	11276.84
517.237	11376.27
517.604	11350.73
517.972	11478.19
518.339	11501.46
518.706	11503.5
519.073	11587.79
519.44	11721.34
519.808	11819.42
520.175	11820.55
520.542	11966.54
520.909	12043.82
521.276	12031.39
521.643	12216.25
522.009	12237.49
522.376	12331.72
522.743	12421.89
523.11	12509.12
523.477	12614.88
523.843	12706.18
524.21	12783.46
524.577	12835.44
524.943	13020.07
525.31	13031.82
525.676	13191.81
526.043	13220.97
526.409	13196.33
526.776	13402.88
527.142	13463.22
527.508	13481.75
527.874	13567.85
528.241	13691.24
528.607	13730.78
528.973	13770.56
529.339	13866.37
529.705	13966.26
530.071	14110.89
530.437	14106.37
530.803	14145.91
531.169	14318.56
531.535	14315.63
531.901	14355.63
532.267	14534.6
532.632	14473.59
532.998	14558.78
533.364	14667.71
533.73	14793.35
534.095	14761.26
534.461	14881.71
534.826	14938.66
535.192	15038.09
535.557	15161.71
535.923	15125.77
536.288	15177.52
536.653	15272.21
537.019	15289.61
537.384	15291.87
537.749	15390.17
538.114	15409.61
538.479	15474.24
538.845	15600.11
539.21	15544.07
539.575	15686.21
539.94	15783.38
540.305	15858.41
540.67	15775.02
541.034	15842.37
541.399	15920.1
541.764	15974.79
542.129	16002.59
542.494	16129.36
542.858	16233.77
543.223	16155.13
543.587	16308.34
543.952	16281.9
544.316	16483.25
544.681	16544.72
545.045	16597.15
545.41	16646.19
545.774	16775
546.138	16788.78
546.503	16789.23
546.867	16827.2
547.231	16984.93
547.595	17045.72
547.959	17139.51
548.324	17125.04
548.688	17141.77
549.052	17254.76
549.416	17353.74
549.779	17240.52
550.143	17333.85
550.507	17466.05
550.871	17591.25
551.235	17483.9
551.599	17617.91
551.962	17689.1
552.326	17709.66
552.689	17692.94
553.053	17798.92
553.417	17792.15
553.78	18023.1
554.143	17980.39
554.507	18109.88
554.87	18066.04
555.234	18379.47
555.597	18197.11
555.96	18303.09
556.323	18487.95
556.686	18424.44
557.05	18556.64
557.413	18583.31
557.776	18653.14
558.139	18740.59
558.502	18720.48
558.865	18864.43
559.228	18944.88
559.59	18991.89
559.953	19012.45
560.316	19245.67
560.679	19244.99
561.041	19355.72
561.404	19412.44
561.767	19549.39
562.129	19440.01
562.492	19686.56
562.854	19658.54
563.217	19565.88
563.579	19659.44
563.941	19846.78
564.304	19918.42
564.666	20016.04
565.028	20139.88
565.39	20117.28
565.753	20239.31
566.115	20355.47
566.477	20391.4
566.839	20412.64
567.201	20558.4
567.563	20564.5
567.925	20724.05
568.287	20759.75
568.648	20810.14
569.01	21026.41
569.372	21043.81
569.734	21023.7
570.095	21167.42
570.457	21263.69
570.819	21321.09
571.18	21270.92
571.542	21445.61
571.903	21574.64
572.265	21617.36
572.626	21731.25
572.987	21785.26
573.349	21895.31
573.71	22102.31
574.071	22129.43
574.432	22192.03
574.794	22404.45
575.155	22423.21
575.516	22463.89
575.877	22602.64
576.238	22627.72
576.599	22803.54
576.96	22833.14
577.32	22955.85
577.681	23242.85
578.042	23282.85
578.403	23363.98
578.763	23423.41
579.124	23598.77
579.485	23782.04
579.845	24108.14
580.206	24015.26
580.566	24227.46
580.927	24325.98
581.287	24694.34
581.648	24646.88
582.008	24927.78
582.368	25005.97
582.728	25168.67
583.089	25304.94
583.449	25542.9
583.809	25693.86
584.169	25887.75
584.529	25989.44
584.889	26438.92
585.249	26393.73
585.609	26466.95
585.969	26812.7
586.329	27004.78
586.688	27223.31
587.048	27363.64
587.408	27580.14
587.768	27816.97
588.127	27884.99
588.487	28060.8
588.846	28536.95
589.206	28512.77
589.565	28719.54
589.925	29090.83
590.284	29062.81
590.643	29309.13
591.003	29846.52
591.362	29939.85
591.721	29986.85
592.08	30255.09
592.44	30483.11
592.799	30691.24
593.158	30898.24
593.517	31220.94
593.876	31376.19
594.235	31434.05
594.593	31713.14
594.952	32008.04
595.311	31947.93
595.67	32330.52
596.029	32694.8
596.387	32849.83
596.746	33154.23
597.104	33148.35
597.463	33367.78
597.822	33686.87
598.18	33821.33
598.538	34018.61
598.897	34268.32
599.255	34214.76
599.613	34745.82
599.972	34718.48
600.33	34995.99
600.688	35027.85
601.046	35255.41
601.404	35685.46
601.762	35714.39
602.12	35990.08
602.478	36226.24
602.836	36308.49
603.194	36169.29
603.552	36405.22
603.91	36472.78
604.268	36778.76
604.625	36876.84
604.983	37184.63
605.341	37127.91
605.698	37482.02
606.056	37541
606.413	37599.76
606.771	37878.4
607.128	38035.68
607.485	37936.47
607.843	38166.07
608.2	38540.53
608.557	38726.51
608.914	38681.31
609.272	38912.49
609.629	39072.72
609.986	39204.46
610.343	39228.87
610.7	39585.92
611.057	39417.79
611.414	39771.91
611.771	39843.09
612.127	40051.45
612.484	40056.42
612.841	40283.53
613.198	40237.66
613.554	40457.09
613.911	40695.05
614.267	40701.6
614.624	40773.46
614.98	40929.16
615.337	41192.89
615.693	41115.83
616.05	41295.03
616.406	41485.31
616.762	41355.59
617.118	41471.75
617.475	41629.48
617.831	41743.15
618.187	41817.05
618.543	41967.33
618.899	42115.8
619.255	42187.44
619.611	42063.37
619.967	42435.79
620.323	42511.04
620.678	42354.21
621.034	42323.25
621.39	42432.4
621.746	42413.42
622.101	43050.69
622.457	42626.07
622.812	42856.12
623.168	43012.95
623.523	42906.97
623.879	43045.72
624.234	42947.87
624.589	43076.45
624.945	43095.21
625.3	43086.17
625.655	43101.31
626.01	43256.56
626.365	43189.9
626.72	43250.91
627.075	43248.65
627.43	43406.39
627.785	43307.18
628.14	43412.49
628.495	43485.48
628.85	43318.93
629.205	43387.18
629.559	43615.87
629.914	43423.56
630.269	43612.94
630.623	43481.87
630.978	43428.99
631.332	43611.58
631.687	43619.71
632.041	43462.2
632.396	43537.68
632.75	43465.14
633.104	43508.76
633.459	43342.43
633.813	43414.3
634.167	43363.45
634.521	43382.66
634.875	43441.64
635.229	43504.69
635.583	43414.52
635.937	43461.98
636.291	43398.48
636.645	43590.11
636.999	43308.99
637.352	43442.54
637.706	43285.26
638.06	43251.36
638.413	43270.8
638.767	43248.88
639.121	43330.68
639.474	43098.37
639.828	43122.1
640.181	43173.17
640.534	43134.98
640.888	43033.29
641.241	42979.05
641.594	42967.53
641.947	43199.84
642.301	42998.49
642.654	43146.96
643.007	43085.04
643.36	43066.51
643.713	43054.98
644.066	43247.97
644.419	42813.86
644.771	42555.34
645.124	42156.25
645.477	42135.46
645.83	41928.01
646.182	42017.27
646.535	41796.03
646.888	41886.88
647.24	41604.85
647.593	41837.61
647.945	41785.64
648.298	41742.02
648.65	41618.41
649.002	41504.97
649.355	41665.87
649.707	41654.57
650.059	41784.51
650.411	42347.21
650.763	42306.08
651.115	42732.51
651.467	42567.54
651.819	42563.47
652.171	42434.44
652.523	42307.66
652.875	42273.31
653.227	42177.72
653.578	42412.74
653.93	42357.37
654.282	42203.03
654.633	42037.16
654.985	42181.11
655.337	42274.44
655.688	42160.09
656.039	42385.4
656.391	42093.2
656.742	42172.3
657.094	42259.75
657.445	42350.82
657.796	42298.62
658.147	42175.68
658.498	42177.94
658.849	42189.7
659.2	42095.23
659.551	41979.98
659.902	42111.96
660.253	42001.45
660.604	42134.33
660.955	41990.15
661.306	42095.69
661.656	42106.76
662.007	42088.68
662.358	41925.52
662.708	42033.54
663.059	42102.69
663.409	41826.09
663.76	42156.02
664.11	41936.37
664.461	42098.62
664.811	42053.88
665.161	41986.09
665.511	41790.16
665.862	41923.71
666.212	41926.65
666.562	41997.38
666.912	41861.34
667.262	41702.7
667.612	41853.66
667.962	41828.12
668.312	41845.75
668.662	42047.33
669.011	41882.36
669.361	41790.38
669.711	41763.27
670.06	41810.95
670.41	41746.09
670.76	41606.89
671.109	41867.22
671.459	41743.83
671.808	41605.53
672.157	41771.4
672.507	41525.98
672.856	41569.83
673.205	41605.3
673.554	41668.35
673.904	41608.92
674.253	41806.43
674.602	41728.46
674.951	41128.93
675.3	40827.7
675.649	41525.31
675.998	41588.13
676.346	41575.93
676.695	41599.2
677.044	41282.15
677.393	41354.46
677.741	41560.79
678.09	41380.45
678.438	41296.84
678.787	41324.63
679.135	41288.25
679.484	41174.81
679.832	41305.88
680.181	41185.2
680.529	41185.2
680.877	40989.28
681.225	40855.72
681.573	41001.03
681.922	40750.86
682.27	40822.73
682.618	40890.97
682.966	40701.83
683.314	40749.28
683.661	40641.49
684.009	40446.01
684.357	40429.74
684.705	40342.29
685.053	40439.46
685.4	40330.54
685.748	40193.82
686.095	40284.66
686.443	39969.19
686.79	39987.95
687.138	40033.14
687.485	40025.68
687.832	40005.12
688.18	39812.13
688.527	39790.21
688.874	39851.45
689.221	39609.42
689.568	39454.85
689.915	39470.9
690.262	39582.31
690.609	39453.95
690.956	39203.56
691.303	39222.32
691.65	38999.5
691.997	39002.66
692.344	38808.77
692.69	38778.71
693.037	38923.79
693.383	38537.81
693.73	38587.08
694.077	38401.32
694.423	38353.86
694.769	38313.19
695.116	38314.32
695.462	38190.93
695.808	38139.86
696.155	38034.1
696.501	37891.28
696.847	37872.97
697.193	37646.76
697.539	37682.02
697.885	37404.96
698.231	37441.57
698.577	37327.9
698.923	37277.73
699.269	37106.44
699.614	37021.02
699.96	36878.42
700.306	36762.95
700.651	36693.34
700.997	36680.24
701.342	36508.72
701.688	36505.1
702.033	36383.07
702.379	36383.07
702.724	36257.65
703.069	36215.16
703.415	35957.09
703.76	35884.55
704.105	35932.46
704.45	35869.41
704.795	35717.78
705.14	35586.25
705.485	35609.53
705.83	35395.07
706.175	35519.59
706.52	35424.68
706.865	35207.28
707.209	35201.18
707.554	35274.62
707.899	35235.08
708.243	35005.48
708.588	34924.8
708.932	34698.82
709.277	34784.69
709.621	34694.75
709.966	34535.43
710.31	34552.83
710.654	34318.26
710.998	34363.91
711.342	34310.13
711.687	34252.73
712.031	34254.31
712.375	34083.47
712.719	34105.16
713.063	33911.72
713.407	34095.22
713.75	33843.7
714.094	33850.25
714.438	33582.92
714.782	33633.54
715.125	33533.43
715.469	33595.57
715.812	33458.4
716.156	33340.44
716.499	33334.34
716.843	33342.47
717.186	33073.33
717.53	33229.48
717.873	33203.04
718.216	33121.23
718.559	32958.3
718.902	32767.8
719.246	33007.34
719.589	32720.57
719.932	32560.57
720.275	32735.93
720.617	32579.78
720.96	32516.05
721.303	32518.09
721.646	32669.27
721.989	32283.97
722.331	32428.37
722.674	32286.45
723.016	32195.16
723.359	32260.01
723.701	32259.79
724.044	32045.56
724.386	31997.87
724.729	32078.1
725.071	31999.46
725.413	32048.49
725.755	32005.33
726.097	31717.88
726.439	31691.21
726.782	31681.72
727.124	31746.81
727.465	31552.24
727.807	31480.37
728.149	31518.79
728.491	31391.34
728.833	31377.1
729.175	31319.7
729.516	31329.87
729.858	31195.18
730.199	31272.69
730.541	31164
730.882	31102.08
731.224	31236.54
731.565	30872.71
731.906	31072.47
732.248	31011.46
732.589	30890.33
732.93	30862.31
733.271	30862.31
733.612	30830.67
733.953	30825.47
734.294	30664.8
734.635	30574.86
734.976	30683.11
735.317	30498.25
735.658	30510.45
735.999	30563.11
736.339	30337.8
736.68	30516.33
737.021	30446.05
737.361	30162.44
737.702	30400.85
738.042	30373.28
738.383	30227.75
738.723	30294.19
739.063	30039.51
739.404	30139.39
739.744	30159.05
740.084	30101.2
740.424	29991.82
740.764	29970.58
741.104	29988.66
741.444	29941.43
741.784	29751.38
742.124	29906.85
742.464	29772.62
742.804	29682.45
743.143	29660.31
743.483	29601.55
743.823	29479.3
744.162	29472.52
744.502	29358.62
744.841	29431.84
745.181	29580.31
745.52	29211.28
745.86	29386.87
746.199	29354.55
746.538	29313.2
746.877	29305.97
747.216	29216.25
747.556	29079.53
747.895	29278.85
748.234	29025.52
748.573	28948.69
748.911	28949.37
749.25	28999.31
749.589	28756.6
749.928	28782.14
750.267	28922.25
750.605	28755.47
750.944	28650.16
751.283	28607.23
751.621	28570.62
751.96	28519.09
752.298	28506.21
752.636	28519.09
752.975	28263.96
753.313	28351.42
753.651	28379.89
753.989	28190.52
754.327	28160.46
754.666	27990.97
755.004	28075.94
755.342	28056.96
755.679	28030.75
756.017	27833.01
756.355	27893.8
