Data from hue_90_FLMS001491_98.txt Node
Date: Mon Feb 06 15:25:57 GMT 2017
User: dcchb
Spectrometer: FLMS00149
Trigger mode: 0
Integration Time (sec): 2.000000E-2
Scans to average: 10
Electric dark correction enabled: true
Nonlinearity correction enabled: false
Boxcar width: 0
XAxis mode: Wavelengths
Number of Pixels in Spectrum: 2048
>>>>>Begin Spectral Data<<<<<
341.393	11.82
341.776	11.82
342.16	11.82
342.543	-62.75
342.927	-67.27
343.31	-69.08
343.693	-52.58
344.077	-68.63
344.46	-52.58
344.843	-62.75
345.226	-38.8
345.61	-42.41
345.993	-41.74
346.376	-9.42
346.759	21.09
347.142	19.73
347.525	48.43
347.908	60.86
348.291	87.75
348.674	74.64
349.057	125.49
349.44	155.55
349.823	137.69
350.206	169.78
350.588	204.13
350.971	216.79
351.354	227.18
351.737	223.12
352.119	238.26
352.502	268.31
352.884	256.34
353.267	287.52
353.65	279.16
354.032	287.52
354.414	308.76
354.797	318.03
355.179	330.01
355.562	310.8
355.944	337.91
356.326	318.48
356.709	309.22
357.091	347.86
357.473	337.91
357.855	328.88
358.238	333.62
358.62	339.27
359.002	333.62
359.384	354.64
359.766	337.91
360.148	342.89
360.53	335.43
360.912	321.19
361.294	330.91
361.676	313.96
362.057	327.07
362.439	336.11
362.821	331.59
363.203	331.59
363.584	343.34
363.966	342.21
364.348	317.12
364.729	319.16
365.111	311.93
365.493	310.8
365.874	324.81
366.256	331.36
366.637	325.49
367.019	318.93
367.4	313.73
367.781	310.12
368.163	308.99
368.544	318.71
368.925	284.36
369.306	315.32
369.688	314.64
370.069	310.12
370.45	312.15
370.831	312.38
371.212	316.67
371.593	317.58
371.974	327.52
372.355	324.13
372.736	294.07
373.117	320.06
373.498	326.16
373.879	321.64
374.26	309.22
374.641	316.22
375.021	330.91
375.402	330.23
375.783	319.38
376.163	316.22
376.544	332.04
376.925	304.02
377.305	302.66
377.686	294.53
378.066	304.47
378.447	340.63
378.827	320.74
379.208	354.19
379.588	326.84
379.968	311.7
380.349	335.88
380.729	328.2
381.109	317.58
381.489	329.1
381.87	358.48
382.25	350.12
382.63	340.63
383.01	342.89
383.39	345.37
383.77	339.95
384.15	342.89
384.53	347.63
384.91	332.49
385.29	360.06
385.67	351.47
386.049	346.95
386.429	335.66
386.809	348.76
387.189	356.45
387.568	355.09
387.948	344.92
388.328	359.61
388.707	353.96
389.087	389.44
389.466	352.38
389.846	365.94
390.225	362.77
390.605	373.17
390.984	363
391.363	363.45
391.743	358.03
392.122	357.12
392.501	376.78
392.881	364.13
393.26	371.59
393.639	371.81
394.018	379.72
394.397	379.5
394.776	375.88
395.155	365.03
395.534	389.44
395.913	377.24
396.292	376.11
396.671	396.22
397.05	389.21
397.429	380.63
397.808	397.12
398.186	377.46
398.565	405.26
398.944	410.23
399.323	393.28
399.701	387.86
400.08	382.43
400.458	388.53
400.837	404.58
401.215	381.08
401.594	403
401.972	406.61
402.351	393.28
402.729	430.79
403.107	408.87
403.486	407.29
403.864	433.28
404.242	387.63
404.62	410.46
404.999	432.38
405.377	419.95
405.755	429.21
406.133	425.6
406.511	434.18
406.889	438.93
407.267	454.97
407.645	433.28
408.023	428.99
408.401	457.46
408.779	428.08
409.156	458.59
409.534	450.91
409.912	450.91
410.29	470.57
410.667	445.93
411.045	470.11
411.422	473.96
411.8	457.23
412.178	468.31
412.555	465.37
412.933	480.28
413.31	468.98
413.687	469.66
414.065	497.23
414.442	505.14
414.819	477.8
415.197	490.91
415.574	463.11
415.951	488.42
416.328	502.88
416.705	490
417.082	498.59
417.46	511.7
417.837	505.82
418.214	490.45
418.591	509.89
418.967	507.85
419.344	513.05
419.721	504.01
420.098	510.11
420.475	533.16
420.852	531.81
421.228	522.77
421.605	545.14
421.982	545.59
422.358	513.05
422.735	549.89
423.111	564.8
423.488	557.12
423.864	554.86
424.241	541.07
424.617	568.64
424.994	565.03
425.37	581.3
425.746	575.87
426.123	557.57
426.499	557.57
426.875	596.44
427.251	581.75
427.627	588.3
428.003	616.78
428.379	597.8
428.756	599.38
429.132	598.47
429.507	614.07
429.883	612.03
430.259	621.98
430.635	643.22
431.011	623.33
431.387	654.52
431.763	622.88
432.138	655.65
432.514	673.05
432.89	624.69
433.265	697.45
433.641	680.96
434.016	683.22
434.392	681.63
434.767	698.81
435.143	699.71
435.518	709.2
435.894	692.71
436.269	716.66
436.644	732.71
437.02	725.48
437.395	725.93
437.77	752.82
438.145	727.06
438.52	749.2
438.895	755.76
439.271	749.2
439.646	769.09
440.021	777.68
440.395	756.66
440.77	762.76
441.145	782.2
441.52	797.34
441.895	787.39
442.27	795.08
442.645	803.44
443.019	808.18
443.394	806.83
443.769	798.02
444.143	820.84
444.518	818.13
444.892	816.09
445.267	837.56
445.641	834.85
446.016	828.98
446.39	814.96
446.764	828.98
447.139	839.82
447.513	852.25
447.887	882.08
448.262	859.71
448.636	889.09
449.01	884.79
449.384	887.05
449.758	870.78
450.132	886.83
450.506	908.52
450.88	909.43
451.254	934.96
451.628	912.81
452.002	935.87
452.376	945.81
452.75	944.9
453.123	945.36
453.497	970.21
453.871	944
454.244	960.95
454.618	998.69
454.992	995.98
455.365	992.36
455.739	1028.74
456.112	1030.55
456.486	1038.46
456.859	1040.95
457.232	1044.34
457.606	1054.51
457.979	1079.82
458.352	1097.44
458.725	1104.22
459.099	1134.05
459.472	1136.76
459.845	1139.02
460.218	1161.62
460.591	1143.32
460.964	1174.05
461.337	1170.89
461.71	1228.74
462.083	1216.99
462.456	1242.98
462.829	1240.49
463.201	1235.07
463.574	1272.35
463.947	1284.1
464.32	1293.6
464.692	1329.08
465.065	1359.36
465.438	1382.18
465.81	1364.1
466.183	1423.54
466.555	1435.97
466.928	1392.35
467.3	1476.87
467.672	1466.92
468.045	1483.2
468.417	1514.83
468.789	1534.95
469.161	1555.28
469.534	1577.43
469.906	1625.11
470.278	1659.01
470.65	1678.22
471.022	1721.83
471.394	1760.7
471.766	1786.92
472.138	1795.73
472.51	1839.57
472.882	1865.78
473.253	1922.28
473.625	1927.48
473.997	1989.17
474.369	1994.82
474.74	2052.22
475.112	2110.75
475.484	2153.46
475.855	2153.69
476.227	2256.96
476.598	2300.35
476.97	2336.73
477.341	2396.39
477.713	2489.04
478.084	2539.21
478.455	2607.46
478.827	2650.17
479.198	2741.47
479.569	2766.78
479.94	2835.7
480.311	2894.91
480.682	3030.05
481.053	3082.93
481.424	3175.81
481.795	3221.23
482.166	3351.62
482.537	3410.6
482.908	3545.06
483.279	3596.59
483.65	3700.54
484.021	3795.68
484.391	3888.78
484.762	3972.62
485.133	4009.23
485.503	4154.09
485.874	4264.37
486.244	4321.54
486.615	4479.73
486.985	4613.28
487.356	4742.54
487.726	4809.89
488.097	4943.22
488.467	5015.98
488.837	5165.13
489.207	5314.51
489.578	5409.65
489.948	5529.64
490.318	5611.22
490.688	5708.4
491.058	5881.05
491.428	6012.34
491.798	6085.33
492.168	6272.45
492.538	6342.95
492.908	6497.3
493.278	6633.57
493.648	6729.61
494.017	6888.93
494.387	6970.51
494.757	7110.39
495.126	7250.28
495.496	7340.44
495.866	7424.51
496.235	7519.19
496.605	7678.74
496.974	7773.65
497.344	7912.63
497.713	7998.73
498.082	8093.42
498.452	8231.27
498.821	8300.64
499.19	8383.13
499.559	8492.5
499.928	8600.75
500.298	8662.22
500.667	8834.64
501.036	8878.03
501.405	8964.58
501.774	9020.4
502.143	9154.18
502.512	9266.72
502.88	9337.68
503.249	9385.59
503.618	9426.26
503.987	9539.03
504.356	9615.86
504.724	9743.54
505.093	9817.21
505.462	9866.93
505.83	9920.94
506.199	9985.8
506.567	10165.91
506.936	10132.46
507.304	10288.84
507.672	10302.85
508.041	10372.45
508.409	10461.26
508.777	10536.97
509.145	10636.63
509.514	10663.07
509.882	10705.1
510.25	10721.82
510.618	10825.55
510.986	10899.45
511.354	10939.22
511.722	11014.7
512.09	11103.51
512.458	11110.29
512.826	11207.69
513.193	11202.49
513.561	11322.26
513.929	11323.61
514.297	11390.73
514.664	11438.87
515.032	11415.59
515.4	11501.24
515.767	11529.48
516.135	11620.33
516.502	11573.1
516.869	11681.8
517.237	11726.77
517.604	11680.67
517.972	11788.01
518.339	11861
518.706	11792.75
519.073	11878.85
519.44	11939.42
519.808	11978.96
520.175	11941.9
520.542	12104.61
520.909	12108.9
521.276	12082.24
521.643	12206.98
522.009	12187.32
522.376	12327.88
522.743	12318.16
523.11	12440.87
523.477	12448.1
523.843	12383.93
524.21	12551.83
524.577	12604.26
524.943	12639.06
525.31	12601.77
525.676	12654.88
526.043	12654.88
526.409	12743.46
526.776	12781.88
527.142	12785.5
527.508	12806.06
527.874	12849.68
528.241	12871.6
528.607	12886.96
528.973	12883.8
529.339	12919.05
529.705	12983.68
530.071	13060.97
530.437	12961.99
530.803	12982.55
531.169	12943.23
531.535	13015.1
531.901	12960.18
532.267	12987.75
532.632	12994.98
532.998	13064.13
533.364	12983.68
533.73	13029.11
534.095	13060.74
534.461	13023.91
534.826	12995.66
535.192	13066.62
535.557	13083.12
535.923	12948.66
536.288	12982.33
536.653	12917.47
537.019	12918.6
537.384	12946.4
537.749	12939.17
538.114	12901.65
538.479	12874.99
538.845	12970.58
539.21	12824.14
539.575	12881.99
539.94	12886.51
540.305	12832.73
540.67	12802.45
541.034	12805.38
541.399	12722.67
541.764	12765.84
542.129	12808.77
542.494	12736.68
542.858	12677.93
543.223	12619.17
543.587	12699.62
543.952	12661.66
544.316	12681.77
544.681	12479.29
545.045	12620.76
545.41	12604.94
545.774	12545.96
546.138	12561.55
546.503	12500.76
546.867	12489.23
547.231	12470.25
547.595	12456.69
547.959	12490.82
548.324	12379.63
548.688	12318.16
549.052	12321.1
549.416	12292.18
549.779	12229.58
550.143	12247.43
550.507	12235.91
550.871	12316.58
551.235	12251.95
551.599	12269.35
551.962	12211.5
552.326	12235.23
552.689	12250.14
553.053	12150.26
553.417	12154.55
553.78	12124.05
554.143	12147.32
554.507	12149.81
554.87	12161.11
555.234	12179.41
555.597	12068
555.96	12094.67
556.323	12056.7
556.686	12012.41
557.05	12112.29
557.413	12073.88
557.776	12034.33
558.139	12108
558.502	12093.76
558.865	12053.99
559.228	12149.58
559.59	12167.21
559.953	12012.86
560.316	12195.68
560.679	12063.48
561.041	12156.59
561.404	12148
561.767	12158.17
562.129	12051.28
562.492	12162.91
562.854	12079.98
563.217	12175.8
563.579	12087.66
563.941	12108.9
564.304	12162.91
564.666	12279.3
565.028	12276.58
565.39	12195.68
565.753	12327.88
566.115	12251.95
566.477	12288.79
566.839	12296.24
567.201	12354.32
567.563	12331.05
567.925	12382.8
568.287	12456.92
568.648	12411.95
569.01	12465.05
569.372	12475.22
569.734	12397.94
570.095	12530.59
570.457	12561.77
570.819	12482.68
571.18	12453.53
571.542	12559.74
571.903	12589.34
572.265	12508.67
572.626	12577.59
572.987	12503.92
573.349	12548.89
573.71	12583.24
574.071	12616.69
574.432	12634.54
574.794	12709.57
575.155	12670.47
575.516	12607.2
575.877	12755.89
576.238	12675.67
576.599	12669.34
576.96	12684.71
577.32	12751.37
577.681	12700.98
578.042	12765.61
578.403	12735.55
578.763	12698.95
579.124	12706.63
579.485	12813.29
579.845	12773.29
580.206	12825.27
580.566	12751.83
580.927	12747.53
581.287	12725.84
581.648	12730.13
582.008	12792.05
582.368	12695.33
582.728	12732.84
583.089	12776.91
583.449	12721.09
583.809	12727.42
584.169	12750.02
584.529	12722.45
584.889	12787.08
585.249	12658.27
585.609	12627.76
585.969	12718.15
586.329	12715.44
586.688	12709.79
587.048	12643.81
587.408	12625.95
587.768	12660.53
588.127	12698.04
588.487	12561.32
588.846	12713.18
589.206	12556.35
589.565	12667.08
589.925	12585.05
590.284	12594.99
590.643	12582.11
591.003	12602.23
591.362	12688.32
591.721	12597.93
592.08	12572.85
592.44	12629.57
592.799	12586.63
593.158	12566.75
593.517	12573.3
593.876	12609.46
594.235	12540.31
594.593	12566.52
594.952	12535.33
595.311	12465.05
595.67	12536.92
596.029	12590.25
596.387	12597.48
596.746	12630.7
597.104	12569.23
597.463	12515.67
597.822	12594.99
598.18	12641.09
598.538	12537.37
598.897	12620.98
599.255	12447.65
599.613	12631.83
599.972	12540.53
600.33	12564.03
600.688	12470.48
601.046	12506.86
601.404	12520.87
601.762	12458.5
602.12	12590.47
602.478	12542.34
602.836	12590.25
603.194	12472.06
603.552	12573.3
603.91	12448.56
604.268	12600.64
604.625	12477.93
604.983	12432.29
605.341	12489.91
605.698	12583.92
606.056	12520.19
606.413	12513.41
606.771	12522.23
607.128	12536.92
607.485	12476.35
607.843	12535.56
608.2	12565.62
608.557	12636.35
608.914	12591.83
609.272	12617.14
609.629	12659.62
609.986	12735.33
610.343	12658.72
610.7	12670.47
611.057	12732.62
611.414	12644.26
611.771	12659.62
612.127	12736.01
612.484	12760.19
612.841	12702.79
613.198	12712.73
613.554	12703.92
613.911	12856.68
614.267	12783.69
614.624	12744.59
614.98	12808.55
615.337	12804.93
615.693	12766.74
616.05	12769.9
616.406	12832.5
616.762	12747.76
617.118	12772.39
617.475	12821.88
617.831	12798.38
618.187	12867.3
618.543	12861.43
618.899	12926.96
619.255	12918.38
619.611	12927.41
619.967	12917.25
620.323	12930.8
620.678	12910.92
621.034	12838.6
621.39	12878.38
621.746	12818.26
622.101	13016
622.457	12885.38
622.812	12947.07
623.168	13031.82
623.523	13008.77
623.879	12995.44
624.234	12888.55
624.589	12925.15
624.945	12943.46
625.3	12932.16
625.655	12995.66
626.01	13041.31
626.365	12952.95
626.72	12922.22
627.075	12946.4
627.43	12922.44
627.785	12903.23
628.14	12924.02
628.495	12858.04
628.85	12892.16
629.205	12888.55
629.559	12931.93
629.914	12823.24
630.269	12844.93
630.623	12800.86
630.978	12708.21
631.332	12752.5
631.687	12857.36
632.041	12771.49
632.396	12800.41
632.75	12758.38
633.104	12703.47
633.459	12600.19
633.813	12690.36
634.167	12657.59
634.521	12759.51
634.875	12663.92
635.229	12656.91
635.583	12656.69
635.937	12636.57
636.291	12572.4
636.645	12608.55
636.999	12529.91
637.352	12660.08
637.706	12553.86
638.06	12560.19
638.413	12521.55
638.767	12554.32
639.121	12538.05
639.474	12464.6
639.828	12467.31
640.181	12486.3
640.534	12460.08
640.888	12370.82
641.241	12387.32
641.594	12322.46
641.947	12517.26
642.301	12400.65
642.654	12468.44
643.007	12426.41
643.36	12373.53
643.713	12324.72
644.066	12459.63
644.419	12272.74
644.771	12303.7
645.124	12231.39
645.477	12202.91
645.83	12036.59
646.182	12055.35
646.535	11948.01
646.888	12005.86
647.24	11903.71
647.593	11971.28
647.945	11951.85
648.298	11913.66
648.65	11857.84
649.002	11895.58
649.355	11945.97
649.707	11914.56
650.059	11957.27
650.411	12093.99
650.763	12149.13
651.115	12280.65
651.467	12236.36
651.819	12201.33
652.171	12203.37
652.523	12212.18
652.875	12156.81
653.227	12175.57
653.578	12322.68
653.93	12233.87
654.282	12119.75
654.633	12182.58
654.985	12125.4
655.337	12157.49
655.688	12156.59
656.039	12132.86
656.391	12075.91
656.742	12166.98
657.094	12101
657.445	12202.24
657.796	12175.57
658.147	12185.06
658.498	12181.22
658.849	12182.8
659.2	12125.18
659.551	12104.61
659.902	12127.44
660.253	12116.81
660.604	12177.83
660.955	12090.15
661.306	12154.78
661.656	12149.36
662.007	12155.23
662.358	12117.49
662.708	12224.61
663.059	12174.21
663.409	12130.83
663.76	12106.87
664.11	12140.77
664.461	12163.59
664.811	12166.98
665.161	12158.85
665.511	12184.38
665.862	12237.26
666.212	12210.82
666.562	12180.32
666.912	12247.88
667.262	12162.91
667.612	12239.75
667.962	12305.74
668.312	12064.16
668.662	12273.19
669.011	12188.9
669.361	12185.29
669.711	12220.99
670.06	12256.02
670.41	12127.21
670.76	12106.19
671.109	12168.79
671.459	12148
671.808	12079.08
672.157	12182.8
672.507	12065.06
672.856	12173.99
673.205	12100.32
673.554	12102.35
673.904	12088.57
674.253	12160.88
674.602	12071.17
674.951	11866.2
675.3	11835.69
675.649	12031.62
675.998	11926.99
676.346	11958.85
676.695	12068.45
677.044	11850.83
677.393	11952.3
677.741	11953.2
678.09	11978.51
678.438	12004.05
678.787	11950.72
679.135	11939.42
679.484	11788.01
679.832	11924.95
680.181	11831.62
680.529	11858.97
680.877	11874.11
681.225	11850.61
681.573	11909.59
681.922	11737.84
682.27	11701.23
682.618	11667.79
682.966	11700.1
683.314	11657.17
683.661	11770.16
684.009	11678.41
684.357	11655.36
684.705	11623.27
685.053	11539.2
685.4	11589.6
685.748	11484.97
686.095	11480.45
686.443	11393.22
686.79	11369.26
687.138	11436.83
687.485	11475.7
687.832	11442.48
688.18	11425.08
688.527	11301.92
688.874	11294.91
689.221	11184.64
689.568	11160
689.915	11175.37
690.262	11204.97
690.609	11091.3
690.956	11137.4
691.303	11172.21
691.65	11104.64
691.997	11021.48
692.344	10926.11
692.69	10894.47
693.037	10928.6
693.383	10871.88
693.73	10946.9
694.077	10766.34
694.423	10828.03
694.769	10749.17
695.116	10691.31
695.462	10677.98
695.808	10694.25
696.155	10635.72
696.501	10572
696.847	10592.11
697.193	10513.47
697.539	10547.14
697.885	10436.18
698.231	10370.19
698.577	10357.09
698.923	10363.19
699.269	10303.08
699.614	10185.57
699.96	10222.63
700.306	10240.48
700.651	10188.73
700.997	10125.68
701.342	10113.48
701.688	10061.95
702.033	10036.19
702.379	9995.29
702.724	10002.29
703.069	10001.39
703.415	9843.43
703.76	9879.36
704.105	9885.01
704.45	9847.72
704.795	9758.01
705.14	9735.63
705.485	9750.55
705.83	9693.6
706.175	9664
706.52	9647.27
706.865	9531.12
707.209	9623.32
707.554	9562.98
707.899	9564.56
708.243	9496.54
708.588	9556.43
708.932	9432.82
709.277	9442.08
709.621	9381.74
709.966	9349.88
710.31	9400.28
710.654	9330.67
710.998	9292.71
711.342	9250.22
711.687	9310.56
712.031	9208.42
712.375	9189.43
712.719	9210.68
713.063	9239.38
713.407	9164.12
713.75	9109.44
714.094	9103.56
714.438	9110.79
714.782	9087.97
715.125	9072.83
715.469	9025.14
715.812	8990.57
716.156	8923.68
716.499	9007.29
716.843	8935.43
717.186	8946.73
717.53	9025.82
717.873	8960.74
718.216	8900.4
718.559	8927.29
718.902	8816.79
719.246	8877.13
719.589	8881.19
719.932	8828.77
720.275	8844.36
720.617	8802.1
720.96	8810.46
721.303	8740.41
721.646	8797.13
721.989	8739.05
722.331	8746.06
722.674	8733.17
723.016	8739.73
723.359	8751.93
723.701	8818.6
724.044	8679.16
724.386	8692.95
724.729	8681.2
725.071	8691.59
725.413	8657.24
725.755	8680.07
726.097	8674.87
726.439	8567.53
726.782	8563.46
727.124	8603.46
727.465	8594.65
727.807	8598.26
728.149	8546.96
728.491	8596.45
728.833	8601.2
729.175	8529.34
729.516	8569.56
729.858	8499.73
730.199	8586.96
730.541	8558.94
730.882	8546.96
731.224	8574.53
731.565	8523.46
731.906	8543.57
732.248	8510.36
732.589	8546.74
732.93	8455.22
733.271	8456.35
733.612	8481.43
733.953	8494.31
734.294	8496.34
734.635	8495.89
734.976	8550.58
735.317	8483.24
735.658	8539.73
735.999	8507.19
736.339	8514.65
736.68	8512.62
737.021	8529.11
737.361	8411.6
737.702	8585.61
738.042	8489.79
738.383	8550.81
738.723	8556.23
739.063	8547.64
739.404	8529.11
739.744	8466.97
740.084	8558.94
740.424	8562.56
740.764	8535.44
741.104	8581.99
741.444	8564.82
741.784	8534.08
742.124	8607.98
742.464	8628.54
742.804	8661.31
743.143	8607.53
743.483	8630.13
743.823	8659.28
744.162	8636
744.502	8661.54
744.841	8666.74
745.181	8736.56
745.52	8777.01
745.86	8817.24
746.199	8861.98
746.538	8843.45
746.877	8892.27
747.216	8944.02
747.556	9024.24
747.895	8996.67
748.234	9050.68
748.573	9050
748.911	9111.92
749.25	9183.78
749.589	9152.82
749.928	9224.91
750.267	9287.06
750.605	9344.68
750.944	9386.94
751.283	9444.34
751.621	9576.09
751.96	9559.59
752.298	9667.16
752.636	9724.56
752.975	9765.69
753.313	9852.69
753.651	10030.09
753.989	10071.9
754.327	10147.83
754.666	10261.04
755.004	10400.48
755.342	10490.42
755.679	10520.25
756.017	10621.49
756.355	10763.4
756.693	10887.47
757.031	10966.56
757.368	11044.98
757.706	11261.24
758.044	11320.45
758.381	11451.97
758.719	11496.49
759.056	11697.62
759.394	11818.29
759.731	11859.42
