Data from hue_350_FLMS001491_27.txt Node
Date: Mon Feb 06 15:37:48 GMT 2017
User: dcchb
Spectrometer: FLMS00149
Trigger mode: 0
Integration Time (sec): 2.000000E-2
Scans to average: 10
Electric dark correction enabled: true
Nonlinearity correction enabled: false
Boxcar width: 0
XAxis mode: Wavelengths
Number of Pixels in Spectrum: 2048
>>>>>Begin Spectral Data<<<<<
341.393	-0.56
341.776	-0.56
342.16	-0.56
342.543	-72.65
342.927	-58.64
343.31	-67.23
343.693	-48.25
344.077	-84.18
344.46	-63.84
344.843	-50.73
345.226	-41.47
345.61	-19.32
345.993	-29.94
346.376	7.34
346.759	4.41
347.142	32.65
347.525	34.24
347.908	69.04
348.291	74.46
348.674	76.04
349.057	106.78
349.44	121.69
349.823	136.38
350.206	179.54
350.588	193.33
350.971	207.34
351.354	217.51
351.737	244.85
352.119	266.32
352.502	265.19
352.884	276.49
353.267	273.78
353.65	310.39
354.032	309.94
354.414	305.64
354.797	330.5
355.179	316.71
355.562	329.37
355.944	315.81
356.326	363.04
356.709	318.07
357.091	332.08
357.473	344.28
357.855	336.6
358.238	334.79
358.62	343.61
359.002	344.74
359.384	347.67
359.766	340.44
360.148	338.64
360.53	344.28
360.912	330.73
361.294	331.86
361.676	348.35
362.057	332.31
362.439	349.93
362.821	302.7
363.203	323.95
363.584	339.54
363.966	330.27
364.348	318.97
364.729	327.11
365.111	319.2
365.493	320.56
365.874	315.81
366.256	294.79
366.637	304.74
367.019	315.36
367.4	293.89
367.781	313.1
368.163	304.29
368.544	318.07
368.925	309.03
369.306	310.39
369.688	310.61
370.069	326.88
370.45	304.96
370.831	292.08
371.212	312.87
371.593	318.07
371.974	281.24
372.355	303.83
372.736	309.26
373.117	304.96
373.498	320.78
373.879	335.7
374.26	316.04
374.641	313.33
375.021	311.52
375.402	329.6
375.783	298.86
376.163	318.07
376.544	328.92
376.925	305.42
377.305	314.68
377.686	308.58
378.066	309.48
378.447	333.89
378.827	324.62
379.208	339.54
379.588	331.86
379.968	334.12
380.349	331.4
380.729	313.33
381.109	352.42
381.489	329.82
381.87	343.83
382.25	325.3
382.63	324.4
383.01	321.69
383.39	336.6
383.77	333.21
384.15	326.43
384.53	363.72
384.91	330.27
385.29	337.51
385.67	347.9
386.049	335.92
386.429	350.84
386.809	349.26
387.189	354.23
387.568	368.69
387.948	368.69
388.328	358.07
388.707	355.81
389.087	353.55
389.466	335.25
389.846	368.24
390.225	349.26
390.605	352.19
390.984	336.83
391.363	353.1
391.743	366.21
392.122	364.17
392.501	380.44
392.881	371.63
393.26	369.59
393.639	371.4
394.018	374.79
394.397	371.85
394.776	367.79
395.155	364.85
395.534	366.88
395.913	368.69
396.292	354.91
396.671	374.11
397.05	378.18
397.429	398.52
397.808	368.24
398.186	370.5
398.565	383.61
398.944	368.24
399.323	382.25
399.701	401.23
400.08	384.28
400.458	381.35
400.837	391.74
401.215	382.48
401.594	389.71
401.972	399.2
402.351	401.91
402.729	405.07
403.107	408.69
403.486	405.53
403.864	406.88
404.242	406.88
404.62	420.44
404.999	374.79
405.377	415.02
405.755	401.68
406.133	429.48
406.511	400.1
406.889	403.27
407.267	411.85
407.645	415.02
408.023	419.54
408.401	420.67
408.779	417.28
409.156	435.81
409.534	432.19
409.912	462.25
410.29	462.7
410.667	440.78
411.045	448.01
411.422	436.26
411.8	424.96
412.178	429.93
412.555	473.77
412.933	462.02
413.31	466.99
413.687	485.52
414.065	483.04
414.442	479.2
414.819	445.75
415.197	464.06
415.574	477.39
415.951	504.96
416.328	513.55
416.705	475.35
417.082	484.17
417.46	490.95
417.837	504.73
418.214	509.7
418.591	510.16
418.967	514.45
419.344	516.03
419.721	521
420.098	524.84
420.475	538.4
420.852	514.45
421.228	532.98
421.605	548.8
421.982	549.25
422.358	531.85
422.735	539.76
423.111	517.16
423.488	548.8
423.864	549.7
424.241	554.67
424.617	534.11
424.994	557.16
425.37	578.63
425.746	566.88
426.123	558.29
426.499	582.02
426.875	579.31
427.251	585.63
427.627	598.06
428.003	573.66
428.379	603.49
428.756	610.94
429.132	619.08
429.507	592.64
429.883	627.44
430.259	631.51
430.635	631.28
431.011	647.33
431.387	647.78
431.763	648.01
432.138	658.17
432.514	642.36
432.89	657.95
433.265	662.02
433.641	670.38
434.016	667.44
434.392	686.42
434.767	712.64
435.143	674.67
435.518	710.38
435.894	704.5
436.269	693.2
436.644	726.65
437.02	716.25
437.395	713.54
437.77	724.16
438.145	728.91
438.52	737.49
438.895	771.84
439.271	749.92
439.646	745.86
440.021	764.39
440.395	771.17
440.77	770.71
441.145	751.73
441.52	782.69
441.895	769.36
442.27	805.52
442.645	769.36
443.019	811.62
443.394	796.93
443.769	794.22
444.143	801
444.518	790.6
444.892	786.08
445.267	813.2
445.641	821.33
446.016	844.61
446.39	830.37
446.764	838.96
447.139	798.96
447.513	832.41
447.887	828.34
448.262	851.39
448.636	811.39
449.01	849.81
449.384	873.76
449.758	852.75
450.132	879.19
450.506	854.78
450.88	886.19
451.254	870.37
451.628	862.46
452.002	890.03
452.376	899.75
452.75	920.77
453.123	914.89
453.497	928
453.871	915.8
454.244	918.28
454.618	932.97
454.992	962.8
455.365	961.9
455.739	974.32
456.112	977.94
456.486	983.14
456.859	1002.8
457.232	1017.71
457.606	946.3
457.979	991.5
458.352	1012.06
458.725	1022.46
459.099	1052.29
459.472	1043.93
459.845	1069.92
460.218	1076.47
460.591	1076.69
460.964	1082.12
461.337	1106.07
461.71	1112.17
462.083	1104.26
462.456	1148.78
462.829	1119.18
463.201	1137.26
463.574	1140.65
463.947	1160.08
464.32	1193.53
464.692	1206.41
465.065	1191.04
465.438	1221.78
465.81	1208.89
466.183	1256.58
466.555	1243.24
466.928	1266.75
467.3	1280.31
467.672	1302
468.045	1323.92
468.417	1303.36
468.789	1320.53
469.161	1349.68
469.534	1344.03
469.906	1363.02
470.278	1425.61
470.65	1431.71
471.022	1421.77
471.394	1459.06
471.766	1446.85
472.138	1482.33
472.51	1530.24
472.882	1562.78
473.253	1525.72
473.625	1547.42
473.997	1607.98
474.369	1596.46
474.74	1649.11
475.112	1641.2
475.484	1643.69
475.855	1672.39
476.227	1750.8
476.598	1784.47
476.97	1772.27
477.341	1835.54
477.713	1782.21
478.084	1821.99
478.455	1885.71
478.827	1908.31
479.198	1963
479.569	1953.06
479.94	2025.6
480.311	2023.56
480.682	2095.65
481.053	2131.36
481.424	2153.28
481.795	2178.13
482.166	2238.25
482.537	2280.05
482.908	2268.98
483.279	2321.18
483.65	2375.42
484.021	2369.99
484.391	2386.72
484.762	2416.09
485.133	2463.78
485.503	2523.21
485.874	2555.07
486.244	2606.6
486.615	2667.16
486.985	2705.13
487.356	2727.72
487.726	2728.18
488.097	2808.85
488.467	2816.76
488.837	2884.78
489.207	2924.33
489.578	2903.99
489.948	2972.01
490.318	3053.37
490.688	3021.73
491.058	3094.72
491.428	3118
491.798	3158.45
492.168	3226.92
492.538	3242.51
492.908	3257.88
493.278	3274.83
493.648	3354.15
494.017	3356.18
494.387	3390.76
494.757	3445.22
495.126	3506.91
495.496	3468.04
495.866	3488.38
496.235	3551.43
496.605	3569.74
496.974	3576.74
497.344	3599.79
497.713	3679.56
498.082	3665.55
498.452	3712.33
498.821	3670.75
499.19	3760.69
499.559	3763.18
499.928	3809.05
500.298	3828.49
500.667	3861.48
501.036	3851.76
501.405	3924.08
501.774	3923.63
502.143	3928.37
502.512	3951.87
502.88	3974.92
503.249	3988.93
503.618	3996.84
503.987	4052.21
504.356	4031.42
504.724	4061.02
505.093	4090.17
505.462	4071.87
505.83	4129.72
506.199	4156.61
506.567	4227.8
506.936	4181.47
507.304	4254.69
507.672	4262.83
508.041	4258.08
508.409	4330.85
508.777	4309.38
509.145	4328.36
509.514	4327.46
509.882	4360.45
510.25	4358.19
510.618	4396.16
510.986	4413.78
511.354	4441.58
511.722	4500.11
512.09	4522.03
512.458	4496.72
512.826	4521.12
513.193	4574.91
513.561	4544.4
513.929	4579.43
514.297	4594.79
514.664	4654.45
515.032	4689.03
515.4	4636.38
515.767	4651.06
516.135	4692.64
516.502	4648.8
516.869	4734.9
517.237	4745.98
517.604	4695.36
517.972	4777.39
518.339	4832.08
518.706	4786.88
519.073	4861
519.44	4810.16
519.808	4859.19
520.175	4846.31
520.542	4867.78
520.909	4933.54
521.276	4889.48
521.643	4935.35
522.009	4958.63
522.376	4963.6
522.743	5020.32
523.11	5068.68
523.477	5092.86
523.843	5108.45
524.21	5119.53
524.577	5151.39
524.943	5191.61
525.31	5192.29
525.676	5291.73
526.043	5253.31
526.409	5304.61
526.776	5330.37
527.142	5323.36
527.508	5390.03
527.874	5442.68
528.241	5419.86
528.607	5401.78
528.973	5477.71
529.339	5481.32
529.705	5577.59
530.071	5543.7
530.437	5614.88
530.803	5608.1
531.169	5640.42
531.535	5642.9
531.901	5675.9
532.267	5705.5
532.632	5758.83
532.998	5747.76
533.364	5785.72
533.73	5835.21
534.095	5882.67
534.461	5892.16
534.826	5933.74
535.192	5898.26
535.557	5988.66
535.923	5978.49
536.288	5960.41
536.653	6029.78
537.019	6009.22
537.384	6013.51
537.749	6066.39
538.114	6081.31
538.479	6082.89
538.845	6136.22
539.21	6089.9
539.575	6144.58
539.94	6154.98
540.305	6276.11
540.67	6219.38
541.034	6256.22
541.399	6319.72
541.764	6359.72
542.129	6351.81
542.494	6385.71
542.858	6393.17
543.223	6414.63
543.587	6494.18
543.952	6429.77
544.316	6488.76
544.681	6524.24
545.045	6540.51
545.41	6542.99
545.774	6648.07
546.138	6575.08
546.503	6651.92
546.867	6652.37
547.231	6684.68
547.595	6650.11
547.959	6689.43
548.324	6721.29
548.688	6761.74
549.052	6838.35
549.416	6798.8
549.779	6797.9
550.143	6872.02
550.507	6930.1
550.871	6863.21
551.235	6945.92
551.599	6996.99
551.962	6939.14
552.326	7020.04
552.689	7068.63
553.053	7006.48
553.417	7024.56
553.78	7189.98
554.143	7155.86
554.507	7101.4
554.87	7143.2
555.234	7217.78
555.597	7189.08
555.96	7233.82
556.323	7226.59
556.686	7228.85
557.05	7319.02
557.413	7305.91
557.776	7315.17
558.139	7385.91
558.502	7414.83
558.865	7378.22
559.228	7495.28
559.59	7484.66
559.953	7516.75
560.316	7586.35
560.679	7608.27
561.041	7590.42
561.404	7556.52
561.767	7634.04
562.129	7634.49
562.492	7793.35
562.854	7679.23
563.217	7729.63
563.579	7769.4
563.941	7800.36
564.304	7805.78
564.666	7827.7
565.028	7910.19
565.39	7887.14
565.753	7894.14
566.115	7941.6
566.477	8019.34
566.839	8028.6
567.201	8039.22
567.563	8083.74
567.925	8095.49
568.287	8116.74
568.648	8109.96
569.01	8187.47
569.372	8254.81
569.734	8196.96
570.095	8288.03
570.457	8335.26
570.819	8353.79
571.18	8375.26
571.542	8471.75
571.903	8503.39
572.265	8528.48
572.626	8573.45
572.987	8603.28
573.349	8608.7
573.71	8558.98
574.071	8733.22
574.432	8740
574.794	8845.3
575.155	8833.78
575.516	8993.55
575.877	8976.6
576.238	9068.12
576.599	9043.94
576.96	9141.34
577.32	9187.44
577.681	9311.28
578.042	9404.39
578.403	9504.95
578.763	9494.55
579.124	9643.7
579.485	9756.69
579.845	9846.63
580.206	9910.81
580.566	10021.09
580.927	10160.3
581.287	10309.67
581.648	10347.41
582.008	10484.58
582.368	10614.3
582.728	10734.52
583.089	10883.22
583.449	11027.62
583.809	11134.96
584.169	11339.7
584.529	11467.61
584.889	11713.93
585.249	11795.06
585.609	11874.38
585.969	12180.13
586.329	12362.95
586.688	12532.44
587.048	12784.64
587.408	12889.27
587.768	13151.86
588.127	13348.46
588.487	13488.12
588.846	13865.51
589.206	14023.93
589.565	14186.86
589.925	14502.56
590.284	14740.06
590.643	14967.63
591.003	15211.92
591.362	15526.71
591.721	15791.79
592.08	15965.79
592.44	16214.6
592.799	16587.7
593.158	16762.38
593.517	17129.15
593.876	17347.68
594.235	17576.83
594.593	17853.2
594.952	18207.32
595.311	18481.66
595.67	18770.47
596.029	19035.77
596.387	19453.16
596.746	19693.61
597.104	19897.22
597.463	20100.83
597.822	20474.83
598.18	20767.25
598.538	20962.05
598.897	21335.37
599.255	21470.96
599.613	21983.04
599.972	22127.89
600.33	22439.3
600.688	22682.45
601.046	23007.64
601.404	23344.81
601.762	23561.3
602.12	23866.15
602.478	24138.24
602.836	24334.84
603.194	24581.61
603.552	24988.16
603.91	25090.07
604.268	25423.4
604.625	25649.38
604.983	25882.37
605.341	26058.64
605.698	26377.05
606.056	26737.94
606.413	26844.38
606.771	27228.78
607.128	27439.39
607.485	27557.81
607.843	27787.63
608.2	28207.51
608.557	28384.23
608.914	28612.47
609.272	28807.27
609.629	28946.92
609.986	29465.78
610.343	29351.88
610.7	29916.39
611.057	29867.35
611.414	30061.47
611.771	30288.58
612.127	30601.12
612.484	30804.73
612.841	30947.55
613.198	30907.55
613.554	31174.89
613.911	31446.97
614.267	31617.13
614.624	31883.79
614.98	31907.07
615.337	32229.1
615.693	32366.95
616.05	32441.07
616.406	32674.28
616.762	32684.45
617.118	32936.2
617.475	33054.61
617.831	33213.7
618.187	33316.75
618.543	33422.51
618.899	33823.18
619.255	33834.7
619.611	33926.68
619.967	34273.79
620.323	34387.68
620.678	34341.81
621.034	34274.01
621.39	34561.01
621.746	34556.49
622.101	35066.76
622.457	34786.32
622.812	34978.18
623.168	35248.9
623.523	35229.47
623.879	35449.8
624.234	35230.83
624.589	35518.95
624.945	35645.05
625.3	35605.28
625.655	35677.37
626.01	35838.72
626.365	35891.6
626.72	35868.77
627.075	36076.9
627.43	35948.32
627.785	35999.17
628.14	36185.6
628.495	36301.31
628.85	36156.22
629.205	36257.92
629.559	36425.82
629.914	36343.56
630.269	36374.07
630.623	36333.17
630.978	36414.52
631.332	36676.89
631.687	36710.79
632.041	36512.15
632.396	36692.71
632.75	36519.38
633.104	36733.38
633.459	36483.45
633.813	36630.34
634.167	36544.46
634.521	36667.4
634.875	36761.63
635.229	36639.83
635.583	36554.86
635.937	36773.16
636.291	36759.37
636.645	36915.07
636.999	36726.83
637.352	36676.44
637.706	36727.51
638.06	36778.81
638.413	36688.41
638.767	36662.2
639.121	36710.11
639.474	36595.53
639.828	36640.51
640.181	36750.33
640.534	36711.69
640.888	36548.08
641.241	36517.12
641.594	36650.22
641.947	36656.78
642.301	36675.76
642.654	36651.13
643.007	36611.13
643.36	36578.13
643.713	36608.64
644.066	36834.62
644.419	36456.1
644.771	36287.75
645.124	35981.31
645.477	35904.71
645.83	35602.34
646.182	35588.56
646.535	35497.71
646.888	35569.8
647.24	35380.2
647.593	35632.62
647.945	35476.24
648.298	35296.81
648.65	35372.06
649.002	35127.32
649.355	35486.19
649.707	35402.8
650.059	35559.4
650.411	35821.54
650.763	35849.11
651.115	36203
651.467	36323.23
651.819	36151.7
652.171	36208.43
652.523	36152.38
652.875	36108.54
653.227	35930.47
653.578	36191.48
653.93	36132.04
654.282	36010.24
654.633	35911.94
654.985	36069.22
655.337	36032.39
655.688	35972.5
656.039	36148.09
656.391	35814.09
656.742	35938.6
657.094	36041.2
657.445	36068.32
657.796	35990.58
658.147	35894.76
658.498	35897.25
658.849	35928.21
659.2	35873.52
659.551	35886.4
659.902	35925.04
660.253	35929.56
660.604	35945.16
660.955	35808.89
661.306	36027.87
661.656	35892.95
662.007	35800.98
662.358	35781.09
662.708	35712.62
663.059	35729.79
663.409	35525.51
663.76	35861.99
664.11	35838.27
664.461	35772.28
664.811	35585.84
665.161	35697.03
665.511	35789.91
665.862	35708.55
666.212	35810.02
666.562	35873.07
666.912	35842.79
667.262	35736.57
667.612	35742.45
667.962	35812.5
668.312	35841.88
668.662	35798.95
669.011	35638.27
669.361	35617.93
669.711	35799.17
670.06	35724.37
670.41	35527.77
670.76	35584.94
671.109	35720.98
671.459	35689.34
671.808	35621.32
672.157	35632.17
672.507	35487.99
672.856	35328.22
673.205	35437.83
673.554	35508.56
673.904	35344.72
674.253	35706.29
674.602	35413.87
674.951	35025.86
675.3	34724.62
675.649	35408.9
675.998	35385.4
676.346	35445.96
676.695	35438.5
677.044	35200.77
677.393	35284.38
677.741	35356.7
678.09	35137.95
678.438	35134.1
678.787	35252.29
679.135	35197.15
679.484	34912.42
679.832	35099.08
680.181	34998.29
680.529	35077.38
680.877	34955.58
681.225	34879.42
681.573	35094.56
681.922	34954.22
682.27	34767.79
682.618	34735.24
682.966	34708.35
683.314	34749.48
683.661	34597.4
684.009	34591.75
684.357	34455.03
684.705	34540.9
685.053	34522.37
685.4	34361.7
685.748	34199.44
686.095	34221.81
686.443	34129.84
686.79	34089.16
687.138	34146.33
687.485	34129.84
687.832	33942.72
688.18	34002.38
688.527	33804.2
688.874	33841.48
689.221	33795.83
689.568	33624.99
689.915	33572.56
690.262	33561.72
690.609	33547.71
690.956	33410.08
691.303	33290.54
691.65	33188.84
691.997	33267.71
692.344	32971.45
692.69	33043.99
693.037	33093.25
693.383	32731.68
693.73	32848.06
694.077	32740.5
694.423	32703.89
694.769	32542.53
695.116	32486.94
695.462	32551.12
695.808	32404.46
696.155	32490.33
696.501	32284.91
696.847	32105.03
697.193	31888.77
697.539	32105.48
697.885	31869.56
698.231	31810.8
698.577	31811.03
698.923	31740.3
699.269	31593.41
699.614	31416.69
699.96	31362.9
700.306	31546.18
700.651	31319.97
700.997	31067.09
701.342	31199.07
701.688	31043.59
702.033	30877.27
702.379	30899.64
702.724	30828.23
703.069	30901.45
703.415	30418.07
703.76	30409.03
704.105	30611.29
704.45	30446.09
704.795	30337.85
705.14	30107.34
705.485	30224.85
705.83	30040.68
706.175	30278.41
706.52	30049.94
706.865	29977.63
707.209	29900.57
707.554	29745.32
707.899	29857.18
708.243	29577.64
708.588	29615.38
708.932	29405.89
709.277	29579.67
709.621	29418.55
709.966	29304.88
710.31	29243.41
710.654	29062.63
710.998	29181.94
711.342	29142.62
711.687	29010.88
712.031	28973.36
712.375	28909.41
712.719	28980.14
713.063	28850.65
713.407	28921.16
713.75	28676.2
714.094	28696.31
714.438	28568.18
714.782	28572.92
715.125	28511.45
715.469	28481.4
715.812	28410.89
716.156	28233.72
716.499	28298.8
716.843	28297.9
717.186	28059.26
717.53	28206.15
717.873	28101.52
718.216	28111.24
718.559	27975.87
718.902	27733.62
719.246	27810.68
719.589	27792.15
719.932	27582.66
720.275	27682.1
720.617	27603.23
720.96	27558.71
721.303	27535.89
721.646	27617.24
721.989	27391.03
722.331	27484.81
722.674	27513.06
723.016	27423.57
723.359	27186.52
723.701	27337.47
724.044	27163.69
724.386	26902.46
724.729	27165.95
725.071	27032.17
725.413	27064.49
725.755	27043.02
726.097	26850.71
726.439	26856.81
726.782	26737.49
727.124	26899.52
727.465	26762.35
727.807	26811.84
728.149	26709.92
728.491	26528.23
728.833	26675.34
729.175	26510.6
729.516	26594.67
729.858	26473.54
730.199	26489.13
730.541	26341.12
730.882	26376.37
731.224	26424.5
731.565	26265.19
731.906	26278.97
732.248	26371.62
732.589	26227.22
732.93	26185.87
733.271	26031.52
733.612	26067.45
733.953	26110.39
734.294	25968.24
734.635	25821.35
734.976	26045.98
735.317	25890.28
735.658	25856.83
735.999	25846.21
736.339	25767.12
736.68	25828.59
737.021	25753.56
737.361	25615.94
737.702	25828.36
738.042	25688.03
738.383	25613
738.723	25567.35
739.063	25557.41
739.404	25693.22
739.744	25402.83
740.084	25355.83
740.424	25465.66
740.764	25347.47
741.104	25385.43
741.444	25193.12
741.784	25144.31
742.124	25328.94
742.464	25237.64
742.804	25155.38
743.143	25113.8
743.483	25145.21
743.823	24969.63
744.162	24924.88
744.502	25069.28
744.841	24932.11
745.181	25093.01
745.52	24975.28
745.86	24853.02
746.199	24835.84
746.538	24746.58
746.877	24787.94
747.216	24808.05
747.556	24743.42
747.895	24767.15
748.234	24534.84
748.573	24523.99
748.911	24502.07
749.25	24512.69
749.589	24415.29
749.928	24347.27
750.267	24333.71
750.605	24244.45
750.944	24310.21
751.283	24204.22
751.621	24272.92
751.96	24121.06
752.298	24177.1
752.636	24145.01
752.975	24017.56
753.313	23975.53
753.651	24027.5
753.989	23846.27
754.327	23889.65
754.666	23692.82
755.004	23861.63
755.342	23827.74
755.679	23776.89
756.017	23698.25
756.355	23680.17
756.693	23549.32
757.031	23550.91
757.368	23397.24
757.706	23491.92
758.044	23230.69
758.381	23212.61
758.719	23237.69
759.056	23273.17
759.394	23203.34
759.731	23069.79
760.068	23116.79
760.405	22881.77
760.743	22859.17
761.08	22833.86
