Data from hue_340_FLMS001491_26.txt Node
Date: Mon Feb 06 15:42:42 GMT 2017
User: dcchb
Spectrometer: FLMS00149
Trigger mode: 0
Integration Time (sec): 2.000000E-2
Scans to average: 10
Electric dark correction enabled: true
Nonlinearity correction enabled: false
Boxcar width: 0
XAxis mode: Wavelengths
Number of Pixels in Spectrum: 2048
>>>>>Begin Spectral Data<<<<<
341.393	-17.4
341.776	-17.4
342.16	-17.4
342.543	-44.52
342.927	-54.24
343.31	-76.61
343.693	-56.04
344.077	-83.16
344.46	-41.35
344.843	-46.55
345.226	-48.59
345.61	-36.16
345.993	-15.14
346.376	-13.78
346.759	14.24
347.142	31.41
347.525	47.46
347.908	43.84
348.291	84.29
348.674	79.55
349.057	116.61
349.44	114.35
349.823	139.66
350.206	159.54
350.588	203.84
350.971	197.73
351.354	211.75
351.737	226.66
352.119	252.2
352.502	251.52
352.884	270.95
353.267	269.6
353.65	296.49
354.032	308.69
354.414	308.69
354.797	331.97
355.179	338.97
355.562	316.15
355.944	310.95
356.326	329.93
356.709	306.21
357.091	329.71
357.473	344.62
357.855	335.81
358.238	336.94
358.62	340.56
359.002	360.89
359.384	346.66
359.766	333.55
360.148	349.37
360.53	316.83
360.912	351.4
361.294	347.79
361.676	344.85
362.057	303.27
362.439	308.69
362.821	315.92
363.203	312.76
363.584	338.3
363.966	315.02
364.348	318.64
364.729	331.06
365.111	301.69
365.493	335.81
365.874	308.24
366.256	295.13
366.637	288.58
367.019	307.11
367.4	312.31
367.781	319.99
368.163	310.5
368.544	314.57
368.925	299.43
369.306	328.58
369.688	319.09
370.069	284.96
370.45	305.53
370.831	286.55
371.212	317.51
371.593	294.46
371.974	307.34
372.355	301.69
372.736	294.91
373.117	328.35
373.498	324.51
373.879	302.59
374.26	330.84
374.641	301.46
375.021	319.09
375.402	320.9
375.783	320.22
376.163	324.51
376.544	328.58
376.925	311.63
377.305	327.22
377.686	318.86
378.066	306.66
378.447	325.19
378.827	323.83
379.208	312.99
379.588	315.7
379.968	317.73
380.349	327
380.729	327.9
381.109	336.94
381.489	331.29
381.87	338.52
382.25	343.27
382.63	322.25
383.01	341.46
383.39	335.36
383.77	322.48
384.15	348.01
384.53	343.72
384.91	343.27
385.29	335.58
385.67	327.9
386.049	367.9
386.429	356.83
386.809	334.91
387.189	341.01
387.568	350.5
387.948	347.34
388.328	352.08
388.707	372.19
389.087	359.09
389.466	349.82
389.846	355.24
390.225	344.4
390.605	337.84
390.984	373.1
391.363	352.08
391.743	362.48
392.122	353.44
392.501	353.89
392.881	357.96
393.26	365.87
393.639	354.79
394.018	361.35
394.397	366.54
394.776	360.44
395.155	362.93
395.534	366.54
395.913	361.8
396.292	395.92
396.671	372.42
397.05	384.4
397.429	370.39
397.808	371.74
398.186	355.24
398.565	386.43
398.944	391.4
399.323	382.81
399.701	370.39
400.08	404.06
400.458	408.12
400.837	411.06
401.215	390.72
401.594	396.83
401.972	382.14
402.351	385.07
402.729	415.81
403.107	384.62
403.486	395.47
403.864	404.74
404.242	411.51
404.62	382.59
404.999	430.5
405.377	393.89
405.755	419.88
406.133	411.74
406.511	428.01
406.889	417.62
407.267	422.14
407.645	424.62
408.023	418.07
408.401	432.76
408.779	440.44
409.156	437.28
409.534	452.42
409.912	439.08
410.29	430.95
410.667	435.69
411.045	438.18
411.422	448.35
411.8	457.62
412.178	454.23
412.555	466.43
412.933	456.03
413.31	482.47
413.687	463.94
414.065	497.16
414.442	508.01
414.819	507.11
415.197	499.65
415.574	489.7
415.951	498.97
416.328	529.48
416.705	504.85
417.082	502.36
417.46	518.86
417.837	495.35
418.214	518.18
418.591	532.19
418.967	529.93
419.344	522.25
419.721	537.84
420.098	539.65
420.475	537.39
420.852	571.06
421.228	559.08
421.605	568.57
421.982	574
422.358	587.78
422.735	593.43
423.111	560.44
423.488	599.31
423.864	582.13
424.241	605.41
424.617	590.04
424.994	621.9
425.37	603.83
425.746	607.89
426.123	618.06
426.499	634.33
426.875	626.88
427.251	632.75
427.627	635.24
428.003	630.49
428.379	649.47
428.756	649.93
429.132	679.3
429.507	671.39
429.883	651.06
430.259	666.2
430.635	675.69
431.011	684.95
431.387	692.19
431.763	716.37
432.138	713.43
432.514	718.17
432.89	715.91
433.265	716.59
433.641	748.45
434.016	734.44
434.392	767.89
434.767	740.32
435.143	752.3
435.518	761.11
435.894	786.65
436.269	784.39
436.644	778.51
437.02	815.8
437.395	801.56
437.77	790.04
438.145	822.58
438.52	814.22
438.895	809.02
439.271	809.7
439.646	842.46
440.021	860.77
440.395	834.1
440.77	848.34
441.145	838.62
441.52	868
441.895	854.44
442.27	849.47
442.645	860.99
443.019	870.71
443.394	860.54
443.769	876.59
444.143	852.41
444.518	907.77
444.892	888.56
445.267	900.77
445.641	896.93
446.016	901.67
446.39	933.99
446.764	921.33
447.139	919.07
447.513	930.15
447.887	918.39
448.262	926.53
448.636	912.74
449.01	915.91
449.384	933.08
449.758	959.75
450.132	942.35
450.506	976.02
450.88	980.31
451.254	952.97
451.628	974.44
452.002	984.83
452.376	990.71
452.75	1016.02
453.123	980.77
453.497	1041.55
453.871	1039.29
454.244	1037.03
454.618	1027.77
454.992	1018.96
455.365	1032.74
455.739	1080.2
456.112	1044.49
456.486	1077.94
456.859	1049.01
457.232	1091.04
457.606	1106.86
457.979	1080.88
458.352	1079.29
458.725	1099.86
459.099	1122.23
459.472	1157.94
459.845	1162
460.218	1136.02
460.591	1161.55
460.964	1177.6
461.337	1194.32
461.71	1180.99
462.083	1213.98
462.456	1194.54
462.829	1223.02
463.201	1238.16
463.574	1258.72
463.947	1231.83
464.32	1234.32
464.692	1270.25
465.065	1272.51
465.438	1282.45
465.81	1308.21
466.183	1311.6
466.555	1314.09
466.928	1328.78
467.3	1339.63
467.672	1365.61
468.045	1402
468.417	1388.44
468.789	1375.11
469.161	1393.86
469.534	1435.67
469.906	1449.68
470.278	1453.52
470.65	1498.27
471.022	1492.62
471.394	1503.69
471.766	1534.65
472.138	1539.39
472.51	1546.17
472.882	1576.91
473.253	1611.03
473.625	1612.61
473.997	1643.57
474.369	1650.13
474.74	1645.38
475.112	1703.91
475.484	1721.76
475.855	1721.31
476.227	1719.5
476.598	1810.35
476.97	1838.37
477.341	1851.48
477.713	1896.45
478.084	1910.23
478.455	1928.76
478.827	1940.29
479.198	1990.68
479.569	1979.83
479.94	2042.43
480.311	2038.82
480.682	2099.61
481.053	2136.89
481.424	2145.03
481.795	2179.6
482.166	2197
482.537	2235.87
482.908	2260.73
483.279	2283.78
483.65	2306.38
484.021	2363.55
484.391	2415.3
484.762	2405.59
485.133	2416.89
485.503	2486.49
485.874	2488.07
486.244	2529.43
486.615	2595.86
486.985	2602.64
487.356	2627.05
487.726	2662.3
488.097	2716.99
488.467	2719.02
488.837	2788.4
489.207	2746.82
489.578	2848.96
489.948	2828.63
490.318	2915.4
490.688	2900.94
491.058	2935.52
491.428	2994.05
491.798	2981.39
492.168	3048.06
492.538	3058.22
492.908	3113.59
493.278	3141.84
493.648	3127.6
494.017	3195.4
494.387	3221.84
494.757	3272
495.126	3271.78
495.496	3260.71
495.866	3332.57
496.235	3347.48
496.605	3374.37
496.974	3412.57
497.344	3384.54
497.713	3422.28
498.082	3427.48
498.452	3479.91
498.821	3460.47
499.19	3498.67
499.559	3527.82
499.928	3561.26
500.298	3602.84
500.667	3594.26
501.036	3607.14
501.405	3606.23
501.774	3617.53
502.143	3661.6
502.512	3669.73
502.88	3696.17
503.249	3699.56
503.618	3714.03
503.987	3750.64
504.356	3774.36
504.724	3805.1
505.093	3795.38
505.462	3779.11
505.83	3840.58
506.199	3870.86
506.567	3857.75
506.936	3844.42
507.304	3929.39
507.672	3954.02
508.041	3911.08
508.409	4003.96
508.777	4001.02
509.145	3990.4
509.514	3968.71
509.882	3984.98
510.25	4003.06
510.618	4017.07
510.986	4048.03
511.354	4077.86
511.722	4094.13
512.09	4163.51
512.458	4068.14
512.826	4188.82
513.193	4187.69
513.561	4174.35
513.929	4213.67
514.297	4246.89
514.664	4222.49
515.032	4241.7
515.4	4237.18
515.767	4287.12
516.135	4288.25
516.502	4290.28
516.869	4337.74
517.237	4313.11
517.604	4316.95
517.972	4341.13
518.339	4377.06
518.706	4363.5
519.073	4318.98
519.44	4422.93
519.808	4442.37
520.175	4435.59
520.542	4474.01
520.909	4443.72
521.276	4426.1
521.643	4508.58
522.009	4530.28
522.376	4619.77
522.743	4549.48
523.11	4589.03
523.477	4648.47
523.843	4637.84
524.21	4674.45
524.577	4695.47
524.943	4743.15
525.31	4759.42
525.676	4770.27
526.043	4818.86
526.409	4803.94
526.776	4838.97
527.142	4855.69
527.508	4902.92
527.874	4908.8
528.241	4890.94
528.607	4946.99
528.973	4963.71
529.339	4990.83
529.705	5090.94
530.071	5015.46
530.437	5085.97
530.803	5099.98
531.169	5159.41
531.535	5149.24
531.901	5153.76
532.267	5148.57
532.632	5187.89
532.998	5226.3
533.364	5246.64
533.73	5246.87
534.095	5285.28
534.461	5278.96
534.826	5306.3
535.192	5363.93
535.557	5352.4
535.923	5344.04
536.288	5420.2
536.653	5467.88
537.019	5420.42
537.384	5428.78
537.749	5519.4
538.114	5515.34
538.479	5530.7
538.845	5550.36
539.21	5543.36
539.575	5576.58
539.94	5550.81
540.305	5576.12
540.67	5636.01
541.034	5654.09
541.399	5691.38
541.764	5774.31
542.129	5703.35
542.494	5764.37
542.858	5833.97
543.223	5798.94
543.587	5875.1
543.952	5845.27
544.316	5937.92
544.681	5892.73
545.045	5893.86
545.41	5935.44
545.774	5980.18
546.138	5980.18
546.503	6007.07
546.867	6027.41
547.231	6071.03
547.595	6108.31
547.959	6068.32
548.324	6101.99
548.688	6150.8
549.052	6155.77
549.416	6203.45
549.779	6187.18
550.143	6246.39
550.507	6237.12
550.871	6294.75
551.235	6279.16
551.599	6308.31
551.962	6304.69
552.326	6344.69
552.689	6365.26
553.053	6387.18
553.417	6392.15
553.78	6464.01
554.143	6423.11
554.507	6480.73
554.87	6446.38
555.234	6562.77
555.597	6497.23
555.96	6530
556.323	6651.12
556.686	6551.92
557.05	6596.44
557.413	6655.64
557.776	6666.04
558.139	6710.33
558.502	6696.77
558.865	6689.77
559.228	6693.61
559.59	6771.8
559.953	6720.05
560.316	6801.4
560.679	6816.77
561.041	6908.74
561.404	6869.2
561.767	6943.09
562.129	6848.63
562.492	6951
562.854	6972.7
563.217	6991.23
563.579	7022.19
563.941	7040.04
564.304	7002.3
564.666	7090.66
565.028	7087.05
565.39	7166.14
565.753	7104.45
566.115	7218.12
566.477	7231.22
566.839	7223.31
567.201	7299.92
567.563	7257.44
567.925	7344.67
568.287	7321.84
568.648	7356.64
569.01	7378.79
569.372	7447.71
569.734	7434.83
570.095	7472.57
570.457	7476.19
570.819	7556.86
571.18	7605.68
571.542	7596.18
571.903	7643.87
572.265	7677.99
572.626	7757.99
572.987	7803.41
573.349	7772
573.71	7895.84
574.071	7932.22
574.432	7918.66
574.794	7987.81
575.155	8003.63
575.516	8027.59
575.877	8173.8
576.238	8158.43
576.599	8255.15
576.96	8263.29
577.32	8335.15
577.681	8441.13
578.042	8536.27
578.403	8566.33
578.763	8588.02
579.124	8787.57
579.485	8847.23
579.845	8999.54
580.206	8983.94
580.566	9119.53
580.927	9206.31
581.287	9337.38
581.648	9375.35
582.008	9568.79
582.368	9694.21
582.728	9789.12
583.089	9903.69
583.449	10051.94
583.809	10212.61
584.169	10364.02
584.529	10480.18
584.889	10726.72
585.249	10850.56
585.609	11014.85
585.969	11194.51
586.329	11303.66
586.688	11584.1
587.048	11727.38
587.408	11961.27
587.768	12053.47
588.127	12341.82
588.487	12510.41
588.846	12784.75
589.206	12911.07
589.565	13222.48
589.925	13417.27
590.284	13598.29
590.643	13873.99
591.003	14189.68
591.362	14505.83
591.721	14653.4
592.08	14903.56
592.44	15248.86
592.799	15407.5
593.158	15604.11
593.517	15960.94
593.876	16179.69
594.235	16607.47
594.593	16805.89
594.952	17102.15
595.311	17327.68
595.67	17580.55
596.029	17940.32
596.387	18235.68
596.746	18560.64
597.104	18770.58
597.463	19001.99
597.822	19317.01
598.18	19469.32
598.538	19796.09
598.897	20146.59
599.255	20227.49
599.613	20825.67
599.972	20977.53
600.33	21249.84
600.688	21401.02
601.046	21771.4
601.404	22197.38
601.762	22304.05
602.12	22618.84
602.478	22911.04
602.836	23031.48
603.194	23277.58
603.552	23566.61
603.91	23780.17
604.268	24163.21
604.625	24370.43
604.983	24567.26
605.341	24800.25
605.698	25042.05
606.056	25357.75
606.413	25492.44
606.771	25860.56
607.128	26045.42
607.485	26211.97
607.843	26376.26
608.2	26831.16
608.557	26986.64
608.914	27119.74
609.272	27439.28
609.629	27675.43
609.986	27980.96
610.343	27993.61
610.7	28336.88
611.057	28401.06
611.414	28662.75
611.771	28726.02
612.127	29036.07
612.484	29203.3
612.841	29431.99
613.198	29542.73
613.554	29750.86
613.911	30102.49
614.267	30161.01
614.624	30191.52
614.98	30398.3
615.337	30760.55
615.693	30710.38
616.05	30888.68
616.406	31264.94
616.762	31239.18
617.118	31236.69
617.475	31479.62
617.831	31690.47
618.187	31734.76
618.543	31978.82
618.899	32311.47
619.255	32198.48
619.611	32370.9
619.967	32511.01
620.323	32675.98
620.678	32690.89
621.034	32764.11
621.39	32934.28
621.746	32949.64
622.101	33352.12
622.457	33183.08
622.812	33341.04
623.168	33497.88
623.523	33582.62
623.879	33747.59
624.234	33600.7
624.589	33803.18
624.945	33932.44
625.3	34044.08
625.655	34026.22
626.01	34239.78
626.365	34435.7
626.72	34250.17
627.075	34262.38
627.43	34411.3
627.785	34253.11
628.14	34554.12
628.495	34627.11
628.85	34531.3
629.205	34496.72
629.559	34854.22
629.914	34698.97
630.269	34726.32
630.623	34666.89
630.978	34733.1
631.332	34947.1
631.687	35009.7
632.041	34821.23
632.396	34979.65
632.75	34870.72
633.104	35013.09
633.459	34851.06
633.813	34934.45
634.167	34979.87
634.521	34964.5
634.875	35079.53
635.229	34939.42
635.583	35027.33
635.937	34984.39
636.291	34940.55
636.645	34999.31
636.999	34868.91
637.352	35094.22
637.706	34837.73
638.06	35050.15
638.413	35080.66
638.767	34993.43
639.121	35039.53
639.474	34913.88
639.828	34913.66
640.181	34879.76
640.534	34969.02
640.888	34883.15
641.241	34855.13
641.594	34825.52
641.947	34904.39
642.301	34787.11
642.654	34854
643.007	34941
643.36	34858.52
643.713	34873.66
644.066	34960.89
644.419	34690.39
644.771	34578.53
645.124	34220.8
645.477	34324.07
645.83	34068.48
646.182	33822.61
646.535	33727.02
646.888	33942.61
647.24	33640.47
647.593	34009.95
647.945	33846.34
648.298	33625.56
648.65	33655.16
649.002	33572.45
649.355	33704.42
649.707	33690.64
650.059	33942.61
650.411	34211.3
650.763	34400.68
651.115	34584.18
651.467	34402.71
651.819	34473.44
652.171	34552.99
652.523	34414.24
652.875	34282.49
653.227	34205.2
653.578	34437.51
653.93	34456.72
654.282	34190.51
654.633	34256.27
654.985	34338.31
655.337	34385.31
655.688	34408.81
656.039	34475.7
656.391	34176.95
656.742	34238.42
657.094	34284.3
657.445	34380.56
657.796	34235.71
658.147	34223.28
658.498	34307.57
658.849	34160.01
659.2	34129.27
659.551	34064.87
659.902	34280
660.253	34150.51
660.604	34215.15
660.955	34117.52
661.306	34233.68
661.656	34052.89
662.007	34051.99
662.358	34019.22
662.708	34116.39
663.059	34235.71
663.409	33858.54
663.76	34179.21
664.11	34274.58
664.461	34158.42
664.811	34155.03
665.161	34260.34
665.511	33937.41
665.862	34044.53
666.212	34149.16
666.562	34228.7
666.912	34053.57
667.262	33979.45
667.612	34211.53
667.962	34127.69
668.312	34092.66
668.662	34169.5
669.011	33946.9
669.361	34069.84
669.711	33976.28
670.06	33981.03
670.41	34016.73
670.76	33957.98
671.109	34040.23
671.459	33987.58
671.808	33879.11
672.157	34005.89
672.507	33838.66
672.856	33654.26
673.205	33874.14
673.554	33886.11
673.904	33835.27
674.253	33899.22
674.602	33843.86
674.951	33394.38
675.3	33209.3
675.649	33760.24
675.998	33715.72
676.346	33729.96
676.695	33882.27
677.044	33619.91
677.393	33672.79
677.741	33753.24
678.09	33620.36
678.438	33552.11
678.787	33592.56
679.135	33609.51
679.484	33302.63
679.832	33644.54
680.181	33393.02
680.529	33555.73
680.877	33370.42
681.225	33286.13
681.573	33538.55
681.922	33264.66
682.27	33175.17
682.618	33275.96
682.966	33026.48
683.314	33220.14
683.661	33066.93
684.009	32875.75
684.357	32877.55
684.705	32956.2
685.053	32858.35
685.4	32897.67
685.748	32784.45
686.095	32711.23
686.443	32607.05
686.79	32493.83
687.138	32643.89
687.485	32586.49
687.832	32443.21
688.18	32507.85
688.527	32277.12
688.874	32316.89
689.221	32240.28
689.568	32120.06
689.915	32113.96
690.262	31950.57
690.609	32137.23
690.956	31945.37
691.303	31756.91
691.65	31751.03
691.997	31711.93
692.344	31396.91
692.69	31637.13
693.037	31543.58
693.383	31394.2
693.73	31354.66
694.077	31275.79
694.423	31181.33
694.769	31087.32
695.116	31055.91
695.462	31007.32
695.808	30875.8
696.155	30925.29
696.501	30740.43
696.847	30772.75
697.193	30454.34
697.539	30596.94
697.885	30330.28
698.231	30300.45
698.577	30252.99
698.923	30274.46
699.269	30035.37
699.614	29933.22
699.96	29959.89
700.306	29933.9
700.651	29740.69
700.997	29601.26
701.342	29661.37
701.688	29651.65
702.033	29627.02
702.379	29459.11
702.724	29522.84
703.069	29524.42
703.415	29173.24
703.76	29229.74
704.105	29157.2
704.45	29119.01
704.795	28954.04
705.14	28933.93
705.485	28946.36
705.83	28720.6
706.175	28788.62
706.52	28671.34
706.865	28653.71
707.209	28435.41
707.554	28406.71
707.899	28534.39
708.243	28292.82
708.588	28288.97
708.932	28093.95
709.277	28145.93
709.621	28021.18
709.966	27959.94
710.31	28117.45
710.654	27731.93
710.998	27816.67
711.342	27773.73
711.687	27634.08
712.031	27608.99
712.375	27553.4
712.719	27533.97
713.063	27480.63
713.407	27518.37
713.75	27378.72
714.094	27408.54
714.438	27289
714.782	27244.48
715.125	27216.91
715.469	27252.84
715.812	27087.65
716.156	26938.95
716.499	26954.77
716.843	26947.77
717.186	26769.01
717.53	26795.68
717.873	26828.9
718.216	26874.55
718.559	26830.25
718.902	26609.02
719.246	26580.09
719.589	26562.47
719.932	26510.04
720.275	26438.17
720.617	26425.29
720.96	26349.59
721.303	26362.24
721.646	26263.26
721.989	26200.44
722.331	26262.13
722.674	26095.36
723.016	26239.08
723.359	26083.61
723.701	26104.4
724.044	25917.51
724.386	25884.97
724.729	25886.1
725.071	25847.23
725.413	25779.89
725.755	25718.65
726.097	25750.74
726.439	25607.46
726.782	25625.09
727.124	25621.93
727.465	25570.63
727.807	25549.38
728.149	25490.86
728.491	25498.31
728.833	25548.93
729.175	25376.96
729.516	25330.63
729.858	25191.2
730.199	25359.79
730.541	25223.29
730.882	25171.09
731.224	25335.61
731.565	25118.44
731.906	25064.65
732.248	25109.17
732.589	24989.17
732.93	24721.16
733.271	24962.06
733.612	24969.74
733.953	24913.24
734.294	24790.99
734.635	24724.1
734.976	24811.55
735.317	24717.54
735.658	24668.96
735.999	24576.75
736.339	24640.03
736.68	24636.87
737.021	24456.53
737.361	24543.08
737.702	24589.41
738.042	24478.45
738.383	24496.53
738.723	24488.85
739.063	24270.32
739.404	24344.22
739.744	24384.22
740.084	24207.95
740.424	24304.22
740.764	24123.66
741.104	24207.95
741.444	24060.61
741.784	24060.38
742.124	24087.5
742.464	23981.97
742.804	24005.24
743.143	23906.04
743.483	23938.81
743.823	23894.06
744.162	23880.28
744.502	23899.26
744.841	23725.93
745.181	23887.96
745.52	23712.82
745.86	23813.84
746.199	23725.48
746.538	23630.57
746.877	23722.99
747.216	23629.21
747.556	23637.12
747.895	23585.37
748.234	23446.62
748.573	23451.81
748.911	23531.36
749.25	23391.7
749.589	23286.17
749.928	23283.23
750.267	23450.46
750.605	23213.4
750.944	23182.22
751.283	23063.57
751.621	23199.62
751.96	22897.48
752.298	23121.88
752.636	23003.46
752.975	22918.72
753.313	22832.85
753.651	22920.53
753.989	22788.78
754.327	22671.72
754.666	22591.72
755.004	22634.43
755.342	22682.34
755.679	22673.53
756.017	22501.78
756.355	22510.14
756.693	22430.6
757.031	22433.31
757.368	22240.09
757.706	22304.27
758.044	22324.16
758.381	22299.98
758.719	22058.4
759.056	22144.95
759.394	22133.88
759.731	21930.04
760.068	21933.66
760.405	21864.06
760.743	21746.77
