Data from hue_100_FLMS001491_00030.txt Node
Date: Tue Feb 07 17:02:57 GMT 2017
User: dcchb
Spectrometer: FLMS00149
Trigger mode: 0
Integration Time (sec): 2.000000E-2
Scans to average: 10
Electric dark correction enabled: true
Nonlinearity correction enabled: false
Boxcar width: 0
XAxis mode: Wavelengths
Number of Pixels in Spectrum: 2048
>>>>>Begin Spectral Data<<<<<
341.393	-15.01
341.776	-15.01
342.16	-15.01
342.543	-55.24
342.927	-64.5
343.31	-60.66
343.693	-63.37
344.077	-55.92
344.46	-57.95
344.843	-33.54
345.226	-51.17
345.61	-19.76
345.993	-20.89
346.376	-10.04
346.759	2.61
347.142	21.6
347.525	26.57
347.908	69.28
348.291	81.03
348.674	72.44
349.057	99.79
349.44	127.13
349.823	140.46
350.206	171.42
350.588	201.7
350.971	210.29
351.354	224.75
351.737	235.6
352.119	236.51
352.502	266.79
352.884	274.92
353.267	303.85
353.65	279.67
354.032	303.62
354.414	318.31
354.797	305.2
355.179	309.05
355.562	319.67
355.944	321.47
356.326	325.77
356.709	325.77
357.091	332.1
357.473	343.39
357.855	330.97
358.238	352.43
358.62	329.38
359.002	350.85
359.384	334.36
359.766	328.71
360.148	338.2
360.53	347.69
360.912	340.91
361.294	346.33
361.676	314.24
362.057	331.19
362.439	326.22
362.821	329.61
363.203	328.03
363.584	332.77
363.966	320.12
364.348	316.05
364.729	325.99
365.111	320.8
365.493	326.22
365.874	335.94
366.256	300.91
366.637	323.28
367.019	337.29
367.4	312.44
367.781	314.7
368.163	306.79
368.544	299.33
368.925	305.88
369.306	307.92
369.688	308.37
370.069	313.79
370.45	314.92
370.831	303.17
371.212	330.51
371.593	307.46
371.974	336.62
372.355	327.8
372.736	327.58
373.117	308.37
373.498	324.86
373.879	311.31
374.26	309.72
374.641	309.72
375.021	308.59
375.402	316.95
375.783	327.12
376.163	335.49
376.544	340.68
376.925	351.76
377.305	333
377.686	322.15
378.066	342.72
378.447	347.46
378.827	342.04
379.208	324.86
379.588	326.9
379.968	350.17
380.349	353.11
380.729	316.95
381.109	320.34
381.489	335.71
381.87	347.01
382.25	352.66
382.63	344.52
383.01	333.45
383.39	355.37
383.77	335.03
384.15	332.55
384.53	345.2
384.91	353.79
385.29	347.46
385.67	360.12
386.049	349.95
386.429	378.42
386.809	373
387.189	367.58
387.568	354.69
387.948	351.53
388.328	378.87
388.707	369.61
389.087	361.25
389.466	383.85
389.846	377.74
390.225	355.6
390.605	381.81
390.984	381.81
391.363	382.94
391.743	377.07
392.122	384.3
392.501	392.89
392.881	391.76
393.26	363.28
393.639	366.67
394.018	400.57
394.397	403.96
394.776	381.81
395.155	395.37
395.534	391.98
395.913	407.57
396.292	406.22
396.671	392.89
397.05	404.18
397.429	384.98
397.808	396.95
398.186	406.44
398.565	393.11
398.944	409.83
399.323	412.32
399.701	413
400.08	427.46
400.458	427.46
400.837	421.36
401.215	418.42
401.594	410.29
401.972	404.64
402.351	419.33
402.729	410.06
403.107	443.28
403.486	455.48
403.864	453.67
404.242	443.51
404.62	456.61
404.999	447.12
405.377	421.58
405.755	448.93
406.133	440.34
406.511	463.39
406.889	467.46
407.267	477.18
407.645	470.62
408.023	439.44
408.401	447.12
408.779	468.59
409.156	471.3
409.534	483.73
409.912	494.58
410.29	492.32
410.667	506.33
411.045	462.26
411.422	491.64
411.8	505.88
412.178	502.94
412.555	510.62
412.933	534.12
413.31	525.99
413.687	520.11
414.065	516.27
414.442	525.31
414.819	531.41
415.197	559.21
415.574	550.85
415.951	546.55
416.328	537.06
416.705	558.08
417.082	540.45
417.46	535.48
417.837	569.6
418.214	574.8
418.591	563.95
418.967	567.34
419.344	555.37
419.721	577.06
420.098	574.58
420.475	556.04
420.852	589.49
421.228	583.84
421.605	584.07
421.982	604.41
422.358	605.53
422.735	619.09
423.111	627.91
423.488	628.36
423.864	629.49
424.241	633.1
424.617	629.26
424.994	627.91
425.37	646.21
425.746	643.95
426.123	658.41
426.499	638.75
426.875	681.24
427.251	654.57
427.627	660.9
428.003	667.23
428.379	660.45
428.756	667.45
429.132	689.15
429.507	687.79
429.883	678.98
430.259	705.19
430.635	711.97
431.011	735.25
431.387	722.82
431.763	737.06
432.138	765.3
432.514	747.9
432.89	743.61
433.265	749.71
433.641	782.03
434.016	768.24
434.392	794
434.767	833.33
435.143	788.13
435.518	812.54
435.894	815.02
436.269	822.25
436.644	824.51
437.02	817.05
437.395	829.71
437.77	868.58
438.145	838.3
438.52	857.28
438.895	857.73
439.271	866.32
439.646	907.22
440.021	908.35
440.395	908.8
440.77	899.76
441.145	906.09
441.52	921.46
441.895	924.17
442.27	930.05
442.645	937.5
443.019	944.06
443.394	932.98
443.769	963.72
444.143	953.1
444.518	972.08
444.892	954.9
445.267	940.89
445.641	971.18
446.016	961.23
446.39	992.64
446.764	999.87
447.139	1003.04
447.513	1022.93
447.887	1008.69
448.262	1021.57
448.636	1041
449.01	1031.29
449.384	1049.14
449.758	1059.08
450.132	1057.27
450.506	1064.51
450.88	1075.13
451.254	1076.71
451.628	1120.78
452.002	1115.13
452.376	1116.48
452.75	1123.49
453.123	1148.8
453.497	1149.48
453.871	1150.38
454.244	1168.01
454.618	1182.69
454.992	1188.12
455.365	1198.97
455.739	1226.31
456.112	1217.04
456.486	1257.04
456.859	1255.69
457.232	1269.7
457.606	1271.51
457.979	1289.13
458.352	1333.2
458.725	1334.78
459.099	1349.92
459.472	1393.08
459.845	1388.79
460.218	1404.16
460.591	1427.89
460.964	1412.52
461.337	1443.03
461.71	1458.17
462.083	1484.61
462.456	1490.94
462.829	1546.08
463.201	1523.02
463.574	1542.91
463.947	1555.57
464.32	1603.7
464.692	1635.56
465.065	1638.5
465.438	1676.69
465.81	1702.23
466.183	1713.53
466.555	1739.52
466.928	1776.35
467.3	1763.47
467.672	1788.78
468.045	1883.24
468.417	1873.52
468.789	1875.78
469.161	1927.53
469.534	1974.76
469.906	2046.63
470.278	2019.74
470.65	2052.95
471.022	2104.7
471.394	2184.48
471.766	2184.48
472.138	2206.17
472.51	2273.29
472.882	2320.97
473.253	2377.69
473.625	2434.64
473.997	2497.46
474.369	2480.97
474.74	2568.2
475.112	2610.68
475.484	2674.63
475.855	2727.29
476.227	2793.95
476.598	2894.74
476.97	2880.73
477.341	2988.98
477.713	3096.09
478.084	3098.35
478.455	3242.53
478.827	3298.57
479.198	3440.71
479.569	3443.88
479.94	3625.34
480.311	3662.18
480.682	3738.11
481.053	3890.19
481.424	3983.98
481.795	4030.3
482.166	4158.44
482.537	4256.51
482.908	4415.6
483.279	4484.3
483.65	4600.01
484.021	4762.49
484.391	4883.39
484.762	5013.78
485.133	5082.25
485.503	5170.39
485.874	5377.39
486.244	5503.49
486.615	5605.86
486.985	5781.67
487.356	5952.29
487.726	5985.28
488.097	6207.87
488.467	6288.32
488.837	6492.61
489.207	6657.58
489.578	6796.33
489.948	6996.33
490.318	7088.98
490.688	7172.37
491.058	7382.76
491.428	7489.65
491.798	7720.15
492.168	7873.59
492.538	8066.81
492.908	8208.05
493.278	8385.22
493.648	8462.28
494.017	8668.6
494.387	8832.44
494.757	8976.39
495.126	9119.66
495.496	9170.51
495.866	9325.76
496.235	9469.26
496.605	9690.04
496.974	9798.51
497.344	9983.59
497.713	9978.17
498.082	10178.16
498.452	10335
498.821	10523.69
499.19	10506.07
499.559	10711.48
499.928	10732.05
500.298	10949.44
500.667	11126.16
501.036	11182.88
501.405	11334.52
501.774	11292.03
502.143	11519.82
502.512	11605.92
502.88	11744.68
503.249	11823.09
503.618	11945.58
503.987	12073.93
504.356	12085.46
504.724	12226.47
505.093	12313.93
505.462	12389.41
505.83	12513.92
506.199	12674.14
506.567	12875.04
506.936	12835.5
507.304	12976.28
507.672	13058.77
508.041	13111.19
508.409	13295.14
508.777	13337.86
509.145	13454.46
509.514	13409.04
509.882	13533.78
510.25	13620.79
510.618	13729.26
510.986	13778.52
511.354	13873.66
511.722	14030.27
512.09	13981.91
512.458	14013.09
512.826	14271.16
513.193	14273.65
513.561	14280.66
513.929	14314.78
514.297	14478.39
514.664	14558.61
515.032	14602.46
515.4	14706.86
515.767	14772.39
516.135	14815.1
516.502	14682.9
516.869	14888.55
517.237	14920.64
517.604	14977.36
517.972	15132.16
518.339	15154.08
518.706	15080.18
519.073	15213.96
519.44	15241.53
519.808	15361.08
520.175	15338.93
520.542	15458.93
520.909	15558.59
521.276	15420.06
521.643	15677.46
522.009	15674.97
522.376	15742.99
522.743	15888.07
523.11	15797.45
523.477	15926.26
523.843	16005.58
524.21	16140.95
524.577	16195.41
524.943	16218.91
525.31	16272.02
525.676	16283.77
526.043	16359.02
526.409	16365.57
526.776	16482.18
527.142	16438.56
527.508	16529.18
527.874	16542.74
528.241	16609.18
528.607	16561.05
528.973	16725.11
529.339	16661.16
529.705	16666.13
530.071	16765.11
530.437	16789.06
530.803	16788.84
531.169	16912.22
531.535	16718.56
531.901	16744.09
532.267	16709.74
532.632	16808.5
532.998	16813.7
533.364	16839.46
533.73	16921.94
534.095	16953.35
534.461	16881.49
534.826	16868.84
535.192	16966.91
535.557	16954.71
535.923	16850.76
536.288	16888.95
536.653	16962.17
537.019	16857.31
537.384	16855.73
537.749	16818.44
538.114	16722.63
538.479	16702.06
538.845	16786.35
539.21	16722.63
539.575	16727.37
539.94	16680.37
540.305	16819.12
540.67	16549.3
541.034	16717.88
541.399	16658.22
541.764	16732.79
542.129	16589.97
542.494	16568.28
542.858	16628.62
543.223	16503.2
543.587	16617.09
543.952	16465.68
544.316	16512.91
544.681	16436.53
545.045	16467.26
545.41	16517.43
545.774	16468.85
546.138	16320.6
546.503	16300.26
546.867	16348.62
547.231	16370.32
547.595	16291.22
547.959	16315.4
548.324	16136.88
548.688	16129.87
549.052	16154.73
549.416	16194.05
549.779	16037.67
550.143	16113.15
550.507	16232.47
550.871	16011.68
551.235	15979.37
551.599	16103.66
551.962	15996.77
552.326	15995.86
552.689	16012.14
553.053	15933.95
553.417	15852.37
553.78	16106.14
554.143	15939.82
554.507	15867.96
554.87	15896.66
555.234	16006.49
555.597	15835.19
555.96	15846.72
556.323	15880.16
556.686	15884
557.05	15838.13
557.413	15858.47
557.776	15778.24
558.139	15850.11
558.502	15792.71
558.865	15816.89
559.228	15856.43
559.59	15916.09
559.953	15838.81
560.316	15962.42
560.679	15870.67
561.041	15897.11
561.404	15938.01
561.767	16020.5
562.129	15933.72
562.492	16027.5
562.854	16008.07
563.217	15926.71
563.579	16007.16
563.941	16086.26
564.304	16087.61
564.666	16139.82
565.028	16079.25
565.39	16031.34
565.753	16173.26
566.115	16145.92
566.477	16154.5
566.839	16162.19
567.201	16181.85
567.563	16227.5
567.925	16270.21
568.287	16248.06
568.648	16209.64
569.01	16399.24
569.372	16367.61
569.734	16358.79
570.095	16442.18
570.457	16441.73
570.819	16369.19
571.18	16448.73
571.542	16501.84
571.903	16469.75
572.265	16539.35
572.626	16488.96
572.987	16481.73
573.349	16509.3
573.71	16540.71
574.071	16548.62
574.432	16591.56
574.794	16636.3
575.155	16522.4
575.516	16618.22
575.877	16725.11
576.238	16705
576.599	16695.51
576.96	16713.13
577.32	16656.19
577.681	16789.74
578.042	16695.28
578.403	16696.64
578.763	16745.9
579.124	16711.78
579.485	16786.58
579.845	16807.59
580.206	16768.27
580.566	16754.26
580.927	16735.28
581.287	16819.35
581.648	16727.6
582.008	16799.69
582.368	16702.51
582.728	16839.23
583.089	16720.14
583.449	16791.1
583.809	16773.25
584.169	16773.47
584.529	16663.64
584.889	16824.32
585.249	16590.88
585.609	16655.73
585.969	16736.64
586.329	16577.54
586.688	16671.33
587.048	16602.4
587.408	16551.56
587.768	16611.89
588.127	16489.19
588.487	16515.17
588.846	16689.86
589.206	16497.77
589.565	16505.91
589.925	16536.87
590.284	16509.3
590.643	16495.96
591.003	16559.69
591.362	16591.33
591.721	16527.6
592.08	16485.57
592.44	16533.48
592.799	16510.43
593.158	16502.74
593.517	16502.07
593.876	16458
594.235	16452.8
594.593	16386.81
594.952	16555.62
595.311	16423.88
595.67	16410.32
596.029	16479.92
596.387	16403.09
596.746	16461.39
597.104	16450.32
597.463	16404.89
597.822	16459.13
598.18	16373.26
598.538	16312.92
598.897	16427.04
599.255	16231.79
599.613	16479.24
599.972	16440.82
600.33	16460.71
600.688	16431.79
601.046	16326.03
601.404	16403.54
601.762	16495.96
602.12	16479.02
602.478	16423.65
602.836	16387.94
603.194	16410.09
603.552	16452.12
603.91	16240.83
604.268	16430.43
604.625	16366.25
604.983	16392.24
605.341	16318.79
605.698	16528.05
606.056	16436.98
606.413	16419.81
606.771	16475.17
607.128	16486.93
607.485	16448.06
607.843	16374.61
608.2	16585.23
608.557	16509.98
608.914	16415.97
609.272	16516.98
609.629	16582.74
609.986	16545.45
610.343	16626.81
610.7	16762.62
611.057	16568.96
611.414	16604.89
611.771	16504.33
612.127	16702.96
612.484	16542.97
612.841	16767.14
613.198	16704.32
613.554	16779.8
613.911	16782.06
614.267	16820.7
614.624	16704.77
614.98	16687.82
615.337	16811.21
615.693	16774.15
616.05	16807.14
616.406	16858.44
616.762	16846.01
617.118	16794.26
617.475	16783.41
617.831	16898.89
618.187	16822.28
618.543	16936.63
618.899	16943.86
619.255	16987.48
619.611	16930.53
619.967	16979.79
620.323	16939.79
620.678	16912.9
621.034	16915.39
621.39	16874.71
621.746	16923.07
622.101	17061.15
622.457	16955.61
622.812	16959
623.168	17054.14
623.523	16940.02
623.879	17017.08
624.234	16825.67
624.589	16891.89
624.945	16947.25
625.3	16914.94
625.655	16867.93
626.01	16938.89
626.365	16869.29
626.72	16953.13
627.075	16857.76
627.43	16917.42
627.785	16855.05
628.14	17023.63
628.495	16933.92
628.85	16832
629.205	16811.89
629.559	16952.68
629.914	16808.05
630.269	16857.99
630.623	16794.94
630.978	16782.28
631.332	16832
631.687	16861.83
632.041	16716.75
632.396	16828.84
632.75	16643.98
633.104	16721.72
633.459	16690.76
633.813	16668.39
634.167	16674.94
634.521	16643.98
634.875	16762.85
635.229	16625
635.583	16558.34
635.937	16552.91
636.291	16462.29
636.645	16533.93
636.999	16494.83
637.352	16623.19
637.706	16422.29
638.06	16443.08
638.413	16542.97
638.767	16420.49
639.121	16485.34
639.474	16253.71
639.828	16382.52
640.181	16330.55
640.534	16283.99
640.888	16245.12
641.241	16137.33
641.594	16182.3
641.947	16309.53
642.301	16240.38
642.654	16232.92
643.007	16211.9
643.36	16159.48
643.713	16187.05
644.066	16208.97
644.419	16161.06
644.771	16142.3
645.124	15961.74
645.477	15884.46
645.83	15771.69
646.182	15728.75
646.535	15685.14
646.888	15656.89
647.24	15574.86
647.593	15678.36
647.945	15611.69
648.298	15564.01
648.65	15499.38
649.002	15626.16
649.355	15655.76
649.707	15561.07
650.059	15689.66
650.411	15901.18
650.763	15908.86
651.115	16058.01
651.467	15983.21
651.819	15956.09
652.171	15954.74
652.523	15970.78
652.875	15953.61
653.227	15894.85
653.578	16048.52
653.93	15963.32
654.282	15887.17
654.633	15915.19
654.985	15911.35
655.337	15939.6
655.688	16038.58
656.039	15946.37
656.391	15888.97
656.742	15944.57
657.094	15931.01
657.445	15962.87
657.796	16006.26
658.147	15991.57
658.498	15952.48
658.849	15874.96
659.2	15984.57
659.551	16046.03
659.902	15976.88
660.253	16026.6
660.604	15991.8
660.955	16014.4
661.306	16032.25
661.656	15942.53
662.007	16074.28
662.358	16033.15
662.708	15923.32
663.059	15972.59
663.409	15880.84
663.76	16052.81
664.11	15951.35
664.461	16125.35
664.811	16054.39
665.161	16018.91
665.511	15938.47
665.862	15955.87
666.212	16105.92
666.562	16075.41
666.912	16018.46
667.262	16022.3
667.612	16013.04
667.962	16042.19
668.312	15931.01
668.662	16068.41
669.011	16192.92
669.361	15946.37
669.711	16034.73
670.06	15886.72
670.41	15825.02
670.76	15883.55
671.109	15951.35
671.459	15898.69
671.808	15940.5
672.157	15923.32
672.507	15779.83
672.856	15877
673.205	15873.83
673.554	15880.39
673.904	15838.13
674.253	15990.22
674.602	15811.91
674.951	15606.04
675.3	15477.23
675.649	15725.59
675.998	15858.69
676.346	15870.22
676.695	15815.98
677.044	15620.06
677.393	15766.72
677.741	15697.57
678.09	15686.27
678.438	15636.55
678.787	15710.45
679.135	15616.44
679.484	15517.01
679.832	15608.76
680.181	15443.79
680.529	15502.77
680.877	15480.62
681.225	15420.06
681.573	15553.16
681.922	15421.42
682.27	15389.78
682.618	15434.52
682.966	15383.23
683.314	15340.74
683.661	15290.57
684.009	15175.55
684.357	15201.99
684.705	15177.13
685.053	15219.61
685.4	15153.18
685.748	15158.82
686.095	15050.58
686.443	15058.04
686.79	14956.8
687.138	15024.59
687.485	15051.03
687.832	14845.39
688.18	14935.55
688.527	14910.7
688.874	14736.69
689.221	14720.42
689.568	14732.85
689.915	14758.61
690.262	14668.44
690.609	14629.12
690.956	14589.8
691.303	14549.58
691.65	14395
691.997	14537.15
692.344	14259.64
692.69	14263.93
693.037	14342.8
693.383	14173.54
693.73	14283.59
694.077	14194.33
694.423	14181.9
694.769	14033.43
695.116	14102.58
695.462	14018.97
695.808	13886.32
696.155	13897.84
696.501	13818.75
696.847	13915.24
697.193	13726.09
697.539	13724.74
697.885	13616.49
698.231	13530.84
698.577	13605.42
698.923	13560.45
699.269	13561.35
699.614	13381.7
699.96	13391.19
700.306	13414.46
700.651	13321.81
700.997	13326.1
701.342	13213.11
701.688	13237.52
702.033	13087.47
702.379	13047.69
702.724	13010.86
703.069	13041.82
703.415	12832.11
703.76	12864.42
704.105	12870.75
704.45	12843.63
704.795	12764.09
705.14	12677.31
705.485	12724.76
705.83	12688.16
706.175	12591.89
706.52	12615.39
706.865	12559.57
707.209	12507.82
707.554	12456.52
707.899	12470.31
708.243	12387.37
708.588	12398.45
708.932	12204.78
709.277	12236.87
709.621	12305.79
709.966	12163.88
710.31	12119.81
710.654	12058.57
710.998	12093.37
711.342	12069.87
711.687	12014.95
712.031	11917.33
712.375	11875.07
712.719	12009.75
713.063	11940.6
713.407	11916.65
713.75	11874.62
714.094	11869.19
714.438	11763.66
714.782	11761.63
715.125	11735.64
715.469	11745.58
715.812	11679.14
716.156	11623.55
716.499	11608.64
716.843	11721.4
717.186	11594.85
717.53	11723.43
717.873	11635.98
718.216	11645.92
718.559	11595.3
718.902	11494.74
719.246	11434.63
719.589	11481.63
719.932	11438.92
720.275	11556.21
720.617	11448.64
720.96	11447.51
721.303	11421.75
721.646	11489.54
721.989	11315.76
722.331	11329.09
722.674	11399.83
723.016	11414.52
723.359	11326.16
723.701	11414.97
724.044	11302.88
724.386	11271.02
724.729	11299.94
725.071	11282.54
725.413	11205.26
725.755	11198.48
726.097	11239.38
726.439	11169.78
726.782	11141.3
727.124	11198.7
727.465	11158.93
727.807	11186.73
728.149	11198.93
728.491	11182.21
728.833	11185.6
729.175	11163.45
729.516	11102.89
729.858	11137.46
730.199	11132.72
730.541	11147.63
730.882	11067.63
731.224	11133.62
731.565	11058.37
731.906	11079.61
732.248	11097.01
732.589	11033.51
732.93	11023.79
733.271	11086.16
733.612	11133.17
733.953	11130.46
734.294	11001.65
734.635	11054.3
734.976	11019.05
735.317	11047.29
735.658	11048.65
735.999	11048.65
736.339	11023.34
736.68	11089.78
737.021	11092.04
737.361	11063.11
737.702	11090.46
738.042	11048.88
738.383	11099.27
738.723	11133.85
739.063	11032.83
739.404	11077.58
739.744	11065.15
740.084	11113.06
740.424	11133.17
740.764	11119.38
741.104	11196.44
741.444	11192.15
741.784	11253.62
742.124	11130.46
742.464	11193.73
742.804	11231.92
743.143	11231.7
743.483	11248.87
743.823	11191.7
744.162	11278.93
744.502	11347.63
744.841	11297.91
745.181	11474.4
745.52	11396.21
745.86	11564.12
746.199	11490.9
746.538	11480.28
746.877	11578.13
747.216	11637.79
747.556	11635.3
747.895	11759.37
748.234	11745.36
748.573	11771.79
748.911	11834.62
749.25	11965.46
749.589	12041.39
749.928	12105.35
750.267	12252.46
750.605	12275.06
750.944	12274.15
751.283	12363.19
751.621	12499.91
751.96	12576.75
752.298	12580.14
752.636	12774.71
752.975	12901.71
753.313	12896.96
753.651	13014.7
753.989	13143.74
754.327	13225.09
754.666	13346.67
755.004	13509.83
755.342	13709.6
755.679	13682.03
756.017	13799.09
