Data from hue_30_FLMS001491_32.txt Node
Date: Mon Feb 06 15:05:11 GMT 2017
User: dcchb
Spectrometer: FLMS00149
Trigger mode: 0
Integration Time (sec): 2.000000E-2
Scans to average: 10
Electric dark correction enabled: true
Nonlinearity correction enabled: false
Boxcar width: 0
XAxis mode: Wavelengths
Number of Pixels in Spectrum: 2048
>>>>>Begin Spectral Data<<<<<
341.393	-17.06
341.776	-17.06
342.16	-17.06
342.543	-55.7
342.927	-80.56
343.31	-79.66
343.693	-50.96
344.077	-59.55
344.46	-52.09
344.843	-79.21
345.226	-48.93
345.61	-23.39
345.993	-29.26
346.376	-3.73
346.759	10.28
347.142	19.1
347.525	50.06
347.908	57.74
348.291	80.79
348.674	100.45
349.057	108.36
349.44	114.69
349.823	140.9
350.206	154.01
350.588	198.53
350.971	199.2
351.354	206.44
351.737	231.97
352.119	249.37
352.502	246.66
352.884	267.22
353.267	268.35
353.65	294.57
354.032	290.05
354.414	291.86
354.797	305.64
355.179	297.73
355.562	321.46
355.944	331.4
356.326	326.88
356.709	318.07
357.091	346.54
357.473	344.51
357.855	321.91
358.238	338.86
358.62	327.34
359.002	328.01
359.384	325.53
359.766	325.08
360.148	326.88
360.53	337.28
360.912	318.3
361.294	316.04
361.676	319.65
362.057	339.99
362.439	321.69
362.821	324.62
363.203	308.58
363.584	305.19
363.966	317.17
364.348	344.51
364.729	314
365.111	317.62
365.493	296.83
365.874	301.57
366.256	297.73
366.637	310.16
367.019	308.35
367.4	315.36
367.781	316.26
368.163	320.56
368.544	320.33
368.925	317.84
369.306	314.23
369.688	320.56
370.069	286.66
370.45	312.87
370.831	326.21
371.212	306.55
371.593	320.78
371.974	304.96
372.355	298.18
372.736	319.43
373.117	308.58
373.498	311.07
373.879	319.43
374.26	329.82
374.641	315.13
375.021	306.32
375.402	312.42
375.783	307.45
376.163	339.77
376.544	316.04
376.925	333.66
377.305	342.48
377.686	315.58
378.066	329.82
378.447	312.87
378.827	324.17
379.208	322.14
379.588	334.57
379.968	311.29
380.349	339.54
380.729	344.74
381.109	343.15
381.489	344.51
381.87	361.46
382.25	333.21
382.63	319.2
383.01	328.24
383.39	337.28
383.77	329.82
384.15	324.62
384.53	356.71
384.91	340.89
385.29	342.7
385.67	353.1
386.049	343.15
386.429	325.3
386.809	366.43
387.189	337.73
387.568	328.24
387.948	362.59
388.328	345.64
388.707	338.86
389.087	365.08
389.466	342.48
389.846	346.77
390.225	372.98
390.605	354
390.984	368.46
391.363	366.88
391.743	366.21
392.122	349.71
392.501	355.36
392.881	371.63
393.26	366.88
393.639	335.47
394.018	356.26
394.397	378.41
394.776	370.05
395.155	353.78
395.534	355.36
395.913	368.24
396.292	380.44
396.671	371.85
397.05	369.59
397.429	373.66
397.808	376.6
398.186	372.76
398.565	375.92
398.944	389.48
399.323	357.17
399.701	379.09
400.08	362.59
400.458	386.32
400.837	393.1
401.215	394.68
401.594	387.45
401.972	367.11
402.351	388.8
402.729	391.29
403.107	399.42
403.486	386.32
403.864	415.92
404.242	398.29
404.62	409.14
404.999	408.01
405.377	396.03
405.755	407.33
406.133	400.78
406.511	396.03
406.889	412.76
407.267	412.53
407.645	424.28
408.023	418.18
408.401	429.71
408.779	443.72
409.156	415.02
409.534	439.88
409.912	445.07
410.29	448.24
410.667	432.19
411.045	417.5
411.422	430.61
411.8	433.32
412.178	438.75
412.555	440.1
412.933	464.06
413.31	429.25
413.687	451.63
414.065	461.12
414.442	452.98
414.819	463.38
415.197	467.45
415.574	470.16
415.951	467.22
416.328	474.22
416.705	466.09
417.082	481.46
417.46	485.07
417.837	497.5
418.214	482.81
418.591	483.49
418.967	480.1
419.344	484.62
419.721	510.38
420.098	480.33
420.475	493.21
420.852	506.31
421.228	507.22
421.605	485.07
421.982	516.48
422.358	502.47
422.735	524.62
423.111	498.18
423.488	523.04
423.864	539.31
424.241	542.25
424.617	537.5
424.994	550.16
425.37	528.23
425.746	546.99
426.123	551.74
426.499	524.84
426.875	555.35
427.251	556.26
427.627	557.39
428.003	559.42
428.379	571.17
428.756	568.69
429.132	555.58
429.507	564.84
429.883	571.4
430.259	596.03
430.635	598.74
431.011	575.69
431.387	596.03
431.763	610.94
432.138	597.39
432.514	600.1
432.89	607.1
433.265	616.14
433.641	621.57
434.016	647.33
434.392	629.93
434.767	637.16
435.143	620.44
435.518	661.34
435.894	650.49
436.269	680.77
436.644	689.81
437.02	674.45
437.395	664.28
437.77	678.97
438.145	682.13
438.52	688.23
438.895	680.32
439.271	674.67
439.646	692.52
440.021	705.63
440.395	694.33
440.77	696.59
441.145	701.34
441.52	707.21
441.895	704.95
442.27	717.38
442.645	723.48
443.019	718.51
443.394	728.46
443.769	721.68
444.143	744.27
444.518	738.4
444.892	747.66
445.267	739.98
445.641	752.41
446.016	763.48
446.39	770.26
446.764	766.65
447.139	755.35
447.513	775.46
447.887	779.08
448.262	753.99
448.636	790.37
449.01	777.49
449.384	764.16
449.758	808
450.132	787.21
450.506	806.19
450.88	808.68
451.254	800.09
451.628	809.36
452.002	824.5
452.376	845.29
452.75	839.41
453.123	859.07
453.497	865.4
453.871	855.23
454.244	874.21
454.618	868.79
454.992	878.51
455.365	871.95
455.739	887.1
456.112	901.11
456.486	922.57
456.859	919.41
457.232	953.08
457.606	939.98
457.979	948.34
458.352	976.58
458.725	986.3
459.099	969.35
459.472	1006.87
459.845	1023.36
460.218	1010.71
460.591	1006.64
460.964	1018.17
461.337	1024.04
461.71	1017.26
462.083	1050.03
462.456	1055.68
462.829	1057.94
463.201	1085.51
463.574	1081.21
463.947	1137.03
464.32	1108.78
464.692	1146.3
465.065	1122.12
465.438	1124.15
465.81	1158.73
466.183	1155.79
466.555	1188.78
466.928	1205.28
467.3	1219.74
467.672	1223.13
468.045	1236.69
468.417	1232.85
468.789	1279.85
469.161	1310.14
469.534	1298.84
469.906	1318.72
470.278	1336.35
470.65	1356.46
471.022	1375.9
471.394	1386.07
471.766	1398.72
472.138	1428.32
472.51	1456.12
472.882	1469.45
473.253	1511.94
473.625	1529.11
473.997	1547.42
474.369	1574.99
474.74	1568.89
475.112	1626.28
475.484	1639.17
475.855	1663.8
476.227	1697.47
476.598	1733.85
476.97	1746.73
477.341	1805.04
477.713	1832.83
478.084	1856.79
478.455	1919.61
478.827	1937.01
479.198	1991.7
479.569	2023.56
479.94	2060.4
480.311	2076.89
480.682	2136.55
481.053	2214.07
481.424	2264.46
481.795	2224.01
482.166	2316.21
482.537	2343.78
482.908	2387.85
483.279	2453.16
483.65	2495.41
484.021	2560.05
484.391	2624.45
484.762	2652.92
485.133	2675.07
485.503	2730.89
485.874	2806.82
486.244	2845.46
486.615	2882.98
486.985	2946.25
487.356	3048.39
487.726	3074.38
488.097	3125
488.467	3154.15
488.837	3249.29
489.207	3285.9
489.578	3337.43
489.948	3362.96
490.318	3457.2
490.688	3469.17
491.058	3564.99
491.428	3609.06
491.798	3617.42
492.168	3713.01
492.538	3778.54
492.908	3819.9
493.278	3904.42
493.648	3914.36
494.017	3985.32
494.387	4032.55
494.757	4138.99
495.126	4148.48
495.496	4213.34
495.866	4205.88
496.235	4263.28
496.605	4366.55
496.974	4321.81
497.344	4384.63
497.713	4472.09
498.082	4484.74
498.452	4546.43
498.821	4621.23
499.19	4648.58
499.559	4682.02
499.928	4699.65
500.298	4755.47
500.667	4807.67
501.036	4812.64
501.405	4863.49
501.774	4931.73
502.143	4926.99
502.512	4971.06
502.88	5056.7
503.249	5047.21
503.618	5123.14
503.987	5116.36
504.356	5183.71
504.724	5182.8
505.093	5225.96
505.462	5273.87
505.83	5263.93
506.199	5382.34
506.567	5377.6
506.936	5375.79
507.304	5469.12
507.672	5471.16
508.041	5474.09
508.409	5481.32
508.777	5605.39
509.145	5646.97
509.514	5638.38
509.882	5708.66
510.25	5696.23
510.618	5756.8
510.986	5753.41
511.354	5814.2
511.722	5870.02
512.09	5889.22
512.458	5907.3
512.826	5904.59
513.193	5964.93
513.561	5944.14
513.929	6034.53
514.297	6054.64
514.664	6143.45
515.032	6141.65
515.4	6171.25
515.767	6179.39
516.135	6195.43
516.502	6183.91
516.869	6287.41
517.237	6331.47
517.604	6234.75
517.972	6387.97
518.339	6375.99
518.706	6399.04
519.073	6457.8
519.44	6488.08
519.808	6495.99
520.175	6487.4
520.542	6562.65
520.909	6623.44
521.276	6565.14
521.643	6619.37
522.009	6627.51
522.376	6780.73
522.743	6762.42
523.11	6788.18
523.477	6839.71
523.843	6848.07
524.21	6902.98
524.577	6981.62
524.943	6982.98
525.31	7036.31
525.676	7126.48
526.043	7149.53
526.409	7135.07
526.776	7243.99
527.142	7227.27
527.508	7276.76
527.874	7328.06
528.241	7366.02
528.607	7421.84
528.973	7447.6
529.339	7412.35
529.705	7514.72
530.071	7562.85
530.437	7555.62
530.803	7648.95
531.169	7647.6
531.535	7637.2
531.901	7727.59
532.267	7699.8
532.632	7828.61
532.998	7796.29
533.364	7905.44
533.73	7897.98
534.095	7939.11
534.461	8015.04
534.826	8005.33
535.192	8078.09
535.557	8077.87
535.923	8126.9
536.288	8128.26
536.653	8144.98
537.019	8177.75
537.384	8205.32
537.749	8275.83
538.114	8307.69
538.479	8326.22
538.845	8385.43
539.21	8378.42
539.575	8363.51
539.94	8460.91
540.305	8521.24
540.67	8475.6
541.034	8517.86
541.399	8552.66
541.764	8556.5
542.129	8560.34
542.494	8652.77
542.858	8704.29
543.223	8745.42
543.587	8806.21
543.952	8770.96
544.316	8806.66
544.681	8868.35
545.045	8905.87
545.41	8958.75
545.774	8933.89
546.138	8989.93
546.503	9065.86
546.867	9099.31
547.231	9130.49
547.595	9066.77
547.959	9139.31
548.324	9187.67
548.688	9161.91
549.052	9221.57
549.416	9304.95
549.779	9318.74
550.143	9353.09
550.507	9355.57
550.871	9386.53
551.235	9381.34
551.599	9456.81
551.962	9490.26
552.326	9485.29
552.689	9544.04
553.053	9575.23
553.417	9590.6
553.78	9728.67
554.143	9673.53
554.507	9677.15
554.87	9708.33
555.234	9917.14
555.597	9798.73
555.96	9813.41
556.323	9812.06
556.686	9915.11
557.05	10000.3
557.413	9953.98
557.776	9978.61
558.139	10025.61
558.502	10066.29
558.865	10084.82
559.228	10135.67
559.59	10121.43
559.953	10181.31
560.316	10295.44
560.679	10243.01
561.041	10337.02
561.404	10271.93
561.767	10415.88
562.129	10328.2
562.492	10510.35
562.854	10529.55
563.217	10536.79
563.579	10482.1
563.941	10639.61
564.304	10631.02
564.666	10728.19
565.028	10753.05
565.39	10759.15
565.753	10821.3
566.115	10892.93
566.477	10847.51
566.839	10939.03
567.201	10952.82
567.563	10998.69
567.925	11047.28
568.287	11040.05
568.648	11047.96
569.01	11133.15
569.372	11164.11
569.734	11223.09
570.095	11236.65
570.457	11335.63
570.819	11341.51
571.18	11388.97
571.542	11490.66
571.903	11516.42
572.265	11533.6
572.626	11629.86
572.987	11631.45
573.349	11725.23
573.71	11791.89
574.071	11794.83
574.432	11899.24
574.794	12076.41
575.155	12002.28
575.516	11992.34
575.877	12113.47
576.238	12233.92
576.599	12350.97
576.96	12391.65
577.32	12497.19
577.681	12580.8
578.042	12647.01
578.403	12728.59
578.763	12856.72
579.124	12977.4
579.485	12993.22
579.845	13208.35
580.206	13238.18
580.566	13368.8
580.927	13496.48
581.287	13643.6
581.648	13781.22
582.008	13988.67
582.368	14009.24
582.728	14238.16
583.089	14302.11
583.449	14571.03
583.809	14703
584.169	14863.68
584.529	15033.16
584.889	15331.46
585.249	15404.23
585.609	15501.85
585.969	15763.31
586.329	15914.72
586.688	16175.28
587.048	16207.6
587.408	16518.77
587.768	16738.2
588.127	16966.9
588.487	17111.08
588.846	17491.86
589.206	17552.65
589.565	17818.63
589.925	18100.88
590.284	18280.76
590.643	18586.74
591.003	18742.45
591.362	19161.19
591.721	19193.51
592.08	19530.67
592.44	19866.03
592.799	20017.44
593.158	20287.49
593.517	20498.11
593.876	20811.09
594.235	21097.64
594.593	21266.45
594.952	21597.29
595.311	21705.08
595.67	22058.97
596.029	22525.62
596.387	22655.56
596.746	22872.05
597.104	23013.29
597.463	23162.22
597.822	23593.84
598.18	23786.15
598.538	24003.32
598.897	24387.04
599.255	24442.86
599.613	24957.87
599.972	25048.04
600.33	25268.83
600.688	25500.01
601.046	25798.98
601.404	26076.49
601.762	26270.61
602.12	26595.35
602.478	26721.22
602.836	27050.02
603.194	27109.91
603.552	27353.29
603.91	27542.89
604.268	27886.39
604.625	27980.39
604.983	28313.49
605.341	28385.81
605.698	28621.28
606.056	28920.93
606.413	28880.71
606.771	29269.4
607.128	29472.78
607.485	29370.19
607.843	29649.73
608.2	29964.3
608.557	30279.32
608.914	30282.03
609.272	30663.26
609.629	30799.3
609.986	31036.59
610.343	30951.84
610.7	31366.29
611.057	31463.47
611.414	31668.66
611.771	31794.31
612.127	31941.87
612.484	32168.53
612.841	32313.39
613.198	32405.14
613.554	32593.15
613.911	32733.72
614.267	32873.37
614.624	33024.33
614.98	33174.38
615.337	33385
615.693	33415.96
616.05	33504.99
616.406	33767.59
616.762	33705.89
617.118	34010.74
617.475	33917.64
617.831	34098.88
618.187	34234.02
618.543	34398.08
618.899	34584.74
619.255	34691.18
619.611	34742.7
619.967	35018.18
620.323	35078.96
620.678	34977.95
621.034	34956.48
621.39	35144.73
621.746	35019.31
622.101	35577.93
622.457	35320.31
622.812	35441.89
623.168	35622.23
623.523	35783.8
623.879	35695.67
624.234	35661.32
624.589	35829.45
624.945	35935.89
625.3	36158.26
625.655	35945.61
626.01	36202.1
626.365	36373.39
626.72	36245.94
627.075	36315.32
627.43	36266.5
627.785	36353.51
628.14	36373.85
628.495	36478.93
628.85	36473.5
629.205	36333.39
629.559	36681.86
629.914	36526.16
630.269	36641.64
630.623	36480.51
630.978	36462.88
631.332	36662.43
631.687	36681.86
632.041	36668.3
632.396	36679.83
632.75	36668.3
633.104	36727.06
633.459	36491.36
633.813	36526.16
634.167	36650
634.521	36651.58
634.875	36769.99
635.229	36640.73
635.583	36664.01
635.937	36623.56
636.291	36630.11
636.645	36621.75
636.999	36566.16
637.352	36705.59
637.706	36466.72
638.06	36676.66
638.413	36659.26
638.767	36486.39
639.121	36704.68
639.474	36373.62
639.828	36493.39
640.181	36454.52
640.534	36490
640.888	36504.01
641.241	36161.87
641.594	36426.5
641.947	36539.94
642.301	36332.49
642.654	36541.75
643.007	36484.35
643.36	36495.65
643.713	36425.37
644.066	36544.91
644.419	36326.16
644.771	36126.62
645.124	35823.35
645.477	35740.64
645.83	35417.26
646.182	35380.65
646.535	35258.17
646.888	35332.52
647.24	35076.25
647.593	35349.47
647.945	35183.59
648.298	35156.02
648.65	34993.77
649.002	34983.83
649.355	35072.41
649.707	35084.61
650.059	35286.64
650.411	35713.52
650.763	35861.32
651.115	36079.16
651.467	36036
651.819	35920.07
652.171	35953.97
652.523	35937.25
652.875	35846.18
653.227	35649.12
653.578	36003.91
653.93	35989.9
654.282	35769.34
654.633	35592.62
654.985	35727.76
655.337	35733.41
655.688	35764.82
656.039	35964.59
656.391	35464.04
656.742	35630.81
657.094	35523.7
657.445	35734.77
657.796	35496.58
658.147	35564.15
658.498	35527.99
658.849	35678.5
659.2	35558.73
659.551	35462.23
659.902	35588.78
660.253	35554.21
660.604	35559.18
660.955	35412.74
661.306	35471.04
661.656	35450.48
662.007	35431.5
662.358	35463.14
662.708	35575.22
663.059	35421.33
663.409	35369.58
663.76	35462.23
664.11	35524.6
664.461	35607.54
664.811	35507.2
665.161	35409.35
665.511	35345.62
665.862	35454.77
666.212	35563.7
666.562	35499.97
666.912	35478.95
667.262	35325.06
667.612	35395.11
667.962	35430.59
668.312	35546.07
668.662	35462.01
669.011	35431.5
669.361	35265.4
669.711	35268.11
670.06	35248.68
670.41	35161.22
670.76	35244.16
671.109	35249.81
671.459	35263.37
671.808	35247.77
672.157	35219.75
672.507	35116.7
672.856	35169.81
673.205	35092.3
673.554	35230.83
673.904	35235.12
674.253	35316.02
674.602	35075.57
674.951	34721.46
675.3	34428.13
675.649	35048.68
675.998	34958.74
676.346	35125.97
676.695	35011.62
677.044	34914
677.393	35041
677.741	34909.7
678.09	34950.83
678.438	34804.62
678.787	34893.88
679.135	34792.87
679.484	34731.86
679.832	34730.73
680.181	34549.94
680.529	34719.88
680.877	34535.25
681.225	34596.04
681.573	34784.96
681.922	34556.49
682.27	34417.97
682.618	34420.22
682.966	34317.63
683.314	34378.19
683.661	34313.34
684.009	34182.27
684.357	34202.6
684.705	34036.73
685.053	34114.92
685.4	34041.48
685.748	33881.93
686.095	33721.71
686.443	33760.13
686.79	33665.89
687.138	33742.95
687.485	33643.52
687.832	33596.29
688.18	33553.36
688.527	33393.81
688.874	33259.8
689.221	33390.42
689.568	33273.36
689.915	33247.15
690.262	33132.35
690.609	33045.35
690.956	33063.65
691.303	32945.46
691.65	32733.49
691.997	32795.41
692.344	32498.69
692.69	32558.35
693.037	32578.92
693.383	32427.96
693.73	32513.16
694.077	32283.33
694.423	32241.53
694.769	32335.99
695.116	32178.25
695.462	32035.88
695.808	31921.31
696.155	32057.8
696.501	31773.97
696.847	31844.93
697.193	31566.51
697.539	31645.83
697.885	31409
698.231	31259.63
698.577	31243.13
698.923	31289.46
699.269	31113.42
699.614	30925.63
699.96	30957.27
700.306	30994.33
700.651	30834.56
700.997	30720.89
701.342	30694.9
701.688	30590.5
702.033	30661.23
702.379	30570.16
702.724	30343.5
703.069	30480.22
703.415	30110.73
703.76	30112.09
704.105	30083.62
704.45	29996.16
704.795	29847.01
705.14	29799.78
705.485	29766.79
705.83	29662.16
706.175	29677.07
706.52	29720.69
706.865	29531.77
707.209	29516.85
707.554	29455.61
707.899	29490.64
708.243	29250.19
708.588	29327.25
708.932	28996.19
709.277	29177.65
709.621	29037.09
709.966	28840.03
710.31	28892.23
710.654	28729.98
710.998	28772.01
711.342	28800.26
711.687	28505.8
712.031	28561.85
712.375	28508.97
712.719	28515.97
713.063	28348.97
713.407	28457.22
713.75	28175.87
714.094	28278.69
714.438	28133.84
714.782	28209.77
715.125	27967.06
715.469	28135.42
715.812	27880.51
716.156	27687.97
716.499	27826.27
716.843	27811.13
717.186	27623.34
717.53	27823.79
717.873	27767.74
718.216	27745.6
718.559	27624.02
718.902	27501.08
719.246	27469.67
719.589	27375.21
719.932	27393.97
720.275	27381.77
720.617	27231.49
720.96	27182.45
721.303	27205.5
721.646	27158.04
721.989	27069.46
722.331	27149.68
722.674	27022.91
723.016	27049.12
723.359	26946.07
723.701	26991.27
724.044	26781.33
724.386	26552.41
724.729	26814.78
725.071	26719.64
725.413	26722.12
725.755	26601.22
726.097	26577.49
726.439	26376.82
726.782	26375.69
727.124	26560.09
727.465	26445.07
727.807	26325.97
728.149	26322.13
728.491	26301.34
728.833	26312.19
729.175	26147.9
729.516	26109.26
729.858	26043.95
730.199	26031.52
730.541	26029.26
730.882	26056.15
731.224	26110.16
731.565	25860.45
731.906	25975.02
732.248	25964.85
732.589	25742.94
732.93	25704.97
733.271	25824.29
733.612	25723.5
733.953	25739.55
734.294	25592.21
734.635	25635.82
734.976	25788.81
735.317	25406
735.658	25466.34
735.999	25504.98
736.339	25484.87
736.68	25501.59
737.021	25446.68
737.361	25271.54
737.702	25442.38
738.042	25310.18
738.383	25270.86
738.723	25290.3
739.063	25215.5
739.404	25311.76
739.744	25064.09
740.084	24961.72
740.424	25117.87
740.764	24927.82
741.104	25053.01
741.444	24900.93
741.784	24848.95
742.124	24780.93
742.464	24867.26
742.804	24775.96
743.143	24730.31
743.483	24701.84
743.823	24575.06
744.162	24700.48
744.502	24663.42
744.841	24558.56
745.181	24663.87
745.52	24563.99
745.86	24546.59
746.199	24486.02
746.538	24439.02
746.877	24443.09
747.216	24462.52
747.556	24392.47
747.895	24330.32
748.234	24306.59
748.573	24335.74
748.911	24117.9
749.25	24245.58
749.589	24168.52
749.928	24117.22
750.267	24172.81
750.605	23971.01
750.944	23986.83
751.283	24001.97
751.621	23941.63
751.96	23920.39
752.298	23808.98
752.636	23891.91
752.975	23671.81
753.313	23612.37
753.651	23693.28
753.989	23550.91
754.327	23632.94
754.666	23481.08
755.004	23502.32
755.342	23619.6
755.679	23498.7
756.017	23305.49
756.355	23495.09
756.693	23264.59
757.031	23297.58
757.368	23310.91
757.706	23215.77
758.044	23216.68
758.381	23189.79
758.719	22977.14
759.056	23105.04
759.394	22920.64
759.731	22908.44
