Data from hue_00_FLMS001491_15.txt Node
Date: Mon Feb 06 15:29:20 GMT 2017
User: dcchb
Spectrometer: FLMS00149
Trigger mode: 0
Integration Time (sec): 2.000000E-2
Scans to average: 10
Electric dark correction enabled: true
Nonlinearity correction enabled: false
Boxcar width: 0
XAxis mode: Wavelengths
Number of Pixels in Spectrum: 2048
>>>>>Begin Spectral Data<<<<<
341.393	-19.45
341.776	-19.45
342.16	-19.45
342.543	-63.52
342.927	-52.22
343.31	-63.74
343.693	-72.1
344.077	-59
344.46	-56.74
344.843	-52.22
345.226	-46.79
345.61	-36.62
345.993	-11.09
346.376	3.83
346.759	0.89
347.142	13.54
347.525	36.6
347.908	55.35
348.291	88.8
348.674	85.86
349.057	113.43
349.44	125.63
349.823	149.36
350.206	164.05
350.588	169.25
350.971	195.01
351.354	210.15
351.737	226.42
352.119	249.92
352.502	272.07
352.884	286.31
353.267	288.79
353.65	288.34
354.032	287.66
354.414	299.64
354.797	283.37
355.179	319.07
355.562	324.72
355.944	307.1
356.326	339.64
356.709	325.18
357.091	320.43
357.473	337.83
357.855	355
358.238	340.99
358.62	339.41
359.002	312.52
359.384	353.87
359.766	348
360.148	332.41
360.53	334.21
360.912	353.87
361.294	330.6
361.676	322.24
362.057	321.33
362.439	319.98
362.821	332.18
363.203	323.14
363.584	323.37
363.966	322.46
364.348	345.06
364.729	323.37
365.111	324.5
365.493	335.57
365.874	289.24
366.256	316.81
366.637	308.45
367.019	322.46
367.4	302.35
367.781	310.71
368.163	318.17
368.544	312.75
368.925	331.05
369.306	306.87
369.688	306.87
370.069	300.32
370.45	315.91
370.831	306.19
371.212	328.11
371.593	299.64
371.974	290.83
372.355	309.36
372.736	314.78
373.117	324.95
373.498	322.92
373.879	307.32
374.26	319.3
374.641	305.06
375.021	320.43
375.402	296.25
375.783	322.69
376.163	334.89
376.544	332.41
376.925	324.95
377.305	325.4
377.686	319.98
378.066	303.25
378.447	329.92
378.827	311.84
379.208	348.68
379.588	322.46
379.968	341.67
380.349	324.5
380.729	326.98
381.109	317.49
381.489	338.73
381.87	323.14
382.25	316.14
382.63	345.97
383.01	347.77
383.39	338.96
383.77	344.84
384.15	331.73
384.53	350.26
384.91	333.54
385.29	349.36
385.67	338.06
386.049	336.02
386.429	345.29
386.809	346.64
387.189	343.93
387.568	350.03
387.948	329.69
388.328	365.63
388.707	372.63
389.087	351.16
389.466	369.47
389.846	351.84
390.225	364.5
390.605	344.38
390.984	393.65
391.363	353.65
391.743	355.46
392.122	344.16
392.501	373.54
392.881	355.23
393.26	371.5
393.639	395
394.018	365.63
394.397	356.81
394.776	381.9
395.155	358.85
395.534	364.95
395.913	382.12
396.292	361.78
396.671	369.24
397.05	375.12
397.429	383.93
397.808	370.82
398.186	372.41
398.565	361.33
398.944	395.23
399.323	370.82
399.701	384.61
400.08	373.54
400.458	380.31
400.837	368.79
401.215	389.35
401.594	385.74
401.972	380.31
402.351	389.13
402.729	394.33
403.107	383.25
403.486	379.18
403.864	406.75
404.242	420.54
404.62	407.88
404.999	384.38
405.377	401.56
405.755	398.62
406.133	406.98
406.511	416.7
406.889	431.61
407.267	403.14
407.645	424.16
408.023	399.75
408.401	409.01
408.779	412.63
409.156	422.57
409.534	443.36
409.912	404.5
410.29	434.55
410.667	425.96
411.045	452.86
411.422	429.13
411.8	445.62
412.178	436.81
412.555	468.9
412.933	473.87
413.31	461.67
413.687	450.14
414.065	458.96
414.442	475.91
414.819	484.27
415.197	471.84
415.574	463.02
415.951	491.95
416.328	480.65
416.705	492.63
417.082	482.91
417.46	494.66
417.837	493.98
418.214	507.54
418.591	484.27
418.967	502.8
419.344	484.49
419.721	513.42
420.098	500.54
420.475	501.44
420.852	531.95
421.228	525.85
421.605	546.86
421.982	553.87
422.358	545.96
422.735	536.24
423.111	533.08
423.488	528.11
423.864	538.95
424.241	553.19
424.617	557.49
424.994	551.61
425.37	558.16
425.746	546.41
426.123	576.24
426.499	559.29
426.875	574.43
427.251	568.78
427.627	559.97
428.003	563.36
428.379	590.25
428.756	591.38
429.132	578.5
429.507	596.58
429.883	601.78
430.259	601.78
430.635	609.01
431.011	612.17
431.387	601.55
431.763	631.16
432.138	635.45
432.514	627.09
432.89	642.23
433.265	639.52
433.641	673.87
434.016	661.44
434.392	650.14
434.767	679.06
435.143	669.35
435.518	676.35
435.894	696.69
436.269	690.36
436.644	679.97
437.02	687.2
437.395	684.94
437.77	720.87
438.145	693.75
438.52	712.96
438.895	726.52
439.271	705.96
439.646	747.31
440.021	724.49
440.395	727.42
440.77	760.87
441.145	743.7
441.52	743.92
441.895	764.49
442.27	758.61
442.645	750.02
443.019	777.59
443.394	792.51
443.769	749.8
444.143	774.65
444.518	786.63
444.892	774.2
445.267	799.96
445.641	808.1
446.016	772.62
446.39	778.95
446.764	799.06
447.139	791.6
447.513	794.99
447.887	801.77
448.262	841.32
448.636	830.92
449.01	827.53
449.384	813.3
449.758	841.32
450.132	832.96
450.506	850.13
450.88	860.3
451.254	852.39
451.628	861.88
452.002	878.38
452.376	864.82
452.75	872.73
453.123	879.06
453.497	883.58
453.871	885.16
454.244	891.94
454.618	904.14
454.992	921.09
455.365	926.52
455.739	944.37
456.112	945.5
456.486	926.97
456.859	973.75
457.232	934.65
457.606	977.59
457.979	964.93
458.352	991.15
458.725	991.37
459.099	1001.99
459.472	1010.13
459.845	1037.7
460.218	1018.72
460.591	1045.16
460.964	1036.34
461.337	1066.4
461.71	1080.86
462.083	1070.47
462.456	1077.25
462.829	1114.31
463.201	1107.08
463.574	1095.78
463.947	1110.92
464.32	1146.62
464.692	1173.74
465.065	1167.86
465.438	1172.38
465.81	1188.2
466.183	1189.79
466.555	1219.39
466.928	1230.46
467.3	1223.46
467.672	1258.26
468.045	1271.59
468.417	1269.11
468.789	1306.39
469.161	1303.45
469.534	1320.86
469.906	1346.39
470.278	1318.14
470.65	1369.89
471.022	1383
471.394	1409.67
471.766	1421.87
472.138	1447.41
472.51	1460.51
472.882	1460.51
473.253	1519.95
473.625	1511.36
473.997	1585.48
474.369	1545.93
474.74	1616.21
475.112	1618.25
475.484	1645.37
475.855	1679.49
476.227	1679.94
476.598	1735.53
476.97	1733.95
477.341	1775.08
477.713	1797.68
478.084	1804.91
478.455	1831.58
478.827	1880.84
479.198	1922.2
479.569	1937.79
479.94	1973.72
480.311	1997.45
480.682	2061.17
481.053	2093.26
481.424	2140.72
481.795	2132.59
482.166	2184.11
482.537	2236.99
482.908	2303.65
483.279	2293.48
483.65	2308.63
484.021	2395.86
484.391	2401.5
484.762	2415.97
485.133	2447.61
485.503	2514.95
485.874	2553.37
486.244	2576.64
486.615	2646.7
486.985	2672.91
487.356	2747.26
487.726	2737.54
488.097	2801.04
488.467	2807.37
488.837	2870.87
489.207	2889.18
489.578	2935.5
489.948	2962.17
490.318	3034.93
490.688	3010.53
491.058	3076.29
491.428	3134.82
491.798	3178.89
492.168	3204.42
492.538	3190.86
492.908	3312.22
493.278	3327.13
493.648	3340.01
494.017	3379.33
494.387	3430.18
494.757	3426.11
495.126	3451.87
495.496	3497.52
495.866	3501.36
496.235	3543.17
496.605	3607.12
496.974	3586.33
497.344	3599.44
497.713	3649.38
498.082	3711.53
498.452	3746.55
498.821	3746.33
499.19	3784.07
499.559	3790.62
499.928	3792.65
500.298	3839.66
500.667	3858.42
501.036	3884.63
501.405	3919.2
501.774	3943.84
502.143	3974.34
502.512	3927.57
502.88	4017.73
503.249	4003.72
503.618	4037.85
503.987	4086.43
504.356	4051.4
504.724	4090.5
505.093	4099.77
505.462	4120.78
505.83	4168.69
506.199	4201.91
506.567	4231.06
506.936	4237.84
507.304	4274.9
507.672	4318.74
508.041	4311.51
508.409	4370.94
508.777	4389.93
509.145	4352.64
509.514	4397.61
509.882	4423.82
510.25	4448.46
510.618	4424.05
510.986	4467.44
511.354	4509.25
511.722	4530.94
512.09	4583.37
512.458	4498.62
512.826	4584.05
513.193	4564.61
513.561	4614.78
513.929	4634.89
514.297	4668.79
514.664	4657.94
515.032	4723.93
515.4	4725.96
515.767	4753.76
516.135	4777.71
516.502	4717.83
516.869	4805.51
517.237	4853.64
517.604	4745.62
517.972	4815.68
518.339	4873.08
518.706	4871.5
519.073	4889.57
519.44	4909.46
519.808	4924.83
520.175	4921.21
520.542	5017.03
520.909	4977.71
521.276	5017.93
521.643	5054.32
522.009	5073.52
522.376	5089.8
522.743	5143.13
523.11	5155.1
523.477	5200.53
523.843	5199.4
524.21	5246.85
524.577	5273.97
524.943	5272.84
525.31	5331.37
525.676	5388.54
526.043	5424.25
526.409	5363.01
526.776	5479.84
527.142	5461.31
527.508	5459.96
527.874	5453.4
528.241	5518.48
528.607	5583.57
528.973	5606.17
529.339	5581.76
529.705	5653.85
530.071	5733.17
530.437	5658.14
530.803	5749.67
531.169	5768.2
531.535	5727.29
531.901	5751.47
532.267	5792.83
532.632	5854.07
532.998	5853.17
533.364	5902.66
533.73	5930
534.095	5908.53
534.461	5990.34
534.826	6018.36
535.192	5996.66
535.557	6057.45
535.923	6068.75
536.288	6082.31
536.653	6084.57
537.019	6138.58
537.384	6194.17
537.749	6192.14
538.114	6242.08
538.479	6167.51
538.845	6273.27
539.21	6244.57
539.575	6280.05
539.94	6293.61
540.305	6353.04
540.67	6365.69
541.034	6322.53
541.399	6408.4
541.764	6415.18
542.129	6479.14
542.494	6524.11
542.858	6481.85
543.223	6496.09
543.587	6571.34
543.952	6582.64
544.316	6547.38
544.681	6615.86
545.045	6641.85
545.41	6655.4
545.774	6791.22
546.138	6758.23
546.503	6722.07
546.867	6806.36
547.231	6927.49
547.595	6870.31
547.959	6802.07
548.324	6888.84
548.688	6856.08
549.052	6908.28
549.416	7010.2
549.779	6988.5
550.143	7004.32
550.507	7028.5
550.871	7065.34
551.235	7044.55
551.599	7145.79
551.962	7135.17
552.326	7123.19
552.689	7176.52
553.053	7153.7
553.417	7150.53
553.78	7272.11
554.143	7297.65
554.507	7332.45
554.87	7305.78
555.234	7426.91
555.597	7268.04
555.96	7379
556.323	7368.15
556.686	7391.66
557.05	7393.24
557.413	7444.99
557.776	7497.19
558.139	7538.54
558.502	7535.38
558.865	7551.43
559.228	7621.48
559.59	7667.81
559.953	7637.53
560.316	7692.44
560.679	7692.44
561.041	7725.43
561.404	7761.82
561.767	7811.53
562.129	7785.77
562.492	7854.47
562.854	7896.5
563.217	7887.24
563.579	7908.7
563.941	7939.21
564.304	7956.39
564.666	8069.15
565.028	8017.18
565.39	8101.02
565.753	8099.43
566.115	8169.04
566.477	8143.05
566.839	8222.14
567.201	8249.94
567.563	8276.38
567.925	8333.1
568.287	8308.02
568.648	8328.13
569.01	8366.09
569.372	8419.88
569.734	8442.93
570.095	8509.82
570.457	8534
570.819	8515.02
571.18	8543.72
571.542	8618.06
571.903	8611.51
572.265	8701.23
572.626	8739.64
572.987	8808.57
573.349	8742.35
573.71	8895.57
574.071	8911.39
574.432	8977.38
574.794	9056.24
575.155	9020.31
575.516	9106.64
575.877	9202.23
576.238	9155.23
576.599	9335.56
576.96	9329.46
577.32	9472.05
577.681	9528.32
578.042	9536.46
578.403	9615.78
578.763	9660.97
579.124	9812.16
579.485	9915.66
579.845	10004.02
580.206	10097.57
580.566	10147.06
580.927	10234.29
581.287	10411.92
581.648	10523.55
582.008	10633.6
582.368	10725.58
582.728	10917.44
583.089	10946.14
583.449	11156.3
583.809	11322.63
584.169	11514.03
584.529	11596.29
584.889	11771.65
585.249	11891.2
585.609	12109.27
585.969	12233.79
586.329	12452.54
586.688	12668.81
587.048	12785.64
587.408	12983.83
587.768	13241.67
588.127	13313.76
588.487	13587.43
588.846	13978.15
589.206	14022.44
589.565	14243.23
589.925	14524.12
590.284	14731.35
590.643	15053.83
591.003	15212.02
591.362	15487.49
591.721	15748.95
592.08	15960.47
592.44	16270.97
592.799	16482.94
593.158	16681.81
593.517	16926.09
593.876	17177.61
594.235	17472.52
594.593	17706.19
594.952	18005.39
595.311	18186.85
595.67	18515.88
596.029	18938.92
596.387	19095.3
596.746	19395.86
597.104	19659.58
597.463	19895.06
597.822	20286.46
598.18	20452.1
598.538	20570.07
598.897	20940.9
599.255	21076.49
599.613	21625.63
599.972	21784.27
600.33	22109.91
600.688	22301.32
601.046	22556.23
601.404	22894.07
601.762	23057.91
602.12	23455.87
602.478	23621.96
602.836	23806.14
603.194	23961.16
603.552	24366.12
603.91	24457.42
604.268	24788.03
604.625	25061.47
604.983	25409.71
605.341	25378.98
605.698	25890.15
606.056	26022.58
606.413	26124.72
606.771	26441.78
607.128	26659.4
607.485	26817.13
607.843	27051.48
608.2	27278.14
608.557	27563.55
608.914	27582.09
609.272	28141.62
609.629	28280.82
609.986	28379.13
610.343	28588.39
610.7	28899.79
611.057	28937.53
611.414	29145.21
611.771	29321.7
612.127	29451.19
612.484	29566.89
612.841	29930.95
613.198	30000.33
613.554	30132.75
613.911	30428.11
614.267	30491.84
614.624	30747.43
614.98	30791.49
615.337	31210.92
615.693	31325.26
616.05	31400.29
616.406	31585.82
616.762	31679.15
617.118	31739.94
617.475	31777.68
617.831	32084.34
618.187	32405.69
618.543	32337.89
618.899	32671.9
619.255	32667.6
619.611	32776.75
619.967	32947.59
620.323	33098.32
620.678	33070.75
621.034	33049.51
621.39	33284.08
621.746	33277.3
622.101	33834.35
622.457	33567.01
622.812	33717.52
623.168	33896.5
623.523	33883.16
623.879	34112.99
624.234	33933.78
624.589	34196.6
624.945	34276.82
625.3	34264.17
625.655	34392.98
626.01	34409.93
626.365	34552.98
626.72	34453.32
627.075	34663.71
627.43	34576.25
627.785	34667.1
628.14	34663.03
628.495	34969.69
628.85	34829.58
629.205	34709.13
629.559	35030.48
629.914	34928.56
630.269	35061.66
630.623	34897.6
630.978	34868
631.332	35110.7
631.687	35256.01
632.041	34951.16
632.396	35190.25
632.75	35154.99
633.104	35217.59
633.459	35200.19
633.813	35217.82
634.167	35209
634.521	35185.28
634.875	35348.89
635.229	35333.07
635.583	35003.81
635.937	35122
636.291	35178.04
636.645	35204.26
636.999	35145.73
637.352	35380.98
637.706	35077.48
638.06	35306.18
638.413	35144.82
638.767	35115.9
639.121	35159.06
639.474	34986.18
639.828	35166.97
640.181	35215.78
640.534	35180.3
640.888	35131.49
641.241	34967.65
641.594	35040.42
641.947	35250.13
642.301	35124.49
642.654	35086.97
643.007	35032.06
643.36	35059.18
643.713	35129.46
644.066	35084.26
644.419	34879.29
644.771	34715.68
645.124	34437.5
645.477	34313.43
645.83	34291.97
646.182	34041.8
646.535	34082.71
646.888	34073.89
647.24	33849.04
647.593	34177.17
647.945	34087
648.298	33931.98
648.65	33937.85
649.002	33788.48
649.355	34009.26
649.707	33870.06
650.059	33962.93
650.411	34492.64
650.763	34558.85
651.115	34847.66
651.467	34812.18
651.819	34621.67
652.171	34721.78
652.523	34648.79
652.875	34656.25
653.227	34446.09
653.578	34716.59
653.93	34637.95
654.282	34474.79
654.633	34404.73
654.985	34488.34
655.337	34513.88
655.688	34629.58
656.039	34637.49
656.391	34312.53
656.742	34323.83
657.094	34451.96
657.445	34624.16
657.796	34425.75
658.147	34273.21
658.498	34381
658.849	34435.92
659.2	34374.68
659.551	34322.25
659.902	34491.51
660.253	34256.94
660.604	34447.67
660.955	34221.01
661.306	34459.64
661.656	34380.78
662.007	34341.46
662.358	34400.89
662.708	34450.61
663.059	34183.27
663.409	34072.54
663.76	34377.39
664.11	34383.49
664.461	34392.53
664.811	34286.32
665.161	34284.96
665.511	34321.12
665.862	34284.96
666.212	34449.25
666.562	34423.71
666.912	34341.91
667.262	34258.52
667.612	34178.52
667.962	34335.58
668.312	34209.48
668.662	34329.7
669.011	34252.87
669.361	34221.91
669.711	34279.54
670.06	34139.2
670.41	34019.66
670.76	34110.28
671.109	34162.93
671.459	34020.33
671.808	34023.5
672.157	34164.96
672.507	33929.72
672.856	33954.35
673.205	34019.88
673.554	34155.47
673.904	33877.29
674.253	34234.11
674.602	34083.61
674.951	33505.09
675.3	33404.08
675.649	33896.04
675.998	33863.73
676.346	33925.65
676.695	34000.9
677.044	33707.35
677.393	33865.76
677.741	33888.13
678.09	33693.34
678.438	33663.06
678.787	33774.24
679.135	33854.69
679.484	33609.5
679.832	33765.65
680.181	33496.28
680.529	33662.83
680.877	33553
681.225	33456.96
681.573	33720
681.922	33399.33
682.27	33391.65
682.618	33293.8
682.966	33369.73
683.314	33276.4
683.661	33216.51
684.009	33139
684.357	33033.24
684.705	32915.73
685.053	33004.54
685.4	33080.02
685.748	32872.79
686.095	32827.37
686.443	32740.82
686.79	32569.98
687.138	32693.59
687.485	32829.86
687.832	32614.27
688.18	32608.85
688.527	32442.3
688.874	32461.05
689.221	32419.7
689.568	32257.67
689.915	32222.19
690.262	32161.85
690.609	32132.7
690.956	31971.12
691.303	32040.73
691.65	31777
691.997	31802.54
692.344	31645.93
692.69	31635.09
693.037	31712.82
693.383	31406.62
693.73	31624.92
694.077	31330.01
694.423	31271.93
694.769	31247.53
695.116	31139.96
695.462	31169.79
695.808	30977.48
696.155	31058.83
696.501	30860.64
696.847	30887.08
697.193	30709.91
697.539	30642.12
697.885	30492.07
698.231	30511.95
698.577	30436.02
698.923	30357.15
699.269	30124.84
699.614	30129.36
699.96	29992.19
700.306	30004.62
700.651	29815.02
700.997	29827.68
701.342	29791.97
701.688	29711.75
702.033	29696.38
702.379	29600.11
702.724	29718.75
703.069	29635.36
703.415	29318.31
703.76	29348.14
704.105	29347.01
704.45	29204.19
704.795	29093.01
705.14	29005.55
705.485	28941.15
705.83	28766.24
706.175	28796.06
706.52	28794.93
706.865	28701.38
707.209	28659.8
707.554	28479.46
707.899	28655.5
708.243	28410.76
708.588	28400.6
708.932	28270.2
709.277	28199.24
709.621	28301.84
709.966	27948.86
710.31	28073.6
710.654	27805.36
710.998	27839.48
711.342	27939.59
711.687	27928.74
712.031	27791.12
712.375	27595.87
712.719	27594.06
713.063	27604.23
713.407	27716.32
713.75	27501.41
714.094	27555.19
714.438	27346.84
714.782	27460.73
715.125	27282.43
715.469	27218.93
715.812	27042.44
716.156	26971.71
716.499	27021.87
716.843	27145.49
717.186	26912.95
717.53	26966.51
717.873	26881.99
718.216	26911.59
718.559	26837.7
718.902	26672.96
719.246	26649.23
719.589	26700.75
719.932	26473.19
720.275	26442.45
720.617	26508.44
720.96	26443.81
721.303	26480.19
721.646	26470.48
721.989	26220.09
722.331	26403.81
722.674	26347.99
723.016	26188.68
723.359	26182.57
723.701	26161.33
724.044	26026.87
724.386	25921.56
724.729	25959.53
725.071	25835.01
725.413	25857.39
725.755	25825.75
726.097	25778.29
726.439	25704.85
726.782	25646.54
727.124	25787.33
727.465	25700.1
727.807	25555.25
728.149	25481.58
728.491	25531.07
728.833	25405.65
729.175	25401.35
729.516	25371.52
729.858	25302.82
730.199	25371.07
730.541	25322.94
730.882	25183.28
731.224	25373.78
731.565	25240.45
731.906	25232.09
732.248	25257.4
732.589	25054.02
732.93	25021.7
733.271	24901.48
733.612	24962.27
733.953	25024.19
734.294	24873.23
734.635	24785.32
734.976	24889.5
735.317	24757.3
735.658	24725.89
735.999	24681.82
736.339	24786.23
736.68	24797.3
737.021	24629.85
737.361	24633.69
737.702	24684.08
738.042	24518.44
738.383	24470.53
738.723	24571.54
739.063	24538.32
739.404	24518.21
739.744	24401.38
740.084	24303.3
740.424	24369.74
740.764	24353.02
741.104	24413.36
741.444	24277.09
741.784	24115.28
742.124	24151.44
742.464	24144.44
742.804	24105.34
743.143	24104.44
743.483	24103.53
743.823	23933.82
744.162	24055.85
744.502	23977.66
744.841	23860.38
745.181	23928.62
745.52	23747.84
745.86	23906.25
746.199	23840.71
746.538	23814.5
746.877	23713.49
747.216	23755.52
747.556	23679.82
747.895	23616.77
748.234	23605.69
748.573	23600.95
748.911	23479.59
749.25	23535.64
749.589	23393.95
749.928	23454.96
750.267	23481.4
750.605	23271.24
750.944	23296.77
751.283	23294.51
751.621	23349.2
751.96	23147.17
752.298	23033.73
752.636	23180.62
752.975	22983.11
753.313	22948.76
753.651	23100.62
753.989	22952.83
754.327	22917.58
754.666	22881.87
755.004	22860.85
755.342	22840.97
755.679	22796.9
756.017	22710.58
756.355	22726.85
756.693	22657.92
757.031	22595.1
757.368	22423.58
757.706	22491.15
758.044	22356.69
758.381	22471.26
758.719	22287.54
759.056	22269
759.394	22191.49
759.731	22040.99
760.068	22016.13
760.405	22004.38
760.743	21959.63
761.08	22005.73
