Data from hue_350_FLMS001491_62.txt Node
Date: Mon Feb 06 15:38:21 GMT 2017
User: dcchb
Spectrometer: FLMS00149
Trigger mode: 0
Integration Time (sec): 2.000000E-2
Scans to average: 10
Electric dark correction enabled: true
Nonlinearity correction enabled: false
Boxcar width: 0
XAxis mode: Wavelengths
Number of Pixels in Spectrum: 2048
>>>>>Begin Spectral Data<<<<<
341.393	-9.03
341.776	-9.03
342.16	-9.03
342.543	-64.84
342.927	-48.12
343.31	-55.8
343.693	-66.65
344.077	-60.78
344.46	-47.22
344.843	-57.61
345.226	-48.35
345.61	-21.91
345.993	-34.11
346.376	-11.06
346.759	16.96
347.142	32.78
347.525	37.75
347.908	81.82
348.291	51.31
348.674	80.69
349.057	102.16
349.44	133.34
349.823	137.86
350.206	148.26
350.588	196.39
350.971	190.74
351.354	213.34
351.737	226.22
352.119	248.37
352.502	249.73
352.884	271.87
353.267	259.22
353.65	281.14
354.032	282.72
354.414	302.15
354.797	292.89
355.179	317.52
355.562	311.19
355.944	319.33
356.326	342.6
356.709	330.17
357.091	323.4
357.473	342.38
357.855	344.41
358.238	327.69
358.62	327.92
359.002	341.25
359.384	328.82
359.766	330.17
360.148	323.85
360.53	340.34
360.912	338.08
361.294	337.41
361.676	340.12
362.057	325.88
362.439	319.33
362.821	321.59
363.203	322.04
363.584	311.19
363.966	329.27
364.348	333.11
364.729	282.49
365.111	318.42
365.493	317.97
365.874	302.38
366.256	297.86
366.637	301.93
367.019	318.42
367.4	312.55
367.781	312.32
368.163	308.48
368.544	304.19
368.925	298.76
369.306	301.02
369.688	313.9
370.069	315.03
370.45	300.35
370.831	328.37
371.212	312.55
371.593	312.77
371.974	307.58
372.355	307.12
372.736	302.38
373.117	302.38
373.498	285.43
373.879	289.72
374.26	296.73
374.641	292.44
375.021	303.28
375.402	307.35
375.783	321.81
376.163	324.75
376.544	310.74
376.925	312.32
377.305	316.62
377.686	318.2
378.066	311.42
378.447	322.94
378.827	315.49
379.208	326.11
379.588	315.03
379.968	319.1
380.349	334.24
380.729	332.89
381.109	333.34
381.489	321.81
381.87	338.31
382.25	345.09
382.63	328.59
383.01	335.37
383.39	322.49
383.77	348.48
384.15	322.94
384.53	346.22
384.91	328.59
385.29	341.93
385.67	317.07
386.049	357.07
386.429	335.6
386.809	334.24
387.189	341.47
387.568	339.89
387.948	336.73
388.328	345.09
388.707	341.47
389.087	338.54
389.466	351.19
389.846	367.01
390.225	385.77
390.605	364.52
390.984	351.42
391.363	347.58
391.743	366.33
392.122	356.84
392.501	341.7
392.881	362.94
393.26	348.71
393.639	355.03
394.018	353.9
394.397	361.36
394.776	380.34
395.155	363.62
395.534	344.86
395.913	360.68
396.292	373.79
396.671	375.82
397.05	341.25
397.429	367.69
397.808	380.57
398.186	360.68
398.565	376.05
398.944	366.56
399.323	363.39
399.701	380.12
400.08	355.94
400.458	376.28
400.837	382.15
401.215	378.31
401.594	391.19
401.972	402.72
402.351	381.7
402.729	398.42
403.107	388.03
403.486	399.55
403.864	375.6
404.242	388.7
404.62	414.92
404.999	404.98
405.377	412.43
405.755	387.8
406.133	409.04
406.511	420.12
406.889	402.72
407.267	434.13
407.645	400.23
408.023	431.87
408.401	418.08
408.779	401.81
409.156	433.45
409.534	413.11
409.912	435.03
410.29	437.52
410.667	424.41
411.045	426.9
411.422	440.23
411.8	438.42
412.178	443.84
412.555	441.13
412.933	445.43
413.31	435.93
413.687	467.8
414.065	454.47
414.442	461.7
414.819	463.05
415.197	472.09
415.574	498.08
415.951	462.6
416.328	478.19
416.705	473.67
417.082	485.88
417.46	470.96
417.837	496.05
418.214	502.6
418.591	494.24
418.967	468.93
419.344	491.07
419.721	507.8
420.098	495.59
420.475	494.92
420.852	502.83
421.228	513.45
421.605	514.35
421.982	524.07
422.358	510.96
422.735	524.52
423.111	541.02
423.488	525.88
423.864	520.23
424.241	556.16
424.617	539.21
424.994	546.67
425.37	561.81
425.746	548.47
426.123	555.03
426.499	568.81
426.875	563.16
427.251	584.18
427.627	569.49
428.003	571.07
428.379	572.88
428.756	591.19
429.132	581.92
429.507	611.52
429.883	620.79
430.259	603.61
430.635	612.43
431.011	596.61
431.387	601.13
431.763	630.73
432.138	630.51
432.514	626.44
432.89	661.69
433.265	621.47
433.641	649.04
434.016	643.16
434.392	660.79
434.767	659.88
435.143	662.14
435.518	657.17
435.894	686.1
436.269	687
436.644	672.31
437.02	678.64
437.395	689.49
437.77	715.93
438.145	720.45
438.52	691.75
438.895	714.35
439.271	710.5
439.646	723.61
440.021	750.73
440.395	733.78
440.77	755.93
441.145	749.82
441.52	738.75
441.895	747.34
442.27	755.02
442.645	762.25
443.019	769.49
443.394	769.94
443.769	779.88
444.143	754.57
444.518	769.03
444.892	762.03
445.267	780.56
445.641	764.29
446.016	780.11
446.39	796.38
446.764	801.12
447.139	797.28
447.513	828.24
447.887	809.03
448.262	802.7
448.636	798.64
449.01	837.05
449.384	809.26
449.758	808.81
450.132	841.8
450.506	833.44
450.88	830.95
451.254	831.86
451.628	854.45
452.002	854
452.376	876.15
452.75	840.9
453.123	881.8
453.497	894.45
453.871	897.62
454.244	882.48
454.618	893.32
454.992	920.67
455.365	919.09
455.739	914.34
456.112	932.87
456.486	955.24
456.859	938.29
457.232	921.8
457.606	924.74
457.979	965.41
458.352	997.95
458.725	978.97
459.099	985.52
459.472	1013.09
459.845	1017.39
460.218	984.62
460.591	1018.97
460.964	1005.86
461.337	1042.7
461.71	1038.18
462.083	1055.81
462.456	1062.59
462.829	1074.34
463.201	1101.23
463.574	1119.31
463.947	1091.51
464.32	1128.35
464.692	1132.87
465.065	1127.44
465.438	1165.63
465.81	1150.27
466.183	1139.19
466.555	1162.47
466.928	1201.11
467.3	1197.27
467.672	1228
468.045	1242.69
468.417	1243.6
468.789	1244.95
469.161	1261.45
469.534	1270.04
469.906	1308
470.278	1328.34
470.65	1326.31
471.022	1339.41
471.394	1366.76
471.766	1400.2
472.138	1395.46
472.51	1430.26
472.882	1476.81
473.253	1472.07
473.625	1474.78
473.997	1514.55
474.369	1517.49
474.74	1547.77
475.112	1547.54
475.484	1583.7
475.855	1615.56
476.227	1637.26
476.598	1686.75
476.97	1656.02
477.341	1681.78
477.713	1767.2
478.084	1725.17
478.455	1791.38
478.827	1786.18
479.198	1849.91
479.569	1837.93
479.94	1898.27
480.311	1906.18
480.682	1966.52
481.053	1967.42
481.424	2056.46
481.795	2059.62
482.166	2072.28
482.537	2093.07
482.908	2190.69
483.279	2177.36
483.65	2228.66
484.021	2238.37
484.391	2317.24
484.762	2287.19
485.133	2333.96
485.503	2355.66
485.874	2438.14
486.244	2418.26
486.615	2495.32
486.985	2543.45
487.356	2561.53
487.726	2600.85
488.097	2654.63
488.467	2621.87
488.837	2715.42
489.207	2731.47
489.578	2764.24
489.948	2830.45
490.318	2853.5
490.688	2832.26
491.058	2894.18
491.428	2909.77
491.798	2991.8
492.168	3018.69
492.538	3042.19
492.908	3080.16
493.278	3109.99
493.648	3134.17
494.017	3190.66
494.387	3208.07
494.757	3241.28
495.126	3286.48
495.496	3229.99
495.866	3303.88
496.235	3314.96
496.605	3372.13
496.974	3384.78
497.344	3408.06
497.713	3444.67
498.082	3469.3
498.452	3464.1
498.821	3511.79
499.19	3526.02
499.559	3567.38
499.928	3594.27
500.298	3619.35
500.667	3634.04
501.036	3623.87
501.405	3648.96
501.774	3653.25
502.143	3704.32
502.512	3721.72
502.88	3767.82
503.249	3761.95
503.618	3721.05
503.987	3834.04
504.356	3787.26
504.724	3827.71
505.093	3814.83
505.462	3829.29
505.83	3880.59
506.199	3875.84
506.567	3935.5
506.936	3922.17
507.304	4035.61
507.672	3990.42
508.041	4003.07
508.409	4026.12
508.777	3993.13
509.145	4107.02
509.514	4093.47
509.882	4078.55
510.25	4109.51
510.618	4119.45
510.986	4152.22
511.354	4122.39
511.722	4207.36
512.09	4248.49
512.458	4218.89
512.826	4258.66
513.193	4232.22
513.561	4257.76
513.929	4266.79
514.297	4285.33
514.664	4321.93
515.032	4310.18
515.4	4334.82
515.767	4355.15
516.135	4404.19
516.502	4347.7
516.869	4398.32
517.237	4435.38
517.604	4459.78
517.972	4442.16
518.339	4435.6
518.706	4494.36
519.073	4548.37
519.44	4517.41
519.808	4597.41
520.175	4522.61
520.542	4580.68
520.909	4585.66
521.276	4599.89
521.643	4617.52
522.009	4628.82
522.376	4667.01
522.743	4730.96
523.11	4737.74
523.477	4777.74
523.843	4797.63
524.21	4801.92
524.577	4790.85
524.943	4840.56
525.31	4892.31
525.676	4949.26
526.043	4924.4
526.409	4926.89
526.776	4930.51
527.142	4947
527.508	5019.32
527.874	5039.2
528.241	5104.29
528.607	5102.03
528.973	5121.01
529.339	5135.47
529.705	5185.41
530.071	5242.81
530.437	5200.33
530.803	5276.94
531.169	5264.73
531.535	5304.06
531.901	5307.45
532.267	5336.15
532.632	5342.02
532.998	5377.73
533.364	5421.11
533.73	5395.13
534.095	5463.83
534.461	5457.95
534.826	5452.07
535.192	5469.02
535.557	5544.28
535.923	5543.82
536.288	5543.6
536.653	5645.29
537.019	5523.71
537.384	5624.95
537.749	5673.54
538.114	5658.62
538.479	5683.03
538.845	5682.12
539.21	5737.26
539.575	5723.25
539.94	5730.03
540.305	5784.04
540.67	5762.35
541.034	5802.8
541.399	5855.45
541.764	5878.28
542.129	5922.12
542.494	5948.33
542.858	5930.03
543.223	6003.47
543.587	6021.78
543.952	6062
544.316	6049.35
544.681	6059.97
545.045	6107.88
545.41	6080.53
545.774	6083.47
546.138	6110.14
546.503	6171.15
546.867	6177.7
547.231	6231.04
547.595	6258.15
547.959	6252.28
548.324	6345.16
548.688	6306.29
549.052	6351.26
549.416	6363.01
549.779	6302.67
550.143	6355.33
550.507	6434.65
550.871	6468.54
551.235	6401.88
551.599	6533.63
551.962	6504.48
552.326	6545.38
552.689	6539.5
553.053	6484.36
553.417	6551.03
553.78	6593.06
554.143	6610.24
554.507	6672.83
554.87	6653.4
555.234	6753.73
555.597	6703.57
555.96	6678.93
556.323	6730.23
556.686	6693.17
557.05	6762.1
557.413	6803.45
557.776	6803.23
558.139	6819.04
558.502	6828.31
558.865	6904.47
559.228	6915.31
559.59	6929.78
559.953	6932.26
560.316	7029.43
560.679	7027.85
561.041	7062.43
561.404	7048.42
561.767	7134.74
562.129	7090
562.492	7162.31
562.854	7130.67
563.217	7176.77
563.579	7152.14
563.941	7249.54
564.304	7304
564.666	7287.28
565.028	7311.69
565.39	7341.52
565.753	7318.24
566.115	7392.14
566.477	7474.85
566.839	7404.79
567.201	7469.42
567.563	7479.59
567.925	7559.14
568.287	7485.02
568.648	7564.79
569.01	7578.8
569.372	7601.85
569.734	7605.69
570.095	7708.51
570.457	7719.81
570.819	7784.89
571.18	7778.57
571.542	7825.35
571.903	7835.97
572.265	7862.86
572.626	7949.41
572.987	8033.25
573.349	8024.44
573.71	8083.42
574.071	8085.9
574.432	8163.64
574.794	8250.64
575.155	8252.68
575.516	8284.54
575.877	8345.56
576.238	8395.73
576.599	8485.21
576.96	8548.49
577.32	8566.12
577.681	8651.54
578.042	8738.54
578.403	8777.86
578.763	8875.26
579.124	8944.64
579.485	9026.67
579.845	9191.86
580.206	9255.36
580.566	9313.22
580.927	9433.89
581.287	9564.06
581.648	9718.63
582.008	9794.11
582.368	9913.65
582.728	10014.89
583.089	10163.59
583.449	10345.05
583.809	10403.58
584.169	10620.3
584.529	10782.33
584.889	11052.15
585.249	11114.52
585.609	11290.79
585.969	11495.76
586.329	11657.56
586.688	11843.09
587.048	12123.31
587.408	12356.3
587.768	12520.81
588.127	12722.84
588.487	12897.98
588.846	13219.55
589.206	13298.87
589.565	13565.08
589.925	13851.63
590.284	14117.61
590.643	14349.47
591.003	14592.62
591.362	14858.83
591.721	15095.89
592.08	15418.82
592.44	15652.48
592.799	15906.26
593.158	16119.82
593.517	16451.78
593.876	16865.56
594.235	16983.07
594.593	17219.67
594.952	17482.49
595.311	17761.58
595.67	18175.36
596.029	18572.63
596.387	18837.48
596.746	19159.06
597.104	19284.48
597.463	19601.98
597.822	20008.08
598.18	20170.78
598.538	20446.03
598.897	20872.69
599.255	20940.71
599.613	21542.05
599.972	21683.29
600.33	21962.6
600.688	22029.94
601.046	22503.6
601.404	22887.55
601.762	23068.33
602.12	23484.37
602.478	23721.65
602.836	24003.68
603.194	24010.68
603.552	24443.21
603.91	24720.04
604.268	25086.36
604.625	25203.87
604.983	25471.21
605.341	25617.87
605.698	25996.17
606.056	26350.28
606.413	26586.89
606.771	26847.44
607.128	27014.9
607.485	27162.92
607.843	27503.92
608.2	27851.71
608.557	28045.38
608.914	28121.08
609.272	28512.71
609.629	28794.74
609.986	29129.87
610.343	29144.56
610.7	29681.49
611.057	29747.48
611.414	29768.72
611.771	30041.48
612.127	30372.32
612.484	30490.74
612.841	30803.05
613.198	30913.78
613.554	30992.42
613.911	31344.5
614.267	31422.69
614.624	31568.45
614.98	31779.07
615.337	32035.33
615.693	32177.25
616.05	32246.4
616.406	32575.43
616.762	32586.28
617.118	32784.69
617.475	32851.81
617.831	33141.52
618.187	33271.23
618.543	33343.09
618.899	33731.56
619.255	33704.21
619.611	33868.05
619.967	34006.35
620.323	34282.5
620.678	34083.86
621.034	34159.79
621.39	34346.46
621.746	34388.49
622.101	34974.69
622.457	34597.52
622.812	34948.7
623.168	34948.25
623.523	35066.89
623.879	35332.64
624.234	34959.77
624.589	35348.92
624.945	35498.52
625.3	35549.81
625.655	35683.6
626.01	35792.97
626.365	35866.87
626.72	35887.88
627.075	35997.49
627.43	35968.79
627.785	35926.98
628.14	36093.08
628.495	36170.36
628.85	36132.4
629.205	36128.33
629.559	36354.99
629.914	36409.23
630.269	36396.35
630.623	36330.81
630.978	36393.18
631.332	36586.17
631.687	36686.06
632.041	36528.77
632.396	36700.29
632.75	36580.97
633.104	36564.02
633.459	36439.28
633.813	36476.8
634.167	36556.34
634.521	36462.11
634.875	36652.61
635.229	36555.44
635.583	36633.63
635.937	36510.69
636.291	36450.81
636.645	36502.56
636.999	36551.14
637.352	36669.33
637.706	36463.24
638.06	36673.63
638.413	36612.38
638.767	36601.54
639.121	36622.55
639.474	36497.81
639.828	36496.91
640.181	36677.92
640.534	36538.71
640.888	36374.88
641.241	36350.7
641.594	36412.62
641.947	36536.23
642.301	36559.96
642.654	36394.76
643.007	36526.74
643.36	36323.58
643.713	36448.55
644.066	36677.02
644.419	36304.37
644.771	36018.5
645.124	35783.03
645.477	35818.51
645.83	35636.37
646.182	35487.67
646.535	35350.72
646.888	35375.58
647.24	35292.19
647.593	35484.73
647.945	35530.38
648.298	35216.72
648.65	35254.91
649.002	35217.39
649.355	35211.97
649.707	35264.85
650.059	35344.85
650.411	35832.74
650.763	35705.06
651.115	36273.64
651.467	36107.77
651.819	36023.02
652.171	36008.11
652.523	36168.1
652.875	35972.18
653.227	35916.13
653.578	36220.53
653.93	36053.76
654.282	35913.42
654.633	35875.46
654.985	35838.62
655.337	35906.87
655.688	35778.06
656.039	35997.49
656.391	35811.5
656.742	35811.05
657.094	35913.19
657.445	35987.99
657.796	35824.38
658.147	35687.21
658.498	35748.45
658.849	35822.58
659.2	35864.38
659.551	35734.22
659.902	35890.6
660.253	35697.61
660.604	35824.16
660.955	35729.24
661.306	35739.87
661.656	35719.3
662.007	35743.48
662.358	35745.97
662.708	35638.63
663.059	35753.65
663.409	35488.35
663.76	35761.79
664.11	35719.07
664.461	35729.92
664.811	35645.18
665.161	35590.49
665.511	35573.77
665.862	35514.79
666.212	35735.35
666.562	35694.67
666.912	35644.95
667.262	35527.22
667.612	35552.07
667.962	35724.95
668.312	35667.1
668.662	35830.71
669.011	35577.84
669.361	35708.23
669.711	35533.09
670.06	35534
670.41	35455.81
670.76	35482.47
671.109	35643.6
671.459	35597.27
671.808	35349.14
672.157	35543.49
672.507	35177.62
672.856	35214.91
673.205	35294.91
673.554	35364.96
673.904	35176.94
674.253	35500.1
674.602	35410.83
674.951	34851.98
675.3	34715.03
675.649	35314.57
675.998	35221.23
676.346	35289.03
676.695	35440.44
677.044	35020.34
677.393	35349.59
677.741	35184.85
678.09	35206.32
678.438	34998.19
678.787	35222.59
679.135	35103.5
679.484	34829.61
679.832	35081.13
680.181	34891.3
680.529	34887.01
680.877	34822.38
681.225	34758.42
681.573	35064.18
681.922	34671.42
682.27	34715.94
682.618	34734.24
682.966	34530.86
683.314	34618.09
683.661	34452.22
684.009	34405.66
684.357	34332.22
684.705	34269.4
685.053	34318.89
685.4	34257.19
685.748	34162.73
686.095	34127.93
686.443	33984.21
686.79	34017.2
687.138	34044.09
687.485	33980.82
687.832	33980.59
688.18	33885.9
688.527	33645.23
688.874	33799.58
689.221	33511.22
689.568	33411.34
689.915	33498.12
690.262	33489.08
690.609	33310.1
690.956	33214.51
691.303	33107.17
691.65	33059.71
691.997	33015.64
692.344	32853.39
692.69	33056.55
693.037	32934.97
693.383	32570.23
693.73	32869.66
694.077	32489.33
694.423	32568.42
694.769	32459.27
695.116	32286.62
695.462	32263.35
695.808	32248.43
696.155	32305.15
696.501	32021.77
696.847	31965.05
697.193	31851.38
697.539	31989.91
697.885	31731.38
698.231	31532.52
698.577	31562.12
698.923	31446.64
699.269	31358.51
699.614	31226.09
699.96	31273.77
700.306	31225.63
700.651	31053.21
700.997	31053.66
701.342	31074
701.688	30799.88
702.033	30859.09
702.379	30844.63
702.724	30654.58
703.069	30757.85
703.415	30403.73
703.76	30445.54
704.105	30426.33
704.45	30342.95
704.795	30103.4
705.14	30128.49
705.485	30089.39
705.83	29873.13
706.175	29972.11
706.52	29780.7
706.865	29690.76
707.209	29560.37
707.554	29655.28
707.899	29687.14
708.243	29536.86
708.588	29476.08
708.932	29259.81
709.277	29192.47
709.621	29365.12
709.966	29089.42
710.31	29230.43
710.654	28973.49
710.998	29055.97
711.342	29038.35
711.687	28859.37
712.031	28758.58
712.375	28643.1
712.719	28678.81
713.063	28598.81
713.407	28596.32
713.75	28506.16
714.094	28594.29
714.438	28488.76
714.782	28403.56
715.125	28296.67
715.469	28307.74
715.812	28102.1
716.156	28043.57
716.499	28078.82
716.843	28060.52
717.186	27919.28
717.53	28225.94
717.873	28097.13
718.216	28022.33
718.559	27927.64
718.902	27701.66
719.246	27827.08
719.589	27618.5
719.932	27515.67
720.275	27565.39
720.617	27453.3
720.96	27475.45
721.303	27444.94
721.646	27451.72
721.989	27241.11
722.331	27311.61
722.674	27179.41
723.016	27230.03
723.359	27081.11
723.701	27186.87
724.044	26982.81
724.386	26911.17
724.729	26976.71
725.071	26891.06
725.413	27032.75
725.755	26899.42
726.097	26753.43
726.439	26710.5
726.782	26665.3
727.124	26820.33
727.465	26487.91
727.807	26550.95
728.149	26436.38
728.491	26486.32
728.833	26549.82
729.175	26386.66
729.516	26378.53
729.858	26390.51
730.199	26272.32
730.541	26278.65
730.882	26265.31
731.224	26255.14
731.565	26188.48
731.906	26160.46
732.248	26089.95
732.589	26014.47
732.93	25963.4
733.271	25981.03
733.612	25963.17
733.953	25999.56
734.294	25787.58
734.635	25762.73
734.976	25853.8
735.317	25707.59
735.658	25646.8
735.999	25713.69
736.339	25607.48
736.68	25614.93
737.021	25673.01
737.361	25479.57
737.702	25542.62
738.042	25476.18
738.383	25341.04
738.723	25430.98
739.063	25345.79
739.404	25411.55
739.744	25273.47
740.084	25185.57
740.424	25291.78
740.764	25059.47
741.104	25306.02
741.444	25115.51
741.784	25026.47
742.124	25108.51
742.464	24954.84
742.804	24897.66
743.143	25018.11
743.483	24979.02
743.823	24785.35
744.162	24880.26
744.502	24752.13
744.841	24781.96
745.181	24910.77
745.52	24656.09
745.86	24670.1
746.199	24578.12
746.538	24673.72
746.877	24669.87
747.216	24539.48
747.556	24632.59
747.895	24459.71
748.234	24426.94
748.573	24357.79
748.911	24351.69
749.25	24260.85
749.589	24296.1
749.928	24233.05
750.267	24223.78
750.605	24107.63
750.944	24113.73
751.283	24035.54
751.621	24032.6
751.96	23958.03
752.298	24037.8
752.636	23968.2
752.975	23857.92
753.313	23735.44
753.651	23841.87
753.989	23719.39
754.327	23628.77
754.666	23492.73
755.004	23610.92
755.342	23569.34
755.679	23539.96
756.017	23422.45
756.355	23482.56
756.693	23399.62
757.031	23353.07
757.368	23321.89
757.706	23206.41
758.044	23206.86
758.381	23160.31
758.719	23069.69
759.056	23110.59
759.394	23001.9
759.731	22884.61
760.068	22799.41
760.405	22704.95
760.743	22663.6
