Data from hue_150_FLMS001491_00078.txt Node
Date: Tue Feb 07 16:54:31 GMT 2017
User: dcchb
Spectrometer: FLMS00149
Trigger mode: 0
Integration Time (sec): 2.000000E-2
Scans to average: 10
Electric dark correction enabled: true
Nonlinearity correction enabled: false
Boxcar width: 0
XAxis mode: Wavelengths
Number of Pixels in Spectrum: 2048
>>>>>Begin Spectral Data<<<<<
341.393	-17.19
341.776	-17.19
342.16	-17.19
342.543	-62.16
342.927	-78.43
343.31	-61.48
343.693	-68.26
344.077	-56.06
344.46	-62.84
344.843	-62.61
345.226	-50.63
345.61	-40.24
345.993	-9.28
346.376	3.6
346.759	14.9
347.142	20.55
347.525	38.63
347.908	42.92
348.291	68.23
348.674	98.97
349.057	123.6
349.44	116.37
349.823	140.55
350.206	148.46
350.588	194.33
350.971	208.34
351.354	240.88
351.737	243.82
352.119	226.87
352.502	276.59
352.884	275.91
353.267	279.3
353.65	286.31
354.032	279.98
354.414	320.2
354.797	311.16
355.179	324.27
355.562	317.94
355.944	318.17
356.326	319.75
356.709	333.54
357.091	332.18
357.473	331.73
357.855	345.29
358.238	335.12
358.62	337.38
359.002	330.37
359.384	331.5
359.766	341.22
360.148	340.32
360.53	308.45
360.912	334.67
361.294	323.37
361.676	336.02
362.057	324.5
362.439	324.72
362.821	329.92
363.203	320.2
363.584	321.56
363.966	312.97
364.348	326.76
364.729	324.27
365.111	310.94
365.493	306.64
365.874	346.19
366.256	285.85
366.637	312.75
367.019	292.41
367.4	325.63
367.781	312.97
368.163	317.27
368.544	312.07
368.925	311.16
369.306	296.93
369.688	303.25
370.069	310.71
370.45	315.91
370.831	318.85
371.212	309.58
371.593	316.36
371.974	310.26
372.355	313.65
372.736	321.79
373.117	330.6
373.498	305.06
373.879	308.68
374.26	315.91
374.641	307.32
375.021	326.3
375.402	308
375.783	295.8
376.163	315.46
376.544	299.86
376.925	310.71
377.305	307.1
377.686	314.78
378.066	320.43
378.447	331.05
378.827	327.43
379.208	338.51
379.588	337.6
379.968	310.26
380.349	335.12
380.729	323.82
381.109	331.05
381.489	325.63
381.87	345.97
382.25	325.63
382.63	307.77
383.01	332.41
383.39	327.89
383.77	346.64
384.15	360.65
384.53	343.25
384.91	333.31
385.29	345.51
385.67	338.51
386.049	336.47
386.429	354.33
386.809	345.97
387.189	335.57
387.568	329.69
387.948	342.12
388.328	356.81
388.707	373.31
389.087	360.65
389.466	363.14
389.846	345.51
390.225	370.82
390.605	369.02
390.984	356.59
391.363	352.29
391.743	362.69
392.122	366.3
392.501	391.39
392.881	376.25
393.26	382.8
393.639	386.42
394.018	362.91
394.397	383.93
394.776	389.58
395.155	396.36
395.534	397.94
395.913	366.08
396.292	375.12
396.671	365.4
397.05	370.15
397.429	378.06
397.808	394.33
398.186	387.77
398.565	396.36
398.944	389.81
399.323	397.26
399.701	388.45
400.08	392.07
400.458	402.69
400.837	401.78
401.215	407.88
401.594	405.85
401.972	403.37
402.351	412.18
402.729	421.67
403.107	385.74
403.486	408.79
403.864	406.08
404.242	403.82
404.62	423.7
404.999	414.66
405.377	420.09
405.755	442.01
406.133	441.78
406.511	419.18
406.889	436.58
407.267	427.32
407.645	420.99
408.023	455.57
408.401	452.18
408.779	432.74
409.156	454.21
409.534	455.34
409.912	470.71
410.29	459.18
410.667	462.35
411.045	444.04
411.422	475.68
411.8	467.77
412.178	480.43
412.555	487.43
412.933	458.96
413.31	488.33
413.687	503.25
414.065	481.33
414.442	507.77
414.819	483.81
415.197	510.03
415.574	500.99
415.951	485.62
416.328	507.77
416.705	499.18
417.082	493.31
417.46	485.62
417.837	531.72
418.214	515.45
418.591	510.03
418.967	535.57
419.344	534.89
419.721	521.1
420.098	515
420.475	535.57
420.852	540.31
421.228	529.69
421.605	541.44
421.982	523.59
422.358	539.18
422.735	564.72
423.111	566.98
423.488	553.19
423.864	568.78
424.241	593.64
424.617	571.04
424.994	586.86
425.37	580.08
425.746	609.01
426.123	603.13
426.499	604.04
426.875	596.81
427.251	625.96
427.627	621.66
428.003	632.29
428.379	627.31
428.756	619.63
429.132	618.73
429.507	634.55
429.883	642
430.259	651.49
430.635	655.56
431.011	632.74
431.387	678.61
431.763	657.82
432.138	672.74
432.514	693.07
432.89	691.04
433.265	683.58
433.641	699.85
434.016	705.28
434.392	723.36
434.767	731.49
435.143	717.03
435.518	698.27
435.894	717.93
436.269	735.79
436.644	768.55
437.02	748.44
437.395	754.99
437.77	760.87
438.145	787.76
438.52	756.58
438.895	781.89
439.271	785.95
439.646	800.19
440.021	828.21
440.395	821.66
440.77	849.91
441.145	822.56
441.52	824.6
441.895	837.25
442.27	853.75
442.645	835.9
443.019	839.96
443.394	867.08
443.769	877.25
444.143	863.01
444.518	884.48
444.892	880.87
445.267	869.57
445.641	904.82
446.016	884.71
446.39	882.9
446.764	895.78
447.139	901.66
447.513	931.26
447.887	897.14
448.262	934.2
448.636	931.71
449.01	933.52
449.384	943.69
449.758	965.84
450.132	938.04
450.506	954.31
450.88	983.24
451.254	965.61
451.628	939.62
452.002	985.72
452.376	1001.77
452.75	1002.45
453.123	1035.21
453.497	1036.79
453.871	1032.95
454.244	1042.22
454.618	1034.53
454.992	1085.83
455.365	1063.91
455.739	1107.08
456.112	1108.43
456.486	1110.24
456.859	1136.45
457.232	1136.23
457.606	1137.36
457.979	1177.36
458.352	1203.34
458.725	1192.72
459.099	1226.17
459.472	1212.38
459.845	1263.23
460.218	1272.27
460.591	1265.72
460.964	1267.52
461.337	1309.78
461.71	1348.2
462.083	1358.59
462.456	1349.55
462.829	1355.2
463.201	1392.27
463.574	1404.02
463.947	1427.29
464.32	1461.42
464.692	1448.99
465.065	1478.14
465.438	1498.25
465.81	1500.29
466.183	1512.26
466.555	1579.15
466.928	1573.73
467.3	1584.8
467.672	1610.11
468.045	1667.06
468.417	1653.95
468.789	1694.63
469.161	1754.97
469.534	1751.58
469.906	1820.5
470.278	1848.52
470.65	1843.33
471.022	1888.75
471.394	1919.94
471.766	1960.16
472.138	2015.3
472.51	2056.65
472.882	2054.17
473.253	2108.41
473.625	2171.68
473.997	2171.23
474.369	2249.42
474.74	2284.45
475.112	2327.61
475.484	2371.9
475.855	2461.84
476.227	2485.34
476.598	2579.58
476.97	2587.71
477.341	2723.53
477.713	2752.23
478.084	2791.32
478.455	2888.72
478.827	2964.65
479.198	3025.22
479.569	3106.57
479.94	3208.94
480.311	3275.15
480.682	3385.66
481.053	3467.69
481.424	3549.5
481.795	3647.8
482.166	3721.24
482.537	3803.5
482.908	3938.87
483.279	4037.17
483.65	4105.41
484.021	4234
484.391	4347.22
484.762	4430.15
485.133	4520.54
485.503	4664.95
485.874	4803.25
486.244	4842.34
486.615	5010.93
486.985	5103.35
487.356	5303.8
487.726	5364.59
488.097	5525.72
488.467	5570.23
488.837	5759.83
489.207	5913.05
489.578	6048.41
489.948	6173.61
490.318	6331.34
490.688	6369.76
491.058	6532.92
491.428	6697.44
491.798	6873.7
492.168	7053.13
492.538	7106.92
492.908	7224.2
493.278	7355.5
493.648	7474.37
494.017	7600.24
494.387	7743.74
494.757	7879.1
495.126	8044.75
495.496	8116.16
495.866	8234.35
496.235	8424.62
496.605	8499.2
496.974	8598.63
497.344	8733.99
497.713	8843.82
498.082	8930.37
498.452	9043.36
498.821	9132.63
499.19	9272.28
499.559	9321.1
499.928	9496.91
500.298	9557.47
500.667	9728.32
501.036	9722.67
501.405	9866.17
501.774	9955.2
502.143	10079.95
502.512	10082.21
502.88	10249.66
503.249	10269.09
503.618	10376.89
503.987	10451.91
504.356	10493.72
504.724	10577.33
505.093	10627.28
505.462	10735.52
505.83	10777.1
506.199	10959.47
506.567	11075.4
506.936	11059.81
507.304	11204.21
507.672	11277.88
508.041	11325.11
508.409	11300.71
508.777	11530.3
509.145	11538.21
509.514	11495.95
509.882	11635.61
510.25	11631.77
510.618	11777.53
510.986	11740.69
511.354	11886.23
511.722	11936.62
512.09	12039.9
512.458	11916.28
512.826	12092.32
513.193	12148.59
513.561	12164.86
513.929	12205.09
514.297	12362.37
514.664	12490.28
515.032	12399.66
515.4	12467.45
515.767	12525.08
516.135	12676.04
516.502	12451.64
516.869	12749.03
517.237	12730.05
517.604	12648.92
517.972	12756.03
518.339	12781.8
518.706	12784.96
519.073	12889.14
519.44	12909.7
519.808	13004.16
520.175	12946.76
520.542	13089.81
520.909	13065.86
521.276	13029.25
521.643	13087.78
522.009	13159.41
522.376	13236.47
522.743	13224.72
523.11	13389.46
523.477	13412.51
523.843	13396.47
524.21	13487.54
524.577	13500.42
524.943	13570.25
525.31	13545.39
525.676	13603.24
526.043	13643.47
526.409	13639.85
526.776	13826.29
527.142	13753.3
527.508	13754.43
527.874	13740.87
528.241	13772.28
528.607	13716.69
528.973	13817.02
529.339	13735.67
529.705	13887.53
530.071	13928.43
530.437	13958.94
530.803	13976.79
531.169	13981.31
531.535	13853.18
531.901	13874.65
532.267	13868.77
532.632	13941.77
532.998	13928.66
533.364	13896.34
533.73	13843.69
534.095	13908.55
534.461	13861.54
534.826	13898.38
535.192	13856.57
535.557	13940.86
535.923	13847.53
536.288	13773.86
536.653	13878.49
537.019	13797.59
537.384	13809.57
537.749	13782.9
538.114	13747.87
538.479	13676.24
538.845	13637.14
539.21	13617.93
539.575	13572.74
539.94	13539.29
540.305	13636.46
540.67	13550.14
541.034	13534.55
541.399	13558.73
541.764	13500.87
542.129	13520.53
542.494	13458.39
542.858	13409.58
543.223	13386.98
543.587	13336.58
543.952	13287.77
544.316	13272.18
544.681	13275.79
545.045	13314.44
545.41	13216.59
545.774	13252.07
546.138	13170.04
546.503	13050.72
546.867	13035.58
547.231	13137.27
547.595	13105.4
547.959	13002.13
548.324	12963.94
548.688	12963.94
549.052	12929.82
549.416	12888.91
549.779	12886.65
550.143	12835.13
550.507	12852.3
550.871	12791.29
551.235	12811.85
551.599	12808.69
551.962	12787.9
552.326	12677.84
552.689	12778.41
553.053	12664.29
553.417	12664.74
553.78	12680.33
554.143	12641.91
554.507	12580.67
554.87	12519.66
555.234	12699.76
555.597	12583.84
555.96	12596.94
556.323	12575.93
556.686	12492.54
557.05	12521.92
557.413	12551.75
557.776	12466.78
558.139	12451.18
558.502	12468.13
558.865	12403.05
559.228	12476.49
559.59	12439.88
559.953	12539.32
560.316	12493.22
560.679	12497.06
561.041	12512.2
561.404	12540
561.767	12548.58
562.129	12436.27
562.492	12501.58
562.854	12514.46
563.217	12497.51
563.579	12560.79
563.941	12525.08
564.304	12523.72
564.666	12591.97
565.028	12600.56
565.39	12523.5
565.753	12534.57
566.115	12556.49
566.477	12636.72
566.839	12675.58
567.201	12780.44
567.563	12720.56
567.925	12654.57
568.287	12761.01
568.648	12704.74
569.01	12816.15
569.372	12813.66
569.734	12714
570.095	12765.53
570.457	12793.1
570.819	12824.51
571.18	12756.26
571.542	12839.65
571.903	12717.39
572.265	12827.9
572.626	12884.84
572.987	12831.96
573.349	12820.89
573.71	12961.23
574.071	12988.12
574.432	12989.47
574.794	13029.02
575.155	12937.95
575.516	12897.73
575.877	12970.49
576.238	13009.59
576.599	12952.64
576.96	12909.48
577.32	12966.42
577.681	13061.34
578.042	12954.9
578.403	12940.21
578.763	13012.53
579.124	12889.14
579.485	12914.67
579.845	12956.71
580.206	12942.47
580.566	12965.29
580.927	13000.77
581.287	12988.12
581.648	12945.41
582.008	12990.83
582.368	12964.39
582.728	13050.72
583.089	12983.37
583.449	12972.98
583.809	13068.57
584.169	12961.9
584.529	12939.76
584.889	13045.74
585.249	12904.51
585.609	12893.66
585.969	12930.72
586.329	12919.19
586.688	12881.68
587.048	12868.35
587.408	12778.41
587.768	12804.62
588.127	12828.35
588.487	12783.6
588.846	12896.82
589.206	12832.87
589.565	12776.83
589.925	12766.88
590.284	12792.42
590.643	12811.17
591.003	12842.59
591.362	12872.64
591.721	12786.54
592.08	12805.98
592.44	12801.01
592.799	12768.92
593.158	12740.22
593.517	12778.18
593.876	12718.75
594.235	12744.51
594.593	12767.11
594.952	12717.62
595.311	12721.46
595.67	12747.67
596.029	12839.87
596.387	12733.66
596.746	12787.67
597.104	12735.7
597.463	12717.17
597.822	12762.14
598.18	12716.49
598.538	12704.06
598.897	12687.11
599.255	12631.52
599.613	12790.61
599.972	12757.39
600.33	12692.99
600.688	12635.36
601.046	12664.51
601.404	12727.79
601.762	12713.55
602.12	12765.75
602.478	12677.17
602.836	12737.73
603.194	12707.67
603.552	12615.02
603.91	12600.78
604.268	12695.47
604.625	12643.72
604.983	12648.69
605.341	12627.9
605.698	12637.85
606.056	12698.41
606.413	12659.31
606.771	12817.95
607.128	12639.88
607.485	12577.28
607.843	12670.39
608.2	12741.57
608.557	12798.29
608.914	12650.5
609.272	12815.24
609.629	12829.25
609.986	12790.38
610.343	12760.1
610.7	12834
611.057	12784.73
611.414	12846.2
611.771	12856.37
612.127	12791.74
612.484	12781.12
612.841	12935.01
613.198	12815.47
613.554	12859.53
613.911	12971.62
614.267	12871.96
614.624	12826.77
614.98	12927.1
615.337	12915.8
615.693	12968.68
616.05	13000.1
616.406	12998.29
616.762	12960.32
617.118	12941.79
617.475	12955.13
617.831	12957.39
618.187	12978.4
618.543	13089.36
618.899	13050.04
619.255	13022.02
619.611	13023.37
619.967	13107.89
620.323	13120.32
620.678	13035.8
621.034	13074.44
621.39	13090.72
621.746	12981.57
622.101	13170.04
622.457	13051.85
622.812	13065.41
623.168	13068.79
623.523	13087.33
623.879	13137.27
624.234	13023.37
624.589	13075.35
624.945	13118.51
625.3	13041.9
625.655	12944.73
626.01	13092.3
626.365	13105.86
626.72	13069.25
627.075	13106.08
627.43	13002.81
627.785	13010.04
628.14	13106.99
628.495	13009.36
628.85	13075.12
629.205	12989.93
629.559	12976.14
629.914	12945.63
630.269	12999.19
630.623	12911.28
630.978	12975.69
631.332	12914.9
631.687	12984.73
632.041	12912.19
632.396	12989.93
632.75	12974.11
633.104	12972.98
633.459	12938.63
633.813	12934.56
634.167	12823.15
634.521	12828.58
634.875	12891.85
635.229	12872.19
635.583	12756.03
635.937	12817.95
636.291	12793.32
636.645	12715.36
636.999	12657.05
637.352	12673.55
637.706	12669.48
638.06	12711.97
638.413	12746.32
638.767	12659.09
639.121	12633.33
639.474	12594.46
639.828	12626.55
640.181	12580.22
640.534	12608.02
640.888	12534.35
641.241	12532.54
641.594	12524.4
641.947	12602.59
642.301	12480.56
642.654	12546.55
643.007	12520.79
643.36	12504.97
643.713	12449.38
644.066	12494.57
644.419	12482.6
644.771	12376.84
645.124	12331.64
645.477	12351.75
645.83	12170.51
646.182	12080.35
646.535	12097.52
646.888	12183.39
647.24	12066.79
647.593	12092.55
647.945	12115.83
648.298	12030.63
648.65	12069.05
649.002	11916.51
649.355	12070.4
649.707	12057.3
650.059	12152.66
650.411	12395.82
650.763	12290.96
651.115	12444.18
651.467	12350.17
651.819	12368.25
652.171	12286.67
652.523	12332.77
652.875	12273.56
653.227	12293.45
653.578	12341.81
653.93	12274.24
654.282	12296.61
654.633	12230.17
654.985	12327.57
655.337	12325.76
655.688	12313.79
656.039	12366.89
656.391	12222.26
656.742	12300.91
657.094	12273.79
657.445	12349.27
657.796	12325.09
658.147	12269.27
658.498	12234.92
658.849	12300.91
659.2	12314.92
659.551	12273.34
659.902	12362.6
660.253	12370.28
660.604	12307.01
660.955	12267.46
661.306	12371.41
661.656	12331.87
662.007	12326.22
662.358	12394.46
662.708	12361.92
663.059	12391.07
663.409	12314.46
663.76	12413.44
664.11	12424.29
664.461	12393.33
664.811	12405.76
665.161	12382.71
665.511	12333.67
665.862	12328.93
666.212	12363.73
666.562	12362.6
666.912	12351.98
667.262	12367.8
667.612	12350.4
667.962	12326.89
668.312	12359.43
668.662	12490.5
669.011	12413.22
669.361	12392.2
669.711	12336.61
670.06	12369.15
670.41	12272.21
670.76	12258.19
671.109	12275.14
671.459	12304.97
671.808	12252.77
672.157	12344.07
672.507	12299.1
672.856	12272.43
673.205	12299.1
673.554	12275.6
673.904	12208.25
674.253	12316.72
674.602	12260.23
674.951	12061.82
675.3	11974.13
675.649	12186.33
675.998	12208.03
676.346	12170.29
676.695	12191.98
677.044	12078.76
677.393	12098.2
677.741	12147.01
678.09	12170.97
678.438	12061.59
678.787	12103.4
679.135	12150.63
679.484	12035.6
679.832	11994.25
680.181	12008.94
680.529	11977.07
680.877	12045.77
681.225	11929.39
681.573	11994.47
681.922	11865.66
682.27	11844.87
682.618	11877.41
682.966	11812.33
683.314	11815.72
683.661	11781.82
684.009	11705.67
684.357	11709.96
684.705	11685.33
685.053	11730.3
685.4	11693.69
685.748	11620.25
686.095	11694.82
686.443	11519.68
686.79	11543.86
687.138	11597.42
687.485	11605.56
687.832	11535.95
688.18	11550.87
688.527	11481.04
688.874	11429.97
689.221	11385.45
689.568	11375.05
689.915	11319.69
690.262	11340.93
690.609	11251.89
690.956	11224.1
691.303	11190.2
691.65	11120.37
691.997	11121.28
692.344	11060.94
692.69	11064.1
693.037	11071.56
693.383	10975.74
693.73	11002.18
694.077	10928.74
694.423	10923.77
694.769	10835.41
695.116	10879.47
695.462	10747.73
695.808	10771
696.155	10786.14
696.501	10689.87
696.847	10661.17
697.193	10590.89
697.539	10638.12
697.885	10588.63
698.231	10562.87
698.577	10519.48
698.923	10475.19
699.269	10440.16
699.614	10320.62
699.96	10333.05
700.306	10306.16
700.651	10223.22
700.997	10216.67
701.342	10160.85
701.688	10160.85
702.033	10115.2
702.379	10074.52
702.724	10042.43
703.069	10049.44
703.415	9943.23
703.76	9986.16
704.105	9969.67
704.45	9975.99
704.795	9882.89
705.14	9794.08
705.485	9803.57
705.83	9755.89
706.175	9752.5
706.52	9741.42
706.865	9668.43
707.209	9681.31
707.554	9669.34
707.899	9675.66
708.243	9522.9
708.588	9582.56
708.932	9506.18
709.277	9458.95
709.621	9515.67
709.966	9466.18
710.31	9451.26
710.654	9325.39
710.998	9318.61
711.342	9330.81
711.687	9350.7
712.031	9283.81
712.375	9222.34
712.719	9315.9
713.063	9245.84
713.407	9260.99
713.75	9202.23
714.094	9284.71
714.438	9132.85
714.782	9148.67
715.125	9154.55
715.469	9141.67
715.812	9062.8
716.156	9020.09
716.499	9104.15
716.843	9060.54
717.186	9035.45
717.53	9098.05
717.873	9080.2
718.216	9063.93
718.559	8974.67
718.902	8948.45
719.246	8959.98
719.589	8918.4
719.932	8862.35
720.275	8893.54
720.617	8898.51
720.96	8825.97
721.303	8870.26
721.646	8890.83
721.989	8808.34
722.331	8844.5
722.674	8816.7
723.016	8858.06
723.359	8787.33
723.701	8816.93
724.044	8759.3
724.386	8718.17
724.729	8774.67
725.071	8722.47
725.413	8759.08
725.755	8719.53
726.097	8662.13
726.439	8673.66
726.782	8694.22
727.124	8799.3
727.465	8664.62
727.807	8644.5
728.149	8686.99
728.491	8678.18
728.833	8705.29
729.175	8599.76
729.516	8680.66
729.858	8646.76
730.199	8569.03
730.541	8637.72
730.882	8626.2
731.224	8598.18
731.565	8668.23
731.906	8673.43
732.248	8651.51
732.589	8569.25
732.93	8555.24
733.271	8539.65
733.612	8611.74
733.953	8566.31
734.294	8565.41
734.635	8541.68
734.976	8526.09
735.317	8619.19
735.658	8595.92
735.999	8566.31
736.339	8601.34
736.68	8596.14
737.021	8622.58
737.361	8578.74
737.702	8589.36
738.042	8588.01
738.383	8581.91
738.723	8676.82
739.063	8578.74
739.404	8627.56
739.744	8647.22
740.084	8610.15
740.424	8647.89
740.764	8628.46
741.104	8698.29
741.444	8580.55
741.784	8654
742.124	8717.72
742.464	8654.9
742.804	8729.47
743.143	8720.89
743.483	8774.67
743.823	8739.64
744.162	8736.93
744.502	8823.26
744.841	8770.6
745.181	8878.17
745.52	8884.27
745.86	8943.25
746.199	8921.33
746.538	9021.22
746.877	9088.79
747.216	9120.2
747.556	9081.33
747.895	9223.92
748.234	9199.74
748.573	9274.54
748.911	9272.28
749.25	9357.48
749.589	9435.44
749.928	9451.04
750.267	9547.08
750.605	9574.2
750.944	9639.28
751.283	9617.81
751.621	9822.55
751.96	9870.91
752.298	9897.58
752.636	10091.92
752.975	10126.95
753.313	10163.56
753.651	10258.25
753.989	10396.77
754.327	10407.62
754.666	10582.53
755.004	10628.63
755.342	10880.83
755.679	10978.45
756.017	11008.51
756.355	11217.09
756.693	11294.38
757.031	11432.23
757.368	11564.43
757.706	11642.62
758.044	11823.18
758.381	11975.72
758.719	12113.11
759.056	12342.71
