Data from hue_330_FLMS001491_96.txt Node
Date: Mon Feb 06 15:46:11 GMT 2017
User: dcchb
Spectrometer: FLMS00149
Trigger mode: 0
Integration Time (sec): 2.000000E-2
Scans to average: 10
Electric dark correction enabled: true
Nonlinearity correction enabled: false
Boxcar width: 0
XAxis mode: Wavelengths
Number of Pixels in Spectrum: 2048
>>>>>Begin Spectral Data<<<<<
341.393	8.06
341.776	8.06
342.16	8.06
342.543	-72.16
342.927	-76.9
343.31	-70.58
343.693	-74.19
344.077	-55.44
344.46	-56.79
344.843	-56.79
345.226	-40.75
345.61	-38.71
345.993	-16.57
346.376	12.36
346.759	9.87
347.142	19.59
347.525	22.98
347.908	61.85
348.291	89.87
348.674	78.35
349.057	114.95
349.44	156.08
349.823	147.5
350.206	166.25
350.588	194.73
350.971	218.23
351.354	225.23
351.737	238.57
352.119	251.67
352.502	266.59
352.884	285.12
353.267	268.85
353.65	298.23
354.032	281.28
354.414	306.59
354.797	321.28
355.179	314.95
355.562	280.83
355.944	333.93
356.326	335.97
356.709	341.16
357.091	348.39
357.473	358.79
357.855	346.59
358.238	337.32
358.62	328.51
359.002	328.06
359.384	320.37
359.766	345.68
360.148	301.62
360.53	330.09
360.912	339.36
361.294	325.12
361.676	336.87
362.057	352.69
362.439	336.64
362.821	317.21
363.203	300.71
363.584	323.08
363.966	321.5
364.348	316.53
364.729	312.69
365.111	321.28
365.493	305.23
365.874	319.02
366.256	307.04
366.637	322.63
367.019	309.75
367.4	313.37
367.781	326.7
368.163	315.63
368.544	316.31
368.925	320.82
369.306	318.34
369.688	340.49
370.069	302.52
370.45	307.72
370.831	323.54
371.212	281.5
371.593	305.68
371.974	306.59
372.355	315.85
372.736	305.68
373.117	310.2
373.498	316.76
373.879	304.78
374.26	321.05
374.641	300.94
375.021	307.27
375.402	306.81
375.783	323.76
376.163	337.32
376.544	322.41
376.925	317.21
377.305	321.5
377.686	318.79
378.066	327.15
378.447	328.96
378.827	338.45
379.208	337.55
379.588	337.1
379.968	334.38
380.349	333.48
380.729	326.93
381.109	338.68
381.489	329.64
381.87	345.46
382.25	323.31
382.63	319.24
383.01	353.14
383.39	327.6
383.77	322.63
384.15	334.84
384.53	338.45
384.91	348.39
385.29	347.94
385.67	349.07
386.049	373.03
386.429	329.64
386.809	342.52
387.189	354.72
387.568	368.51
387.948	349.07
388.328	342.29
388.707	334.61
389.087	355.17
389.466	343.88
389.846	338.9
390.225	372.12
390.605	354.95
390.984	344.55
391.363	349.07
391.743	345.68
392.122	342.97
392.501	355.63
392.881	367.15
393.26	367.15
393.639	383.42
394.018	370.54
394.397	378.22
394.776	370.99
395.155	374.16
395.534	389.98
395.913	376.64
396.292	390.88
396.671	382.74
397.05	366.25
397.429	381.39
397.808	368.28
398.186	397.21
398.565	385
398.944	389.52
399.323	389.98
399.701	372.57
400.08	378.22
400.458	378.68
400.837	420.71
401.215	392.24
401.594	403.53
401.972	413.03
402.351	394.95
402.729	388.17
403.107	411.67
403.486	421.39
403.864	399.24
404.242	397.66
404.62	417.77
404.999	424.55
405.377	423.2
405.755	438.56
406.133	427.26
406.511	420.26
406.889	422.29
407.267	431.78
407.645	433.59
408.023	473.59
408.401	451.67
408.779	452.57
409.156	465.91
409.534	466.58
409.912	485.57
410.29	483.76
410.667	498.67
411.045	468.84
411.422	484.21
411.8	494.38
412.178	484.44
412.555	500.48
412.933	527.15
413.31	507.26
413.687	513.81
414.065	508.16
414.442	526.24
414.819	516.98
415.197	542.51
415.574	554.72
415.951	550.88
416.328	569.41
416.705	532.57
417.082	561.95
417.46	584.55
417.837	576.41
418.214	591.78
418.591	574.83
418.967	603.08
419.344	615.73
419.721	606.69
420.098	600.59
420.475	606.47
420.852	635.62
421.228	633.13
421.605	625.45
421.982	648.95
422.358	636.52
422.735	630.65
423.111	641.04
423.488	669.06
423.864	659.57
424.241	678.56
424.617	673.81
424.994	690.31
425.37	711.78
425.746	706.35
426.123	707.48
426.499	716.07
426.875	715.84
427.251	731.44
427.627	740.47
428.003	732.11
428.379	784.09
428.756	752.45
429.132	779.34
429.507	750.42
429.883	766.24
430.259	784.09
430.635	791.77
431.011	764.66
431.387	825.67
431.763	801.94
432.138	815.95
432.514	821.38
432.89	835.16
433.265	852.56
433.641	836.07
434.016	875.61
434.392	875.16
434.767	881.71
435.143	904.99
435.518	898.66
435.894	909.96
436.269	914.48
436.644	929.17
437.02	933.69
437.395	929.62
437.77	956.29
438.145	968.04
438.52	955.38
438.895	972.56
439.271	982.05
439.646	1007.13
440.021	979.34
440.395	983.86
440.77	1015.5
441.145	997.42
441.52	1028.38
441.895	1017.3
442.27	1035.83
442.645	1030.18
443.019	1017.53
443.394	1010.3
443.769	1033.35
444.143	1064.76
444.518	1059.11
444.892	1061.14
445.267	1052.11
445.641	1059.79
446.016	1088.04
446.39	1092.56
446.764	1102.5
447.139	1072.22
447.513	1075.38
447.887	1076.51
448.262	1088.49
448.636	1104.31
449.01	1113.57
449.384	1106.11
449.758	1099.11
450.132	1118.77
450.506	1122.39
450.88	1116.96
451.254	1110.41
451.628	1158.32
452.002	1168.94
452.376	1159.22
452.75	1168.03
453.123	1134.36
453.497	1193.8
453.871	1187.69
454.244	1207.13
454.618	1223.4
454.992	1230.63
455.365	1212.33
455.739	1233.12
456.112	1212.55
456.486	1271.53
456.859	1255.26
457.232	1273.34
457.606	1281.48
457.979	1268.14
458.352	1319.22
458.725	1343.85
459.099	1315.15
459.472	1338.65
459.845	1365.77
460.218	1337.07
460.591	1374.13
460.964	1355.37
461.337	1398.76
461.71	1393.34
462.083	1431.3
462.456	1432.89
462.829	1430.4
463.201	1421.13
463.574	1437.63
463.947	1448.03
464.32	1470.4
464.692	1471.76
465.065	1482.15
465.438	1537.52
465.81	1528.25
466.183	1571.41
466.555	1560.57
466.928	1560.79
467.3	1576.16
467.672	1562.6
468.045	1594.46
468.417	1641.92
468.789	1650.96
469.161	1651.64
469.534	1665.42
469.906	1692.54
470.278	1684.18
470.65	1699.32
471.022	1751.07
471.394	1760.79
471.766	1764.4
472.138	1782.26
472.51	1836.04
472.882	1857.06
473.253	1912.2
473.625	1873.78
473.997	1882.59
474.369	1932.08
474.74	1968.92
475.112	1959.43
475.484	1965.98
475.855	1987.67
476.227	2019.76
476.598	2067.22
476.97	2096.6
477.341	2142.7
477.713	2108.57
478.084	2136.14
478.455	2228.8
478.827	2195.35
479.198	2262.92
479.569	2273.32
479.94	2313.77
480.311	2332.75
480.682	2364.61
481.053	2438.06
481.424	2435.12
481.795	2477.6
482.166	2455.91
482.537	2521.67
482.908	2555.34
483.279	2572.74
483.65	2589.92
484.021	2698.16
484.391	2679.63
484.762	2724.6
485.133	2739.52
485.503	2773.42
485.874	2801.21
486.244	2804.83
486.615	2866.75
486.985	2875.56
487.356	2948.55
487.726	2946.29
488.097	3000.75
488.467	2993.3
488.837	3058.15
489.207	3073.52
489.578	3146.97
489.948	3172.95
490.318	3249.56
490.688	3199.85
491.058	3226.74
491.428	3330.46
491.798	3323.01
492.168	3373.17
492.538	3367.98
492.908	3378.6
493.278	3420.86
493.648	3471.93
494.017	3478.26
494.387	3524.81
494.757	3502.66
495.126	3565.49
495.496	3553.51
495.866	3595.09
496.235	3630.79
496.605	3660.17
496.974	3663.11
497.344	3708.98
497.713	3749.66
498.082	3739.27
498.452	3777.91
498.821	3778.14
499.19	3741.98
499.559	3840.96
499.928	3838.02
500.298	3874.86
500.667	3850.9
501.036	3875.76
501.405	3927.06
501.774	3898.36
502.143	3939.26
502.512	3930.9
502.88	3993.72
503.249	3968.41
503.618	3994.85
503.987	4029.2
504.356	4037.79
504.724	4041.63
505.093	4073.49
505.462	4079.14
505.83	4058.81
506.199	4102.87
506.567	4173.83
506.936	4130.22
507.304	4217.9
507.672	4210.44
508.041	4165.24
508.409	4278.46
508.777	4286.6
509.145	4286.37
509.514	4313.94
509.882	4255.86
510.25	4334.28
510.618	4336.09
510.986	4271.68
511.354	4388.97
511.722	4403.43
512.09	4395.75
512.458	4355.07
512.826	4432.36
513.193	4410.43
513.561	4390.77
513.929	4458.34
514.297	4474.61
514.664	4516.87
515.032	4486.37
515.4	4534.95
515.767	4518.45
516.135	4564.78
516.502	4503.09
516.869	4553.48
517.237	4589.41
517.604	4539.47
517.972	4611.11
518.339	4609.3
518.706	4602.97
519.073	4641.84
519.44	4691.56
519.808	4621.95
520.175	4672.8
520.542	4676.19
520.909	4752.12
521.276	4716.19
521.643	4767.49
522.009	4795.74
522.376	4829.86
522.743	4826.24
523.11	4804.55
523.477	4886.13
523.843	4856.3
524.21	4905.11
524.577	4943.98
524.943	4937.65
525.31	4929.07
525.676	4986.92
526.043	5035.28
526.409	5049.06
526.776	5072.34
527.142	5055.84
527.508	5074.82
527.874	5153.92
528.241	5137.42
528.607	5144.88
528.973	5195.05
529.339	5184.2
529.705	5264.2
530.071	5295.16
530.437	5335.38
530.803	5325.67
531.169	5335.83
531.535	5326.34
531.901	5340.35
532.267	5419
532.632	5399.79
532.998	5445.44
533.364	5461.25
533.73	5454.48
534.095	5524.08
534.461	5555.49
534.826	5587.35
535.192	5586.68
535.557	5598.65
535.923	5617.41
536.288	5673
536.653	5687.69
537.019	5657.41
537.384	5697.41
537.749	5789.38
538.114	5794.58
538.479	5777.86
538.845	5771.76
539.21	5816.05
539.575	5826.44
539.94	5873.67
540.305	5884.75
540.67	5870.06
541.034	5917.51
541.399	5969.94
541.764	5942.6
542.129	5975.59
542.494	6021.47
542.858	6034.8
543.223	6047.23
543.587	6124.97
543.952	6100.56
544.316	6141.01
544.681	6168.58
545.045	6225.3
545.41	6215.59
545.774	6219.65
546.138	6230.27
546.503	6242.25
546.867	6224.62
547.231	6279.99
547.595	6313.89
547.959	6347.33
548.324	6412.64
548.688	6435.01
549.052	6410.38
549.416	6411.06
549.779	6472.98
550.143	6533.54
550.507	6548.68
550.871	6548.23
551.235	6534.9
551.599	6589.36
551.962	6606.76
552.326	6622.13
552.689	6675.91
553.053	6637.27
553.417	6684.27
553.78	6710.94
554.143	6731.28
554.507	6752.52
554.87	6791.84
555.234	6763.82
555.597	6787.1
555.96	6778.06
556.323	6857.15
556.686	6832.07
557.05	6872.52
557.413	6910.48
557.776	6885.85
558.139	6942.57
558.502	6957.49
558.865	6999.07
559.228	7003.81
559.59	7020.99
559.953	7049.69
560.316	7091.95
560.679	7118.84
561.041	7163.58
561.404	7186.18
561.767	7200.19
562.129	7136.24
562.492	7219.4
562.854	7247.87
563.217	7292.62
563.579	7281.09
563.941	7257.59
564.304	7280.64
564.666	7392.28
565.028	7378.49
565.39	7444.03
565.753	7436.34
566.115	7430.47
566.477	7451.71
566.839	7521.54
567.201	7606.96
567.563	7555.89
567.925	7568.77
568.287	7657.36
568.648	7623.68
569.01	7700.29
569.372	7765.6
569.734	7743.68
570.095	7780.97
570.457	7837.46
570.819	7841.08
571.18	7819.61
571.542	7907.52
571.903	7962.66
572.265	7993.84
572.626	8033.39
572.987	8030
573.349	8125.37
573.71	8137.57
574.071	8218.7
574.432	8250.33
574.794	8363.1
575.155	8407.84
575.516	8399.71
575.877	8449.88
576.238	8536.2
576.599	8625.47
576.96	8640.38
577.32	8754.95
577.681	8881.96
578.042	8903.65
578.403	8957.21
578.763	9056.41
579.124	9165.34
579.485	9302.96
579.845	9373.47
580.206	9444.2
580.566	9476.74
580.927	9805.55
581.287	9922.61
581.648	9969.84
582.008	10181.81
582.368	10231.07
582.728	10444.17
583.089	10535.25
583.449	10691.17
583.809	10915.57
584.169	11140.2
584.529	11217.26
584.889	11541.32
585.249	11570.92
585.609	11804.82
585.969	12060.63
586.329	12172.26
586.688	12440.51
587.048	12717.11
587.408	12893.38
587.768	13079.36
588.127	13350.76
588.487	13611.77
588.846	13875.95
589.206	13998.21
589.565	14222.15
589.925	14672.09
590.284	14911.18
590.643	15108.23
591.003	15488.56
591.362	15810.36
591.721	15945.05
592.08	16273.85
592.44	16580.06
592.799	16885.36
593.158	17113.83
593.517	17422.97
593.876	17760.59
594.235	17938.89
594.593	18391.76
594.952	18634.47
595.311	18953.1
595.67	19217.05
596.029	19622.69
596.387	19881.44
596.746	20206.86
597.104	20497.02
597.463	20738.82
597.822	21182.65
598.18	21262.42
598.538	21629.19
598.897	22068.95
599.255	22223.98
599.613	22784.42
599.972	22912.77
600.33	23290.84
600.688	23469.59
601.046	23830.26
601.404	24117.04
601.762	24442.68
602.12	24780.75
602.478	24957.01
602.836	25211.92
603.194	25391.13
603.552	25665.92
603.91	25912.92
604.268	26166.7
604.625	26399.46
604.983	26839.45
605.341	27043.06
605.698	27387.91
606.056	27649.37
606.413	27860.21
606.771	28069.47
607.128	28429.46
607.485	28457.26
607.843	28799.85
608.2	29161.65
608.557	29432.6
608.914	29415.43
609.272	29882.76
609.629	30111.45
609.986	30364.55
610.343	30411.79
610.7	30802.06
611.057	30875.05
611.414	31173.8
611.771	31297.86
612.127	31701.47
612.484	31741.69
612.841	31950.05
613.198	32007.9
613.554	32289.93
613.911	32629.35
614.267	32709.8
614.624	32849.91
614.98	33079.06
615.337	33423.91
615.693	33487.18
616.05	33530.57
616.406	33862.77
616.762	33838.81
617.118	33973.73
617.475	34236.54
617.831	34381.62
618.187	34653.93
618.543	34706.59
618.899	34999.69
619.255	34999.01
619.611	35082.17
619.967	35414.59
620.323	35501.82
620.678	35476.28
621.034	35589.73
621.39	35671.08
621.746	35751.53
622.101	36233.78
622.457	35943.62
622.812	36148.36
623.168	36343.61
623.523	36364.85
623.879	36691.17
624.234	36380.67
624.589	36632.86
624.945	36810.26
625.3	36860.66
625.655	36876.47
626.01	36935.68
626.365	37068.11
626.72	37186.75
627.075	37190.36
627.43	37188.33
627.785	37318.04
628.14	37407.76
628.495	37354.65
628.85	37355.33
629.205	37395.1
629.559	37768.2
629.914	37449.11
630.269	37582.9
630.623	37513.29
630.978	37500.64
631.332	37759.61
631.687	37824.25
632.041	37654.31
632.396	37841.42
632.75	37765.72
633.104	37864.92
633.459	37756
633.813	37761.65
634.167	37751.48
634.521	37732.27
634.875	37882.32
635.229	37971.59
635.583	37737.24
635.937	37915.09
636.291	37798.94
636.645	37836.22
636.999	37820.18
637.352	38046.61
637.706	37932.04
638.06	37884.13
638.413	37949.89
638.767	37772.27
639.121	37840.97
639.474	37759.61
639.828	37778.6
640.181	37939.95
640.534	37827.64
640.888	37687.3
641.241	37565.72
641.594	37728.88
641.947	37792.61
642.301	37609.34
642.654	37783.12
643.007	37724.36
643.36	37788.99
643.713	37725.49
644.066	37899.27
644.419	37623.12
644.771	37346.07
645.124	37055.45
645.477	37109.24
645.83	36936.36
646.182	36788.34
646.535	36821.56
646.888	36844.61
647.24	36546.99
647.593	36673.09
647.945	36724.61
648.298	36433.77
648.65	36539.76
649.002	36368.92
649.355	36601.45
649.707	36561.45
650.059	36597.84
650.411	37000.76
650.763	37174.77
651.115	37485.5
651.467	37404.14
651.819	37263.81
652.171	37312.17
652.523	37320.98
652.875	37331.6
653.227	36994.89
653.578	37342.68
653.93	37243.92
654.282	37116.69
654.633	37186.52
654.985	37128.67
655.337	37144.72
655.688	37181.32
656.039	37257.71
656.391	37029.69
656.742	37140.87
657.094	37091.16
657.445	37088.45
657.796	37049.8
658.147	37078.28
658.498	37058.16
658.849	37058.62
659.2	36987.43
659.551	36914.44
659.902	36985.62
660.253	36977.71
660.604	36979.97
660.955	36816.81
661.306	37083.47
661.656	36978.17
662.007	36866.3
662.358	36987.88
662.708	36868.34
663.059	36943.82
663.409	36691.85
663.76	36938.17
664.11	37026.75
664.461	37031.27
664.811	36975.68
665.161	37058.62
665.511	36872.18
665.862	36976.58
666.212	37045.96
666.562	37009.13
666.912	36820.43
667.262	36936.13
667.612	37000.99
667.962	36963.03
668.312	36857.94
668.662	36992.4
669.011	36837.15
669.361	36839.41
669.711	36773.2
670.06	36769.13
670.41	36649.14
670.76	36747.89
671.109	36816.81
671.459	36736.14
671.808	36730.72
672.157	36772.07
672.507	36506.77
672.856	36642.13
673.205	36686.2
673.554	36846.19
673.904	36740.88
674.253	36802.35
674.602	36817.94
674.951	36201.69
675.3	35937.29
675.649	36511.96
675.998	36454.34
676.346	36502.25
676.695	36655.69
677.044	36421.34
677.393	36479.2
677.741	36426.54
678.09	36455.24
678.438	36370.27
678.787	36388.58
679.135	36395.81
679.484	36260.44
679.832	36291.18
680.181	36108.81
680.529	36151.07
680.877	36074.69
681.225	35952.2
681.573	36377.73
681.922	36048.47
682.27	35862.94
682.618	35987.91
682.966	35771.42
683.314	35879.89
683.661	35801.7
684.009	35603.29
684.357	35584.3
684.705	35617.3
685.053	35598.32
685.4	35547.7
685.748	35298.21
686.095	35481.26
686.443	35181.6
686.79	35168.72
687.138	35298.66
687.485	35207.14
687.832	35169.85
688.18	35203.75
688.527	34994.94
688.874	35043.08
689.221	34908.39
689.568	34703.42
689.915	34713.59
690.262	34675.63
690.609	34575.97
690.956	34424.79
691.303	34430.44
691.65	34331.46
691.997	34328.29
692.344	34091.01
692.69	34095.08
693.037	34057.11
693.383	33866.84
693.73	33955.87
694.077	33754.3
694.423	33830.45
694.769	33680.17
695.116	33511.36
695.462	33536.22
695.808	33351.14
696.155	33464.81
696.501	33181.43
696.847	33255.1
697.193	32973.3
697.539	33209.23
697.885	32905.05
698.231	32896.47
698.577	32792.51
698.923	32742.12
699.269	32611.28
699.614	32496.25
699.96	32382.58
700.306	32426.87
700.651	32389.81
700.997	32179.65
701.342	32157.05
701.688	32131.74
702.033	32010.39
702.379	31880
702.724	31867.11
703.069	31928.36
703.415	31438.42
703.76	31565.43
704.105	31644.52
704.45	31534.47
704.795	31274.59
705.14	31295.38
705.485	31270.07
705.83	31091.77
706.175	31140.58
706.52	31064.88
706.865	30949.85
707.209	30988.49
707.554	30818.1
707.899	30840.02
708.243	30617.88
708.588	30640.71
708.932	30541.73
709.277	30336.98
709.621	30551.44
709.966	30309.41
710.31	30440.26
710.654	30114.39
710.998	30168.4
711.342	30188.97
711.687	30052.7
712.031	29931.35
712.375	29804.34
712.719	29907.39
713.063	29868.3
713.407	29870.78
713.75	29772.25
714.094	29694.29
714.438	29510.79
714.782	29608.19
715.125	29438.03
715.469	29442.55
715.812	29353.06
716.156	29130.91
716.499	29243.23
716.843	29172.95
717.186	29044.59
717.53	29080.52
717.873	29149.45
718.216	29064.7
718.559	28874.42
718.902	28780.87
719.246	28840.3
719.589	28846.18
719.932	28705.39
720.275	28682.57
720.617	28511.72
720.96	28553.08
721.303	28555.79
721.646	28507.43
721.989	28429.46
722.331	28408
722.674	28317.15
723.016	28348.79
723.359	28265.4
723.701	28300.65
724.044	28013.43
724.386	27945.86
724.729	28054.56
725.071	28079.42
725.413	28047.78
725.755	28047.1
726.097	27874.22
726.439	27790.39
726.782	27746.54
727.124	27819.76
727.465	27700.67
727.807	27744.51
728.149	27542.93
728.491	27518.08
728.833	27577.51
729.175	27415.25
729.516	27392.66
729.858	27442.6
730.199	27392.43
730.541	27347.91
730.882	27340.68
731.224	27395.82
731.565	27195.82
731.906	27189.04
732.248	27185.66
732.589	27045.32
732.93	26985.89
733.271	26965.55
733.612	27066.56
733.953	27081.25
734.294	26981.14
734.635	26845.78
734.976	26839.9
735.317	26713.8
735.658	26746.34
735.999	26709.51
736.339	26613.01
736.68	26752.22
737.021	26617.53
737.361	26442.62
737.702	26623.86
738.042	26544.09
738.383	26447.6
738.723	26381.61
739.063	26343.19
739.404	26344.1
739.744	26351.55
740.084	26299.58
740.424	26251.44
740.764	26137.77
741.104	26261.16
741.444	26210.54
741.784	25935.52
742.124	25997.89
742.464	25892.36
742.804	25946.82
743.143	25812.36
743.483	25865.92
743.823	25700.27
744.162	25745.92
744.502	25794.51
744.841	25754.96
745.181	25697.56
745.52	25485.36
745.86	25662.76
746.199	25515.42
746.538	25432.48
746.877	25560.16
747.216	25540.05
747.556	25467.28
747.895	25407.85
748.234	25404.23
748.573	25261.41
748.911	25198.36
749.25	25257.57
749.589	25128.31
749.928	25157.01
750.267	25065.26
750.605	25064.13
750.944	25081.76
751.283	24889.22
751.621	24989.78
751.96	24785.94
752.298	24837.47
752.636	24771.03
752.975	24667.53
753.313	24630.02
753.651	24707.75
753.989	24583.01
754.327	24513.86
754.666	24467.99
755.004	24488.1
755.342	24404.49
755.679	24391.6
756.017	24282.23
756.355	24272.29
756.693	24252.4
757.031	24209.01
757.368	24071.16
757.706	24007.89
758.044	23956.59
758.381	24040.88
758.719	23839.3
759.056	23804.05
759.394	23784.61
759.731	23523.83
