Data from hue_80_FLMS001491_69.txt Node
Date: Mon Feb 06 15:23:24 GMT 2017
User: dcchb
Spectrometer: FLMS00149
Trigger mode: 0
Integration Time (sec): 2.000000E-2
Scans to average: 10
Electric dark correction enabled: true
Nonlinearity correction enabled: false
Boxcar width: 0
XAxis mode: Wavelengths
Number of Pixels in Spectrum: 2048
>>>>>Begin Spectral Data<<<<<
341.393	5.61
341.776	5.61
342.16	5.61
342.543	-56.31
342.927	-67.39
343.31	-55.63
343.693	-66.71
344.077	-70.55
344.46	-45.46
344.843	-64.9
345.226	-46.59
345.61	-20.38
345.993	-19.25
346.376	-15.41
346.759	7.64
347.142	32.73
347.525	25.04
347.908	52.84
348.291	74.98
348.674	120.86
349.057	90.8
349.44	122.44
349.823	142.1
350.206	190.46
350.588	173.29
350.971	214.42
351.354	237.69
351.737	243.12
352.119	241.99
352.502	259.61
352.884	281.53
353.267	273.62
353.65	295.77
354.032	287.86
354.414	307.07
354.797	329.21
355.179	320.18
355.562	326.05
355.944	346.62
356.326	316.56
356.709	338.48
357.091	319.27
357.473	329.21
357.855	341.87
358.238	337.8
358.62	342.55
359.002	350.23
359.384	337.35
359.766	340.29
360.148	341.64
360.53	349.1
360.912	346.16
361.294	345.49
361.676	350.46
362.057	349.55
362.439	358.14
362.821	336.45
363.203	333.73
363.584	328.99
363.966	321.98
364.348	353.85
364.729	340.51
365.111	302.32
365.493	324.92
365.874	303.45
366.256	305.94
366.637	335.54
367.019	335.77
367.4	318.59
367.781	332.83
368.163	317.46
368.544	308.42
368.925	326.95
369.306	315.66
369.688	326.73
370.069	305.71
370.45	296.9
370.831	303.45
371.212	326.5
371.593	315.66
371.974	327.63
372.355	321.53
372.736	330.34
373.117	296.9
373.498	337.12
373.879	322.44
374.26	308.88
374.641	301.19
375.021	303.23
375.402	319.95
375.783	333.73
376.163	320.63
376.544	329.44
376.925	325.37
377.305	330.57
377.686	312.94
378.066	319.05
378.447	338.71
378.827	338.48
379.208	319.95
379.588	329.21
379.968	317.24
380.349	324.02
380.729	332.38
381.109	318.14
381.489	357.69
381.87	344.36
382.25	338.48
382.63	324.47
383.01	343.9
383.39	374.19
383.77	351.59
384.15	335.99
384.53	319.05
384.91	355.43
385.29	364.24
385.67	357.69
386.049	363.79
386.429	343.23
386.809	348.2
387.189	351.59
387.568	348.2
387.948	359.04
388.328	364.92
388.707	351.36
389.087	343.68
389.466	357.69
389.846	347.07
390.225	358.37
390.605	363.11
390.984	347.07
391.363	356.33
391.743	355.43
392.122	370.34
392.501	339.84
392.881	359.95
393.26	372.83
393.639	363.79
394.018	367.86
394.397	367.86
394.776	380.96
395.155	387.07
395.534	377.57
395.913	380.74
396.292	396.11
396.671	391.81
397.05	381.64
397.429	386.61
397.808	383
398.186	373.28
398.565	379.16
398.944	404.69
399.323	373.96
399.701	381.87
400.08	391.13
400.458	390.91
400.837	378.7
401.215	406.05
401.594	392.72
401.972	377.57
402.351	383.68
402.729	391.59
403.107	408.76
403.486	406.73
403.864	392.72
404.242	426.61
404.62	407.86
404.999	420.29
405.377	393.39
405.755	387.97
406.133	421.64
406.511	405.82
406.889	416.67
407.267	426.39
407.645	426.16
408.023	418.25
408.401	437.23
408.779	425.26
409.156	419.61
409.534	419.61
409.912	441.3
410.29	425.71
410.667	435.65
411.045	437.01
411.422	448.53
411.8	457.57
412.178	446.95
412.555	465.03
412.933	458.25
413.31	473.84
413.687	459.61
414.065	468.87
414.442	460.74
414.819	473.62
415.197	472.26
415.574	467.74
415.951	485.14
416.328	462.77
416.705	478.36
417.082	484.69
417.46	477.91
417.837	506.84
418.214	498.48
418.591	489.44
418.967	502.54
419.344	505.71
419.721	489.89
420.098	514.75
420.475	485.59
420.852	515.65
421.228	526.5
421.605	519.72
421.982	519.49
422.358	502.09
422.735	528.53
423.111	515.42
423.488	513.84
423.864	527.85
424.241	534.63
424.617	557.91
424.994	540.06
425.37	538.02
425.746	523.33
426.123	560.62
426.499	526.5
426.875	563.11
427.251	548.64
427.627	564.69
428.003	579.6
428.379	566.95
428.756	564.46
429.132	579.6
429.507	595.87
429.883	606.95
430.259	594.74
430.635	585.03
431.011	603.33
431.387	606.72
431.763	616.21
432.138	624.12
432.514	606.95
432.89	604.69
433.265	655.99
433.641	635.87
434.016	617.34
434.392	611.92
434.767	656.66
435.143	660.05
435.518	673.84
435.894	654.86
436.269	653.05
436.644	663.44
437.02	700.5
437.395	675.87
437.77	684.01
438.145	674.52
438.52	697.79
438.895	693.05
439.271	721.97
439.646	716.32
440.021	711.58
440.395	721.07
440.77	724.46
441.145	721.75
441.52	744.8
441.895	721.52
442.27	734.63
442.645	734.85
443.019	740.05
443.394	734.4
443.769	739.15
444.143	778.47
444.518	750.67
444.892	758.58
445.267	783.89
445.641	781.86
446.016	770.11
446.39	794.51
446.764	781.41
447.139	799.71
447.513	782.08
447.887	801.07
448.262	800.61
448.636	800.16
449.01	831.35
449.384	827.51
449.758	846.49
450.132	850.56
450.506	848.75
450.88	816.43
451.254	819.6
451.628	833.38
452.002	855.98
452.376	880.61
452.75	861.63
453.123	871.12
453.497	896.43
453.871	906.83
454.244	900.72
454.618	907.96
454.992	926.71
455.365	909.31
455.739	945.47
456.112	929.65
456.486	942.08
456.859	947.5
457.232	981.4
457.606	979.37
457.979	989.31
458.352	992.47
458.725	1019.37
459.099	1028.63
459.472	1037.67
459.845	1027.5
460.218	1043.55
460.591	1091.68
460.964	1083.77
461.337	1094.17
461.71	1110.21
462.083	1120.61
462.456	1107.27
462.829	1131.23
463.201	1130.1
463.574	1174.39
463.947	1175.29
464.32	1202.19
464.692	1227.5
465.065	1216.2
465.438	1243.77
465.81	1240.15
466.183	1298.91
466.555	1331.9
466.928	1298
467.3	1314.05
467.672	1339.81
468.045	1380.03
468.417	1369.19
468.789	1420.03
469.161	1425.46
469.534	1469.52
469.906	1486.7
470.278	1480.6
470.65	1550.88
471.022	1527.15
471.394	1588.39
471.766	1594.04
472.138	1616.19
472.51	1683.08
472.882	1748.16
473.253	1771.21
473.625	1808.95
473.997	1849.63
474.369	1876.74
474.74	1906.57
475.112	1951.77
475.484	1955.61
475.855	2012.56
476.227	2065.89
476.598	2138.43
476.97	2153.12
477.341	2213.68
477.713	2276.28
478.084	2338.88
478.455	2428.14
478.827	2440.35
479.198	2555.37
479.569	2535.48
479.94	2650.28
480.311	2733.67
480.682	2827
481.053	2923.5
481.424	3025.19
481.795	3084.17
482.166	3168.24
482.537	3257.73
482.908	3346.08
483.279	3436.93
483.65	3531.16
484.021	3633.76
484.391	3735
484.762	3802.8
485.133	3882.12
485.503	4017.71
485.874	4172.73
486.244	4233.74
486.615	4362.78
486.985	4472.38
487.356	4608.88
487.726	4722.09
488.097	4853.16
488.467	4964.35
488.837	5097.45
489.207	5258.58
489.578	5339.25
489.948	5534.05
490.318	5617.89
490.688	5711.9
491.058	5910.76
491.428	6010.2
491.798	6162.28
492.168	6311.66
492.538	6389.85
492.908	6574.47
493.278	6763.17
493.648	6855.82
494.017	7001.81
494.387	7100.11
494.757	7334.45
495.126	7376.71
495.496	7463.04
495.866	7667.78
496.235	7762.47
496.605	7918.85
496.974	8072.06
497.344	8206.97
497.713	8347.31
498.082	8444.71
498.452	8563.12
498.821	8665.94
499.19	8795.66
499.559	9017.35
499.928	9058.7
500.298	9212.6
500.667	9304.35
501.036	9366.72
501.405	9498.69
501.774	9610.78
502.143	9745.24
502.512	9914.73
502.88	9977.32
503.249	10082.86
503.618	10134.15
503.987	10297.09
504.356	10394.71
504.724	10469.29
505.093	10581.83
505.462	10649.17
505.83	10872.21
506.199	10942.49
506.567	11040.35
506.936	11142.49
507.304	11224.52
507.672	11271.75
508.041	11417.74
508.409	11513.33
508.777	11678.52
509.145	11676.49
509.514	11803.72
509.882	11875.13
510.25	12007.78
510.618	12013.65
510.986	12140.88
511.354	12335.23
511.722	12356.69
512.09	12520.31
512.458	12540.42
512.826	12560.98
513.193	12698.61
513.561	12625.84
513.929	12906.74
514.297	12969.33
514.664	13021.99
515.032	13054.76
515.4	13265.82
515.767	13294.3
516.135	13303.79
516.502	13367.06
516.869	13547.4
517.237	13517.34
517.604	13561.18
517.972	13650.9
518.339	13750.78
518.706	13773.15
519.073	13877.78
519.44	13891.12
519.808	14004.34
520.175	14011.79
520.542	14197.78
520.909	14254.27
521.276	14157.33
521.643	14415.17
522.009	14384.44
522.376	14615.84
522.743	14560.93
523.11	14632.34
523.477	14830.98
523.843	14827.59
524.21	14944.88
524.577	15098.54
524.943	15045.66
525.31	15052.22
525.676	15219.9
526.043	15246.79
526.409	15306.22
526.776	15335.83
527.142	15426.67
527.508	15415.6
527.874	15685.42
528.241	15632.54
528.607	15635.7
528.973	15690.17
529.339	15683.84
529.705	15761.58
530.071	15863.72
530.437	15915.02
530.803	16018.97
531.169	16001.34
531.535	15889.94
531.901	15941.01
532.267	15988.24
532.632	16148.01
532.998	16194.33
533.364	16095.35
533.73	16142.36
534.095	16181
534.461	16306.65
534.826	16293.31
535.192	16281.79
535.557	16407.89
535.923	16293.31
536.288	16342.58
536.653	16341
537.019	16291.05
537.384	16385.97
537.749	16468.23
538.114	16404.72
538.479	16333.99
538.845	16375.57
539.21	16315.01
539.575	16400.88
539.94	16381.45
540.305	16453.99
540.67	16381.22
541.034	16405.85
541.399	16449.02
541.764	16418.96
542.129	16361.11
542.494	16445.17
542.858	16394.78
543.223	16328.79
543.587	16420.09
543.952	16392.07
544.316	16330.38
544.681	16413.31
545.045	16359.53
545.41	16426.42
545.774	16274.78
546.138	16381
546.503	16343.71
546.867	16344.61
547.231	16455.57
547.595	16414.22
547.959	16406.08
548.324	16402.69
548.688	16342.58
549.052	16441.79
549.416	16293.09
549.779	16351.62
550.143	16304.84
550.507	16318.62
550.871	16404.05
551.235	16382.8
551.599	16390.04
551.962	16378.51
552.326	16376.48
552.689	16435.46
553.053	16353.65
553.417	16352.52
553.78	16456.93
554.143	16331.28
554.507	16440.43
554.87	16441.56
555.234	16554.32
555.597	16308
555.96	16365.85
556.323	16383.03
556.686	16380.09
557.05	16566.53
557.413	16457.38
557.776	16483.37
558.139	16577.37
558.502	16532.86
558.865	16569.69
559.228	16655.79
559.59	16568.79
559.953	16647.66
560.316	16781.66
560.679	16685.17
561.041	16792.06
561.404	16776.69
561.767	16785.5
562.129	16790.02
562.492	16914.77
562.854	16846.75
563.217	16868.21
563.579	16820.53
563.941	16888.55
564.304	17000.87
564.666	16981.21
565.028	17024.82
565.39	16993.41
565.753	17108.21
566.115	17040.19
566.477	17104.82
566.839	17108.89
567.201	17279.05
567.563	17226.62
567.925	17335.55
568.287	17234.76
568.648	17209.45
569.01	17401.99
569.372	17367.41
569.734	17349.78
570.095	17500.97
570.457	17464.81
570.819	17435.88
571.18	17533.28
571.542	17553.39
571.903	17590.91
572.265	17570.57
572.626	17642.43
572.987	17706.16
573.349	17759.49
573.71	17808.08
574.071	17871.8
574.432	17814.18
574.794	17942.54
575.155	17940.28
575.516	17836.78
575.877	17886.94
576.238	17880.84
576.599	17916.1
576.96	17959.03
577.32	17924.46
577.681	17965.13
578.042	18002.87
578.403	17931.69
578.763	17905.02
579.124	18032.03
579.485	18050.33
579.845	18055.3
580.206	18043.78
580.566	18054.4
580.927	18065.25
581.287	18161.97
581.648	18022.08
582.008	18110.67
582.368	18006.49
582.728	18099.37
583.089	18065.47
583.449	18059.37
583.809	18107.28
584.169	18108.86
584.529	18017.11
584.889	18131.91
585.249	18051.91
585.609	17906.38
585.969	17903.44
586.329	18052.14
586.688	17978.92
587.048	17985.47
587.408	17957.45
587.768	17953.84
588.127	17972.14
588.487	17930.11
588.846	18072.02
589.206	17906.83
589.565	17886.04
589.925	18021.63
590.284	17866.83
590.643	17924.23
591.003	17992.03
591.362	17955.42
591.721	17965.59
592.08	17879.94
592.44	18087.62
592.799	18042.42
593.158	17889.43
593.517	17842.43
593.876	17952.03
594.235	17902.31
594.593	17903.22
594.952	17965.13
595.311	17811.92
595.67	17897.79
596.029	18019.82
596.387	17946.6
596.746	17937.11
597.104	17933.95
597.463	17925.36
597.822	17964.68
598.18	17904.57
598.538	17853.5
598.897	17973.27
599.255	17840.62
599.613	18067.73
599.972	17894.85
600.33	17890.56
600.688	17925.14
601.046	17964.46
601.404	18050.56
601.762	17926.49
602.12	18014.4
602.478	17979.15
602.836	18019.6
603.194	17937.34
603.552	18000.61
603.91	17913.84
604.268	18054.4
604.625	18007.85
604.983	18020.95
605.341	17970.78
605.698	18031.35
606.056	18109.09
606.413	18043.55
606.771	18108.18
607.128	18050.1
607.485	18007.39
607.843	18059.6
608.2	18094.85
608.557	18157.67
608.914	18082.87
609.272	18168.29
609.629	18229.31
609.986	18267.05
610.343	18104.57
610.7	18321.51
611.057	18195.19
611.414	18222.76
611.771	18242.42
612.127	18416.87
612.484	18353.6
612.841	18317.89
613.198	18255.52
613.554	18326.93
613.911	18376.2
614.267	18481.96
614.624	18337.33
614.98	18371.9
615.337	18542.07
615.693	18379.59
616.05	18393.37
616.406	18577.55
616.762	18513.82
617.118	18546.81
617.475	18495.74
617.831	18538.68
618.187	18531.67
618.543	18599.02
618.899	18680.82
619.255	18606.47
619.611	18692.57
619.967	18710.88
620.323	18730.31
620.678	18714.27
621.034	18646.92
621.39	18604.89
621.746	18572.8
622.101	18788.39
622.457	18703.42
622.812	18691.44
623.168	18755.4
623.523	18757.88
623.879	18823.42
624.234	18663.42
624.589	18837.2
624.945	18734.83
625.3	18828.62
625.655	18804.21
626.01	18741.16
626.365	18785.45
626.72	18739.8
627.075	18737.54
627.43	18794.72
627.785	18688.73
628.14	18808.73
628.495	18792.01
628.85	18757.43
629.205	18635.4
629.559	18710.65
629.914	18595.4
630.269	18809.63
630.623	18658.9
630.978	18566.02
631.332	18661.16
631.687	18680.82
632.041	18543.2
632.396	18610.54
632.75	18542.07
633.104	18606.02
633.459	18459.36
633.813	18561.5
634.167	18555.85
634.521	18476.76
634.875	18522.18
635.229	18493.93
635.583	18390.66
635.937	18330.78
636.291	18324.67
636.645	18370.32
636.999	18351.57
637.352	18431.34
637.706	18294.62
638.06	18355.63
638.413	18292.81
638.767	18270.44
639.121	18260.27
639.474	18237.22
639.828	18222.3
640.181	18287.61
640.534	18224.79
640.888	18180.04
641.241	18060.05
641.594	18185.02
641.947	18071.12
642.301	18101.18
642.654	18143.89
643.007	18170.1
643.36	18111.57
643.713	18088.52
644.066	18088.97
644.419	18005.59
644.771	17807.62
645.124	17717.68
645.477	17754.07
645.83	17644.47
646.182	17555.65
646.535	17520.85
646.888	17488.09
647.24	17487.18
647.593	17598.14
647.945	17491.93
648.298	17442.21
648.65	17373.96
649.002	17456.67
649.355	17364.25
649.707	17354.3
650.059	17509.33
650.411	17641.3
650.763	17657.12
651.115	17970.78
651.467	17770.34
651.819	17932.14
652.171	17825.93
652.523	17758.59
652.875	17840.84
653.227	17753.62
653.578	17875.42
653.93	17954.29
654.282	17803.56
654.633	17775.08
654.985	17800.62
655.337	17683.33
655.688	17846.27
656.039	17884.69
656.391	17660.28
656.742	17695.54
657.094	17771.69
657.445	17921.29
657.796	17785.7
658.147	17806.27
658.498	17775.54
658.849	17872.26
659.2	17809.66
659.551	17792.48
659.902	17809.66
660.253	17763.33
660.604	17818.02
660.955	17682.43
661.306	17862.99
661.656	17771.02
662.007	17774.41
662.358	17841.07
662.708	17749.32
663.059	17818.02
663.409	17689.44
663.76	17928.75
664.11	17859.15
664.461	17800.62
664.811	17870
665.161	17905.93
665.511	17785.7
665.862	17809.66
666.212	17871.13
666.562	17859.38
666.912	17818.7
667.262	17787.96
667.612	17814.63
667.962	17800.62
668.312	17827.29
668.662	17960.16
669.011	17800.17
669.361	17764.24
669.711	17763.56
670.06	17833.16
670.41	17731.24
670.76	17676.33
671.109	17864.8
671.459	17814.86
671.808	17776.44
672.157	17830.68
672.507	17665.26
672.856	17797.91
673.205	17745.71
673.554	17837.68
673.904	17683.33
674.253	17764.69
674.602	17681.53
674.951	17361.99
675.3	17316.79
675.649	17672.49
675.998	17720.85
676.346	17653.96
676.695	17694.63
677.044	17537.12
677.393	17615.54
677.741	17569.89
678.09	17548.2
678.438	17447.41
678.787	17477.24
679.135	17570.34
679.484	17453.06
679.832	17489.67
680.181	17259.84
680.529	17401.08
680.877	17420.29
681.225	17287.19
681.573	17364.92
681.922	17294.19
682.27	17112.28
682.618	17217.36
682.966	17183.46
683.314	17225.95
683.661	17200.64
684.009	17021.66
684.357	17028.89
684.705	17025.95
685.053	17044.71
685.4	17006.29
685.748	16850.14
686.095	16838.16
686.443	16842.23
686.79	16833.64
687.138	16780.53
687.485	16840.19
687.832	16723.36
688.18	16743.7
688.527	16625.96
688.874	16633.64
689.221	16565.62
689.568	16572.86
689.915	16486.98
690.262	16390.04
690.609	16411.96
690.956	16336.25
691.303	16316.59
691.65	16256.93
691.997	16199.08
692.344	16061
692.69	16079.76
693.037	16061.23
693.383	15927.45
693.73	15969.03
694.077	15885.87
694.423	15857.17
694.769	15855.81
695.116	15805.64
695.462	15756.15
695.808	15680.9
696.155	15724.52
696.501	15495.6
696.847	15526.1
697.193	15388.93
697.539	15472.09
697.885	15376.73
698.231	15329.05
698.577	15238.88
698.923	15200.91
699.269	15136.96
699.614	15080.69
699.96	15024.2
700.306	15052.44
700.651	14903.29
700.997	14917.08
701.342	14859.91
701.688	14830.98
702.033	14778.33
702.379	14731.32
702.724	14677.09
703.069	14612.91
703.415	14462.63
703.76	14560.03
704.105	14480.93
704.45	14442.52
704.795	14406.36
705.14	14360.48
705.485	14312.35
705.83	14155.07
706.175	14307.15
706.52	14120.04
706.865	14121.85
707.209	14087.5
707.554	14145.8
707.899	14033.71
708.243	13955.75
708.588	13919.37
708.932	13866.94
709.277	13819.93
709.621	13846.6
709.966	13764.12
710.31	13788.52
710.654	13564.57
710.998	13587.85
711.342	13740.39
711.687	13581.3
712.031	13534.52
712.375	13445.71
712.719	13552.14
713.063	13419.04
713.407	13515.76
713.75	13399.15
714.094	13354.63
714.438	13343.79
714.782	13390.57
715.125	13314.64
715.469	13344.92
715.812	13197.35
716.156	13130.23
716.499	13160.06
716.843	13236.22
717.186	13099.95
717.53	13158.93
717.873	13106.51
718.216	13163.68
718.559	13040.29
718.902	13012.04
719.246	12980.18
719.589	12934.98
719.932	13000.07
720.275	12914.87
720.617	12864.25
720.96	12852.73
721.303	12913.52
721.646	12903.57
721.989	12801.88
722.331	12925.95
722.674	12797.81
723.016	12847.08
723.359	12773.41
723.701	12829.68
724.044	12741.09
724.386	12669.68
724.729	12682.34
725.071	12683.47
725.413	12687.76
725.755	12723.46
726.097	12672.17
726.439	12600.98
726.782	12572.51
727.124	12681.43
727.465	12606.63
727.807	12608.44
728.149	12592.62
728.491	12623.13
728.833	12633.07
729.175	12502.45
729.516	12579.06
729.858	12570.47
730.199	12591.94
730.541	12589.68
730.882	12517.59
731.224	12578.61
731.565	12521.66
731.906	12503.13
732.248	12594.65
732.589	12432.17
732.93	12457.26
733.271	12494.32
733.612	12491.61
733.953	12511.95
734.294	12454.09
734.635	12473.3
734.976	12517.59
735.317	12493.19
735.658	12423.13
735.999	12412.29
736.339	12508.56
736.68	12422.23
737.021	12486.86
737.361	12447.99
737.702	12466.75
738.042	12478.27
738.383	12477.14
738.723	12480.08
739.063	12497.71
739.404	12520.08
739.744	12429.46
740.084	12469.91
740.424	12550.14
740.764	12494.77
741.104	12560.98
741.444	12455.9
741.784	12525.05
742.124	12494.54
742.464	12662.22
742.804	12548.33
743.143	12602.79
743.483	12586.97
743.823	12569.8
744.162	12596.01
744.502	12664.71
744.841	12633.07
745.181	12730.47
745.52	12695.44
745.86	12731.83
746.199	12785.61
746.538	12813.41
746.877	12831.48
747.216	12978.83
747.556	12908.09
747.895	13026.96
748.234	12979.5
748.573	13060.41
748.911	13055.89
749.25	13097.24
749.589	13066.96
749.928	13218.14
750.267	13351.02
750.605	13315.31
750.944	13437.8
751.283	13473.05
751.621	13664.91
751.96	13698.35
752.298	13775.64
752.636	13882.08
752.975	13941.96
753.313	13983.77
753.651	14093.82
753.989	14233.03
754.327	14199.81
754.666	14263.99
755.004	14383.31
755.342	14580.37
755.679	14627.37
756.017	14706.24
756.355	14820.58
756.693	14916.63
