Data from hue_20_FLMS001491_52.txt Node
Date: Mon Feb 06 15:34:18 GMT 2017
User: dcchb
Spectrometer: FLMS00149
Trigger mode: 0
Integration Time (sec): 2.000000E-2
Scans to average: 10
Electric dark correction enabled: true
Nonlinearity correction enabled: false
Boxcar width: 0
XAxis mode: Wavelengths
Number of Pixels in Spectrum: 2048
>>>>>Begin Spectral Data<<<<<
341.393	-23.02
341.776	-23.02
342.16	-23.02
342.543	-78.39
342.927	-63.02
343.31	-68.22
343.693	-69.12
344.077	-69.12
344.46	-45.62
344.843	-51.72
345.226	-32.97
345.61	-39.29
345.993	-10.37
346.376	-24.6
346.759	-11.95
347.142	20.82
347.525	55.17
347.908	51.78
348.291	84.09
348.674	95.84
349.057	115.28
349.44	143.98
349.823	130.65
350.206	136.97
350.588	198.67
350.971	192.57
351.354	238.89
351.737	240.7
352.119	238.21
352.502	282.51
352.884	276.41
353.267	280.7
353.65	284.99
354.032	297.2
354.414	301.04
354.797	321.38
355.179	307.82
355.562	330.19
355.944	311.88
356.326	343.3
356.709	310.75
357.091	344.2
357.473	339
357.855	308.27
358.238	359.57
358.62	346.01
359.002	344.2
359.384	340.13
359.766	349.85
360.148	336.97
360.53	319.79
360.912	324.09
361.294	344.65
361.676	327.93
362.057	344.43
362.439	312.11
362.821	340.13
363.203	324.99
363.584	314.6
363.966	296.07
364.348	315.27
364.729	306.46
365.111	314.37
365.493	334.03
365.874	303.75
366.256	310.53
366.637	332.9
367.019	323.18
367.4	322.28
367.781	311.66
368.163	328.61
368.544	301.72
368.925	317.53
369.306	313.47
369.688	309.4
370.069	327.03
370.45	310.3
370.831	304.88
371.212	308.04
371.593	313.92
371.974	286.57
372.355	312.34
372.736	305.56
373.117	324.31
373.498	303.75
373.879	324.54
374.26	341.04
374.641	343.97
375.021	322.28
375.402	313.47
375.783	314.37
376.163	345.56
376.544	315.27
376.925	315.05
377.305	321.15
377.686	324.99
378.066	310.3
378.447	331.54
378.827	341.04
379.208	345.56
379.588	336.52
379.968	323.41
380.349	325.9
380.729	344.88
381.109	331.32
381.489	353.01
381.87	321.6
382.25	349.62
382.63	326.12
383.01	363.63
383.39	353.24
383.77	340.13
384.15	351.66
384.53	357.98
384.91	346.01
385.29	353.92
385.67	342.84
386.049	360.7
386.429	355.73
386.809	355.05
387.189	336.74
387.568	371.32
387.948	343.3
388.328	360.02
388.707	361.6
389.087	349.4
389.466	374.71
389.846	386.68
390.225	362.96
390.605	365.67
390.984	361.15
391.363	360.92
391.743	384.88
392.122	366.8
392.501	378.78
392.881	398.66
393.26	380.36
393.639	378.55
394.018	393.24
394.397	385.55
394.776	379.91
395.155	395.72
395.534	401.6
395.913	399.57
396.292	393.01
396.671	370.64
397.05	404.54
397.429	384.65
397.808	398.21
398.186	392.79
398.565	384.88
398.944	404.31
399.323	403.63
399.701	409.51
400.08	394.59
400.458	402.73
400.837	419
401.215	420.36
401.594	406.12
401.972	408.61
402.351	420.58
402.729	423.97
403.107	421.94
403.486	434.82
403.864	428.94
404.242	429.85
404.62	421.49
404.999	433.46
405.377	425.55
405.755	417.19
406.133	464.42
406.511	436.85
406.889	453.8
407.267	455.61
407.645	454.48
408.023	474.14
408.401	464.65
408.779	463.07
409.156	436.85
409.534	458.1
409.912	463.74
410.29	485.21
410.667	468.26
411.045	473.24
411.422	475.95
411.8	469.62
412.178	501.94
412.555	496.29
412.933	481.82
413.31	495.61
413.687	490.41
414.065	495.38
414.442	493.57
414.819	485.67
415.197	506
415.574	500.35
415.951	528.15
416.328	548.49
416.705	523.63
417.082	501.03
417.46	548.26
417.837	516.62
418.214	531.99
418.591	536.29
418.967	532.9
419.344	540.35
419.721	559.56
420.098	557.98
420.475	560.92
420.852	553.01
421.228	559.34
421.605	578.32
421.982	582.84
422.358	545.32
422.735	555.95
423.111	577.64
423.488	571.31
423.864	584.65
424.241	575.15
424.617	578.32
424.994	580.35
425.37	612.22
425.746	589.39
426.123	598.43
426.499	598.88
426.875	632.78
427.251	608.15
427.627	621.03
428.003	628.26
428.379	644.08
428.756	603.85
429.132	652.21
429.507	666.45
429.883	649.95
430.259	653.34
430.635	652.89
431.011	687.02
431.387	679.78
431.763	673
432.138	712.33
432.514	680.69
432.89	680.24
433.265	707.81
433.641	713.46
434.016	726.79
434.392	722.5
434.767	738.09
435.143	750.97
435.518	745.77
435.894	741.03
436.269	757.3
436.644	748.03
437.02	778.54
437.395	748.26
437.77	772.89
438.145	792.1
438.52	801.36
438.895	769.5
439.271	801.14
439.646	810.4
440.021	811.31
440.395	827.35
440.77	827.8
441.145	831.42
441.52	826
441.895	843.4
442.27	842.27
442.645	847.46
443.019	851.98
443.394	868.71
443.769	851.08
444.143	857.86
444.518	886.56
444.892	876.16
445.267	896.95
445.641	863.96
446.016	903.73
446.39	869.84
446.764	908.93
447.139	895.82
447.513	887.91
447.887	901.47
448.262	935.6
448.636	905.09
449.01	913.9
449.384	930.17
449.758	921.36
450.132	944.64
450.506	928.59
450.88	932.43
451.254	923.62
451.628	962.71
452.002	986.44
452.376	980.57
452.75	980.34
453.123	1011.08
453.497	1005.65
453.871	1033
454.244	1030.74
454.618	1036.61
454.992	1044.52
455.365	1057.63
455.739	1068.7
456.112	1093.78
456.486	1080.45
456.859	1105.76
457.232	1129.04
457.606	1103.95
457.979	1137.85
458.352	1145.99
458.725	1129.94
459.099	1162.48
459.472	1205.42
459.845	1188.7
460.218	1220.34
460.591	1205.65
460.964	1235.02
461.337	1228.02
461.71	1267.34
462.083	1280.45
462.456	1275.47
462.829	1286.32
463.201	1319.77
463.574	1320.67
463.947	1332.65
464.32	1339.43
464.692	1359.99
465.065	1377.85
465.438	1412.65
465.81	1428.01
466.183	1418.97
466.555	1463.94
466.928	1463.94
467.3	1471.63
467.672	1481.57
468.045	1513.89
468.417	1536.49
468.789	1522.7
469.161	1552.98
469.534	1570.83
469.906	1629.36
470.278	1638.86
470.65	1631.4
471.022	1633.21
471.394	1709.59
471.766	1714.11
472.138	1751.39
472.51	1796.59
472.882	1798.17
473.253	1798.17
473.625	1848.79
473.997	1871.17
474.369	1895.35
474.74	1923.59
475.112	1962.91
475.484	2000.88
475.855	2035
476.227	2014.89
476.598	2088.11
476.97	2119.97
477.341	2159.97
477.713	2169.24
478.084	2173.76
478.455	2281.32
478.827	2285.84
479.198	2381.89
479.569	2374.66
479.94	2416.01
480.311	2441.55
480.682	2528.32
481.053	2544.37
481.424	2625.95
481.795	2616.46
482.166	2672.5
482.537	2732.84
482.908	2764.25
483.279	2775.77
483.65	2857.35
484.021	2938.26
484.391	2983.68
484.762	3026.62
485.133	3036.56
485.503	3079.5
485.874	3172.83
486.244	3158.59
486.615	3216.21
486.985	3304.12
487.356	3325.14
487.726	3378.47
488.097	3432.93
488.467	3458.24
488.837	3520.16
489.207	3607.39
489.578	3689.65
489.948	3683.32
490.318	3734.17
490.688	3738.24
491.058	3826.14
491.428	3868.4
491.798	3927.61
492.168	3967.61
492.538	3993.82
492.908	4033.82
493.278	4131.45
493.648	4110.43
494.017	4164.89
494.387	4232.01
494.757	4328.95
495.126	4293.7
495.496	4360.14
495.866	4323.76
496.235	4410.53
496.605	4439.69
496.974	4489.4
497.344	4503.19
497.713	4599.91
498.082	4588.61
498.452	4704.09
498.821	4692.79
499.19	4688.04
499.559	4759.45
499.928	4819.11
500.298	4793.35
500.667	4857.3
501.036	4822.73
501.405	4890.75
501.774	4910.86
502.143	4945.66
502.512	4980.69
502.88	4986.56
503.249	5007.13
503.618	5054.81
503.987	5057.07
504.356	5151.53
504.724	5181.13
505.093	5198.08
505.462	5250.29
505.83	5246.44
506.199	5308.36
506.567	5373.9
506.936	5341.36
507.304	5400.79
507.672	5435.37
508.041	5436.72
508.409	5462.71
508.777	5539.77
509.145	5516.49
509.514	5588.58
509.882	5580.45
510.25	5545.42
510.618	5643.04
510.986	5645.53
511.354	5722.59
511.722	5753.32
512.09	5805.75
512.458	5788.8
512.826	5823.15
513.193	5873.09
513.561	5863.83
513.929	5953.32
514.297	5961.23
514.664	5991.28
515.032	6008.68
515.4	6049.13
515.767	6076.03
516.135	6119.87
516.502	6041.23
516.869	6165.06
517.237	6174.33
517.604	6163.03
517.972	6237.83
518.339	6258.62
518.706	6304.04
519.073	6330.03
519.44	6321.44
519.808	6369.8
520.175	6382.23
520.542	6462.68
520.909	6473.08
521.276	6466.52
521.643	6500.87
522.009	6575
522.376	6593.53
522.743	6665.39
523.11	6737.03
523.477	6763.69
523.843	6714.88
524.21	6814.09
524.577	6907.42
524.943	6879.17
525.31	6933.18
525.676	7024.93
526.043	6985.83
526.409	7000.97
526.776	7144.93
527.142	7115.55
527.508	7203.23
527.874	7223.79
528.241	7204.81
528.607	7206.17
528.973	7347.63
529.339	7340.4
529.705	7338.59
530.071	7465.14
530.437	7510.57
530.803	7546.72
531.169	7581.75
531.535	7577.23
531.901	7622.88
532.267	7646.38
532.632	7650.67
532.998	7682.09
533.364	7753.95
533.73	7835.08
534.095	7828.3
534.461	7932.7
534.826	7933.38
535.192	7999.59
535.557	7988.97
535.923	8001.63
536.288	8036.43
536.653	8068.06
537.019	8094.05
537.384	8078.23
537.749	8160.49
538.114	8198.91
538.479	8201.39
538.845	8238.46
539.21	8304.22
539.575	8291.79
539.94	8374.95
540.305	8379.69
540.67	8358.68
541.034	8477.32
541.399	8489.97
541.764	8442.07
542.129	8552.57
542.494	8543.98
542.858	8632.12
543.223	8640.48
543.587	8678.22
543.952	8692
544.316	8664.66
544.681	8741.72
545.045	8746.46
545.41	8812.9
545.774	8821.04
546.138	8853.35
546.503	8929.51
546.867	8970.19
547.231	8980.81
547.595	9002.5
547.959	8990.3
548.324	9021.49
548.688	9097.42
549.052	9176.28
549.416	9117.3
549.779	9166.34
550.143	9188.49
550.507	9264.42
550.871	9230.52
551.235	9277.52
551.599	9379.89
551.962	9349.39
552.326	9367.01
552.689	9477.29
553.053	9356.62
553.417	9477.07
553.78	9522.04
554.143	9529.72
554.507	9600
554.87	9651.53
555.234	9705.76
555.597	9658.08
555.96	9706.44
556.323	9676.84
556.686	9747.79
557.05	9838.87
557.413	9846.32
557.776	9894.46
558.139	9925.42
558.502	9931.52
558.865	9981.91
559.228	10103.04
559.59	10082.48
559.953	10044.74
560.316	10256.71
560.679	10253.77
561.041	10207.9
561.404	10313.88
561.767	10348.46
562.129	10281.11
562.492	10402.69
562.854	10430.49
563.217	10462.13
563.579	10464.84
563.941	10529.92
564.304	10592.97
564.666	10703.02
565.028	10676.13
565.39	10685.62
565.753	10754.55
566.115	10662.8
566.477	10847.2
566.839	10864.38
567.201	10878.61
567.563	10904.37
567.925	11010.59
568.287	10992.06
568.648	10986.18
569.01	11043.13
569.372	11082.22
569.734	11180.3
570.095	11193.63
570.457	11267.53
570.819	11326.28
571.18	11390.92
571.542	11420.74
571.903	11434.98
572.265	11508.43
572.626	11529.44
572.987	11597.01
573.349	11679.04
573.71	11638.37
574.071	11724.01
574.432	11759.72
574.794	11928.98
575.155	11845.59
575.516	11921.97
575.877	11973.05
576.238	12061.86
576.599	12261.63
576.96	12235.86
577.32	12244.23
577.681	12385.69
578.042	12495.29
578.403	12547.27
578.763	12610.09
579.124	12725.57
579.485	12824.32
579.845	12920.82
580.206	13046.24
580.566	13043.3
580.927	13160.81
581.287	13352.45
581.648	13391.99
582.008	13586.79
582.368	13672.89
582.728	13831.3
583.089	13898.65
583.449	13971.86
583.809	14187.23
584.169	14404.17
584.529	14560.1
584.889	14787.89
585.249	14817.72
585.609	14981.33
585.969	15259.97
586.329	15436.91
586.688	15671.03
587.048	15835.54
587.408	16034.63
587.768	16244.57
588.127	16383.78
588.487	16612.92
588.846	16996.87
589.206	17142.63
589.565	17278.67
589.925	17630.75
590.284	17809.96
590.643	18116.84
591.003	18300.79
591.362	18728.12
591.721	18784.17
592.08	19173.76
592.44	19385.73
592.799	19779.17
593.158	19867.3
593.517	20195.88
593.876	20564.91
594.235	20735.53
594.593	21048.74
594.952	21386.58
595.311	21590.42
595.67	21965.33
596.029	22391.98
596.387	22756.94
596.746	22934.11
597.104	23129.14
597.463	23454.1
597.822	23810.93
598.18	24007.08
598.538	24377.24
598.897	24853.16
599.255	24901.07
599.613	25520.71
599.972	25642.29
600.33	26059.68
600.688	26174.26
601.046	26460.35
601.404	26942.14
601.762	27098.52
602.12	27520.89
602.478	27667.32
602.836	27913.64
603.194	28195.9
603.552	28587.98
603.91	28726.05
604.268	29084.24
604.625	29323.55
604.983	29702.07
605.341	29771.45
605.698	30188.39
606.056	30522.16
606.413	30664.08
606.771	30926.9
607.128	31369.82
607.485	31482.82
607.843	31656.82
608.2	32043.93
608.557	32506.07
608.914	32510.59
609.272	32770.69
609.629	33029.44
609.986	33573.38
610.343	33433.27
610.7	33834.17
611.057	34053.82
611.414	34272.8
611.771	34457.88
612.127	34782.84
612.484	34870.98
612.841	35162.95
613.198	35218.54
613.554	35505.54
613.911	35771.29
614.267	35892.19
614.624	35950.04
614.98	36361.56
615.337	36536.47
615.693	36590.03
616.05	36781.43
616.406	37084.48
616.762	37102.56
617.118	37345.26
617.475	37422.1
617.831	37713.39
618.187	37810.79
618.543	37968.3
618.899	38352.24
619.255	38342.52
619.611	38384.33
619.967	38652.8
620.323	38990.19
620.678	38845.33
621.034	38875.62
621.39	38896.41
621.746	39094.82
622.101	39636.05
622.457	39438.54
622.812	39509.27
623.168	39695.71
623.523	39707.23
623.879	40032.2
624.234	39822.26
624.589	40143.83
624.945	40281
625.3	40336.37
625.655	40431.06
626.01	40401.45
626.365	40550.83
626.72	40537.72
627.075	40607.32
627.43	40692.74
627.785	40748.11
628.14	40754.89
628.495	40864.72
628.85	40920.76
629.205	40759.63
629.559	41087.99
629.914	40967.54
630.269	41046.63
630.623	41143.58
630.978	40991.72
631.332	41252.73
631.687	41379.96
632.041	41183.35
632.396	41353.29
632.75	41332.73
633.104	41309.68
633.459	41270.36
633.813	41183.13
634.167	41323.69
634.521	41283.69
634.875	41360.3
635.229	41418.83
635.583	41219.74
635.937	41330.47
636.291	41351.26
636.645	41392.61
636.999	41335.89
637.352	41503.8
637.706	41194.43
638.06	41375.44
638.413	41325.27
638.767	41180.41
639.121	41365.95
639.474	41144.94
639.828	41216.35
640.181	41232.39
640.534	41283.01
640.888	41170.92
641.241	41035.33
641.594	41246.18
641.947	41295.89
642.301	41133.41
642.654	41319.85
643.007	41199.85
643.36	41379.73
643.713	41115.56
644.066	41313.29
644.419	40993.75
644.771	40809.12
645.124	40501.56
645.477	40406.65
645.83	40130.05
646.182	40140.67
646.535	39907.91
646.888	40031.74
647.24	39845.99
647.593	40256.14
647.945	40047.79
648.298	39832.2
648.65	39893.67
649.002	39696.84
649.355	39949.26
649.707	39854.35
650.059	40054.34
650.411	40502.24
650.763	40449.13
651.115	40895.45
651.467	40669.02
651.819	40743.14
652.171	40677.15
652.523	40519.87
652.875	40634.21
653.227	40524.39
653.578	40748.79
653.93	40631.28
654.282	40501.11
654.633	40299.08
654.985	40527.55
655.337	40391.28
655.688	40411.62
656.039	40615.01
656.391	40321
656.742	40355.13
657.094	40370.27
657.445	40499.98
657.796	40391.06
658.147	40335.24
658.498	40436.25
658.849	40407.78
659.2	40370.27
659.551	40324.84
659.902	40302.47
660.253	40230.61
660.604	40285.75
660.955	40204.39
661.306	40448.23
661.656	40261.12
662.007	40408.91
662.358	40320.1
662.708	40233.55
663.059	40164.17
663.409	39948.13
663.76	40245.3
664.11	40250.72
664.461	40381.11
664.811	40255.69
665.161	40143.38
665.511	40146.32
665.862	40224.06
666.212	40297.95
666.562	40361.23
666.912	40192.87
667.262	40100.67
667.612	40080.56
667.962	40258.18
668.312	40088.01
668.662	40304.73
669.011	40172.53
669.361	40091.18
669.711	40004.85
670.06	39901.8
670.41	39869.49
670.76	40071.74
671.109	40123.04
671.459	39939.09
671.808	39931.18
672.157	40055.25
672.507	39655.71
672.856	39744.52
673.205	39770.28
673.554	39865.87
673.904	39843.27
674.253	39932.54
674.602	40013.21
674.951	39292.55
675.3	39140.02
675.649	39760.34
675.998	39782.26
676.346	39891.63
676.695	39938.41
677.044	39564.41
677.393	39693.45
677.741	39681.47
678.09	39621.59
678.438	39484.87
678.787	39584.98
679.135	39754.69
679.484	39235.83
679.832	39585.65
680.181	39356.96
680.529	39494.36
680.877	39305.21
681.225	39261.14
681.573	39506.79
681.922	39119.23
682.27	39077.19
682.618	39018.66
682.966	38869.06
683.314	38952.22
683.661	38793.13
684.009	38681.27
684.357	38612.12
684.705	38486.02
685.053	38642.18
685.4	38590.2
685.748	38460.94
686.095	38368.74
686.443	38206.48
686.79	38296.42
687.138	38252.36
687.485	38342.97
687.832	38086.94
688.18	38198.12
688.527	37868.41
688.874	37970.78
689.221	37959.26
689.568	37830.45
689.915	37724.91
690.262	37748.41
690.609	37557.46
690.956	37524.47
691.303	37409.89
691.65	37253.74
691.997	37391.59
692.344	37115.89
692.69	36937.36
693.037	37096.45
693.383	36703.24
693.73	36753.19
694.077	36650.14
694.423	36592.29
694.769	36540.99
695.116	36521.33
695.462	36400.43
695.808	36420.09
696.155	36345.97
696.501	36149.81
696.847	36054.67
697.193	35876.37
697.539	36021
697.885	35842.7
698.231	35696.94
698.577	35635.7
698.923	35462.82
699.269	35488.59
699.614	35197.07
699.96	35280.46
700.306	35267.58
700.651	35084.53
700.997	34833.24
701.342	34939.67
701.688	34810.86
702.033	34710.53
702.379	34727.25
702.724	34594.15
703.069	34634.6
703.415	34179.92
703.76	34358.67
704.105	34251.78
704.45	34042.97
704.795	34084.33
705.14	34047.72
705.485	33972.69
705.83	33800.5
706.175	33817.44
706.52	33739.71
706.865	33564.12
707.209	33662.87
707.554	33503.33
707.899	33559.15
708.243	33411.35
708.588	33319.83
708.932	33044.13
709.277	32956.45
709.621	33193.28
709.966	32778.6
710.31	32922.1
710.654	32517.37
710.998	32658.38
711.342	32714.87
711.687	32531.83
712.031	32413.41
712.375	32263.36
712.719	32449.8
713.063	32231.5
713.407	32400.76
713.75	32167.77
714.094	32147.43
714.438	32029.69
714.782	32124.16
715.125	31931.17
715.469	31879.64
715.812	31881.22
716.156	31692.53
716.499	31718.52
716.843	31723.49
717.186	31533.44
717.53	31695.92
717.873	31710.61
718.216	31538.63
718.559	31562.81
718.902	31304.06
719.246	31381.12
719.589	31268.58
719.932	31104.07
720.275	31036.05
720.617	31010.74
720.96	30944.98
721.303	30976.16
721.646	30975.26
721.989	30696.85
722.331	30856.62
722.674	30799.67
723.016	30617.3
723.359	30667.7
723.701	30634.48
724.044	30534.37
724.386	30311.32
724.729	30460.92
725.071	30365.11
725.413	30321.04
725.755	30340.02
726.097	30289.85
726.439	30002.4
726.782	30172.79
727.124	30196.07
727.465	29951.33
727.807	29959.01
728.149	29858.68
728.491	29830.43
728.833	29794.05
729.175	29731.22
729.516	29655.52
729.858	29635.86
730.199	29710.43
730.541	29717.44
730.882	29615.29
731.224	29658.46
731.565	29440.16
731.906	29429.31
732.248	29389.76
732.589	29400.39
732.93	29310.9
733.271	29308.18
733.612	29262.99
733.953	29362.65
734.294	29052.6
734.635	28998.59
734.976	29161.07
735.317	28903.45
735.658	28987.74
735.999	28928.99
736.339	28932.37
736.68	29027.29
737.021	28824.36
737.361	28778.71
737.702	28879.49
738.042	28764.24
738.383	28771.25
738.723	28699.61
739.063	28637.02
739.404	28616.68
739.744	28637.92
740.084	28508.88
740.424	28489.45
740.764	28452.61
741.104	28574.87
741.444	28413.29
741.784	28269.12
742.124	28329.45
742.464	28297.36
742.804	28333.97
743.143	28205.16
743.483	28071.15
743.823	28008.11
744.162	27910.25
744.502	28111.83
744.841	28026.64
745.181	28122.45
745.52	27849.92
745.86	27959.52
746.199	27872.97
746.538	27864.15
746.877	27809.24
747.216	27828
747.556	27783.7
747.895	27664.84
748.234	27621.67
748.573	27549.36
748.911	27446.99
749.25	27505.07
749.589	27468.01
749.928	27423.94
750.267	27459.19
750.605	27212.19
750.944	27323.15
751.283	27180.56
751.621	27350.72
751.96	27173.33
752.298	27057.62
752.636	27018.07
752.975	26988.7
753.313	26924.07
753.651	27015.14
753.989	26960.22
754.327	26863.95
754.666	26743.28
755.004	26775.6
755.342	26830.51
755.679	26733.79
756.017	26581.48
756.355	26580.8
756.693	26455.15
757.031	26559.1
757.368	26382.39
757.706	26347.36
758.044	26327.25
758.381	26307.36
758.719	26183.75
759.056	26177.42
759.394	26245.67
