Data from hue_170_FLMS001491_00062.txt Node
Date: Tue Feb 07 16:49:01 GMT 2017
User: dcchb
Spectrometer: FLMS00149
Trigger mode: 0
Integration Time (sec): 2.000000E-2
Scans to average: 10
Electric dark correction enabled: true
Nonlinearity correction enabled: false
Boxcar width: 0
XAxis mode: Wavelengths
Number of Pixels in Spectrum: 2048
>>>>>Begin Spectral Data<<<<<
341.393	-30.66
341.776	-30.66
342.16	-30.66
342.543	-51.68
342.927	-59.36
343.31	-81.28
343.693	-63.43
344.077	-71.11
344.46	-65.92
344.843	-67.72
345.226	-32.92
345.61	-36.99
345.993	-17.78
346.376	12.5
346.759	-2.87
347.142	37.81
347.525	53.18
347.908	59.73
348.291	62.44
348.674	99.28
349.057	115.1
349.44	112.61
349.823	149.45
350.206	158.94
350.588	188.99
350.971	189.67
351.354	215.66
351.737	222.44
352.119	249.1
352.502	253.17
352.884	279.84
353.267	263.34
353.65	296.33
354.032	320.97
354.414	312.15
354.797	316.22
355.179	304.92
355.562	315.54
355.944	314.64
356.326	333.4
356.709	319.38
357.091	338.59
357.473	324.36
357.855	336.33
358.238	319.61
358.62	322.77
359.002	316.45
359.384	342.21
359.766	324.81
360.148	332.27
360.53	336.56
360.912	331.36
361.294	335.88
361.676	332.49
362.057	322.1
362.439	328.2
362.821	320.06
363.203	344.02
363.584	325.71
363.966	324.81
364.348	352.38
364.729	339.95
365.111	337.46
365.493	329.55
365.874	347.63
366.256	317.58
366.637	320.06
367.019	318.03
367.4	307.86
367.781	304.24
368.163	330.68
368.544	320.06
368.925	319.38
369.306	310.8
369.688	294.75
370.069	313.73
370.45	304.47
370.831	300.18
371.212	323.9
371.593	303.11
371.974	296.79
372.355	304.02
372.736	337.46
373.117	310.8
373.498	303.34
373.879	308.09
374.26	311.02
374.641	298.37
375.021	306.05
375.402	300.4
375.783	316.22
376.163	316.45
376.544	315.99
376.925	333.17
377.305	322.1
377.686	320.06
378.066	325.49
378.447	328.42
378.827	313.28
379.208	327.75
379.588	327.07
379.968	343.11
380.349	329.78
380.729	340.85
381.109	342.66
381.489	333.62
381.87	328.42
382.25	330.46
382.63	342.43
383.01	370.68
383.39	336.11
383.77	328.42
384.15	315.32
384.53	365.26
384.91	327.97
385.29	349.67
385.67	361.87
386.049	357.12
386.429	339.04
386.809	335.88
387.189	347.63
387.568	371.59
387.948	353.51
388.328	345.82
388.707	370.46
389.087	365.94
389.466	361.64
389.846	366.84
390.225	363.22
390.605	368.42
390.984	379.04
391.363	381.76
391.743	364.13
392.122	369.33
392.501	375.88
392.881	371.36
393.26	369.33
393.639	387.86
394.018	377.24
394.397	373.62
394.776	388.99
395.155	378.59
395.534	406.39
395.913	379.72
396.292	379.72
396.671	385.15
397.05	392.6
397.429	397.12
397.808	401.42
398.186	391.92
398.565	405.03
398.944	377.91
399.323	401.42
399.701	404.58
400.08	401.19
400.458	402.09
400.837	396.9
401.215	416.78
401.594	407.29
401.972	417.46
402.351	413.17
402.729	415.65
403.107	426.5
403.486	427.63
403.864	435.09
404.242	429.66
404.62	426.95
404.999	443.45
405.377	450.45
405.755	463.56
406.133	443.9
406.511	433.28
406.889	460.4
407.267	462.43
407.645	459.27
408.023	461.53
408.401	438.25
408.779	477.57
409.156	487.74
409.534	482.54
409.912	485.71
410.29	487.06
410.667	492.71
411.045	473.5
411.422	524.8
411.8	501.75
412.178	511.7
412.555	520.73
412.933	516.44
413.31	530.45
413.687	549.21
414.065	557.8
414.442	541.53
414.819	560.06
415.197	571.81
415.574	558.7
415.951	569.32
416.328	578.36
416.705	585.59
417.082	570.68
417.46	575.87
417.837	608.42
418.214	591.69
418.591	584.24
418.967	606.83
419.344	617
419.721	620.85
420.098	640.96
420.475	628.08
420.852	632.82
421.228	633.05
421.605	637.57
421.982	674.86
422.358	682.76
422.735	674.18
423.111	686.61
423.488	694.29
423.864	680.73
424.241	700.84
424.617	717.57
424.994	713.05
425.37	716.44
425.746	736.1
426.123	738.81
426.499	737.45
426.875	738.36
427.251	751.46
427.627	789.65
428.003	786.04
428.379	784.46
428.756	771.8
429.132	815.64
429.507	817.9
429.883	833.5
430.259	846.6
430.635	837.11
431.011	831.69
431.387	852.93
431.763	850.9
432.138	856.32
432.514	849.54
432.89	890.67
433.265	909.2
433.641	917.33
434.016	935.19
434.392	936.09
434.767	948.97
435.143	937
435.518	969.99
435.894	987.39
436.269	1022.64
436.644	998.46
437.02	1008.18
437.395	1072.36
437.77	1042.3
438.145	1050.66
438.52	1089.53
438.895	1062.42
439.271	1072.58
439.646	1100.61
440.021	1099.02
440.395	1110.78
440.77	1128.85
441.145	1133.6
441.52	1165.69
441.895	1170.66
442.27	1185.35
442.645	1169.53
443.019	1182.86
443.394	1211.34
443.769	1206.37
444.143	1224.9
444.518	1245.91
444.892	1238.46
445.267	1215.41
445.641	1265.57
446.016	1262.41
446.39	1295.4
446.764	1291.34
447.139	1306.02
447.513	1300.15
447.887	1305.57
448.262	1294.5
448.636	1319.13
449.01	1338.57
449.384	1348.06
449.758	1385.12
450.132	1365.23
450.506	1396.87
450.88	1441.16
451.254	1430.54
451.628	1444.33
452.002	1424.44
452.376	1421.05
452.75	1470.09
453.123	1492.46
453.497	1490.2
453.871	1537.43
454.244	1540.37
454.618	1553.93
454.992	1586.47
455.365	1571.78
455.739	1626.92
456.112	1639.12
456.486	1620.14
456.859	1663.3
457.232	1693.59
457.606	1726.35
457.979	1739.23
458.352	1741.04
458.725	1769.97
459.099	1792.57
459.472	1849.29
459.845	1860.36
460.218	1858.55
460.591	1886.57
460.964	1906.01
461.337	1935.61
461.71	1974.26
462.083	2029.85
462.456	2006.35
462.829	2019.45
463.201	2062.62
463.574	2094.7
463.947	2124.99
464.32	2158.43
464.692	2167.7
465.065	2175.15
465.438	2243.4
465.81	2287.47
466.183	2303.74
466.555	2343.51
466.928	2368.14
467.3	2410.4
467.672	2426.9
468.045	2499.44
468.417	2537.41
468.789	2534.92
469.161	2585.77
469.534	2608.14
469.906	2697.85
470.278	2741.24
470.65	2797.96
471.022	2795.48
471.394	2882.03
471.766	2918.19
472.138	2983.72
472.51	3016.94
472.882	3120.67
473.253	3117.28
473.625	3247.89
473.997	3336.03
474.369	3344.39
474.74	3379.64
475.112	3448.34
475.484	3545.74
475.855	3603.37
476.227	3664.83
476.598	3779.41
476.97	3888.33
477.341	3946.18
477.713	4006.97
478.084	4076.57
478.455	4198.83
478.827	4249
479.198	4429.78
479.569	4413.74
479.94	4617.35
480.311	4641.98
480.682	4765.37
481.053	4933.73
481.424	5080.39
481.795	5093.72
482.166	5237.22
482.537	5321.74
482.908	5436.54
483.279	5591.11
483.65	5681.96
484.021	5830.43
484.391	5944.32
484.762	6055.05
485.133	6100.48
485.503	6203.52
485.874	6474.7
486.244	6505.89
486.615	6642.61
486.985	6807.8
487.356	6939.32
487.726	7088.02
488.097	7243.72
488.467	7306.77
488.837	7507.22
489.207	7622.02
489.578	7745.4
489.948	7920.99
490.318	8041.67
490.688	8133.19
491.058	8323.24
491.428	8428.32
491.798	8584.7
492.168	8783.34
492.538	8834.87
492.908	8997.57
493.278	9096.1
493.648	9217.68
494.017	9370.9
494.387	9426.26
494.757	9526.83
495.126	9687.5
495.496	9765.69
495.866	9815.18
496.235	10029.41
496.605	10098.79
496.974	10245
497.344	10300.36
497.713	10365.22
498.082	10483.18
498.452	10577.19
498.821	10629.85
499.19	10722.95
499.559	10870.52
499.928	10922.72
500.298	10963.85
500.667	11150.29
501.036	11049.05
501.405	11207.46
501.774	11270.28
502.143	11381.01
502.512	11469.83
502.88	11510.28
503.249	11546.66
503.618	11677.05
503.987	11736.26
504.356	11717.95
504.724	11843.83
505.093	11838.4
505.462	11991.85
505.83	12020.77
506.199	12032.75
506.567	12293.31
506.936	12202.01
507.304	12339.41
507.672	12349.12
508.041	12355.45
508.409	12440.42
508.777	12599.51
509.145	12688.78
509.514	12630.7
509.882	12723.13
510.25	12751.6
510.618	12733.52
510.986	12821.43
511.354	12889
511.722	12963.57
512.09	13089.44
512.458	13050.12
512.826	13123.34
513.193	13225.94
513.561	13214.19
513.929	13293.05
514.297	13313.62
514.664	13367.85
515.032	13441.07
515.4	13391.58
515.767	13527.62
516.135	13478.36
516.502	13371.24
516.869	13644.91
517.237	13634.29
517.604	13552.71
517.972	13683.1
518.339	13704.57
518.706	13601.75
519.073	13782.53
519.44	13727.17
519.808	13875.86
520.175	13841.06
520.542	13955.18
520.909	13983.66
521.276	13897.11
521.643	14009.19
522.009	14058.68
522.376	14020.04
522.743	14135.74
523.11	14192.92
523.477	14235.85
523.843	14231.79
524.21	14356.98
524.577	14388.39
524.943	14458.22
525.31	14360.37
525.676	14514.27
526.043	14453.7
526.409	14585.68
526.776	14621.38
527.142	14606.69
527.508	14604.43
527.874	14575.73
528.241	14622.74
528.607	14654.37
528.973	14735.73
529.339	14597.65
529.705	14568.05
530.071	14681.72
530.437	14754.94
530.803	14707.03
531.169	14750.87
531.535	14700.48
531.901	14686.01
532.267	14679.01
532.632	14653.47
532.998	14600.36
533.364	14693.7
533.73	14693.24
534.095	14740.47
534.461	14664.32
534.826	14636.52
535.192	14619.57
535.557	14774.15
535.923	14540.25
536.288	14562.63
536.653	14514.27
537.019	14490.09
537.384	14493.93
537.749	14511.78
538.114	14488.05
538.479	14391.1
538.845	14398.11
539.21	14380.71
539.575	14350.65
539.94	14268.4
540.305	14395.62
540.67	14218
541.034	14267.94
541.399	14302.75
541.764	14132.13
542.129	14113.15
542.494	14143.88
542.858	14123.32
543.223	14006.71
543.587	14055.29
543.952	14004.67
544.316	13905.69
544.681	13906.15
545.045	13853.72
545.41	13914.28
545.774	13818.24
546.138	13790.22
546.503	13734.17
546.867	13672.71
547.231	13784.79
547.595	13688.07
547.959	13663.89
548.324	13587.06
548.688	13530.34
549.052	13492.6
549.416	13507.29
549.779	13473.61
550.143	13464.8
550.507	13469.77
550.871	13395.65
551.235	13314.3
551.599	13362.43
551.962	13263.68
552.326	13231.14
552.689	13244.92
553.053	13187.52
553.417	13085.83
553.78	13192.27
554.143	13216.67
554.507	13123.57
554.87	13133.28
555.234	13202.44
555.597	13134.19
555.96	13069.78
556.323	13145.71
556.686	13015.77
557.05	13120.18
557.413	13144.36
557.776	13005.15
558.139	13013.74
558.502	13006.73
558.865	12965.83
559.228	13052.83
559.59	12965.38
559.953	13063.68
560.316	13099.39
560.679	12971.48
561.041	13032.27
561.404	13063.91
561.767	13042.21
562.129	13008.77
562.492	13060.29
562.854	13018.71
563.217	12983.46
563.579	13012.38
563.941	13035.43
564.304	13053.06
564.666	13073.17
565.028	13016
565.39	13095.77
565.753	13126.28
566.115	13066.17
566.477	13114.53
566.839	13063.23
567.201	13107.75
567.563	13139.39
567.925	13078.37
568.287	13177.13
568.648	13079.73
569.01	13141.65
569.372	13264.58
569.734	13193.17
570.095	13234.07
570.457	13225.94
570.819	13282.43
571.18	13119.27
571.542	13274.3
571.903	13183.45
572.265	13306.84
572.626	13230.23
572.987	13259.38
573.349	13399.72
573.71	13356.33
574.071	13322.21
574.432	13334.64
574.794	13378.02
575.155	13306.39
575.516	13264.81
575.877	13337.35
576.238	13345.93
576.599	13374.18
576.96	13300.51
577.32	13362.21
577.681	13364.24
578.042	13313.84
578.403	13346.84
578.763	13291.25
579.124	13366.5
579.485	13453.28
579.845	13408.53
580.206	13385.93
580.566	13312.49
580.927	13427.97
581.287	13406.95
581.648	13363.79
582.008	13414.86
582.368	13263.9
582.728	13344.8
583.089	13338.48
583.449	13313.84
583.809	13321.75
584.169	13327.4
584.529	13328.53
584.889	13329.66
585.249	13289.21
585.609	13204.7
585.969	13289.89
586.329	13270.68
586.688	13191.36
587.048	13300.74
587.408	13286.73
587.768	13267.29
588.127	13197.92
588.487	13161.08
588.846	13224.13
589.206	13157.46
589.565	13113.17
589.925	13206.5
590.284	13168.31
590.643	13166.28
591.003	13164.47
591.362	13204.02
591.721	13102.55
592.08	13164.7
592.44	13168.76
592.799	13078.37
593.158	13130.35
593.517	13085.38
593.876	13003.57
594.235	13025.26
594.593	13037.69
594.952	13024.81
595.311	12995.21
595.67	13061.42
596.029	13070.24
596.387	13048.77
596.746	13045.83
597.104	13060.29
597.463	13008.09
597.822	13020.75
598.18	12985.49
598.538	12937.81
598.897	13028.88
599.255	12940.75
599.613	13059.16
599.972	13008.77
600.33	13075.43
600.688	12969.9
601.046	12972.84
601.404	13002.89
601.762	13067.52
602.12	13048.54
602.478	13060.29
602.836	12991.37
603.194	12978.49
603.552	12994.31
603.91	12942.33
604.268	13025.49
604.625	12866.85
604.983	13028.43
605.341	12894.19
605.698	13029.56
606.056	13014.64
606.413	12985.27
606.771	12936.23
607.128	13068.65
607.485	12945.49
607.843	12971.25
608.2	13050.12
608.557	13098.71
608.914	13057.13
609.272	13086.05
609.629	13054.19
609.986	13088.77
610.343	12987.75
610.7	13093.29
611.057	13097.58
611.414	13145.04
611.771	13051.25
612.127	13173.06
612.484	13201.08
612.841	13175.09
613.198	13066.62
613.554	13208.76
613.911	13191.36
614.267	13265.48
614.624	13183.68
614.98	13109.56
615.337	13236.78
615.693	13278.59
616.05	13247.18
616.406	13250.8
616.762	13261.19
617.118	13239.72
617.475	13213.06
617.831	13328.08
618.187	13209.44
618.543	13316.56
618.899	13385.71
619.255	13314.97
619.611	13315.88
619.967	13362.43
620.323	13386.39
620.678	13352.94
621.034	13284.02
621.39	13362.88
621.746	13258.93
622.101	13442.43
622.457	13345.48
622.812	13306.84
623.168	13386.61
623.523	13292.83
623.879	13401.98
624.234	13322.66
624.589	13345.93
624.945	13349.55
625.3	13346.84
625.655	13396.78
626.01	13282.89
626.365	13246.73
626.72	13331.02
627.075	13395.65
627.43	13206.28
627.785	13249.67
628.14	13208.31
628.495	13315.43
628.85	13254.19
629.205	13257.12
629.559	13265.71
629.914	13316.1
630.269	13274.07
630.623	13230.01
630.978	13176
631.332	13298.03
631.687	13192.72
632.041	13192.27
632.396	13232.04
632.75	13136
633.104	13107.75
633.459	13154.3
633.813	13136.22
634.167	13092.38
634.521	13022.33
634.875	13063.46
635.229	13115.43
635.583	13033.4
635.937	13051.7
636.291	13016
636.645	12985.94
636.999	12844.48
637.352	12959.73
637.706	12872.5
638.06	12936.45
638.413	12867.53
638.767	12882.9
639.121	12933.52
639.474	12856
639.828	12806.97
640.181	12801.54
640.534	12820.3
640.888	12781.66
641.241	12767.19
641.594	12827.53
641.947	12777.59
642.301	12738.72
642.654	12805.16
643.007	12745.05
643.36	12833.41
643.713	12786.63
644.066	12764.03
644.419	12624.82
644.771	12598.84
645.124	12526.52
645.477	12504.15
645.83	12423.92
646.182	12294.89
646.535	12346.86
646.888	12268
647.24	12125.63
647.593	12296.7
647.945	12343.7
648.298	12256.47
648.65	12242.91
649.002	12175.12
649.355	12240.2
649.707	12239.3
650.059	12361.78
650.411	12489.01
650.763	12464.38
651.115	12559.51
651.467	12538.5
651.819	12549.8
652.171	12617.37
652.523	12425.28
652.875	12567.2
653.227	12477.48
653.578	12591.38
653.93	12617.82
654.282	12594.54
654.633	12505.05
654.985	12544.6
655.337	12584.15
655.688	12517.03
656.039	12602
656.391	12440.87
656.742	12502.34
657.094	12446.3
657.445	12617.59
657.796	12522.68
658.147	12509.8
658.498	12480.19
658.849	12595.67
659.2	12517.03
659.551	12504.6
659.902	12528.55
660.253	12532.4
660.604	12515.67
660.955	12575.33
661.306	12509.8
661.656	12542.57
662.007	12532.17
662.358	12616.24
662.708	12513.64
663.059	12592.28
663.409	12485.84
663.76	12567.42
664.11	12564.26
664.461	12623.69
664.811	12644.03
665.161	12571.94
665.511	12581.89
665.862	12602
666.212	12744.14
666.562	12648.1
666.912	12647.42
667.262	12579.17
667.612	12644.48
667.962	12659.62
668.312	12639.06
668.662	12689.68
669.011	12635.22
669.361	12662.56
669.711	12583.92
670.06	12606.07
670.41	12573.75
670.76	12599.06
671.109	12588.89
671.459	12552.51
671.808	12573.75
672.157	12565.62
672.507	12477.71
672.856	12447.65
673.205	12562.23
673.554	12562
673.904	12464.38
674.253	12515.67
674.602	12505.28
674.951	12308
675.3	12270.48
675.649	12428.67
675.998	12352.51
676.346	12346.86
676.695	12446.75
677.044	12309.8
677.393	12360.42
677.741	12368.33
678.09	12381.89
678.438	12275.23
678.787	12313.42
679.135	12382.12
679.484	12212.18
679.832	12340.76
680.181	12239.97
680.529	12327.88
680.877	12185.74
681.225	12164.04
681.573	12248.79
681.922	12157.04
682.27	12076.82
682.618	12147.1
682.966	12104.84
683.314	12028
683.661	12042.92
684.009	11971.28
684.357	11924.73
684.705	11947.55
685.053	11870.49
685.4	11964.73
685.748	11787.56
686.095	11857.16
686.443	11750.95
686.79	11784.85
687.138	11752.3
687.485	11791.62
687.832	11758.63
688.18	11717.73
688.527	11651.74
688.874	11618.3
689.221	11592.08
689.568	11561.12
689.915	11518.41
690.262	11529.26
690.609	11509.6
690.956	11440.67
691.303	11439.09
691.65	11348.25
691.997	11335.14
692.344	11315.93
692.69	11280.68
693.037	11224.86
693.383	11098.54
693.73	11161.59
694.077	11055.15
694.423	11084.52
694.769	11018.99
695.116	10989.61
695.462	10970.63
695.808	10912.1
696.155	10947.35
696.501	10850.18
696.847	10803.85
697.193	10768.38
697.539	10736.06
697.885	10766.34
698.231	10605.89
698.577	10695.38
698.923	10639.56
699.269	10555.27
699.614	10513.92
699.96	10485.44
700.306	10437.54
700.651	10376.75
700.997	10442.28
701.342	10344.43
701.688	10255.85
702.033	10275.96
702.379	10271.66
702.724	10176.98
703.069	10275.05
703.415	10126.13
703.76	10092.69
704.105	10101.27
704.45	10111.22
704.795	9994.84
705.14	9959.81
705.485	9974.95
705.83	9913.26
706.175	9926.14
706.52	9866.7
706.865	9833.03
707.209	9759.59
707.554	9776.99
707.899	9705.35
708.243	9695.41
708.588	9598.69
708.932	9612.47
709.277	9609.54
709.621	9565.47
709.966	9493.61
710.31	9514.17
710.654	9450.67
710.998	9518.92
711.342	9499.71
711.687	9400.28
712.031	9439.37
712.375	9343.33
712.719	9378.81
713.063	9368.64
713.407	9332.48
713.75	9267.4
714.094	9290
714.438	9295.87
714.782	9227.62
715.125	9246.61
715.469	9190.11
715.812	9218.81
716.156	9210.9
716.499	9137.68
716.843	9182.65
717.186	9072.6
717.53	9151.92
717.873	9155.99
718.216	9104.92
718.559	8987.4
718.902	9028.99
719.246	9048.65
719.589	8978.82
719.932	9000.51
720.275	9037.35
720.617	8988.53
720.96	8907.41
721.303	8970
721.646	8991.47
721.989	8848.65
722.331	8937.24
722.674	8917.35
723.016	8906.05
723.359	8897.69
723.701	8885.71
724.044	8899.72
724.386	8788.09
724.729	8878.03
725.071	8861.98
725.413	8839.16
725.755	8845.26
726.097	8802.55
726.439	8777.24
726.782	8765.72
727.124	8828.31
727.465	8794.42
727.807	8787.18
728.149	8786.96
728.491	8706.73
728.833	8773.63
729.175	8771.59
729.516	8777.69
729.858	8737.24
730.199	8711.25
730.541	8743.34
730.882	8756.68
731.224	8741.08
731.565	8683.23
731.906	8762.1
732.248	8784.02
732.589	8681.2
732.93	8701.76
733.271	8671.26
733.612	8718.71
733.953	8741.99
734.294	8747.41
734.635	8707.19
734.976	8733.85
735.317	8707.41
735.658	8728.65
735.999	8726.17
736.339	8650.24
736.68	8776.79
737.021	8751.03
737.361	8801.42
737.702	8724.59
738.042	8851.82
738.383	8801.2
738.723	8722.55
739.063	8721.65
739.404	8809.78
739.744	8824.25
740.084	8839.39
740.424	8782.89
740.764	8793.74
741.104	8848.65
741.444	8879.39
741.784	8867.86
742.124	8855.21
742.464	8841.87
742.804	8866.5
743.143	8879.16
743.483	8951.7
743.823	8932.94
744.162	8960.96
744.502	9031.25
744.841	9045.48
745.181	9070.79
745.52	9062.43
745.86	9069.89
746.199	9167.51
746.538	9278.02
746.877	9293.39
747.216	9297
747.556	9341.52
747.895	9422.87
748.234	9499.26
748.573	9498.35
748.911	9559.37
749.25	9612.47
749.589	9660.61
749.928	9748.06
750.267	9838.46
750.605	9867.38
750.944	9961.39
751.283	10011.11
751.621	10107.38
751.96	10139.47
752.298	10289.07
752.636	10348.27
752.975	10492.45
753.313	10546.69
753.651	10632.56
753.989	10746.45
754.327	10877.3
754.666	10890.86
755.004	11028.26
755.342	11289.49
755.679	11345.99
756.017	11432.09
756.355	11617.39
756.693	11674.57
757.031	11969.47
757.368	11990.49
757.706	12179.64
758.044	12324.94
758.381	12424.6
