Data from hue_30_FLMS001491_69.txt Node
Date: Mon Feb 06 15:05:46 GMT 2017
User: dcchb
Spectrometer: FLMS00149
Trigger mode: 0
Integration Time (sec): 2.000000E-2
Scans to average: 10
Electric dark correction enabled: true
Nonlinearity correction enabled: false
Boxcar width: 0
XAxis mode: Wavelengths
Number of Pixels in Spectrum: 2048
>>>>>Begin Spectral Data<<<<<
341.393	-19.38
341.776	-19.38
342.16	-19.38
342.543	-53.5
342.927	-65.93
343.31	-82.43
343.693	-60.51
344.077	-75.2
344.46	-62.31
344.843	-55.76
345.226	-31.36
345.61	-27.06
345.993	-27.29
346.376	-4.46
346.759	-6.95
347.142	26.27
347.525	48.64
347.908	64.46
348.291	75.76
348.674	94.97
349.057	123.22
349.44	112.14
349.823	150.11
350.206	160.28
350.588	182.2
350.971	197.79
351.354	228.75
351.737	231.46
352.119	236.21
352.502	232.59
352.884	266.04
353.267	286.83
353.65	295.19
354.032	307.39
354.414	314.62
354.797	305.36
355.179	312.14
355.562	312.14
355.944	322.08
356.326	329.09
356.709	335.19
357.091	345.58
357.473	334.51
357.855	336.09
358.238	338.58
358.62	354.85
359.002	341.29
359.384	325.25
359.766	320.27
360.148	342.65
360.53	334.06
360.912	345.58
361.294	334.74
361.676	349.43
362.057	336.09
362.439	336.54
362.821	323.44
363.203	340.16
363.584	335.19
363.966	328.86
364.348	319.14
364.729	320.27
365.111	316.88
365.493	322.31
365.874	342.19
366.256	315.08
366.637	316.66
367.019	326.38
367.4	330.67
367.781	331.12
368.163	306.26
368.544	314.62
368.925	320.73
369.306	339.48
369.688	312.14
370.069	314.62
370.45	299.71
370.831	288.86
371.212	313.04
371.593	315.53
371.974	318.24
372.355	283.89
372.736	318.47
373.117	314.17
373.498	311.69
373.879	330.9
374.26	322.53
374.641	309.2
375.021	325.25
375.402	314.62
375.783	318.01
376.163	309.2
376.544	332.03
376.925	319.82
377.305	323.21
377.686	327.51
378.066	319.37
378.447	328.86
378.827	318.24
379.208	339.71
379.588	330.22
379.968	348.52
380.349	329.09
380.729	337
381.109	341.06
381.489	354.85
381.87	328.41
382.25	331.57
382.63	337.45
383.01	345.13
383.39	323.44
383.77	318.47
384.15	357.34
384.53	356.43
384.91	334.28
385.29	361.63
385.67	346.26
386.049	365.7
386.429	351.23
386.809	365.92
387.189	374.96
387.568	356.21
387.948	367.96
388.328	373.38
388.707	355.08
389.087	357.56
389.466	348.3
389.846	362.98
390.225	381.06
390.605	354.4
390.984	358.24
391.363	372.93
391.743	365.24
392.122	377.9
392.501	363.89
392.881	385.58
393.26	373.83
393.639	394.4
394.018	396.66
394.397	365.47
394.776	380.16
395.155	389.42
395.534	370.89
395.913	372.02
396.292	400.27
396.671	400.72
397.05	403.89
397.429	378.35
397.808	403.44
398.186	377.22
398.565	409.99
398.944	385.36
399.323	420.61
399.701	402.31
400.08	407.28
400.458	413.83
400.837	407.28
401.215	414.96
401.594	420.38
401.972	418.35
402.351	401.63
402.729	418.35
403.107	429.2
403.486	424.45
403.864	422.19
404.242	406.83
404.62	436.66
404.999	425.81
405.377	416.09
405.755	435.98
406.133	424.45
406.511	448.86
406.889	433.49
407.267	406.83
407.645	435.3
408.023	460.16
408.401	449.99
408.779	454.73
409.156	462.87
409.534	462.42
409.912	476.65
410.29	457.22
410.667	447.73
411.045	468.52
411.422	471
411.8	462.19
412.178	468.97
412.555	470.78
412.933	472.36
413.31	485.47
413.687	493.83
414.065	499.25
414.442	498.57
414.819	478.01
415.197	488.41
415.574	503.55
415.951	504.45
416.328	510.33
416.705	494.28
417.082	522.98
417.46	502.64
417.837	523.21
418.214	539.03
418.591	489.31
418.967	510.55
419.344	534.28
419.721	547.16
420.098	542.87
420.475	555.07
420.852	534.51
421.228	553.94
421.605	537.22
421.982	556.88
422.358	550.32
422.735	565.47
423.111	542.87
423.488	552.81
423.864	567.73
424.241	570.21
424.617	566.14
424.994	586.93
425.37	587.61
425.746	585.8
426.123	571.79
426.499	567.95
426.875	604.11
427.251	586.26
427.627	583.77
428.003	605.24
428.379	626.25
428.756	629.19
429.132	618.35
429.507	642.07
429.883	630.77
430.259	640.27
430.635	625.58
431.011	633.94
431.387	653.15
431.763	647.95
432.138	653.6
432.514	669.64
432.89	678.68
433.265	687.27
433.641	689.53
434.016	692.24
434.392	697.21
434.767	706.7
435.143	699.47
435.518	708.29
435.894	720.49
436.269	733.82
436.644	730.21
437.02	747.38
437.395	742.64
437.77	753.93
438.145	746.93
438.52	777.66
438.895	748.74
439.271	758.91
439.646	769.98
440.021	780.37
440.395	775.86
440.77	783.54
441.145	807.72
441.52	802.97
441.895	805.01
442.27	808.17
442.645	801.39
443.019	818.11
443.394	801.39
443.769	813.37
444.143	832.35
444.518	834.38
444.892	828.74
445.267	822.86
445.641	843.2
446.016	868.06
446.39	838.9
446.764	859.92
447.139	880.26
447.513	863.08
447.887	875.06
448.262	875.97
448.636	862.63
449.01	871.45
449.384	905.12
449.758	897.66
450.132	890.65
450.506	910.32
450.88	929.52
451.254	894.5
451.628	925.23
452.002	950.77
452.376	958
452.75	951.9
453.123	932.91
453.497	980.82
453.871	957.09
454.244	974.95
454.618	986.02
454.992	1017.88
455.365	977.21
455.739	1022.18
456.112	1036.64
456.486	1060.14
456.859	1057.2
457.232	1048.62
457.606	1047.03
457.979	1097.65
458.352	1111.67
458.725	1091.78
459.099	1089.97
459.472	1135.17
459.845	1147.14
460.218	1154.38
460.591	1127.03
460.964	1141.27
461.337	1166.81
461.71	1168.61
462.083	1208.39
462.456	1197.77
462.829	1216.52
463.201	1244.54
463.574	1250.19
463.947	1255.16
464.32	1289.29
464.692	1287.93
465.065	1326.35
465.438	1327.71
465.81	1335.61
466.183	1346.69
466.555	1403.18
466.928	1403.86
467.3	1380.36
467.672	1421.04
468.045	1443.86
468.417	1441.6
468.789	1447.7
469.161	1456.74
469.534	1524.31
469.906	1553.01
470.278	1579
470.65	1569.96
471.022	1592.33
471.394	1643.4
471.766	1646.11
472.138	1658.09
472.51	1692.67
472.882	1730.86
473.253	1753
473.625	1780.35
473.997	1815.83
474.369	1799.33
474.74	1832.32
475.112	1892.89
475.484	1908.48
475.855	1964.52
476.227	1970.4
476.598	2016.95
476.97	2054.69
477.341	2084.75
477.713	2131.53
478.084	2141.92
478.455	2226.21
478.827	2245.87
479.198	2307.79
479.569	2354.57
479.94	2403.84
480.311	2440.9
480.682	2505.3
481.053	2514.57
481.424	2616.48
481.795	2686.99
482.166	2726.31
482.537	2765.86
482.908	2817.16
483.279	2877.95
483.65	2911.39
484.021	2980.09
484.391	3038.85
484.762	3103.25
485.133	3134.21
485.503	3185.06
485.874	3258.5
486.244	3346.86
486.615	3419.18
486.985	3468.44
487.356	3514.54
487.726	3569.23
488.097	3673.41
488.467	3687.87
488.837	3769.67
489.207	3867.07
489.578	3919.28
489.948	3940.74
490.318	4037.69
490.688	4079.27
491.058	4159.5
491.428	4218.02
491.798	4290.57
492.168	4397.45
492.538	4401.3
492.908	4485.14
493.278	4555.87
493.648	4614.4
494.017	4650.56
494.387	4730.1
494.757	4754.28
495.126	4855.3
495.496	4895.3
495.866	4918.8
496.235	5025.24
496.605	5084.89
496.974	5112.01
497.344	5146.36
497.713	5232.91
498.082	5271.56
498.452	5347.49
498.821	5378.45
499.19	5386.13
499.559	5498.67
499.928	5475.39
500.298	5586.58
500.667	5653.02
501.036	5598.33
501.405	5719.45
501.774	5743.86
502.143	5761.26
502.512	5813.01
502.88	5863.63
503.249	5914.48
503.618	5959.9
503.987	6034.25
504.356	6026.11
504.724	6108.6
505.093	6096.39
505.462	6149.05
505.83	6213.9
506.199	6230.85
506.567	6329.83
506.936	6333.9
507.304	6379.32
507.672	6420.9
508.041	6460.23
508.409	6503.16
508.777	6539.32
509.145	6574.8
509.514	6642.14
509.882	6645.76
510.25	6619.32
510.618	6760.1
510.986	6765.08
511.354	6825.19
511.722	6875.81
512.09	6953.77
512.458	6964.39
512.826	7007.33
513.193	7000.32
513.561	7024.5
513.929	7010.49
514.297	7121
514.664	7144.73
515.032	7168.46
515.4	7251.17
515.767	7268.79
516.135	7289.13
516.502	7269.47
516.869	7386.08
517.237	7384.04
517.604	7419.3
517.972	7427.88
518.339	7456.81
518.706	7507.2
519.073	7535.68
519.44	7611.38
519.808	7633.75
520.175	7684.6
520.542	7750.81
520.909	7794.65
521.276	7786.97
521.643	7827.65
522.009	7870.58
522.376	7880.98
522.743	7969.56
523.11	7986.06
523.477	8079.39
523.843	8116.23
524.21	8210.46
524.577	8198.48
524.943	8245.49
525.31	8330.68
525.676	8328.2
526.043	8418.59
526.409	8436.44
526.776	8516.67
527.142	8558.25
527.508	8558.93
527.874	8675.99
528.241	8675.31
528.607	8753.95
528.973	8852.25
529.339	8772.48
529.705	8924.12
530.071	8945.36
530.437	8930.44
530.803	8978.35
531.169	9046.82
531.535	9026.71
531.901	9111.46
532.267	9098.8
532.632	9182.87
532.998	9292.47
533.364	9315.07
533.73	9301.51
534.095	9395.52
534.461	9433.93
534.826	9496.3
535.192	9483.2
535.557	9582.63
535.923	9599.13
536.288	9612.46
536.653	9724.77
537.019	9663.53
537.384	9742.63
537.749	9760.93
538.114	9773.81
538.479	9752.79
538.845	9917.54
539.21	9838.67
539.575	9934.26
539.94	9923.64
540.305	10054.03
540.67	9994.14
541.034	10165.89
541.399	10148.26
541.764	10199.34
542.129	10211.31
542.494	10235.27
542.858	10319.33
543.223	10327.92
543.587	10416.51
543.952	10349.84
544.316	10400.69
544.681	10392.78
545.045	10498.54
545.41	10581.93
545.774	10600.91
546.138	10677.74
546.503	10730.4
546.867	10677.06
547.231	10801.81
547.595	10811.75
547.959	10851.07
548.324	10826.21
548.688	10959.99
549.052	10910.96
549.416	10974.91
549.779	10962.48
550.143	11058.97
550.507	11096.94
550.871	11158.86
551.235	11206.99
551.599	11260.33
551.962	11247.44
552.326	11310.49
552.689	11278.18
553.053	11333.54
553.417	11361.57
553.78	11537.61
554.143	11449.47
554.507	11572.41
554.87	11515.46
555.234	11645.63
555.597	11602.92
555.96	11627.32
556.323	11722.69
556.686	11700.54
557.05	11820.08
557.413	11784.15
557.776	11858.05
558.139	11860.31
558.502	11854.21
558.865	11947.99
559.228	12089.91
559.59	12084.94
559.953	12011.04
560.316	12248.32
560.679	12200.19
561.041	12264.82
561.404	12262.78
561.767	12335.1
562.129	12313.18
562.492	12463.68
562.854	12417.81
563.217	12436.34
563.579	12554.08
563.941	12603.34
564.304	12624.13
564.666	12688.99
565.028	12715.43
565.39	12631.14
565.753	12787.74
566.115	12889.66
566.477	12837.23
566.839	12959.72
567.201	13031.58
567.563	13008.3
567.925	13059.37
568.287	13157.9
568.648	13191.12
569.01	13267.73
569.372	13356.99
569.734	13285.81
570.095	13365.58
570.457	13396.54
570.819	13480.38
571.18	13484.67
571.542	13597.89
571.903	13719.7
572.265	13801.5
572.626	13800.6
572.987	13883.08
573.349	13929.41
573.71	14008.95
574.071	14023.42
574.432	14176.41
574.794	14271.55
575.155	14296.63
575.516	14295.95
575.877	14455.5
576.238	14538.21
576.599	14619.56
576.96	14677.64
577.32	14779.55
577.681	14856.84
578.042	14977.97
578.403	15113.56
578.763	15209.37
579.124	15297.51
579.485	15483.72
579.845	15598.97
580.206	15706.31
580.566	15861.11
580.927	16046.87
581.287	16119.41
581.648	16251.83
582.008	16456.8
582.368	16583.35
582.728	16792.84
583.089	17010.91
583.449	17092.71
583.809	17289.55
584.169	17568.18
584.529	17703.09
584.889	17959.58
585.249	18045.68
585.609	18238.67
585.969	18553.92
586.329	18694.71
586.688	18984.42
587.048	19153
587.408	19321.58
587.768	19609.48
588.127	19940.1
588.487	19981.9
588.846	20422.12
589.206	20486.75
589.565	20764.48
589.925	21140.74
590.284	21287.41
590.643	21526.72
591.003	21988.18
591.362	22216.42
591.721	22515.62
592.08	22753.36
592.44	23017.53
592.799	23240.35
593.158	23504.3
593.517	23853.89
593.876	24084.39
594.235	24386.31
594.593	24616.36
594.952	25008.44
595.311	25159.62
595.67	25489.56
596.029	25844.12
596.387	26211.34
596.746	26566.14
597.104	26651.33
597.463	26905.79
597.822	27298.77
598.18	27423.29
598.538	27665.09
598.897	28026.44
599.255	28150.95
599.613	28862.12
599.972	28777.6
600.33	29086.52
600.688	29384.82
601.046	29710.69
601.404	30062.32
601.762	30202.43
602.12	30516.09
602.478	30848.96
602.836	31087.37
603.194	31116.07
603.552	31481.71
603.91	31614.14
604.268	32041.7
604.625	32016.39
604.983	32356.27
605.341	32384.52
605.698	32829.02
606.056	33086.19
606.413	33233.53
606.771	33483.47
607.128	33724.37
607.485	33810.92
607.843	34036.22
608.2	34332.26
608.557	34642.54
608.914	34701.74
609.272	35011.57
609.629	35222.18
609.986	35514.6
610.343	35496.75
610.7	35912.78
611.057	35972.67
611.414	36325.43
611.771	36454.92
612.127	36575.37
612.484	36667.11
612.841	37014.68
613.198	37087.22
613.554	37161.11
613.911	37456.7
614.267	37483.14
614.624	37698.05
614.98	37841.77
615.337	38061.2
615.693	38191.14
616.05	38155.89
616.406	38570.79
616.762	38495.09
617.118	38648.53
617.475	38881.52
617.831	38992.7
618.187	39027.96
618.543	39293.03
618.899	39409.87
619.255	39588.39
619.611	39549.07
619.967	39848.27
620.323	39825.45
620.678	39948.16
621.034	39843.3
621.39	39979.57
621.746	40038.33
622.101	40654.35
622.457	40448.71
622.812	40407.13
623.168	40634.47
623.523	40639.44
623.879	40828.81
624.234	40628.37
624.589	40877.85
624.945	41006.89
625.3	41077.62
625.655	40963.5
626.01	41141.35
626.365	41281.46
626.72	41290.27
627.075	41293.43
627.43	41383.15
627.785	41306.99
628.14	41500.66
628.495	41578.62
628.85	41407.33
629.205	41533.88
629.559	41675.57
629.914	41472.64
630.269	41610.71
630.623	41513.54
630.978	41517.61
631.332	41758.51
631.687	41745.4
632.041	41699.53
632.396	41883.93
632.75	41688
633.104	41718.73
633.459	41641.22
633.813	41668.34
634.167	41759.41
634.521	41668.11
634.875	41888.45
635.229	41674.89
635.583	41535.24
635.937	41542.24
636.291	41520.09
636.645	41734.55
636.999	41723.03
637.352	41718.51
637.706	41535.46
638.06	41695.68
638.413	41545.4
638.767	41439.64
639.121	41631.05
639.474	41349.48
639.828	41581.56
640.181	41487.55
640.534	41539.3
640.888	41450.04
641.241	41359.87
641.594	41322.59
641.947	41556.03
642.301	41391.74
642.654	41409.59
643.007	41430.38
643.36	41389.7
643.713	41241.01
644.066	41530.94
644.419	41283.94
644.771	40974.8
645.124	40659.78
645.477	40707.46
645.83	40316.96
646.182	40247.13
646.535	40042.85
646.888	40206.46
647.24	39811.67
647.593	40344.76
647.945	40141.15
648.298	40046.46
648.65	40022.96
649.002	39999.23
649.355	40084.2
649.707	40000.13
650.059	40171.43
650.411	40594.47
650.763	40662.49
651.115	40908.13
651.467	40879.43
651.819	40887.34
652.171	40797.63
652.523	40841.02
652.875	40812.77
653.227	40604.41
653.578	40915.36
653.93	40864.07
654.282	40612.1
654.633	40556.5
654.985	40686.22
655.337	40661.13
655.688	40547.46
656.039	40835.82
656.391	40340.69
656.742	40474.02
657.094	40507.69
657.445	40707.46
657.796	40624.07
658.147	40349.73
658.498	40553.34
658.849	40647.58
659.2	40443.96
659.551	40500.46
659.902	40527.58
660.253	40637.18
660.604	40529.16
660.955	40320.58
661.306	40541.14
661.656	40304.76
662.007	40368.71
662.358	40473.12
662.708	40419.11
663.059	40272.22
663.409	40014.37
663.76	40491.65
664.11	40460.46
664.461	40375.27
664.811	40489.39
665.161	40458.88
665.511	40215.95
665.862	40400.12
666.212	40401.25
666.562	40424.76
666.912	40359
667.262	40283.29
667.612	40316.96
667.962	40490.52
668.312	40308.83
668.662	40394.93
669.011	40313.8
669.361	40227.02
669.711	40256.4
670.06	40264.53
670.41	40214.14
670.76	40085.56
671.109	40342.05
671.459	40145.67
671.808	40037.2
672.157	40207.59
672.507	40028.83
672.856	40003.3
673.205	40103.18
673.554	40167.36
673.904	40005.11
674.253	40036.52
674.602	39941.15
674.951	39427.72
675.3	39343.88
675.649	39894.15
675.998	39931.89
676.346	39882.62
676.695	40003.07
677.044	39726.47
677.393	39833.81
677.741	39871.1
678.09	39867.71
678.438	39656.87
678.787	39686.02
679.135	39726.24
679.484	39524.89
679.832	39756.98
680.181	39503.88
680.529	39535.29
680.877	39347.72
681.225	39436.08
681.573	39700.71
681.922	39380.94
682.27	39247.61
682.618	39210.1
682.966	39206.48
683.314	39260.95
683.661	39072.7
684.009	38940.05
684.357	38866.83
684.705	38834.06
685.053	38794.06
685.4	38630.91
685.748	38571.02
686.095	38555.2
686.443	38405.15
686.79	38381.42
687.138	38383.23
687.485	38408.54
687.832	38376.9
688.18	38423.45
688.527	37953.18
688.874	38136.45
689.221	38169
689.568	38051.26
689.915	37900.08
690.262	37922
690.609	37716.58
690.956	37664.38
691.303	37696.24
691.65	37556.36
691.997	37588.67
692.344	37173.32
692.69	37237.5
693.037	37251.51
693.383	36945.07
693.73	37132.41
694.077	36895.13
694.423	36919.09
694.769	36856.26
695.116	36694.01
695.462	36588.47
695.808	36465.54
696.155	36489.72
696.501	36269.84
696.847	36237.3
697.193	35890.64
697.539	36062.39
697.885	35808.15
698.231	35655.84
698.577	35735.39
698.923	35662.17
699.269	35457.43
699.614	35454.27
699.96	35422.4
700.306	35396.41
700.651	35231.67
700.997	35212.69
701.342	35101.73
701.688	35117.55
702.033	34880.27
702.379	34835.3
702.724	34713.27
703.069	34826.49
703.415	34581.52
703.76	34461.98
704.105	34546.49
704.45	34287.97
704.795	34110.12
705.14	34103.57
705.485	34092.95
705.83	34016.11
706.175	34020.18
706.52	33897.47
706.865	33792.61
707.209	33850.47
707.554	33655.44
707.899	33602.79
708.243	33621.55
708.588	33502.45
708.932	33268.33
709.277	33164.16
709.621	33231.05
709.966	32983.37
710.31	33003.26
710.654	32837.61
710.998	32753.32
711.342	32861.11
711.687	32729.82
712.031	32614.57
712.375	32569.82
712.719	32571.86
713.063	32414.8
713.407	32546.09
713.75	32364.18
714.094	32347.91
714.438	32186.1
714.782	32282.82
715.125	32159.89
715.469	32125.77
715.812	31931.19
716.156	31819.11
716.499	31892.55
716.843	31920.12
717.186	31728.26
717.53	31864.3
717.873	31824.76
718.216	31653.24
718.559	31610.52
718.902	31286.24
719.246	31517.65
719.589	31349.29
719.932	31260.93
720.275	31214.83
720.617	31214.15
720.96	31068.84
721.303	31152.46
721.646	31156.3
721.989	31029.07
722.331	31022.07
722.674	30894.61
723.016	30961.28
723.359	30755.41
723.701	30791.56
724.044	30625.24
724.386	30461.4
724.729	30623.43
725.071	30517.45
725.413	30456.66
725.755	30630.21
726.097	30371.91
726.439	30152.26
726.782	30319.26
727.124	30397
727.465	30170.56
727.807	30208.53
728.149	30136.67
728.491	29956.33
728.833	30136.21
729.175	29927.86
729.516	29865.94
729.858	29903.23
730.199	29880.4
730.541	29820.74
730.882	29719.05
731.224	29817.58
731.565	29637.02
731.906	29612.61
732.248	29642.67
732.589	29312.51
732.93	29326.07
733.271	29503.01
733.612	29392.73
733.953	29540.75
734.294	29339.4
734.635	29183.7
734.976	29245.62
735.317	29026.19
735.658	29218.27
735.999	29102.57
736.339	29103.47
736.68	29145.05
737.021	29027.54
737.361	28935.11
737.702	29013.98
738.042	28895.57
738.383	28759.75
738.723	28869.81
739.063	28643.15
739.404	28811.73
739.744	28707.55
740.084	28603.6
740.424	28633.88
740.764	28544.84
741.104	28685.18
741.444	28423.26
741.784	28368.58
742.124	28492.64
742.464	28438.63
742.804	28397.5
743.143	28357.5
743.483	28356.15
743.823	28193.67
744.162	28147.56
744.502	28226.21
744.841	27994.12
745.181	28195.47
745.52	28104.18
745.86	28090.17
746.199	27947.8
746.538	27896.5
746.877	27861.02
747.216	27874.13
747.556	27803.39
747.895	27853.56
748.234	27727.69
748.573	27730.17
748.911	27640.01
749.25	27647.69
749.589	27574.02
749.928	27567.24
750.267	27585.32
750.605	27442.05
750.944	27444.98
751.283	27226.46
751.621	27347.36
751.96	27270.07
752.298	27318.43
752.636	27172.68
752.975	27164.99
753.313	27000.7
753.651	27209.28
753.989	26905.34
754.327	26990.99
754.666	26816.53
755.004	26967.03
755.342	26851.55
755.679	26764.1
756.017	26685.46
756.355	26651.79
756.693	26636.19
757.031	26578.57
757.368	26490.21
757.706	26547.61
758.044	26320.27
758.381	26462.86
758.719	26209.54
