Data from hue_170_FLMS001491_00026.txt Node
Date: Tue Feb 07 16:48:28 GMT 2017
User: dcchb
Spectrometer: FLMS00149
Trigger mode: 0
Integration Time (sec): 2.000000E-2
Scans to average: 10
Electric dark correction enabled: true
Nonlinearity correction enabled: false
Boxcar width: 0
XAxis mode: Wavelengths
Number of Pixels in Spectrum: 2048
>>>>>Begin Spectral Data<<<<<
341.393	-0.88
341.776	-0.88
342.16	-0.88
342.543	-60.31
342.927	-72.06
343.31	-74.55
343.693	-58.5
344.077	-51.72
344.46	-48.78
344.843	-60.08
345.226	-52.4
345.61	-31.84
345.993	-44.04
346.376	5.9
346.759	4.55
347.142	24.43
347.525	24.43
347.908	80.03
348.291	78.22
348.674	98.33
349.057	106.01
349.44	123.87
349.823	139.69
350.206	186.69
350.588	192.79
350.971	200.93
351.354	222.62
351.737	235.5
352.119	253.58
352.502	264.88
352.884	281.15
353.267	271.43
353.65	283.64
354.032	300.36
354.414	296.29
354.797	306.01
355.179	306.23
355.562	334.71
355.944	324.09
356.326	315.95
356.709	320.92
357.091	335.61
357.473	355.95
357.855	334.93
358.238	367.25
358.62	341.94
359.002	361.37
359.384	341.04
359.766	344.65
360.148	331.09
360.53	323.86
360.912	331.54
361.294	338.55
361.676	331.54
362.057	334.26
362.439	316.63
362.821	314.14
363.203	326.12
363.584	325.44
363.966	329.96
364.348	317.76
364.729	307.59
365.111	317.53
365.493	306.23
365.874	329.29
366.256	312.34
366.637	322.73
367.019	321.38
367.4	329.74
367.781	308.72
368.163	320.47
368.544	324.54
368.925	304.65
369.306	306.91
369.688	309.85
370.069	313.24
370.45	320.92
370.831	322.96
371.212	314.82
371.593	301.49
371.974	323.86
372.355	321.38
372.736	332.45
373.117	304.88
373.498	326.12
373.879	330.19
374.26	338.1
374.641	324.31
375.021	341.94
375.402	310.3
375.783	345.1
376.163	301.49
376.544	322.73
376.925	301.72
377.305	331.77
377.686	336.74
378.066	327.48
378.447	324.09
378.827	322.73
379.208	336.29
379.588	345.56
379.968	321.38
380.349	344.88
380.729	325.67
381.109	334.71
381.489	329.06
381.87	322.96
382.25	332.22
382.63	350.08
383.01	332.22
383.39	336.74
383.77	363.18
384.15	329.51
384.53	344.65
384.91	330.64
385.29	356.63
385.67	363.41
386.049	369.74
386.429	349.85
386.809	361.6
387.189	362.96
387.568	350.53
387.948	331.09
388.328	380.13
388.707	353.01
389.087	356.18
389.466	374.93
389.846	352.56
390.225	371.09
390.605	361.37
390.984	357.76
391.363	361.37
391.743	364.31
392.122	363.41
392.501	403.63
392.881	371.32
393.26	386.01
393.639	362.05
394.018	368.15
394.397	360.92
394.776	368.38
395.155	398.21
395.534	377.42
395.913	392.11
396.292	392.56
396.671	390.98
397.05	378.55
397.429	396.63
397.808	379.45
398.186	395.05
398.565	391.88
398.944	397.31
399.323	385.33
399.701	401.15
400.08	398.44
400.458	386.23
400.837	398.44
401.215	410.19
401.594	417.64
401.972	423.52
402.351	426.68
402.729	419.23
403.107	420.81
403.486	430.53
403.864	401.15
404.242	440.47
404.62	422.39
404.999	468.26
405.377	431.2
405.755	447.02
406.133	446.34
406.511	444.99
406.889	479.34
407.267	462.61
407.645	450.86
408.023	447.25
408.401	443.18
408.779	477.76
409.156	459.68
409.534	472.33
409.912	474.82
410.29	457.19
410.667	468.04
411.045	490.64
411.422	485.44
411.8	498.32
412.178	498.09
412.555	524.53
412.933	489.96
413.31	515.04
413.687	533.57
414.065	527.25
414.442	538.09
414.819	532.22
415.197	525.89
415.574	548.26
415.951	520.69
416.328	535.16
416.705	562.73
417.082	582.84
417.46	577.87
417.837	575.15
418.214	583.74
418.591	583.74
418.967	583.29
419.344	604.76
419.721	604.98
420.098	602.5
420.475	606.79
420.852	610.41
421.228	606.79
421.605	654.25
421.982	615.15
422.358	632.1
422.735	629.62
423.111	634.14
423.488	649.5
423.864	691.31
424.241	665.55
424.617	664.19
424.994	694.7
425.37	684.08
425.746	698.09
426.123	707.58
426.499	712.78
426.875	722.27
427.251	727.69
427.627	727.47
428.003	748.03
428.379	731.99
428.756	757.75
429.132	731.76
429.507	756.84
429.883	793.23
430.259	793.91
430.635	775.6
431.011	813.79
431.387	814.47
431.763	802.04
432.138	828.71
432.514	833.68
432.89	855.37
433.265	876.62
433.641	861.02
434.016	873.23
434.392	888.82
434.767	892.89
435.143	871.64
435.518	910.06
435.894	927.24
436.269	937.86
436.644	946.22
437.02	975.82
437.395	972.66
437.77	984.41
438.145	985.54
438.52	1015.82
438.895	1017.18
439.271	1011.3
439.646	1034.35
440.021	1039.32
440.395	1063.05
440.77	1042.94
441.145	1065.31
441.52	1083.84
441.895	1085.88
442.27	1094.46
442.645	1101.92
443.019	1123.84
443.394	1122.94
443.769	1108.25
444.143	1134.01
444.518	1148.25
444.892	1138.98
445.267	1174.91
445.641	1168.81
446.016	1176.27
446.39	1171.3
446.764	1184.4
447.139	1177.62
447.513	1232.09
447.887	1222.14
448.262	1227.11
448.636	1227.34
449.01	1250.16
449.384	1265.31
449.758	1275.47
450.132	1271.41
450.506	1268.02
450.88	1307.56
451.254	1306.66
451.628	1339.2
452.002	1338.3
452.376	1367
452.75	1340.56
453.123	1344.63
453.497	1403.61
453.871	1440.22
454.244	1422.14
454.618	1435.47
454.992	1470.05
455.365	1460.33
455.739	1487.22
456.112	1526.99
456.486	1523.83
456.859	1547.33
457.232	1564.28
457.606	1588.46
457.979	1606.54
458.352	1644.73
458.725	1633.43
459.099	1662.36
459.472	1707.55
459.845	1684.73
460.218	1716.59
460.591	1751.17
460.964	1760.89
461.337	1792.07
461.71	1821.9
462.083	1852.86
462.456	1876.82
462.829	1862.35
463.201	1905.51
463.574	1898.06
463.947	1965.4
464.32	2032.07
464.692	1992.07
465.065	2024.38
465.438	2054.89
465.81	2082.69
466.183	2112.97
466.555	2184.83
466.928	2172.4
467.3	2225.28
467.672	2257.6
468.045	2319.74
468.417	2307.31
468.789	2349.57
469.161	2373.98
469.534	2431.6
469.906	2513.63
470.278	2512.73
470.65	2585.05
471.022	2608.1
471.394	2646.96
471.766	2678.83
472.138	2738.94
472.51	2776.45
472.882	2828.43
473.253	2875.66
473.625	2899.61
473.997	3018.93
474.369	3071.13
474.74	3092.15
475.112	3147.74
475.484	3254.41
475.855	3340.05
476.227	3341.41
476.598	3491.69
476.97	3480.84
477.341	3632.02
477.713	3675.86
478.084	3774.84
478.455	3854.84
478.827	3925.12
479.198	4022.97
479.569	4092.12
479.94	4185
480.311	4263.64
480.682	4392.91
481.053	4533.24
481.424	4633.35
481.795	4703.86
482.166	4797.42
482.537	4870.63
482.908	5016.85
483.279	5092.32
483.65	5223.17
484.021	5361.02
484.391	5452.31
484.762	5575.02
485.133	5615.93
485.503	5754
485.874	5888.91
486.244	5998.29
486.615	6111.96
486.985	6193.99
487.356	6381.78
487.726	6465.85
488.097	6649.34
488.467	6693.86
488.837	6831.71
489.207	7006.17
489.578	7133.4
489.948	7237.8
490.318	7362.32
490.688	7481.87
491.058	7619.04
491.428	7752.37
491.798	7857
492.168	8062.42
492.538	8095.41
492.908	8253.14
493.278	8320.26
493.648	8478.22
494.017	8553.7
494.387	8665.11
494.757	8746.92
495.126	8877.08
495.496	9012.45
495.866	9070.52
496.235	9157.08
496.605	9176.51
496.974	9327.01
497.344	9495.6
497.713	9570.62
498.082	9592.77
498.452	9782.82
498.821	9828.47
499.19	9850.39
499.559	9875.02
499.928	10039.99
500.298	10042.7
500.667	10171.51
501.036	10207.9
501.405	10375.57
501.774	10313.88
502.143	10426.42
502.512	10464.39
502.88	10620.09
503.249	10666.19
503.618	10694.21
503.987	10735.11
504.356	10794.09
504.724	10919.06
505.093	10954.99
505.462	11008.1
505.83	11034.77
506.199	11167.64
506.567	11276.34
506.936	11273.18
507.304	11347.53
507.672	11343.91
508.041	11475.43
508.409	11493.74
508.777	11568.54
509.145	11590.46
509.514	11648.76
509.882	11677.46
510.25	11691.25
510.618	11752.26
510.986	11805.14
511.354	11878.81
511.722	11980.96
512.09	11997.23
512.458	11999.71
512.826	12118.81
513.193	12060.95
513.561	12112.48
513.929	12204
514.297	12218.69
514.664	12321.74
515.032	12332.59
515.4	12381.17
515.767	12418.01
516.135	12415.3
516.502	12301.4
516.869	12481.51
517.237	12493.49
517.604	12472.92
517.972	12533.48
518.339	12589.08
518.706	12552.92
519.073	12576.19
519.44	12608.51
519.808	12784.78
520.175	12636.98
520.542	12854.15
520.909	12752.24
521.276	12635.63
521.643	12869.97
522.009	12926.02
522.376	12850.31
522.743	12945.68
523.11	13006.01
523.477	13059.35
523.843	13125.11
524.21	13175.28
524.577	13196.74
524.943	13216.63
525.31	13182.05
525.676	13265.89
526.043	13257.53
526.409	13269.96
526.776	13309.51
527.142	13331.88
527.508	13410.3
527.874	13455.04
528.241	13397.42
528.607	13387.02
528.973	13419.34
529.339	13355.16
529.705	13432.44
530.071	13439.9
530.437	13356.51
530.803	13500.92
531.169	13487.58
531.535	13385.66
531.901	13414.82
532.267	13385.21
532.632	13431.54
532.998	13379.79
533.364	13406.68
533.73	13362.84
534.095	13519.45
534.461	13420.92
534.826	13427.25
535.192	13460.69
535.557	13362.61
535.923	13309.96
536.288	13323.97
536.653	13358.55
537.019	13229.06
537.384	13244.2
537.749	13230.64
538.114	13202.62
538.479	13153.58
538.845	13151.55
539.21	13105.45
539.575	13094.6
539.94	13071.55
540.305	13058.89
540.67	12995.62
541.034	13005.56
541.399	12974.38
541.764	12962.85
542.129	12935.73
542.494	12879.92
542.858	12897.54
543.223	12804.21
543.587	12866.58
543.952	12759.69
544.316	12659.81
544.681	12611.22
545.045	12692.58
545.41	12662.97
545.774	12583.2
546.138	12523.77
546.503	12550.43
546.867	12474.28
547.231	12490.55
547.595	12446.03
547.959	12430.44
548.324	12341.4
548.688	12322.42
549.052	12347.73
549.416	12328.74
549.779	12266.6
550.143	12248.07
550.507	12248.75
550.871	12221.85
551.235	12098.24
551.599	12191.57
551.962	12091.01
552.326	12134.17
552.689	12129.43
553.053	12007.62
553.417	11980.28
553.78	12053.5
554.143	11990.45
554.507	12005.14
554.87	11946.38
555.234	11985.93
555.597	11879.04
555.96	11855.54
556.323	11824.8
556.686	11831.81
557.05	11822.09
557.413	11762.43
557.776	11792.94
558.139	11872.94
558.502	11794.07
558.865	11727.63
559.228	11822.77
559.59	11803.33
559.953	11796.55
560.316	11877
560.679	11782.09
561.041	11823.22
561.404	11743.67
561.767	11822.99
562.129	11703.22
562.492	11808.98
562.854	11731.7
563.217	11749.32
563.579	11793.62
563.941	11818.93
564.304	11851.24
564.666	11897.34
565.028	11803.11
565.39	11845.14
565.753	11872.26
566.115	11807.4
566.477	11807.63
566.839	11817.34
567.201	11949.09
567.563	11848.98
567.925	11952.93
568.287	11848.76
568.648	11925.14
569.01	11944.12
569.372	12018.24
569.734	11962.43
570.095	11940.73
570.457	11964.69
570.819	11984.35
571.18	12030.9
571.542	12083.33
571.903	11973.5
572.265	11914.52
572.626	12024.34
572.987	12045.81
573.349	12046.49
573.71	12093.95
574.071	12059.15
574.432	12044.01
574.794	12136.88
575.155	12112.48
575.516	12010.33
575.877	12019.15
576.238	12167.39
576.599	12177.11
576.96	12068.19
577.32	12114.51
577.681	12206.94
578.042	12145.47
578.403	12115.19
578.763	12145.47
579.124	12115.64
579.485	12200.16
579.845	12191.8
580.206	12074.96
580.566	12193.38
580.927	12103.21
581.287	12213.04
581.648	12069.32
582.008	12240.84
582.368	12128.3
582.728	12093.72
583.089	12137.56
583.449	12114.74
583.809	12100.28
584.169	12170.78
584.529	12088.3
584.889	12166.26
585.249	12043.55
585.609	12011.92
585.969	12155.19
586.329	12012.14
586.688	12080.16
587.048	11974.85
587.408	12013.27
587.768	11990.45
588.127	12007.85
588.487	11940.51
588.846	12041.29
589.206	11968.3
589.565	11924.91
589.925	12016.66
590.284	11908.19
590.643	11947.74
591.003	11955.19
591.362	11964.91
591.721	11890.56
592.08	11897.79
592.44	11860.73
592.799	11997.45
593.158	11890.11
593.517	11936.89
593.876	11872.03
594.235	11861.64
594.593	11851.02
594.952	11910.22
595.311	11763.11
595.67	11850.34
596.029	11948.19
596.387	11924.69
596.746	11939.38
597.104	11881.98
597.463	11811.02
597.822	11898.25
598.18	11766.5
598.538	11838.59
598.897	11904.35
599.255	11790.68
599.613	11945.25
599.972	11809.89
600.33	11834.97
600.688	11773.05
601.046	11876.33
601.404	11863.45
601.762	11846.27
602.12	11877.23
602.478	11846.95
602.836	11824.58
603.194	11745.26
603.552	11743.67
603.91	11744.35
604.268	11834.97
604.625	11735.31
604.983	11831.36
605.341	11783
605.698	11762.88
606.056	11834.97
606.413	11782.32
606.771	11854.86
607.128	11811.02
607.485	11729.89
607.843	11852.37
608.2	11847.85
608.557	11933.27
608.914	11828.42
609.272	11865.03
609.629	11919.26
609.986	11905.7
610.343	11887.85
610.7	12009.66
611.057	12007.4
611.414	11956.55
611.771	11978.24
612.127	11883.33
612.484	11992.26
612.841	11976.89
613.198	11917.46
613.554	11968.53
613.911	11956.78
614.267	11995.42
614.624	12010.79
614.98	12082.87
615.337	12058.02
615.693	12029.32
616.05	11994.06
616.406	12130.78
616.762	11997.9
617.118	12128.07
617.475	12075.19
617.831	12095.53
618.187	12140.95
618.543	12081.52
618.899	12119.94
619.255	12186.83
619.611	12107.51
619.967	12217.33
620.323	12187.28
620.678	12229.76
621.034	12107.05
621.39	12125.59
621.746	12061.86
622.101	12294.62
622.457	12197.9
622.812	12152.48
623.168	12150.9
623.523	12165.58
623.879	12095.76
624.234	12084.23
624.589	12149.54
624.945	12063.67
625.3	12147.96
625.655	12039.94
626.01	12156.32
626.365	12151.57
626.72	12185.47
627.075	12094.4
627.43	12127.39
627.785	12096.66
628.14	12128.52
628.495	12112.48
628.85	12033.16
629.205	12025.7
629.559	12077.22
629.914	12074.29
630.269	12059.82
630.623	12054.17
630.978	12010.11
631.332	12072.71
631.687	12059.6
632.041	11993.16
632.396	12041.07
632.75	11884.46
633.104	11959.49
633.459	11913.61
633.813	11828.87
634.167	11923.78
634.521	11874.97
634.875	11926.49
635.229	11901.86
635.583	11820.96
635.937	11847.63
636.291	11861.41
636.645	11859.83
636.999	11763.56
637.352	11802.66
637.706	11722.21
638.06	11825.48
638.413	11705.03
638.767	11777.8
639.121	11691.25
639.474	11642.66
639.828	11636.11
640.181	11681.08
640.534	11662.77
640.888	11696.67
641.241	11568.99
641.594	11653.51
641.947	11667.97
642.301	11660.06
642.654	11574.87
643.007	11596.79
643.36	11583.68
643.713	11561.53
644.066	11578.25
644.419	11470.01
644.771	11468.65
645.124	11357.92
645.477	11383.91
645.83	11316.34
646.182	11247.64
646.535	11189.34
646.888	11190.69
647.24	11128.78
647.593	11186.4
647.945	11231.15
648.298	11186.85
648.65	11061.43
649.002	11109.34
649.355	11205.84
649.707	11162.9
650.059	11182.33
650.411	11333.97
650.763	11384.81
651.115	11486.73
651.467	11456.68
651.819	11528.31
652.171	11435.89
652.523	11344.59
652.875	11404.7
653.227	11341.42
653.578	11361.09
653.93	11414.87
654.282	11375.77
654.633	11360.63
654.985	11445.6
655.337	11464.81
655.688	11432.27
656.039	11407.41
656.391	11250.58
656.742	11382.1
657.094	11488.99
657.445	11500.97
657.796	11445.83
658.147	11405.6
658.498	11391.37
658.849	11372.16
659.2	11509.56
659.551	11433.17
659.902	11435.43
660.253	11472.27
660.604	11430.46
660.955	11423.91
661.306	11530.35
661.656	11471.59
662.007	11486.73
662.358	11474.53
662.708	11499.84
663.059	11442.89
663.409	11413.74
663.76	11429.11
664.11	11490.8
664.461	11512.95
664.811	11479.73
665.161	11464.59
665.511	11482.21
665.862	11461.2
666.212	11531.7
666.562	11492.16
666.912	11442.44
667.262	11460.29
667.612	11521.53
667.962	11495.55
668.312	11537.35
668.662	11477.01
669.011	11518.14
669.361	11402.21
669.711	11451.48
670.06	11447.64
670.41	11420.07
670.76	11469.56
671.109	11453.96
671.459	11417.36
671.808	11404.47
672.157	11471.59
672.507	11300.97
672.856	11336.68
673.205	11470.46
673.554	11428.43
673.904	11365.38
674.253	11409.45
674.602	11401.08
674.951	11197.47
675.3	11177.59
675.649	11424.59
675.998	11319.73
676.346	11363.12
676.695	11399.05
677.044	11174.88
677.393	11309.79
677.741	11327.64
678.09	11231.15
678.438	11298.26
678.787	11225.95
679.135	11216.46
679.484	11240.41
679.832	11199.73
680.181	11092.84
680.529	11202.9
680.877	11147.08
681.225	11119.74
681.573	11143.92
681.922	11081.32
682.27	11058.95
682.618	11035.44
682.966	11027.53
683.314	11070.02
683.661	10965.84
684.009	10897.59
684.357	10978.95
684.705	10910.7
685.053	10957.48
685.4	10876.13
685.748	10831.61
686.095	10826.64
686.443	10863.47
686.79	10784.6
687.138	10783.47
687.485	10810.59
687.832	10659.86
688.18	10678.17
688.527	10718.62
688.874	10585.29
689.221	10644.95
689.568	10599.3
689.915	10607.88
690.262	10571.05
690.609	10481.11
690.956	10447.44
691.303	10434.56
691.65	10357.95
691.997	10340.32
692.344	10294.9
692.69	10292.41
693.037	10305.07
693.383	10195.47
693.73	10189.82
694.077	10086.99
694.423	10126.77
694.769	10121.12
695.116	10075.7
695.462	10061.68
695.808	10000.22
696.155	9991.4
696.501	9906.21
696.847	9899.65
697.193	9773.78
697.539	9852.42
697.885	9747.34
698.231	9719.32
698.577	9800.9
698.923	9691.52
699.269	9619.44
699.614	9585.76
699.96	9588.02
700.306	9616.05
700.651	9579.44
700.997	9453.34
701.342	9397.75
701.688	9471.19
702.033	9408.14
702.379	9375.15
702.724	9326.34
703.069	9380.57
703.415	9322.95
703.76	9231.65
704.105	9242.27
704.45	9261.93
704.795	9134.48
705.14	9154.59
705.485	9097.19
705.83	9076.17
706.175	9080.02
706.52	8988.94
706.865	8976.52
707.209	8960.24
707.554	8865.78
707.899	8970.41
708.243	8821.94
708.588	8843.19
708.932	8795.28
709.277	8771.1
709.621	8810.19
709.966	8704.43
710.31	8734.49
710.654	8709.86
710.998	8734.49
711.342	8648.16
711.687	8666.92
712.031	8580.14
712.375	8583.31
712.719	8610.88
713.063	8597.54
713.407	8539.92
713.75	8488.39
714.094	8496.3
714.438	8442.52
714.782	8474.83
715.125	8375.18
715.469	8458.34
715.812	8392.58
716.156	8383.99
716.499	8376.98
716.843	8405
717.186	8306.7
717.53	8354.16
717.873	8355.51
718.216	8350.54
718.559	8332.69
718.902	8240.26
719.246	8256.53
719.589	8190.77
719.932	8206.14
720.275	8226.7
720.617	8244.56
720.96	8220.83
721.303	8220.83
721.646	8261.51
721.989	8227.83
722.331	8176.54
722.674	8110.1
723.016	8072.13
723.359	8203.2
723.701	8120.72
724.044	8096.54
724.386	8098.12
724.729	8142.64
725.071	8122.53
725.413	8122.07
725.755	8063.09
726.097	8073.26
726.439	8026.03
726.782	8078.01
727.124	8046.82
727.465	8028.07
727.807	8053.6
728.149	8058.57
728.491	8034.39
728.833	8102.87
729.175	8024.9
729.516	8036.2
729.858	8004.79
730.199	8072.58
730.541	8062.42
730.882	7995.3
731.224	8065.58
731.565	7961.4
731.906	7939.93
732.248	8006.37
732.589	7972.93
732.93	7948.75
733.271	7975.86
733.612	7938.8
733.953	7940.38
734.294	7924.79
734.635	7919.59
734.976	8023.09
735.317	7955.07
735.658	7950.1
735.999	7914.4
736.339	8000.27
736.68	7987.39
737.021	7950.1
737.361	8000.72
737.702	7986.94
738.042	8005.24
738.383	8030.1
738.723	7997.33
739.063	8005.47
739.404	8039.82
739.744	8034.62
740.084	8072.81
740.424	8060.61
740.764	8007.28
741.104	8105.35
741.444	8112.58
741.784	8083.43
742.124	8118.46
742.464	8156.65
742.804	8152.58
743.143	8113.94
743.483	8169.08
743.823	8168.85
744.162	8190.32
744.502	8280.49
744.841	8246.59
745.181	8326.59
745.52	8280.94
745.86	8396.64
746.199	8430.99
746.538	8427.15
746.877	8547.37
747.216	8464.66
747.556	8544.44
747.895	8696.3
748.234	8634.6
748.573	8727.03
748.911	8820.59
749.25	8861.49
749.589	8863.52
749.928	9025.1
750.267	9021.26
750.605	9071.88
750.944	9140.35
751.283	9240.46
751.621	9325.88
751.96	9279.56
752.298	9451.98
752.636	9506.9
752.975	9600.68
753.313	9664.41
753.651	9795.48
753.989	9858.07
754.327	9963.38
754.666	10080.44
755.004	10185.75
755.342	10320.89
755.679	10468
756.017	10546.64
756.355	10692.18
756.693	10801.55
757.031	10989.57
757.368	11073.86
757.706	11182.79
758.044	11298.71
758.381	11485.38
758.719	11643.11
