Data from hue_290_FLMS001491_00064.txt Node
Date: Tue Feb 07 15:53:04 GMT 2017
User: dcchb
Spectrometer: FLMS00149
Trigger mode: 0
Integration Time (sec): 2.000000E-2
Scans to average: 10
Electric dark correction enabled: true
Nonlinearity correction enabled: false
Boxcar width: 0
XAxis mode: Wavelengths
Number of Pixels in Spectrum: 2048
>>>>>Begin Spectral Data<<<<<
341.393	-22.32
341.776	-22.32
342.16	-22.32
342.543	-78.59
342.927	-56.89
343.31	-79.94
343.693	-65.48
344.077	-69.09
344.46	-54.41
344.843	-50.56
345.226	-34.52
345.61	-22.77
345.993	-18.25
346.376	1.86
346.759	25.37
347.142	19.94
347.525	53.84
347.908	58.59
348.291	52.03
348.674	77.12
349.057	106.27
349.44	109.43
349.823	132.71
350.206	163.44
350.588	177.45
350.971	199.37
351.354	208.19
351.737	234.85
352.119	232.59
352.502	265.59
352.884	270.33
353.267	264.23
353.65	280.28
354.032	290.44
354.414	282.53
354.797	302.87
355.179	335.41
355.562	311.01
355.944	317.56
356.326	322.76
356.709	320.73
357.091	317.34
357.473	352.59
357.855	348.75
358.238	356.88
358.62	320.05
359.002	329.54
359.384	339.93
359.766	313.04
360.148	330.67
360.53	327.28
360.912	335.64
361.294	349.88
361.676	350.56
362.057	328.64
362.439	323.21
362.821	327.28
363.203	337.9
363.584	318.24
363.966	345.58
364.348	328.64
364.729	321.18
365.111	301.97
365.493	311.46
365.874	305.81
366.256	297.68
366.637	307.39
367.019	315.3
367.4	328.18
367.781	317.79
368.163	308.3
368.544	312.82
368.925	297.68
369.306	314.4
369.688	327.73
370.069	311.46
370.45	322.31
370.831	316.66
371.212	330.9
371.593	315.08
371.974	296.77
372.355	316.43
372.736	299.71
373.117	337.22
373.498	308.75
373.879	299.03
374.26	314.85
374.641	297
375.021	304
375.402	333.83
375.783	323.66
376.163	325.7
376.544	326.38
376.925	322.53
377.305	334.96
377.686	330.44
378.066	319.82
378.447	311.91
378.827	337.22
379.208	335.41
379.588	335.19
379.968	333.83
380.349	330.67
380.729	332.03
381.109	350.56
381.489	339.93
381.87	331.12
382.25	332.7
382.63	352.59
383.01	354.62
383.39	356.88
383.77	345.13
384.15	329.31
384.53	360.05
384.91	348.97
385.29	361.18
385.67	343.1
386.049	349.65
386.429	371.8
386.809	362.76
387.189	350.56
387.568	360.27
387.948	353.04
388.328	351.69
388.707	349.43
389.087	373.61
389.466	372.25
389.846	399.14
390.225	376.32
390.605	369.76
390.984	376.77
391.363	377.22
391.743	386.94
392.122	380.16
392.501	401.63
392.881	384.45
393.26	387.39
393.639	400.95
394.018	404.11
394.397	398.24
394.776	403.21
395.155	417.67
395.534	409.31
395.913	405.02
396.292	413.15
396.671	418.12
397.05	404.79
397.429	395.07
397.808	410.44
398.186	412.48
398.565	432.36
398.944	419.03
399.323	437.56
399.701	423.77
400.08	403.44
400.458	429.88
400.837	446.82
401.215	447.95
401.594	430.1
401.972	448.41
402.351	434.85
402.729	425.13
403.107	458.58
403.486	445.02
403.864	468.74
404.242	469.87
404.62	462.64
404.999	454.73
405.377	476.43
405.755	490.67
406.133	471.68
406.511	478.91
406.889	489.08
407.267	505.13
407.645	504
408.023	492.02
408.401	519.36
408.779	529.08
409.156	530.44
409.534	528.4
409.912	527.05
410.29	538.35
410.667	541.74
411.045	565.24
411.422	568.18
411.8	552.81
412.178	569.08
412.555	598.23
412.933	602.3
413.31	614.5
413.687	633.71
414.065	614.96
414.442	620.15
414.819	635.52
415.197	635.97
415.574	651.11
415.951	654.95
416.328	675.29
416.705	682.98
417.082	666.71
417.46	664.22
417.837	721.17
418.214	693.82
418.591	718.23
418.967	725.01
419.344	718.23
419.721	762.3
420.098	753.48
420.475	784.67
420.852	785.12
421.228	782.41
421.605	785.57
421.982	796.42
422.358	810.66
422.735	827.15
423.111	807.04
423.488	855.63
423.864	839.36
424.241	871.67
424.617	847.72
424.994	894.5
425.37	911.44
425.746	918.45
426.123	917.55
426.499	910.09
426.875	914.83
427.251	967.71
427.627	964.78
428.003	952.8
428.379	976.08
428.756	979.24
429.132	1002.52
429.507	999.58
429.883	1015.4
430.259	1058.79
430.635	1055.85
431.011	1038
431.387	1071.21
431.763	1104.21
432.138	1092.23
432.514	1131.1
432.89	1136.3
433.265	1156.41
433.641	1146.92
434.016	1205.9
434.392	1194.38
434.767	1230.53
435.143	1211.1
435.518	1221.95
435.894	1234.6
436.269	1253.13
436.644	1293.13
437.02	1320.47
437.395	1325.9
437.77	1322.73
438.145	1351.21
438.52	1351.43
438.895	1338.33
439.271	1387.36
439.646	1376.29
440.021	1428.04
440.395	1405.44
440.77	1398.89
441.145	1414.48
441.52	1468.72
441.895	1437.53
442.27	1467.81
442.645	1455.61
443.019	1469.17
443.394	1496.51
443.769	1508.49
444.143	1479.11
444.518	1513.01
444.892	1501.03
445.267	1483.63
445.641	1536.97
446.016	1522.28
446.39	1546.91
446.764	1566.57
447.139	1549.85
447.513	1562.28
447.887	1540.13
448.262	1570.64
448.636	1585.78
449.01	1587.59
449.384	1614.25
449.758	1637.3
450.132	1628.04
450.506	1657.64
450.88	1630.97
451.254	1682.5
451.628	1662.39
452.002	1675.72
452.376	1681.59
452.75	1706.23
453.123	1716.62
453.497	1707.36
453.871	1729.05
454.244	1748.49
454.618	1769.28
454.992	1811.08
455.365	1821.25
455.739	1879.56
456.112	1841.82
456.486	1845.21
456.859	1874.13
457.232	1899.89
457.606	1891.53
457.979	1914.36
458.352	1924.98
458.725	1953.23
459.099	1970.85
459.472	2008.14
459.845	2003.62
460.218	2035.94
460.591	2055.82
460.964	2061.25
461.337	2108.48
461.71	2092.43
462.083	2141.92
462.456	2149.15
462.829	2109.61
463.201	2161.81
463.574	2159.77
463.947	2167.91
464.32	2242.94
464.692	2219.43
465.065	2248.81
465.438	2312.31
465.81	2302.82
466.183	2319.32
466.555	2381.46
466.928	2340.79
467.3	2373.55
467.672	2404.74
468.045	2425.76
468.417	2452.65
468.789	2474.12
469.161	2479.99
469.534	2519.31
469.906	2552.08
470.278	2561.8
470.65	2592.76
471.022	2617.61
471.394	2698.52
471.766	2675.24
472.138	2707.1
472.51	2762.92
472.882	2757.72
473.253	2810.6
473.625	2843.82
473.997	2874.11
474.369	2899.64
474.74	2910.04
475.112	2962.46
475.484	2982.35
475.855	3007.89
476.227	3041.11
476.598	3122.91
476.97	3130.82
477.341	3167.66
477.713	3238.39
478.084	3224.83
478.455	3310.48
478.827	3300.31
479.198	3366.97
479.569	3399.74
479.94	3455.78
480.311	3504.37
480.682	3581.43
481.053	3590.47
481.424	3687.42
481.795	3684.25
482.166	3714.76
482.537	3754.76
482.908	3843.57
483.279	3834.98
483.65	3921.08
484.021	3924.93
484.391	3965.83
484.762	4003.79
485.133	4048.54
485.503	4057.12
485.874	4157.69
486.244	4136.67
486.615	4235.65
486.985	4262.32
487.356	4321.3
487.726	4375.08
488.097	4429.54
488.467	4437.23
488.837	4463.44
489.207	4531.24
489.578	4574.63
489.948	4582.08
490.318	4627.05
490.688	4715.64
491.058	4760.16
491.428	4771.68
491.798	4819.14
492.168	4859.82
492.538	4953.6
492.908	4913.15
493.278	5004.22
493.648	5004.9
494.017	5078.34
494.387	5114.72
494.757	5130.09
495.126	5165.57
495.496	5194.95
495.866	5199.02
496.235	5235.4
496.605	5301.61
496.974	5311.56
497.344	5371.44
497.713	5395.39
498.082	5382.97
498.452	5515.62
498.821	5530.53
499.19	5447.82
499.559	5469.52
499.928	5578.89
500.298	5601.27
500.667	5635.61
501.036	5581.15
501.405	5612.11
501.774	5660.92
502.143	5690.75
502.512	5723.75
502.88	5766.01
503.249	5815.72
503.618	5816.4
503.987	5827.25
504.356	5871.54
504.724	5865.44
505.093	5893.01
505.462	5874.03
505.83	5909.05
506.199	5963.97
506.567	6008.71
506.936	6029.5
507.304	6077.64
507.672	6061.14
508.041	6070.18
508.409	6141.36
508.777	6198.76
509.145	6231.53
509.514	6157.86
509.882	6227.01
510.25	6232.21
510.618	6232.89
510.986	6293.22
511.354	6276.5
511.722	6356.73
512.09	6402.6
512.458	6370.51
512.826	6386.33
513.193	6454.12
513.561	6464.07
513.929	6459.1
514.297	6533.9
514.664	6555.14
515.032	6562.6
515.4	6629.49
515.767	6575.02
516.135	6694.8
516.502	6590.84
516.869	6626.32
517.237	6725.08
517.604	6701.8
517.972	6743.38
518.339	6726.21
518.706	6768.92
519.073	6751.97
519.44	6839.88
519.808	6879.65
520.175	6824.51
520.542	6877.39
520.909	6928.69
521.276	6966.43
521.643	7044.17
522.009	6998.97
522.376	7074.67
522.743	7115.35
523.11	7206.87
523.477	7114.45
523.843	7266.08
524.21	7274.89
524.577	7325.97
524.943	7349.47
525.31	7325.74
525.676	7345.85
526.043	7458.17
526.409	7504.04
526.776	7564.15
527.142	7517.37
527.508	7609.35
527.874	7649.35
528.241	7712.85
528.607	7682.79
528.973	7687.99
529.339	7685.96
529.705	7779.06
530.071	7870.13
530.437	7783.35
530.803	7914.88
531.169	7882.11
531.535	7915.1
531.901	7984.03
532.267	7956.46
532.632	8005.04
532.998	8003.01
533.364	8090.24
533.73	8129.79
534.095	8090.24
534.461	8188.77
534.826	8258.6
535.192	8249.56
535.557	8312.38
535.923	8257.01
536.288	8247.52
536.653	8314.87
537.019	8328.43
537.384	8351.02
537.749	8391.47
538.114	8432.15
538.479	8466.73
538.845	8511.47
539.21	8389.44
539.575	8550.34
539.94	8541.98
540.305	8548.98
540.67	8592.6
541.034	8636.89
541.399	8675.76
541.764	8647.74
542.129	8660.85
542.494	8689.32
542.858	8675.31
543.223	8781.75
543.587	8797.57
543.952	8861.74
544.316	8831.46
544.681	8838.69
545.045	8855.19
545.41	8941.52
545.774	8967.96
546.138	8876.21
546.503	8957.34
546.867	8989.2
547.231	9071.91
547.595	9035.53
547.959	9091.34
548.324	9103.32
548.688	9074.62
549.052	9161.17
549.416	9155.07
549.779	9189.65
550.143	9162.98
550.507	9339.7
550.871	9307.61
551.235	9330.88
551.599	9255.41
551.962	9347.61
552.326	9324.78
552.689	9356.42
553.053	9429.87
553.417	9372.47
553.78	9456.76
554.143	9462.86
554.507	9497.89
554.87	9553.93
555.234	9558.45
555.597	9472.12
555.96	9561.16
556.323	9578.11
556.686	9558.68
557.05	9638.22
557.413	9707.82
557.776	9686.58
558.139	9743.3
558.502	9786.47
558.865	9727.48
559.228	9764.32
559.59	9874.15
559.953	9808.16
560.316	9951.43
560.679	9917.08
561.041	10040.7
561.404	10062.16
561.767	10023.52
562.129	10090.86
562.492	10148.04
562.854	10138.32
563.217	10079.34
563.579	10157.76
563.941	10274.81
564.304	10225.32
564.666	10318.88
565.028	10304.42
565.39	10327.24
565.753	10437.52
566.115	10430.97
566.477	10481.81
566.839	10472.1
567.201	10588.25
567.563	10521.14
567.925	10568.37
568.287	10675.26
568.648	10697.4
569.01	10771.3
569.372	10808.59
569.734	10723.39
570.095	10848.36
570.457	10917.96
570.819	10898.53
571.18	10870.28
571.542	10976.49
571.903	10975.36
572.265	11066.21
572.626	11098.52
572.987	11080.44
573.349	11208.8
573.71	11233.21
574.071	11258.29
574.432	11316.6
574.794	11436.14
575.155	11451.73
575.516	11415.12
575.877	11597.27
576.238	11534.22
576.599	11635.68
576.96	11722.91
577.32	11778.5
577.681	11852.85
578.042	11794.1
578.403	11886.52
578.763	12020.08
579.124	12077.93
579.485	12195.89
579.845	12275.21
580.206	12267.76
580.566	12294.65
580.927	12432.27
581.287	12521.76
581.648	12560.86
582.008	12739.16
582.368	12742.77
582.728	12812.15
583.089	12892.6
583.449	13039.04
583.809	13088.07
584.169	13348.86
584.529	13293.04
584.889	13459.82
585.249	13531
585.609	13616.87
585.969	13834.72
586.329	13868.39
586.688	14017.99
587.048	14166.69
587.408	14285.78
587.768	14363.52
588.127	14485.78
588.487	14554.7
588.846	14895.48
589.206	14868.14
589.565	15039.44
589.925	15245.53
590.284	15319.65
590.643	15539.31
591.003	15675.58
591.362	15851.84
591.721	15888.45
592.08	16002.35
592.44	16195.11
592.799	16366.63
593.158	16490.24
593.517	16636
593.876	16696.57
594.235	16822.21
594.593	16950.57
594.952	17219.94
595.311	17239.38
595.67	17312.6
596.029	17691.57
596.387	17885.91
596.746	18029.64
597.104	18025.57
597.463	18152.8
597.822	18255.4
598.18	18436.41
598.538	18456.75
598.897	18824.87
599.255	18764.76
599.613	19173.34
599.972	19063.28
600.33	19402.94
600.688	19271.19
601.046	19571.52
601.404	19699.88
601.762	19750.27
602.12	19961.11
602.478	20166.08
602.836	20184.61
603.194	20152.52
603.552	20373.53
603.91	20385.96
604.268	20465.51
604.625	20623.7
604.983	20698.95
605.341	20748.44
605.698	21001.09
606.056	21014.42
606.413	21088.32
606.771	21185.71
607.128	21337.8
607.485	21301.64
607.843	21420.06
608.2	21667.51
608.557	21705.7
608.914	21712.48
609.272	21855.53
609.629	22035.86
609.986	22179.13
610.343	22088.97
610.7	22280.83
611.057	22328.51
611.414	22325.57
611.771	22396.3
612.127	22664.77
612.484	22684.66
612.841	22733.92
613.198	22730.08
613.554	22769.85
613.911	22994.93
614.267	23030.64
614.624	23111.77
614.98	23148.37
615.337	23397.63
615.693	23170.97
616.05	23254.13
616.406	23473.56
616.762	23393.11
617.118	23566.22
617.475	23603.5
617.831	23672.65
618.187	23714.69
618.543	23756.95
618.899	23863.84
619.255	23830.39
619.611	23808.7
619.967	23955.81
620.323	24141.79
620.678	23994.23
621.034	24039.65
621.39	24118.74
621.746	24090.27
622.101	24273.54
622.457	24242.58
622.812	24184.73
623.168	24344.5
623.523	24359.87
623.879	24471.5
624.234	24314.67
624.589	24382.69
624.945	24306.31
625.3	24539.98
625.655	24469.92
626.01	24454.55
626.365	24632.18
626.72	24471.96
627.075	24537.94
627.43	24593.76
627.785	24488.45
628.14	24645.96
628.495	24685.06
628.85	24615
629.205	24524.38
629.559	24686.87
629.914	24600.54
630.269	24584.95
630.623	24562.35
630.978	24620.2
631.332	24721.21
631.687	24761.44
632.041	24575.46
632.396	24742.91
632.75	24617.26
633.104	24544.04
633.459	24551.5
633.813	24598.51
634.167	24588.56
634.521	24615
634.875	24571.61
635.229	24602.57
635.583	24473.54
635.937	24444.39
636.291	24474.22
636.645	24487.32
636.999	24483.71
637.352	24471.5
637.706	24404.16
638.06	24458.85
638.413	24367.78
638.767	24356.03
639.121	24429.24
639.474	24252.07
639.828	24302.47
640.181	24275.35
640.534	24299.3
640.888	24247.55
641.241	24264.28
641.594	24252.53
641.947	24295.46
642.301	24271.51
642.654	24160.33
643.007	24331.39
643.36	24286.2
643.713	24138.18
644.066	24187.22
644.419	24166.2
644.771	24087.33
645.124	23890.28
645.477	23788.58
645.83	23600.11
646.182	23513.11
646.535	23407.35
646.888	23488.25
647.24	23370.52
647.593	23531.64
647.945	23500.46
648.298	23349.95
648.65	23379.33
649.002	23314.7
649.355	23471.53
649.707	23383.62
650.059	23592.43
650.411	23817.96
650.763	23749.94
651.115	24126.43
651.467	24025.41
651.819	24114
652.171	23979.09
652.523	23982.25
652.875	24068.35
653.227	23942.93
653.578	24144.28
653.93	24041.46
654.282	23977.73
654.633	24000.33
654.985	23961.01
655.337	23911.97
655.688	23974.79
656.039	24184.28
656.391	23831.97
656.742	23974.79
657.094	24069.71
657.445	24051.4
657.796	23941.57
658.147	23956.04
658.498	23835.81
658.849	23922.59
659.2	23971.18
659.551	23921.24
659.902	24003.27
660.253	23945.19
660.604	24001.91
660.955	23918.3
661.306	23948.35
661.656	24039.65
662.007	24048.01
662.358	24033.32
662.708	23959.43
663.059	23986.32
663.409	23841.24
663.76	24030.84
664.11	24018.18
664.461	24136.15
664.811	24061.34
665.161	24036.94
665.511	23969.6
665.862	24055.02
666.212	24086.43
666.562	24038.97
666.912	24013.44
667.262	24057.95
667.612	24021.57
667.962	24049.14
668.312	24112.42
668.662	24188.12
669.011	24068.35
669.361	24070.84
669.711	24088.24
670.06	23988.35
670.41	23828.58
670.76	23896.83
671.109	23978.86
671.459	23911.52
671.808	23867.45
672.157	23977.73
672.507	23751.75
672.856	23831.29
673.205	23795.14
673.554	23874.91
673.904	23788.81
674.253	23970.05
674.602	23871.29
674.951	23520.57
675.3	23428.14
675.649	23746.1
675.998	23794.69
676.346	23691.18
676.695	23716.95
677.044	23712.2
677.393	23631.3
677.741	23761.01
678.09	23632.2
678.438	23559.21
678.787	23590.17
679.135	23548.36
679.484	23407.58
679.832	23591.3
680.181	23349.95
680.529	23484.86
680.877	23344.3
681.225	23341.36
681.573	23406.67
681.922	23271.08
682.27	23182.95
682.618	23214.81
682.966	23149.96
683.314	23282.83
683.661	23181.82
684.009	23012.56
684.357	23047.13
684.705	23002.39
685.053	22912
685.4	23004.2
685.748	22806.91
686.095	22826.12
686.443	22784.32
686.79	22614.15
687.138	22814.37
687.485	22724.43
687.832	22646.47
688.18	22652.79
688.527	22442.86
688.874	22393.37
689.221	22436.3
689.568	22316.98
689.915	22267.49
690.262	22245.8
690.609	22147.04
690.956	22102.75
691.303	22053.04
691.65	21885.36
691.997	21993.15
692.344	21880.84
692.69	21827.73
693.037	21807.17
693.383	21599.94
693.73	21726.26
694.077	21570.56
694.423	21575.53
694.769	21503.9
695.116	21493.73
695.462	21346.39
695.808	21271.81
696.155	21319.95
696.501	21130.12
696.847	21172.61
697.193	20887.19
697.539	21078.37
697.885	20792.28
698.231	20678.16
698.577	20836.12
698.923	20735.33
699.269	20472.51
699.614	20377.83
699.96	20492.4
700.306	20388.67
700.651	20252.18
700.997	20257.15
701.342	20061.9
701.688	20149.13
702.033	20070.26
702.379	20026.87
702.724	19942.36
703.069	19956.82
703.415	19759.99
703.76	19745.98
704.105	19706.66
704.45	19703.49
704.795	19497.85
705.14	19641.57
705.485	19476.15
705.83	19383.95
706.175	19471.86
706.52	19362.94
706.865	19221.92
707.209	19243.62
707.554	19121.81
707.899	19179.67
708.243	19034.81
708.588	19082.49
708.932	18897.41
709.277	18868.49
709.621	18838.43
709.966	18786
710.31	18733.58
710.654	18706.23
710.998	18671.2
711.342	18636.4
711.687	18561.38
712.031	18542.62
712.375	18481.6
712.719	18471.66
713.063	18378.56
713.407	18408.84
713.75	18316.41
714.094	18315.51
714.438	18161.84
714.782	18327.03
715.125	18100.82
715.469	18113.03
715.812	18092.46
716.156	17939.7
716.499	18038.45
716.843	17989.41
717.186	17933.37
717.53	18045.23
717.873	18062.86
718.216	17895.18
718.559	17870.55
718.902	17797.33
719.246	17748.74
719.589	17778.12
719.932	17626.26
720.275	17722.08
720.617	17688.86
720.96	17701.06
721.303	17664.22
721.646	17651.57
721.989	17533.15
722.331	17567.96
722.674	17531.57
723.016	17513.49
723.359	17540.61
723.701	17587.39
724.044	17444.34
724.386	17363.44
724.729	17408.64
725.071	17382.42
725.413	17280.51
725.755	17267.4
726.097	17279.6
726.439	17184.24
726.782	17227.4
727.124	17267.85
727.465	17159.83
727.807	17255.42
728.149	17127.29
728.491	17233.5
728.833	17172.71
729.175	17173.84
729.516	17052.26
729.858	17065.14
730.199	17028.31
730.541	17066.27
730.882	17030.12
731.224	17110.57
731.565	16997.8
731.906	16999.61
732.248	17084.81
732.589	16934.53
732.93	16997.58
733.271	16992.15
733.612	17035.54
733.953	17014.07
734.294	16932.49
734.635	16839.61
734.976	16985.6
735.317	16891.14
735.658	16883
735.999	16891.59
736.339	16920.52
736.68	16968.88
737.021	16897.92
737.361	16963.9
737.702	16966.16
738.042	16893.4
738.383	16877.8
738.723	16986.05
739.063	16887.3
739.404	16951.93
739.744	16921.87
740.084	16954.86
740.424	16971.36
740.764	16897.47
741.104	16937.01
741.444	16918.48
741.784	16864.92
742.124	17050.46
742.464	16930.91
742.804	17050.46
743.143	16979.72
743.483	17029.89
743.823	16933.62
744.162	17063.79
744.502	17223.33
744.841	17031.7
745.181	17228.3
745.52	17135.65
745.86	17183.33
746.199	17292.03
746.538	17277.79
746.877	17376.1
747.216	17395.98
747.556	17436.43
747.895	17457
748.234	17467.39
748.573	17480.73
748.911	17563.66
749.25	17572.25
749.589	17665.81
749.928	17765.47
750.267	17840.49
750.605	17891.11
750.944	17879.59
751.283	17994.61
751.621	18102.86
751.96	18196.87
752.298	18153.48
752.636	18357.31
752.975	18334.26
753.313	18469.18
753.651	18654.71
753.989	18601.15
754.327	18687.02
754.666	18738.32
755.004	18990.07
755.342	19033
755.679	19166.78
756.017	19135.6
756.355	19414.01
756.693	19461.47
757.031	19575.59
757.368	19605.87
757.706	19690.39
758.044	19811.51
758.381	19986.42
