Data from hue_34_FLMS001491_00063.txt Node
Date: Tue Feb 07 17:25:58 GMT 2017
User: dcchb
Spectrometer: FLMS00149
Trigger mode: 0
Integration Time (sec): 2.000000E-2
Scans to average: 10
Electric dark correction enabled: true
Nonlinearity correction enabled: false
Boxcar width: 0
XAxis mode: Wavelengths
Number of Pixels in Spectrum: 2048
>>>>>Begin Spectral Data<<<<<
341.393	-17.67
341.776	-17.67
342.16	-17.67
342.543	-56.31
342.927	-53.37
343.31	-71.23
343.693	-71.9
344.077	-91.79
344.46	-67.39
344.843	-56.31
345.226	-41.85
345.61	-18.57
345.993	-31
346.376	-13.38
346.759	23.01
347.142	13.74
347.525	34.08
347.908	65.94
348.291	100.07
348.674	100.29
349.057	126.28
349.44	128.77
349.823	150.01
350.206	166.28
350.588	187.52
350.971	211.48
351.354	212.83
351.737	236.34
352.119	261.65
352.502	288.99
352.884	267.97
353.267	287.86
353.65	304.13
354.032	298.48
354.414	311.14
354.797	326.05
355.179	316.11
355.562	346.84
355.944	346.84
356.326	340.97
356.709	305.71
357.091	335.32
357.473	357.46
357.855	347.07
358.238	342.32
358.62	357.46
359.002	339.16
359.384	347.29
359.766	350.46
360.148	343.23
360.53	338.25
360.912	352.49
361.294	345.49
361.676	340.51
362.057	346.62
362.439	331.25
362.821	334.86
363.203	338.03
363.584	336.45
363.966	331.93
364.348	338.25
364.729	336.9
365.111	320.18
365.493	331.7
365.874	329.44
366.256	324.02
366.637	325.37
367.019	327.86
367.4	321.76
367.781	306.62
368.163	314.98
368.544	325.15
368.925	330.12
369.306	326.28
369.688	324.69
370.069	321.98
370.45	318.37
370.831	309.55
371.212	321.76
371.593	314.75
371.974	334.41
372.355	310.46
372.736	294.19
373.117	335.09
373.498	288.99
373.879	313.17
374.26	310.01
374.641	330.8
375.021	340.51
375.402	332.6
375.783	322.44
376.163	339.84
376.544	325.82
376.925	315.88
377.305	342.77
377.686	373.51
378.066	347.29
378.447	325.6
378.827	332.15
379.208	348.88
379.588	329.44
379.968	334.64
380.349	332.83
380.729	320.63
381.109	374.19
381.489	376.9
381.87	351.59
382.25	340.97
382.63	356.56
383.01	351.13
383.39	365.15
383.77	348.2
384.15	350.23
384.53	349.78
384.91	373.96
385.29	355.65
385.67	331.25
386.049	378.25
386.429	361.08
386.809	331.93
387.189	374.64
387.568	352.04
387.948	343.45
388.328	342.1
388.707	387.74
389.087	368.76
389.466	340.74
389.846	370.12
390.225	372.83
390.605	361.53
390.984	375.77
391.363	382.09
391.743	374.64
392.122	359.27
392.501	376.67
392.881	383
393.26	391.13
393.639	390.23
394.018	375.31
394.397	384.13
394.776	368.54
395.155	398.14
395.534	397.01
395.913	391.59
396.292	390.46
396.671	387.07
397.05	395.65
397.429	379.83
397.808	399.27
398.186	411.47
398.565	383.45
398.944	401.08
399.323	406.73
399.701	398.59
400.08	381.64
400.458	398.59
400.837	398.37
401.215	408.99
401.594	381.42
401.972	396.56
402.351	419.16
402.729	393.62
403.107	415.99
403.486	423.45
403.864	406.73
404.242	423.68
404.62	438.14
404.999	411.92
405.377	417.35
405.755	443.34
406.133	430.91
406.511	423.22
406.889	411.02
407.267	424.13
407.645	428.87
408.023	431.13
408.401	421.42
408.779	453.96
409.156	453.28
409.534	430.23
409.912	478.82
410.29	446.27
410.667	447.4
411.045	453.51
411.422	454.86
411.8	471.81
412.178	473.84
412.555	466.61
412.933	496.67
413.31	467.29
413.687	482.88
414.065	484.92
414.442	482.43
414.819	485.59
415.197	476.33
415.574	491.02
415.951	491.24
416.328	509.32
416.705	514.07
417.082	512.49
417.46	512.26
417.837	531.92
418.214	500.51
418.591	508.42
418.967	506.38
419.344	513.16
419.721	518.59
420.098	507.74
420.475	521.3
420.852	527.63
421.228	542.09
421.605	531.47
421.982	539.83
422.358	535.31
422.735	550.45
423.111	564.24
423.488	557.46
423.864	546.16
424.241	591.13
424.617	561.07
424.994	556.55
425.37	575.08
425.746	560.85
426.123	564.46
426.499	593.84
426.875	591.13
427.251	615.53
427.627	590
428.003	609.66
428.379	589.09
428.756	598.59
429.132	614.86
429.507	613.5
429.883	627.74
430.259	619.38
430.635	627.06
431.011	641.52
431.387	650.56
431.763	654.18
432.138	658.92
432.514	662.99
432.89	671.35
433.265	649.21
433.641	662.99
434.016	664.35
434.392	677.91
434.767	696.44
435.143	688.98
435.518	701.18
435.894	707.74
436.269	738.24
436.644	698.7
437.02	737.79
437.395	720.39
437.77	733.27
438.145	742.54
438.52	709.32
438.895	732.82
439.271	733.05
439.646	765.81
440.021	762.2
440.395	754.74
440.77	765.14
441.145	771.24
441.52	789.54
441.895	778.02
442.27	761.07
442.645	777.79
443.019	795.19
443.394	775.53
443.769	809.43
444.143	792.03
444.518	806.49
444.892	795.42
445.267	820.28
445.641	838.35
446.016	826.15
446.39	825.7
446.764	817.56
447.139	833.61
447.513	837.68
447.887	853.49
448.262	836.77
448.636	844.91
449.01	861.4
449.384	866.6
449.758	863.44
450.132	874.96
450.506	862.31
450.88	894.17
451.254	922.65
451.628	904.11
452.002	914.06
452.376	931.23
452.75	904.34
453.123	933.04
453.497	925.13
453.871	957.22
454.244	965.58
454.618	953.38
454.992	984.56
455.365	985.24
455.739	998.35
456.112	988.86
456.486	1020.27
456.859	1043.32
457.232	1026.37
457.606	1044.68
457.979	1045.58
458.352	1059.14
458.725	1071.12
459.099	1073.6
459.472	1096.88
459.845	1101.4
460.218	1090.32
460.591	1106.14
460.964	1133.04
461.337	1147.72
461.71	1180.49
462.083	1166.25
462.456	1197.44
462.829	1184.56
463.201	1199.47
463.574	1234.73
463.947	1237.44
464.32	1247.83
464.692	1264.11
465.065	1258.23
465.438	1277.44
465.81	1316.31
466.183	1309.53
466.555	1321.5
466.928	1357.66
467.3	1380.03
467.672	1391.56
468.045	1432.01
468.417	1415.74
468.789	1428.62
469.161	1464.55
469.534	1455.96
469.906	1514.95
470.278	1509.07
470.65	1537.32
471.022	1579.8
471.394	1602.63
471.766	1604.44
472.138	1649.41
472.51	1686.92
472.882	1703.64
473.253	1759.69
473.625	1726.47
473.997	1770.31
474.369	1805.11
474.74	1872
475.112	1914.03
475.484	1909.29
475.855	1941.38
476.227	2002.62
476.598	2039.9
476.97	2081.48
477.341	2153.35
477.713	2180.01
478.084	2212.55
478.455	2301.37
478.827	2341.36
479.198	2415.26
479.569	2443.06
479.94	2501.59
480.311	2531.19
480.682	2601.92
481.053	2693.22
481.424	2733.67
481.795	2790.39
482.166	2849.6
482.537	2904.29
482.908	3011.18
483.279	3031.06
483.65	3123.04
484.021	3222.47
484.391	3275.13
484.762	3318.97
485.133	3394.9
485.503	3483.71
485.874	3570.71
486.244	3629.01
486.615	3742.23
486.985	3783.59
487.356	3931.15
487.726	4005.28
488.097	4083.47
488.467	4082.56
488.837	4242.56
489.207	4312.39
489.578	4352.61
489.948	4456.11
490.318	4593.96
490.688	4630.8
491.058	4680.51
491.428	4817.91
491.798	4929.77
492.168	5086.83
492.538	5138.58
492.908	5239.59
493.278	5312.81
493.648	5313.72
494.017	5443.66
494.387	5482.07
494.757	5596.87
495.126	5712.12
495.496	5736.3
495.866	5832.8
496.235	5935.62
496.605	5988.73
496.974	6103.07
497.344	6133.13
497.713	6235.27
498.082	6295.84
498.452	6367.02
498.821	6414.7
499.19	6487.02
499.559	6610.41
499.928	6630.74
500.298	6732.66
500.667	6800.23
501.036	6861.7
501.405	6946.44
501.774	6994.58
502.143	7038.42
502.512	7113.89
502.88	7169.94
503.249	7197.73
503.618	7243.61
503.987	7347.34
504.356	7420.33
504.724	7433.89
505.093	7503.72
505.462	7617.16
505.83	7638.17
506.199	7727.21
506.567	7788.23
506.936	7849.92
507.304	7915.91
507.672	8008.79
508.041	7991.39
508.409	8050.82
508.777	8146.86
509.145	8235.45
509.514	8206.97
509.882	8315.45
510.25	8298.72
510.618	8373.07
510.986	8417.14
511.354	8541.2
511.722	8557.7
512.09	8663.23
512.458	8689.45
512.826	8754.76
513.193	8724.93
513.561	8865.26
513.929	8908.42
514.297	8934.86
514.664	9033.84
515.032	9068.65
515.4	9144.12
515.767	9200.39
516.135	9210.79
516.502	9223.22
516.869	9357.45
517.237	9395.64
517.604	9331.69
517.972	9461.18
518.339	9529.88
518.706	9538.69
519.073	9542.53
519.44	9623.66
519.808	9698.69
520.175	9701.85
520.542	9853.48
520.909	9873.82
521.276	9874.5
521.643	10000.37
522.009	10060.94
522.376	10076.08
522.743	10149.07
523.11	10267.26
523.477	10340.7
523.843	10332.79
524.21	10430.42
524.577	10587.93
524.943	10560.13
525.31	10578.44
525.676	10658.43
526.043	10746.79
526.409	10822.05
526.776	10886.23
527.142	10981.59
527.508	10941.14
527.874	11114.47
528.241	11204.63
528.607	11229.04
528.973	11265.65
529.339	11279.44
529.705	11402.82
530.071	11515.81
530.437	11543.38
530.803	11610.27
531.169	11688.69
531.535	11596.04
531.901	11657.5
532.267	11772.53
532.632	11808.23
532.998	11846.65
533.364	11923.71
533.73	11949.7
534.095	12122.35
534.461	12118.28
534.826	12166.64
535.192	12147.43
535.557	12357.6
535.923	12305.85
536.288	12383.81
536.653	12361.89
537.019	12331.38
537.384	12464.26
537.749	12522.11
538.114	12593.52
538.479	12633.52
538.845	12620.42
539.21	12716.91
539.575	12761.2
539.94	12762.11
540.305	12850.24
540.67	12877.81
541.034	12955.55
541.399	13043.23
541.764	13010.01
542.129	13105.83
542.494	13127.3
542.858	13253.62
543.223	13190.57
543.587	13211.81
543.952	13284.81
544.316	13406.38
544.681	13416.1
545.045	13434.63
545.41	13518.92
545.774	13525.48
546.138	13619.26
546.503	13626.72
546.867	13685.93
547.231	13784.68
547.595	13812.48
547.959	13915.07
548.324	13882.76
548.688	13929.76
549.052	14002.98
549.416	13979.93
549.779	14080.94
550.143	14159.13
550.507	14248.85
550.871	14225.35
551.235	14278.9
551.599	14443.65
551.962	14410.2
552.326	14398.22
552.689	14570.2
553.053	14522.97
553.417	14448.62
553.78	14722.06
554.143	14686.58
554.507	14732.68
554.87	14736.52
555.234	14902.84
555.597	14828.27
555.96	14864.88
556.323	14966.57
556.686	15006.57
557.05	15093.35
557.413	15111.65
557.776	15064.42
558.139	15277.3
558.502	15271.65
558.865	15370.4
559.228	15387.35
559.59	15463.28
559.953	15487.69
560.316	15647.23
560.679	15643.61
561.041	15629.38
561.404	15749.6
561.767	15875.92
562.129	15774.23
562.492	15889.26
562.854	15972.19
563.217	15999.99
563.579	16101.23
563.941	16091.96
564.304	16134
564.666	16266.2
565.028	16317.27
565.39	16354.56
565.753	16475.23
566.115	16496.47
566.477	16604.49
566.839	16587.77
567.201	16789.57
567.563	16816.01
567.925	16844.71
568.287	16861.66
568.648	16857.59
569.01	16905.28
569.372	17093.29
569.734	17006.29
570.095	17214.42
570.457	17188.43
570.819	17322.21
571.18	17402.44
571.542	17446.96
571.903	17433.85
572.265	17583.22
572.626	17697.8
572.987	17658.25
573.349	17823.44
573.71	17865.7
574.071	17972.82
574.432	18118.13
574.794	18279.03
575.155	18167.62
575.516	18277.22
575.877	18483.09
576.238	18534.16
576.599	18632.46
576.96	18743.65
577.32	18794.04
577.681	19009.4
578.042	19028.84
578.403	19292.11
578.763	19260.24
579.124	19426.57
579.485	19634.47
579.845	19751.53
580.206	19899.32
580.566	20014.57
580.927	20155.81
581.287	20277.84
581.648	20411.62
582.008	20668.11
582.368	20764.38
582.728	20962.57
583.089	21018.39
583.449	21265.61
583.809	21465.61
584.169	21750.57
584.529	21841.42
584.889	22257
585.249	22252.71
585.609	22338.58
585.969	22733.15
586.329	22806.36
586.688	23162.51
587.048	23303.07
587.408	23497.64
587.768	23708.94
588.127	23934.92
588.487	24106.22
588.846	24390.28
589.206	24581.46
589.565	24760.89
589.925	25153.19
590.284	25310.93
590.643	25528.55
591.003	25865.27
591.362	26038.82
591.721	26339.38
592.08	26558.13
592.44	26894.39
592.799	27063.88
593.158	27333.25
593.517	27656.86
593.876	27778.21
594.235	28051.88
594.593	28248.03
594.952	28596.49
595.311	28741.8
595.67	28949.93
596.029	29428.56
596.387	29581.1
596.746	29836.91
597.104	29903.8
597.463	30101.77
597.822	30525.93
598.18	30641.19
598.538	30754.4
598.897	31288.63
599.255	31321.17
599.613	31818.1
599.972	31821.27
600.33	32092
600.688	32123.63
601.046	32597.74
601.404	33022.59
601.762	32970.84
602.12	33211.06
602.478	33499.42
602.836	33580.54
603.194	33565.18
603.552	33854.21
603.91	33889.91
604.268	34425.95
604.625	34416.23
604.983	34762.43
605.341	34811.47
605.698	35100.5
606.056	35233.83
606.413	35462.3
606.771	35588.63
607.128	35754.95
607.485	35827.72
607.843	36116.97
608.2	36408.49
608.557	36599
608.914	36722.38
609.272	36949.72
609.629	37112.65
609.986	37272.88
610.343	37215.93
610.7	37649.82
611.057	37625.18
611.414	37777.27
611.771	37946.98
612.127	38385.84
612.484	38260.19
612.841	38452.73
613.198	38493.18
613.554	38676.68
613.911	38925.26
614.267	39012.04
614.624	39053.17
614.98	39220.85
615.337	39398.7
615.693	39361.41
616.05	39491.12
616.406	39770.21
616.762	39751.23
617.118	39913.03
617.475	39994.39
617.831	40069.19
618.187	40227.37
618.543	40464.88
618.899	40488.84
619.255	40509.4
619.611	40707.59
619.967	40798.66
620.323	40950.29
620.678	40826.68
621.034	40961.14
621.39	40911.88
621.746	41110.29
622.101	41510.96
622.457	41193.22
622.812	41443.61
623.168	41496.27
623.523	41559.32
623.879	41759.99
624.234	41499.21
624.589	41716.83
624.945	41877.73
625.3	41957.05
625.655	41803.15
626.01	42064.39
626.365	41961.11
626.72	42039.98
627.075	42112.52
627.43	42205.18
627.785	42115.46
628.14	42157.49
628.495	42276.36
628.85	42224.84
629.205	42038.85
629.559	42357.26
629.914	42212.18
630.269	42174.67
630.623	42144.84
630.978	42067.55
631.332	42326.75
631.687	42425.28
632.041	42236.59
632.396	42274.1
632.75	42148.91
633.104	42350.71
633.459	42165.85
633.813	42177.15
634.167	42222.8
634.521	42290.6
634.875	42235.23
635.229	42267.55
635.583	42164.95
635.937	42203.59
636.291	42208.11
636.645	42140.09
636.999	42121.34
637.352	42270.71
637.706	42025.75
638.06	42170.15
638.413	41963.37
638.767	42056.93
639.121	42260.54
639.474	41952.3
639.828	41939.87
640.181	42065.74
640.534	42069.36
640.888	42028.23
641.241	41767
641.594	42001.11
641.947	41944.39
642.301	41785.3
642.654	41870.04
643.007	41939.87
643.36	41919.53
643.713	41773.55
644.066	41887.67
644.419	41524.52
644.771	41450.85
645.124	41250.85
645.477	41030.97
645.83	40702.84
646.182	40837.98
646.535	40629.17
646.888	40668.94
647.24	40395.73
647.593	40692
647.945	40559.12
648.298	40443.41
648.65	40332.91
649.002	40203.87
649.355	40529.74
649.707	40393.92
650.059	40633.47
650.411	40966.34
650.763	41019.22
651.115	41432.31
651.467	41257.18
651.819	41235.03
652.171	41278.19
652.523	41233.45
652.875	41136.73
653.227	41070.29
653.578	41271.87
653.93	41325.42
654.282	41023.29
654.633	40907.13
654.985	41025.32
655.337	41077.07
655.688	41040.46
656.039	41268.93
656.391	40814.25
656.742	40920.69
657.094	41021.93
657.445	41022.83
657.796	41025.77
658.147	40994.81
658.498	40911.88
658.849	41097.63
659.2	40920.46
659.551	40807.47
659.902	40975.38
660.253	40885.21
660.604	40823.74
660.955	40823.52
661.306	40960.01
661.656	40923.63
662.007	40836.62
662.358	40841.14
662.708	40899
663.059	40903.06
663.409	40581.26
663.76	40854.25
664.11	40851.31
664.461	40861.48
664.811	40974.7
665.161	40700.81
665.511	40623.97
665.862	40626.01
666.212	40805.21
666.562	40802.27
666.912	40589.62
667.262	40603.86
667.612	40593.69
667.962	40818.55
668.312	40604.77
668.662	40717.31
669.011	40633.92
669.361	40636.4
669.711	40589.85
670.06	40605.67
670.41	40457.65
670.76	40417.2
671.109	40596.18
671.459	40630.08
671.808	40447.71
672.157	40550.98
672.507	40232.57
672.856	40321.84
673.205	40385.79
673.554	40434.6
673.904	40407.26
674.253	40449.97
674.602	40477.54
674.951	39762.53
675.3	39604.79
675.649	40297.66
675.998	40255.4
676.346	40288.16
676.695	40352.79
677.044	40045.23
677.393	40207.04
677.741	40206.36
678.09	40094.72
678.438	40058.34
678.787	40139.69
679.135	40145.79
679.484	39875.07
679.832	40092.24
680.181	39790.1
680.529	39983.09
680.877	39827.16
681.225	39801.17
681.573	39982.41
681.922	39732.92
682.27	39531.8
682.618	39435.76
682.966	39511.46
683.314	39633.49
683.661	39347.17
684.009	39341.97
684.357	39285.03
684.705	39205.03
685.053	39174.52
685.4	39273.28
685.748	38983.34
686.095	38976.79
686.443	38918.71
686.79	38837.13
687.138	38909.67
687.485	38913.06
687.832	38749
688.18	38841.2
688.527	38630.81
688.874	38542.22
689.221	38542.22
689.568	38277.37
689.915	38267.2
690.262	38266.97
690.609	38200.31
690.956	38004.16
691.303	37935.01
691.65	37644.39
691.997	37868.57
692.344	37619.31
692.69	37604.39
693.037	37579.31
693.383	37333.21
693.73	37464.74
694.077	37351.74
694.423	37245.53
694.769	37146.55
695.116	37018.65
695.462	37044.18
695.808	36892.09
696.155	36963.05
696.501	36590.18
696.847	36695.94
697.193	36420.47
697.539	36691.87
697.885	36237.42
698.231	36210.98
698.577	36313.81
698.923	36238.1
699.269	35975.28
699.614	35878.11
699.96	35825.91
700.306	35891.44
700.651	35667.95
700.997	35568.51
701.342	35412.13
701.688	35359.48
702.033	35309.99
702.379	35239.48
702.724	35157.23
703.069	35171.91
703.415	34779.83
703.76	34872.49
704.105	34832.94
704.45	34759.5
704.795	34574.42
705.14	34397.02
705.485	34413.52
705.83	34355.66
706.175	34386.4
706.52	34413.52
706.865	34183.92
707.209	34214.43
707.554	34090.59
707.899	34042.9
708.243	33941.89
708.588	33883.36
708.932	33572.41
709.277	33702.57
709.621	33655.34
709.966	33451.06
710.31	33508.23
710.654	33301.68
710.998	33378.29
711.342	33371.96
711.687	33211.97
712.031	33103.04
712.375	32955.93
712.719	32868.25
713.063	32893.1
713.407	32997.73
713.75	32786.44
714.094	32646.56
714.438	32568.82
714.782	32610.63
715.125	32580.34
715.469	32507.8
715.812	32388.48
716.156	32157.3
716.499	32349.62
716.843	32297.41
717.186	32152.78
717.53	32197.08
717.873	32166.57
718.216	32078.66
718.559	31936.52
718.902	31679.12
719.246	31789.86
719.589	31556.42
719.932	31645.23
720.275	31641.16
720.617	31671.44
720.96	31506.47
721.303	31485.01
721.646	31476.19
721.989	31276.2
722.331	31347.61
722.674	31336.53
723.016	31438
723.359	31234.84
723.701	31393.26
724.044	31012.7
724.386	30918.92
724.729	30921.4
725.071	31052.7
725.413	30917.56
725.755	31093.6
726.097	30730.45
726.439	30584.92
726.782	30707.17
727.124	30877.11
727.465	30479.38
727.807	30667.85
728.149	30540.17
728.491	30595.99
728.833	30457.46
729.175	30389.89
729.516	30366.62
729.858	30205.94
730.199	30248.43
730.541	30120.97
730.882	30223.34
731.224	30213.4
731.565	29962.79
731.906	30021.09
732.248	30027.42
732.589	29891.15
732.93	29812.73
733.271	29787.42
733.612	29745.39
733.953	29857.48
734.294	29813.19
734.635	29721.21
734.976	29674.66
735.317	29744.03
735.658	29540.42
735.999	29560.99
736.339	29378.17
736.68	29538.62
737.021	29371.39
737.361	29305.85
737.702	29502.23
738.042	29359.64
738.383	29201
738.723	29323.48
739.063	29214.33
739.404	29167.55
739.744	29106.54
740.084	29075.35
740.424	28963.94
740.764	29029.48
741.104	29152.64
741.444	28882.14
741.784	28918.29
742.124	28892.76
742.464	28775.25
742.804	28794
743.143	28643.95
743.483	28703.84
743.823	28580.9
744.162	28587
744.502	28638.3
744.841	28552.2
745.181	28592.65
745.52	28448.7
745.86	28541.81
746.199	28451.64
746.538	28352.21
746.877	28423.39
747.216	28416.61
747.556	28245.54
747.895	28258.2
748.234	28046.23
748.573	27997.64
748.911	28019.33
749.25	27915.83
749.589	27920.35
749.928	27955.83
750.267	27948.38
750.605	27818.44
750.944	27755.84
751.283	27627.71
751.621	27757.19
751.96	27591.77
752.298	27551.78
752.636	27628.61
752.975	27411.67
753.313	27418.22
753.651	27479.24
753.989	27363.76
754.327	27316.98
754.666	27100.71
755.004	27229.75
755.342	27266.13
755.679	27144.1
756.017	26891.91
756.355	27094.84
756.693	26907.72
757.031	27019.13
757.368	26825.47
757.706	26771.46
