Data from hue_24_FLMS001491_00053.txt Node
Date: Tue Feb 07 17:12:27 GMT 2017
User: dcchb
Spectrometer: FLMS00149
Trigger mode: 0
Integration Time (sec): 2.000000E-2
Scans to average: 10
Electric dark correction enabled: true
Nonlinearity correction enabled: false
Boxcar width: 0
XAxis mode: Wavelengths
Number of Pixels in Spectrum: 2048
>>>>>Begin Spectral Data<<<<<
341.393	8.21
341.776	8.21
342.16	8.21
342.543	-45.13
342.927	-45.58
343.31	-69.08
343.693	-84.45
344.077	-67.95
344.46	-57.55
344.843	-60.04
345.226	-40.38
345.61	-17.56
345.993	-13.94
346.376	-6.93
346.759	-10.1
347.142	46.17
347.525	31.93
347.908	63.8
348.291	61.99
348.674	103.12
349.057	120.97
349.44	105.38
349.823	144.25
350.206	146.06
350.588	192.61
350.971	204.36
351.354	223.34
351.737	234.19
352.119	254.53
352.502	247.07
352.884	277.35
353.267	283.45
353.65	290.68
354.032	322.1
354.414	330.01
354.797	308.76
355.179	315.32
355.562	332.72
355.944	320.06
356.326	329.78
356.709	327.75
357.091	316.67
357.473	343.79
357.855	339.5
358.238	363.9
358.62	322.55
359.002	326.84
359.384	332.27
359.766	344.92
360.148	359.84
360.53	344.92
360.912	354.19
361.294	336.56
361.676	327.75
362.057	340.63
362.439	348.54
362.821	311.47
363.203	300.63
363.584	320.06
363.966	311.47
364.348	336.33
364.729	315.09
365.111	325.49
365.493	320.29
365.874	301.08
366.256	311.93
366.637	308.54
367.019	320.06
367.4	311.47
367.781	285.26
368.163	322.1
368.544	315.09
368.925	328.65
369.306	329.78
369.688	316.67
370.069	320.97
370.45	317.35
370.831	299.95
371.212	321.42
371.593	314.41
371.974	343.56
372.355	308.76
372.736	329.55
373.117	336.78
373.498	295.2
373.879	326.62
374.26	306.96
374.641	334.98
375.021	311.47
375.402	334.53
375.783	329.55
376.163	336.11
376.544	330.68
376.925	330.46
377.305	315.09
377.686	341.3
378.066	337.46
378.447	318.25
378.827	340.17
379.208	305.6
379.588	336.78
379.968	355.99
380.349	334.75
380.729	314.64
381.109	324.36
381.489	330.46
381.87	337.24
382.25	334.75
382.63	344.92
383.01	351.7
383.39	334.3
383.77	354.41
384.15	352.15
384.53	347.86
384.91	360.97
385.29	355.32
385.67	342.43
386.049	347.86
386.429	325.26
386.809	363.45
387.189	350.57
387.568	378.14
387.948	363
388.328	361.19
388.707	346.95
389.087	364.35
389.466	379.72
389.846	383.11
390.225	335.88
390.605	356.22
390.984	379.72
391.363	356.67
391.743	370.23
392.122	376.56
392.501	357.58
392.881	386.95
393.26	381.76
393.639	376.11
394.018	388.31
394.397	368.87
394.776	387.63
395.155	382.66
395.534	392.83
395.913	361.19
396.292	397.8
396.671	390.34
397.05	364.35
397.429	379.27
397.808	379.72
398.186	373.39
398.565	384.69
398.944	380.63
399.323	381.76
399.701	398.7
400.08	401.42
400.458	401.42
400.837	392.38
401.215	388.31
401.594	396.67
401.972	396.9
402.351	411.81
402.729	415.65
403.107	421.53
403.486	392.15
403.864	402.32
404.242	412.94
404.62	391.7
404.999	411.13
405.377	395.99
405.755	422.66
406.133	418.82
406.511	392.83
406.889	438.48
407.267	430.34
407.645	425.6
408.023	416.78
408.401	436.67
408.779	444.13
409.156	426.73
409.534	449.78
409.912	431.47
410.29	452.49
410.667	457.46
411.045	461.53
411.422	446.84
411.8	421.98
412.178	474.86
412.555	434.86
412.933	427.18
413.31	464.01
413.687	454.52
414.065	473.5
414.442	466.95
414.819	487.29
415.197	469.21
415.574	484.8
415.951	489.32
416.328	488.65
416.705	466.95
417.082	468.76
417.46	461.08
417.837	508.08
418.214	509.44
418.591	497.68
418.967	501.75
419.344	510.11
419.721	479.38
420.098	514.18
420.475	511.47
420.852	520.06
421.228	517.35
421.605	490.91
421.982	525.03
422.358	525.93
422.735	516.89
423.111	518.25
423.488	531.36
423.864	528.19
424.241	539.49
424.617	534.75
424.994	536.33
425.37	524.58
425.746	523.45
426.123	574.97
426.499	539.27
426.875	546.95
427.251	551.92
427.627	578.36
428.003	545.82
428.379	574.74
428.756	584.46
429.132	592.6
429.507	574.97
429.883	587.85
430.259	579.04
430.635	580.85
431.011	592.82
431.387	604.35
431.763	603.44
432.138	618.36
432.514	612.03
432.89	623.11
433.265	625.59
433.641	622.43
434.016	646.83
434.392	663.78
434.767	676.44
435.143	636.44
435.518	656.32
435.894	652.03
436.269	630.34
436.644	654.74
437.02	666.95
437.395	662.88
437.77	666.49
438.145	699.49
438.52	714.63
438.895	679.37
439.271	705.14
439.646	719.6
440.021	728.64
440.395	699.04
440.77	704.68
441.145	722.99
441.52	713.27
441.895	722.31
442.27	730.22
442.645	746.49
443.019	721.18
443.394	743.55
443.769	740.62
444.143	715.08
444.518	750.56
444.892	746.94
445.267	769.32
445.641	764.34
446.016	742.2
446.39	786.49
446.764	765.02
447.139	798.92
447.513	780.84
447.887	800.5
448.262	797.79
448.636	813.83
449.01	800.5
449.384	793.5
449.758	791.69
450.132	818.13
450.506	812.7
450.88	821.07
451.254	826.94
451.628	816.09
452.002	816.77
452.376	854.06
452.75	824.23
453.123	850.67
453.497	846.6
453.871	871.69
454.244	861.74
454.618	887.28
454.992	887.05
455.365	892.02
455.739	920.05
456.112	908.3
456.486	929.09
456.859	933.83
457.232	956.43
457.606	959.37
457.979	945.13
458.352	976.32
458.725	968.41
459.099	968.18
459.472	1000.5
459.845	982.87
460.218	988.29
460.591	1014.28
460.964	1038.24
461.337	1049.53
461.71	1036.2
462.083	1049.08
462.456	1058.8
462.829	1049.53
463.201	1090.21
463.574	1103.77
463.947	1092.25
464.32	1122.75
464.692	1128.18
465.065	1130.21
465.438	1142.87
465.81	1158.01
466.183	1174.73
466.555	1200.04
466.928	1182.41
467.3	1206.82
467.672	1231.45
468.045	1225.35
468.417	1252.69
468.789	1267.61
469.161	1288.4
469.534	1297.89
469.906	1314.16
470.278	1312.58
470.65	1333.59
471.022	1347.61
471.394	1386.7
471.766	1390.99
472.138	1381.05
472.51	1435.06
472.882	1447.26
473.253	1473.03
473.625	1505.34
473.997	1521.39
474.369	1542.4
474.74	1558.22
475.112	1601.84
475.484	1614.04
475.855	1640.48
476.227	1655.62
476.598	1688.39
476.97	1710.76
477.341	1753.02
477.713	1788.95
478.084	1814.26
478.455	1815.39
478.827	1888.83
479.198	1929.51
479.569	1950.75
479.94	2025.33
480.311	1988.72
480.682	2047.02
481.053	2112.33
481.424	2145.78
481.795	2149.84
482.166	2232.78
482.537	2240.69
482.908	2304.19
483.279	2334.92
483.65	2400.23
484.021	2444.3
484.391	2476.84
484.762	2471.19
485.133	2538.53
485.503	2544.41
485.874	2618.98
486.244	2680.68
486.615	2710.96
486.985	2755.7
487.356	2803.61
487.726	2844.06
488.097	2929.26
488.467	2904.4
488.837	2954.12
489.207	3038.41
489.578	3063.27
489.948	3117.95
490.318	3169.93
490.688	3207.67
491.058	3263.04
491.428	3276.37
491.798	3325.18
492.168	3396.14
492.538	3435.46
492.908	3487.44
493.278	3536.47
493.648	3501.67
494.017	3584.61
494.387	3643.14
494.757	3653.99
495.126	3733.08
495.496	3737.37
495.866	3746.64
496.235	3798.84
496.605	3855.34
496.974	3884.04
497.344	3924.71
497.713	3926.07
498.082	3948.22
498.452	4033.86
498.821	4039.51
499.19	4074.54
499.559	4136.69
499.928	4120.19
500.298	4153.86
500.667	4215.55
501.036	4213.29
501.405	4220.3
501.774	4270.47
502.143	4320.41
502.512	4317.7
502.88	4349.79
503.249	4346.85
503.618	4379.39
503.987	4450.58
504.356	4477.92
504.724	4512.04
505.093	4519.73
505.462	4517.69
505.83	4570.12
506.199	4570.8
506.567	4612.15
506.936	4611.47
507.304	4696.67
507.672	4714.75
508.041	4716.56
508.409	4749.55
508.777	4802.88
509.145	4813.5
509.514	4794.52
509.882	4860.28
510.25	4868.64
510.618	4900.05
510.986	4886.04
511.354	4909.09
511.722	4966.04
512.09	4954.52
512.458	5035.42
512.826	5037.9
513.193	5072.03
513.561	5076.1
513.929	5112.48
514.297	5165.13
514.664	5186.37
515.032	5168.97
515.4	5226.37
515.767	5232.48
516.135	5225.92
516.502	5223.44
516.869	5311.12
517.237	5323.09
517.604	5264.79
517.972	5368.97
518.339	5369.87
518.706	5371.45
519.073	5413.71
519.44	5411.68
519.808	5483.77
520.175	5428.4
520.542	5514.28
520.909	5522.64
521.276	5491.9
521.643	5570.09
522.009	5618.91
522.376	5589.08
522.743	5651.45
523.11	5661.39
523.477	5715.4
523.843	5760.37
524.21	5868.84
524.577	5834.27
524.943	5860.71
525.31	5894.6
525.676	5944.1
526.043	5924.89
526.409	6023.19
526.776	6021.16
527.142	6029.29
527.508	6123.07
527.874	6133.47
528.241	6162.85
528.607	6169.4
528.973	6202.39
529.339	6204.43
529.705	6282.17
530.071	6347.02
530.437	6281.49
530.803	6332.11
531.169	6395.38
531.535	6404.2
531.901	6432.9
532.267	6448.71
532.632	6475.83
532.998	6519.22
533.364	6521.48
533.73	6560.8
534.095	6590.18
534.461	6577.75
534.826	6707.92
535.192	6678.77
535.557	6777.29
535.923	6707.92
536.288	6721.93
536.653	6767.58
537.019	6727.35
537.384	6841.92
537.749	6845.77
538.114	6840.12
538.479	6876.05
538.845	6893.67
539.21	6935.48
539.575	6963.73
539.94	6965.76
540.305	7065.2
540.67	7044.18
541.034	7071.52
541.399	7148.81
541.764	7152.88
542.129	7165.08
542.494	7169.37
542.858	7204.17
543.223	7208.47
543.587	7235.81
543.952	7294.34
544.316	7362.81
544.681	7353.78
545.045	7376.15
545.41	7412.98
545.774	7456.15
546.138	7465.41
546.503	7513.77
546.867	7497.27
547.231	7598.97
547.595	7570.49
547.959	7633.09
548.324	7624.28
548.688	7629.7
549.052	7681.68
549.416	7700.66
549.779	7728.91
550.143	7756.7
550.507	7839.64
550.871	7797.15
551.235	7831.73
551.599	7947.43
551.962	7856.36
552.326	7900.65
552.689	7995.34
553.053	7980.88
553.417	7933.87
553.78	8040.31
554.143	8004.15
554.507	8093.87
554.87	8147.65
555.234	8176.8
555.597	8084.6
555.96	8135.22
556.323	8228.1
556.686	8210.93
557.05	8235.56
557.413	8298.16
557.776	8320.98
558.139	8325.73
558.502	8330.47
558.865	8304.49
559.228	8441.43
559.59	8468.32
559.953	8464.03
560.316	8538.83
560.679	8518.26
561.041	8572.27
561.404	8589.9
561.767	8689.79
562.129	8640.07
562.492	8725.72
562.854	8665.83
563.217	8676.45
563.579	8795.55
563.941	8839.84
564.304	8896.79
564.666	8897.69
565.028	8953.96
565.39	9026.73
565.753	9026.05
566.115	9092.94
566.477	9125.93
566.839	9105.14
567.201	9168.19
567.563	9229.21
567.925	9146.04
568.287	9255.65
568.648	9252.03
569.01	9247.96
569.372	9370.67
569.734	9374.06
570.095	9369.77
570.457	9417
570.819	9477.79
571.18	9577.9
571.542	9512.36
571.903	9627.39
572.265	9655.64
572.626	9685.69
572.987	9732.92
573.349	9857.21
573.71	9854.73
574.071	9908.74
574.432	9976.98
574.794	10028.28
575.155	10110.31
575.516	10042.52
575.877	10141.5
576.238	10230.08
576.599	10262.17
576.96	10363.87
577.32	10431.21
577.681	10551.21
578.042	10581.71
578.403	10695.16
578.763	10766.12
579.124	10814.93
579.485	11005.88
579.845	11009.05
580.206	11236.39
580.566	11268.7
580.927	11347.79
581.287	11491.29
581.648	11646.32
582.008	11754.79
582.368	11827.1
582.728	11963.15
583.089	12131.28
583.449	12237.49
583.809	12427.09
584.169	12685.39
584.529	12787.98
584.889	13015.77
585.249	13168.99
585.609	13275.43
585.969	13508.87
586.329	13786.83
586.688	14005.35
587.048	14118.57
587.408	14260.71
587.768	14561.27
588.127	14830.19
588.487	15046.23
588.846	15462.49
589.206	15533.67
589.565	15739.09
589.925	16130.95
590.284	16371.62
590.643	16528
591.003	16898.16
591.362	17123.24
591.721	17393.74
592.08	17673.28
592.44	17979.26
592.799	18319.81
593.158	18537.89
593.517	18831.89
593.876	19172
594.235	19439.11
594.593	19854.46
594.952	20050.16
595.311	20349.59
595.67	20670.71
596.029	21072.28
596.387	21378.04
596.746	21742.32
597.104	21880.4
597.463	22096.21
597.822	22613.71
598.18	22792.24
598.538	23078.56
598.897	23526.91
599.255	23625.66
599.613	24176.38
599.972	24513.78
600.33	24789.02
600.688	24976.14
601.046	25409.12
601.404	25678.72
601.762	25967.07
602.12	26325.25
602.478	26618.35
602.836	26939.93
603.194	27071.22
603.552	27429.86
603.91	27601.38
604.268	28025.32
604.625	28261.93
604.983	28663.72
605.341	28723.84
605.698	29172.64
606.056	29484.27
606.413	29632.96
606.771	30033.86
607.128	30227.98
607.485	30410.57
607.843	30687.4
608.2	31087.16
608.557	31366.25
608.914	31378.68
609.272	31791.1
609.629	31992.68
609.986	32404.19
610.343	32467.92
610.7	32844.63
611.057	33015.02
611.414	33170.95
611.771	33436.25
612.127	33630.37
612.484	33817.94
612.841	34162.11
613.198	34078.95
613.554	34441.2
613.911	34751.47
614.267	34862.66
614.624	35058.81
614.98	35125.7
615.337	35488.63
615.693	35541.28
616.05	35644.78
616.406	35968.62
616.762	36082.51
617.118	36220.36
617.475	36510.3
617.831	36682.5
618.187	36716.62
618.543	36897.63
618.899	37285.64
619.255	37293.33
619.611	37454
619.967	37654.9
620.323	37789.13
620.678	37866.19
621.034	37922.92
621.39	37884.72
621.746	38099.86
622.101	38470.47
622.457	38364.94
622.812	38545.5
623.168	38771.93
623.523	38654.65
623.879	38946.62
624.234	38720.41
624.589	39018.03
624.945	39131.02
625.3	39142.32
625.655	39358.81
626.01	39453.5
626.365	39424.57
626.72	39477.68
627.075	39580.05
627.43	39520.84
627.785	39681.74
628.14	39825.46
628.495	40018.91
628.85	39800.15
629.205	39914.73
629.559	40141.84
629.914	39985.23
630.269	40012.35
630.623	39981.84
630.978	39968.29
631.332	40198.34
631.687	40286.69
632.041	40194.27
632.396	40331.21
632.75	40157.66
633.104	40344.09
633.459	40228.17
633.813	40133.48
634.167	40275.4
634.521	40382.29
634.875	40372.34
635.229	40364.66
635.583	40053.03
635.937	40329.86
636.291	40372.34
636.645	40298.67
636.999	40189.97
637.352	40395.39
637.706	40304.77
638.06	40294.15
638.413	40350.65
638.767	40011
639.121	40313.81
639.474	40062.97
639.828	40228.17
640.181	40282.4
640.534	40260.48
640.888	40192.69
641.241	40097.1
641.594	40069.75
641.947	40301.38
642.301	40274.27
642.654	40105
643.007	40321.5
643.36	40266.81
643.713	40122.41
644.066	40360.59
644.419	40060.26
644.771	39866.37
645.124	39509.09
645.477	39454.17
645.83	39166.27
646.182	39204.01
646.535	39021.87
646.888	39153.17
647.24	38924.92
647.593	39199.27
647.945	39078.59
648.298	38878.6
648.65	38831.37
649.002	38749.33
649.355	38883.12
649.707	38872.04
650.059	39048.99
650.411	39462.08
650.763	39632.25
651.115	40019.58
651.467	39763.77
651.819	39933.71
652.171	39883.77
652.523	39734.85
652.875	39667.28
653.227	39572.36
653.578	39706.15
653.93	39795.18
654.282	39637.67
654.633	39484.68
654.985	39581.63
655.337	39615.07
655.688	39683.09
656.039	39740.27
656.391	39332.37
656.742	39406.27
657.094	39554.74
657.445	39641.51
657.796	39723.32
658.147	39564.68
658.498	39507.73
658.849	39590.22
659.2	39590.67
659.551	39459.37
659.902	39552.7
660.253	39424.57
660.604	39509.77
660.955	39219.83
661.306	39561.29
661.656	39408.75
662.007	39473.61
662.358	39428.64
662.708	39558.13
663.059	39419.6
663.409	39108.65
663.76	39320.17
664.11	39560.84
664.461	39495.3
664.811	39425.7
665.161	39397.9
665.511	39278.81
665.862	39401.07
666.212	39415.08
666.562	39547.73
666.912	39319.04
667.262	39227.97
667.612	39264.57
667.962	39367.4
668.312	39313.16
668.662	39448.75
669.011	39396.77
669.361	39205.14
669.711	39185.71
670.06	39243.56
670.41	39101.64
670.76	39210.11
671.109	39310.68
671.459	39266.61
671.808	39060.51
672.157	39238.59
672.507	38985.94
672.856	39262.54
673.205	39028.65
673.554	39186.61
673.904	39058.48
674.253	39235.2
674.602	39070
674.951	38529.68
675.3	38339.18
675.649	38942.78
675.998	39031.59
676.346	39027.97
676.695	39012.38
677.044	38594.76
677.393	38831.59
677.741	38857.81
678.09	38813.06
678.438	38601.54
678.787	38735.1
679.135	38811.71
679.484	38571.26
679.832	38741.88
680.181	38456.91
680.529	38643.12
680.877	38425.95
681.225	38463.69
681.573	38555.67
681.922	38405.84
682.27	38212.85
682.618	38286.07
682.966	38231.16
683.314	38189.12
683.661	38060.31
684.009	37819.19
684.357	37919.07
684.705	37983.03
685.053	37997.94
685.4	37943.03
685.748	37823.26
686.095	37766.31
686.443	37531.06
686.79	37556.6
687.138	37629.36
687.485	37570.16
687.832	37519.08
688.18	37528.58
688.527	37320.22
688.874	37182.82
689.221	37056.05
689.568	37090.39
689.915	37028.7
690.262	36931.3
690.609	36805.2
690.956	36814.24
691.303	36731.99
691.65	36694.47
691.997	36727.01
692.344	36343.97
692.69	36508.72
693.037	36470.07
693.383	36093.36
693.73	36327.03
694.077	35981.27
694.423	36028.05
694.769	35957.09
695.116	35735.4
695.462	35728.4
695.808	35712.58
696.155	35729.3
696.501	35529.98
696.847	35395.98
697.193	35158.24
697.539	35327.05
697.885	35061.75
698.231	34965.48
698.577	35032.14
698.923	34976.78
699.269	34855.65
699.614	34666.73
699.96	34592.83
700.306	34548.77
700.651	34405.72
700.997	34378.6
701.342	34340.86
701.688	34301.32
702.033	34116.01
702.379	34105.61
702.724	34014.09
703.069	34072.85
703.415	33590.6
703.76	33835.34
704.105	33753.31
704.45	33766.19
704.795	33403.26
705.14	33424.73
705.485	33303.83
705.83	33217.05
706.175	33372.07
706.52	33109.71
706.865	33026.55
707.209	33056.15
707.554	32908.36
707.899	32924.4
708.243	32676.05
708.588	32642.38
708.932	32376.17
709.277	32511.31
709.621	32459.33
709.966	32237.19
710.31	32368.26
710.654	32085.78
710.998	32216.4
711.342	32114.71
711.687	32001.04
712.031	31956.07
712.375	31837.88
712.719	31857.76
713.063	31852.79
713.407	31874.94
713.75	31645.57
714.094	31650.54
714.438	31568.73
714.782	31590.2
715.125	31487.38
715.469	31490.32
715.812	31168.52
716.156	31080.61
716.499	31218.23
716.843	31158.35
717.186	30971.01
717.53	31150.66
717.873	31091.91
718.216	31088.29
718.559	30836.32
718.902	30677.23
719.246	30790.45
719.589	30718.81
719.932	30601.07
720.275	30583.67
720.617	30510.23
720.96	30376.67
721.303	30493.51
721.646	30415.77
721.989	30278.37
722.331	30327.63
722.674	30332.38
723.016	30268.88
723.359	30191.37
723.701	30197.24
724.044	30018.26
724.386	29939.4
724.729	29968.77
725.071	30013.07
725.413	29954.54
725.755	29900.08
726.097	29668.22
726.439	29682.23
726.782	29649.01
727.124	29648.1
727.465	29588.67
727.807	29640.2
728.149	29545.73
728.491	29474.78
728.833	29494.66
729.175	29284.27
729.516	29434.1
729.858	29329.47
730.199	29288.57
730.541	29165.41
730.882	29251.96
731.224	29168.12
731.565	29028.69
731.906	29074.79
732.248	28986.2
732.589	28825.75
732.93	28837.96
733.271	28821.01
733.612	28905.07
733.953	28949.14
734.294	28745.3
734.635	28705.98
734.976	28695.81
735.317	28493.11
735.658	28598.41
735.999	28560.22
736.339	28491.07
736.68	28625.98
737.021	28430.96
737.361	28317.74
737.702	28525.2
738.042	28309.61
738.383	28261.7
738.723	28383.73
739.063	28170.4
739.404	28233.9
739.744	28192.1
740.084	28086.11
740.424	28082.5
740.764	28061.93
741.104	28081.37
741.444	28015.15
741.784	27838.66
742.124	27954.82
742.464	27937.19
742.804	27855.16
743.143	27709.62
743.483	27686.12
743.823	27605.45
744.162	27582.62
744.502	27685.22
744.841	27501.49
745.181	27680.25
745.52	27508.73
745.86	27527.03
746.199	27490.42
746.538	27383.31
746.877	27557.54
747.216	27437.09
747.556	27446.81
747.895	27471.89
748.234	27312.8
748.573	27287.71
748.911	27072.35
749.25	27251.33
749.589	27126.14
749.928	27154.84
750.267	27112.8
750.605	27111.45
750.944	27020.15
751.283	26930.21
751.621	26977.89
751.96	26909.65
752.298	26940.83
752.636	26793.04
752.975	26712.81
753.313	26669.88
753.651	26630.78
753.989	26535.64
754.327	26521.63
754.666	26308.98
755.004	26490.45
755.342	26441.64
755.679	26345.59
756.017	26278.7
756.355	26365.93
756.693	26219.49
757.031	26244.58
757.368	26108.08
757.706	26015.88
758.044	25877.13
758.381	25973.62
758.719	25972.72
759.056	25934.08
759.394	25820.18
759.731	25684.59
760.068	25637.81
760.405	25565.27
