Data from hue_290_FLMS001491_00008.txt Node
Date: Tue Feb 07 15:52:08 GMT 2017
User: dcchb
Spectrometer: FLMS00149
Trigger mode: 0
Integration Time (sec): 2.000000E-2
Scans to average: 10
Electric dark correction enabled: true
Nonlinearity correction enabled: false
Boxcar width: 0
XAxis mode: Wavelengths
Number of Pixels in Spectrum: 2048
>>>>>Begin Spectral Data<<<<<
341.393	-4.19
341.776	-4.19
342.16	-4.19
342.543	-69.28
342.927	-87.36
343.31	-84.64
343.693	-55.27
344.077	-50.3
344.46	-47.81
344.843	-64.98
345.226	-38.54
345.61	-26.57
345.993	-26.12
346.376	-23.4
346.759	5.07
347.142	37.16
347.525	34
347.908	67.89
348.291	76.93
348.674	92.98
349.057	103.6
349.44	128.91
349.823	128.68
350.206	160.55
350.588	182.69
350.971	219.08
351.354	226.99
351.737	216.36
352.119	247.55
352.502	262.01
352.884	252.75
353.267	289.81
353.65	281.45
354.032	281.45
354.414	301.79
354.797	295.68
355.179	301.33
355.562	295.91
355.944	310.83
356.326	313.08
356.709	332.97
357.091	344.95
357.473	335.23
357.855	344.27
358.238	327.1
358.62	321.67
359.002	322.58
359.384	322.58
359.766	343.82
360.148	320.09
360.53	328.9
360.912	328.68
361.294	346.76
361.676	346.3
362.057	350.6
362.439	339.52
362.821	322.35
363.203	335.01
363.584	319.41
363.966	315.8
364.348	306.53
364.729	327.1
365.111	310.83
365.493	304.27
365.874	317.15
366.256	301.33
366.637	292.52
367.019	316.7
367.4	321.67
367.781	311.28
368.163	322.12
368.544	320.99
368.925	330.71
369.306	321.45
369.688	303.14
370.069	302.92
370.45	306.53
370.831	324.38
371.212	321.22
371.593	298.4
371.974	309.24
372.355	310.15
372.736	307.66
373.117	307.66
373.498	306.31
373.879	291.84
374.26	328.9
374.641	292.75
375.021	304.95
375.402	308.57
375.783	307.66
376.163	314.67
376.544	322.12
376.925	319.19
377.305	311.73
377.686	307.89
378.066	317.38
378.447	311.05
378.827	319.86
379.208	345.17
379.588	329.58
379.968	316.25
380.349	334.55
380.729	339.98
381.109	340.43
381.489	308.79
381.87	323.25
382.25	322.58
382.63	339.3
383.01	329.36
383.39	332.97
383.77	338.4
384.15	337.49
384.53	362.12
384.91	351.05
385.29	333.2
385.67	337.27
386.049	357.6
386.429	359.19
386.809	329.58
387.189	346.76
387.568	351.73
387.948	359.64
388.328	361.9
388.707	368.9
389.087	363.25
389.466	347.66
389.846	359.19
390.225	368.22
390.605	376.59
390.984	363.93
391.363	387.89
391.743	380.43
392.122	355.57
392.501	377.26
392.881	384.72
393.26	388.11
393.639	389.24
394.018	383.14
394.397	379.3
394.776	382.91
395.155	380.88
395.534	389.47
395.913	394.21
396.292	397.83
396.671	386.08
397.05	398.51
397.429	388.11
397.808	398.28
398.186	412.29
398.565	416.13
398.944	405.29
399.323	407.32
399.701	401.44
400.08	414.1
400.458	407.32
400.837	432.63
401.215	397.83
401.594	418.84
401.972	432.18
402.351	428.11
402.729	437.6
403.107	425.62
403.486	428.79
403.864	411.39
404.242	448.22
404.62	438.96
404.999	463.36
405.377	457.94
405.755	453.87
406.133	475.34
406.511	480.09
406.889	484.83
407.267	448.9
407.645	469.92
408.023	482.8
408.401	483.7
408.779	480.31
409.156	510.14
409.534	512.4
409.912	510.82
410.29	513.31
410.667	527.32
411.045	519.41
411.422	539.29
411.8	543.36
412.178	565.73
412.555	555.79
412.933	562.8
413.31	582.91
413.687	591.27
414.065	559.86
414.442	625.62
414.819	625.85
415.197	603.47
415.574	643.7
415.951	637.37
416.328	637.37
416.705	625.39
417.082	647.54
417.46	659.52
417.837	692.06
418.214	675.34
418.591	676.92
418.967	690.02
419.344	654.77
419.721	701.1
420.098	702.45
420.475	713.3
420.852	720.08
421.228	698.61
421.605	729.8
421.982	765.73
422.358	751.27
422.735	757.14
423.111	782.9
423.488	773.86
423.864	785.39
424.241	794.2
424.617	804.82
424.994	813.64
425.37	807.76
425.746	828.33
426.123	833.52
426.499	845.27
426.875	838.49
427.251	871.94
427.627	890.47
428.003	900.87
428.379	909.91
428.756	919.85
429.132	905.61
429.507	945.61
429.883	943.35
430.259	939.06
430.635	951.49
431.011	965.95
431.387	998.72
431.763	1011.37
432.138	1004.37
432.514	1000.52
432.89	1005.72
433.265	1056.34
433.641	1061.54
434.016	1069.22
434.392	1090.01
434.767	1113.52
435.143	1092.95
435.518	1126.17
435.894	1109.9
436.269	1136.57
436.644	1171.37
437.02	1149.67
437.395	1184.7
437.77	1192.16
438.145	1209.33
438.52	1220.18
438.895	1224.7
439.271	1259.05
439.646	1283
440.021	1280.97
440.395	1295.21
440.77	1268.54
441.145	1293.17
441.52	1309.22
441.895	1284.36
442.27	1343.34
442.645	1315.32
443.019	1323.68
443.394	1359.16
443.769	1343.11
444.143	1370.23
444.518	1376.79
444.892	1363.9
445.267	1375.2
445.641	1371.81
446.016	1386.05
446.39	1405.03
446.764	1404.36
447.139	1403.23
447.513	1427.18
447.887	1395.09
448.262	1406.16
448.636	1421.3
449.01	1440.74
449.384	1463.79
449.758	1456.11
450.132	1491.81
450.506	1509.89
450.88	1492.49
451.254	1507.18
451.628	1520.74
452.002	1516.9
452.376	1546.05
452.75	1513.05
453.123	1532.49
453.497	1585.37
453.871	1540.17
454.244	1565.03
454.618	1574.07
454.992	1605.71
455.365	1617.01
455.739	1618.81
456.112	1638.93
456.486	1670.11
456.859	1656.33
457.232	1684.8
457.606	1677.34
457.979	1711.47
458.352	1746.72
458.725	1765.7
459.099	1773.61
459.472	1795.98
459.845	1798.24
460.218	1761.18
460.591	1848.86
460.964	1817.23
461.337	1847.73
461.71	1886.83
462.083	1862.87
462.456	1901.74
462.829	1909.88
463.201	1866.49
463.574	1920.73
463.947	1918.01
464.32	1967.5
464.692	1991.01
465.065	1992.59
465.438	2009.54
465.81	2040.95
466.183	2066.26
466.555	2078.91
466.928	2082.76
467.3	2086.37
467.672	2125.01
468.045	2149.87
468.417	2163.21
468.789	2174.73
469.161	2155.75
469.534	2230.55
469.906	2231.68
470.278	2248.85
470.65	2284.33
471.022	2316.2
471.394	2327.95
471.766	2359.58
472.138	2371.34
472.51	2410.43
472.882	2430.32
473.253	2440.03
473.625	2463.99
473.997	2517.09
474.369	2535.4
474.74	2547.83
475.112	2574.04
475.484	2601.16
475.855	2616.3
476.227	2620.59
476.598	2701.27
476.97	2784.43
477.341	2788.05
477.713	2826.01
478.084	2791.21
478.455	2863.53
478.827	2868.5
479.198	2939.46
479.569	2945.33
479.94	3002.51
480.311	3020.36
480.682	3087.02
481.053	3105.55
481.424	3145.1
481.795	3189.17
482.166	3188.49
482.537	3216.51
482.908	3267.81
483.279	3306.9
483.65	3364.53
484.021	3393.91
484.391	3412.21
484.762	3483.4
485.133	3480.01
485.503	3509.61
485.874	3563.17
486.244	3535.15
486.615	3627.35
486.985	3673.9
487.356	3739.44
487.726	3731.3
488.097	3828.25
488.467	3787.8
488.837	3844.07
489.207	3877.74
489.578	3948.24
489.948	3970.39
490.318	4032.08
490.688	3962.25
491.058	4028.24
491.428	4071.18
491.798	4087.68
492.168	4171.97
492.538	4209.03
492.908	4226.65
493.278	4249.93
493.648	4278.4
494.017	4296.03
494.387	4341.45
494.757	4365.63
495.126	4387.1
495.496	4422.81
495.866	4436.82
496.235	4425.29
496.605	4491.51
496.974	4488.12
497.344	4559.98
497.713	4571.05
498.082	4639.98
498.452	4646.76
498.821	4644.27
499.19	4615.34
499.559	4665.29
499.928	4712.74
500.298	4705.29
500.667	4766.3
501.036	4776.02
501.405	4812.63
501.774	4760.65
502.143	4827.54
502.512	4804.04
502.88	4883.36
503.249	4861.44
503.618	4879.29
503.987	4900.76
504.356	4972.17
504.724	4941.66
505.093	4945.96
505.462	4958.39
505.83	5009.46
506.199	5032.51
506.567	5120.64
506.936	5019.4
507.304	5090.13
507.672	5107.54
508.041	5153.41
508.409	5154.09
508.777	5114.09
509.145	5208.32
509.514	5160.64
509.882	5174.2
510.25	5216.46
510.618	5282.45
510.986	5241.09
511.354	5340.3
511.722	5337.81
512.09	5367.19
512.458	5388.21
512.826	5321.77
513.193	5399.96
513.561	5368.55
513.929	5421.65
514.297	5456.68
514.664	5447.41
515.032	5470.92
515.4	5508.2
515.767	5506.17
516.135	5541.65
516.502	5469.79
516.869	5600.86
517.237	5567.86
517.604	5540.29
517.972	5565.83
518.339	5693.73
518.706	5642.44
519.073	5635.43
519.44	5657.13
519.808	5664.13
520.175	5722.66
520.542	5751.13
520.909	5760.85
521.276	5761.76
521.643	5786.61
522.009	5850.11
522.376	5819.15
522.743	5847.18
523.11	5955.42
523.477	5947.74
523.843	5999.26
524.21	6021.64
524.577	6034.97
524.943	6055.53
525.31	6031.35
525.676	6122.65
526.043	6135.53
526.409	6162.2
526.776	6213.04
527.142	6201.29
527.508	6273.61
527.874	6244.23
528.241	6266.83
528.607	6345.47
528.973	6334.17
529.339	6391.8
529.705	6404.9
530.071	6422.98
530.437	6450.32
530.803	6472.92
531.169	6509.98
531.535	6481.28
531.901	6506.59
532.267	6501.62
532.632	6536.65
532.998	6594.73
533.364	6596.99
533.73	6644.22
534.095	6692.58
534.461	6718.11
534.826	6733.26
535.192	6715.4
535.557	6805.8
535.923	6773.93
536.288	6839.92
536.653	6774.84
537.019	6832.69
537.384	6846.92
537.749	6820.71
538.114	6903.87
538.479	6925.11
538.845	6897.09
539.21	6894.38
539.575	6926.02
539.94	7021.38
540.305	7026.81
540.67	7015.96
541.034	7001.72
541.399	7056.86
541.764	7081.27
542.129	7076.97
542.494	7094.38
542.858	7130.53
543.223	7156.97
543.587	7155.84
543.952	7161.72
544.316	7184.09
544.681	7242.39
545.045	7249.85
545.41	7280.81
545.774	7291.66
546.138	7250.08
546.503	7337.08
546.867	7373.24
547.231	7444.2
547.595	7400.36
547.959	7451.88
548.324	7436.51
548.688	7426.12
549.052	7473.35
549.416	7475.61
549.779	7512.67
550.143	7401.94
550.507	7536.85
550.871	7527.36
551.235	7518.77
551.599	7618.66
551.962	7576.62
552.326	7604.64
552.689	7576.4
553.053	7581.59
553.417	7637.19
553.78	7721.25
554.143	7723.29
554.507	7754.47
554.87	7742.27
555.234	7845.32
555.597	7743.4
555.96	7860.46
556.323	7864.52
556.686	7875.37
557.05	7886.45
557.413	7895.94
557.776	7884.64
558.139	7968.02
558.502	7961.92
558.865	7957.86
559.228	8017.52
559.59	8044.86
559.953	8022.71
560.316	8078.76
560.679	8089.38
561.041	8140.68
561.404	8226.1
561.767	8209.6
562.129	8168.92
562.492	8239.88
562.854	8258.41
563.217	8285.3
563.579	8276.49
563.941	8361.01
564.304	8335.25
564.666	8404.62
565.028	8406.21
565.39	8411.18
565.753	8510.16
566.115	8465.41
566.477	8476.49
566.839	8477.39
567.201	8551.29
567.563	8587.9
567.925	8644.39
568.287	8639.42
568.648	8695.92
569.01	8691.17
569.372	8722.81
569.734	8710.15
570.095	8854.1
570.457	8844.61
570.819	8846.65
571.18	8921.9
571.542	8972.74
571.903	8956.47
572.265	9043.02
572.626	9026.3
572.987	9050.93
573.349	9117.83
573.71	9125.73
574.071	9137.71
574.432	9241.89
574.794	9311.94
575.155	9295.9
575.516	9347.65
575.877	9377.93
576.238	9416.57
576.599	9496.57
576.96	9525.72
577.32	9556.91
577.681	9645.04
578.042	9622.44
578.403	9723.69
578.763	9715.32
579.124	9816.56
579.485	9883.23
579.845	9960.29
580.206	9980.18
580.566	10022.43
580.927	10154.63
581.287	10238.93
581.648	10289.32
582.008	10403.22
582.368	10426.94
582.728	10495.87
583.089	10569.09
583.449	10706.48
583.809	10732.7
584.169	10846.14
584.529	10966.14
584.889	11182.86
585.249	11190.77
585.609	11251.33
585.969	11401.16
586.329	11411.55
586.688	11512.56
587.048	11697.42
587.408	11747.81
587.768	11798.88
588.127	11980.57
588.487	12042.95
588.846	12300.57
589.206	12302.15
589.565	12438.19
589.925	12649.48
590.284	12759.76
590.643	12928.35
591.003	13017.38
591.362	13211.05
591.721	13355.91
592.08	13435
592.44	13631.38
592.799	13756.8
593.158	13923.8
593.517	13916.34
593.876	14126.51
594.235	14227.52
594.593	14409.89
594.952	14508.64
595.311	14596.1
595.67	14714.29
596.029	15017.11
596.387	15086.48
596.746	15238.79
597.104	15362.41
597.463	15494.38
597.822	15663.64
598.18	15680.14
598.538	15777.76
598.897	16000.81
599.255	15974.37
599.613	16393.57
599.972	16386.79
600.33	16516.95
600.688	16486.67
601.046	16783.84
601.404	16942.48
601.762	16957.17
602.12	17141.57
602.478	17190.83
602.836	17365.07
603.194	17270.15
603.552	17550.82
603.91	17530.71
604.268	17565.96
604.625	17630.82
604.983	17843.47
605.341	17903.36
605.698	18013.41
606.056	18204.59
606.413	18210.47
606.771	18397.58
607.128	18535.43
607.485	18439.39
607.843	18615.88
608.2	18774.29
608.557	18919.6
608.914	18846.16
609.272	18871.92
609.629	19039.37
609.986	19216.32
610.343	19143.55
610.7	19308.07
611.057	19430.1
611.414	19446.37
611.771	19486.14
612.127	19687.72
612.484	19749.86
612.841	19790.54
613.198	19709.41
613.554	19922.29
613.911	20050.42
614.267	20055.62
614.624	20113.24
614.98	20106.46
615.337	20240.47
615.693	20266.01
616.05	20355.72
616.406	20499.9
616.762	20446.57
617.118	20537.64
617.475	20513.68
617.831	20560.24
618.187	20621.25
618.543	20761.13
618.899	20857.63
619.255	20782.15
619.611	20775.82
619.967	21005.87
620.323	21074.35
620.678	20955.93
621.034	20962.49
621.39	20997.51
621.746	20952.09
622.101	21332.65
622.457	21049.49
622.812	21234.57
623.168	21256.72
623.523	21214.68
623.879	21324.74
624.234	21304.17
624.589	21390.72
624.945	21417.39
625.3	21470.27
625.655	21333.32
626.01	21526.99
626.365	21440.89
626.72	21541.45
627.075	21423.04
627.43	21476.14
627.785	21433.43
628.14	21590.04
628.495	21513.21
628.85	21545.07
629.205	21564.5
629.559	21710.26
629.914	21497.16
630.269	21583.49
630.623	21543.26
630.978	21432.53
631.332	21569.7
631.687	21613.54
632.041	21509.36
632.396	21584.62
632.75	21526.99
633.104	21523.6
633.459	21466.88
633.813	21437.73
634.167	21423.49
634.521	21396.15
634.875	21469.59
635.229	21361.12
635.583	21346.66
635.937	21328.8
636.291	21404.06
636.645	21431.63
636.999	21315.24
637.352	21307.79
637.706	21207.9
638.06	21219.2
638.413	21270.95
638.767	21156.83
639.121	21309.82
639.474	21113.67
639.828	21178.07
640.181	21214.23
640.534	21234.34
640.888	21238.41
641.241	21113.22
641.594	21063.5
641.947	21200.9
642.301	21115.02
642.654	21239.77
643.007	21178.98
643.36	21187.34
643.713	21129.49
644.066	21221.91
644.419	21217.85
644.771	20885.2
645.124	20848.59
645.477	20852.66
645.83	20633.68
646.182	20563.63
646.535	20497.86
646.888	20531.54
647.24	20514.59
647.593	20546.23
647.945	20613.34
648.298	20493.8
648.65	20464.65
649.002	20370.18
649.355	20544.42
649.707	20477.53
650.059	20547.13
650.411	20780.34
650.763	20828.03
651.115	21041.58
651.467	21015.82
651.819	21055.59
652.171	20855.14
652.523	20869.61
652.875	20822.83
653.227	20900.11
653.578	21013.33
653.93	20949.6
654.282	20836.39
654.633	20866.22
654.985	20923.84
655.337	20807.46
655.688	20861.25
656.039	20970.62
656.391	20906.67
656.742	20899.21
657.094	20826.44
657.445	21056.72
657.796	20942.37
658.147	20863.51
658.498	20959.55
658.849	20846.33
659.2	20850.85
659.551	20974.01
659.902	20969.49
660.253	20820.79
660.604	20976.04
660.955	20939.66
661.306	20981.92
661.656	20947.8
662.007	21010.39
662.358	20971.75
662.708	20963.39
663.059	21102.59
663.409	20884.3
663.76	21011.98
664.11	21126.78
664.461	21112.54
664.811	21087.23
665.161	21144.18
665.511	21145.76
665.862	20976.5
666.212	21047.46
666.562	21102.37
666.912	21091.75
667.262	20981.47
667.612	20992.09
667.962	21054.91
668.312	21045.42
668.662	21117.06
669.011	20926.55
669.361	20964.52
669.711	21013.33
670.06	20992.54
670.41	20902.6
670.76	20935.82
671.109	20962.71
671.459	20999.77
671.808	20881.36
672.157	20954.35
672.507	20837.97
672.856	20740.34
673.205	20739.89
673.554	20884.75
673.904	20891.07
674.253	20874.35
674.602	20781.25
674.951	20560.69
675.3	20477.98
675.649	20819.44
675.998	20703.74
676.346	20810.85
676.695	20844.07
677.044	20559.33
677.393	20652.21
677.741	20700.35
678.09	20719.33
678.438	20601.14
678.787	20680.46
679.135	20666
679.484	20492.67
679.832	20581.25
680.181	20445.89
680.529	20501.48
680.877	20401.82
681.225	20344.42
681.573	20592.1
681.922	20384.2
682.27	20309.85
682.618	20368.15
682.966	20278.66
683.314	20271.2
683.661	20177.2
684.009	20107.14
684.357	20103.53
684.705	20115.28
685.053	19995.28
685.4	20091.55
685.748	19980.82
686.095	19899.91
686.443	19692.46
686.79	19835.28
687.138	19807.26
687.485	19859.46
687.832	19829.41
688.18	19799.8
688.527	19663.54
688.874	19729.3
689.221	19539.92
689.568	19485.01
689.915	19441.4
690.262	19435.97
690.609	19407.95
690.956	19259.71
691.303	19388.06
691.65	19082.99
691.997	19196.2
692.344	19038.02
692.69	19125.92
693.037	19009.77
693.383	18836.67
693.73	18951.24
694.077	18777.68
694.423	18873.05
694.769	18741.98
695.116	18675.77
695.462	18595.09
695.808	18646.84
696.155	18618.82
696.501	18447.52
696.847	18453.62
697.193	18348.77
697.539	18278.26
697.885	18189.68
698.231	18109.91
698.577	18153.52
698.923	18061.77
699.269	18023.35
699.614	17879.4
699.96	17769.12
700.306	17759.41
700.651	17662.91
700.997	17610.03
701.342	17684.61
701.688	17607.32
702.033	17559.86
702.379	17466.53
702.724	17344.73
703.069	17452.52
703.415	17266.54
703.76	17269.02
704.105	17235.35
704.45	17233.09
704.795	17089.37
705.14	17039.65
705.485	17024.06
705.83	16990.39
706.175	16972.08
706.52	16891.18
706.865	16796.04
707.209	16773.44
707.554	16719.21
707.899	16733.9
708.243	16578.87
708.588	16651.19
708.932	16514.01
709.277	16491.64
709.621	16431.98
709.966	16353.57
710.31	16441.02
710.654	16266.79
710.998	16205.77
711.342	16205.77
711.687	16181.37
712.031	16152.22
712.375	16096.4
712.719	16054.14
713.063	15989.28
713.407	16118.77
713.75	16028.6
714.094	16050.52
714.438	15866.12
714.782	15959.45
715.125	15853.24
715.469	15934.6
715.812	15803.07
716.156	15729.85
716.499	15716.3
716.843	15682.62
717.186	15624.32
717.53	15734.15
717.873	15673.13
718.216	15659.8
718.559	15573.7
718.902	15519.24
719.246	15416.87
719.589	15467.71
719.932	15461.61
720.275	15467.26
720.617	15438.34
720.96	15351.56
721.303	15321.28
721.646	15435.63
721.989	15291.67
722.331	15364.44
722.674	15261.62
723.016	15350.2
723.359	15271.79
723.701	15266.36
724.044	15197.21
724.386	15157.67
724.729	15209.19
725.071	15140.94
725.413	15202.64
725.755	15093.04
726.097	15044.9
726.439	15094.39
726.782	15031.12
727.124	15163.09
727.465	15064.11
727.807	14975.07
728.149	15053.94
728.491	14859.37
728.833	15004.22
729.175	15039.03
729.516	14890.1
729.858	14947.95
730.199	14947.28
730.541	14938.92
730.882	14919.25
731.224	14931.68
731.565	14912.25
731.906	14861.18
732.248	14908.18
732.589	14831.8
732.93	14815.98
733.271	14773.72
733.612	14853.95
733.953	14902.76
734.294	14804
734.635	14799.26
734.976	14846.49
735.317	14780.5
735.658	14810.1
735.999	14792.7
736.339	14789.77
736.68	14857.34
737.021	14816.66
737.361	14742.76
737.702	14893.49
738.042	14814.85
738.383	14804.23
738.723	14824.12
739.063	14820.27
739.404	14874.28
739.744	14790.44
740.084	14873.15
740.424	14942.76
740.764	14751.35
741.104	14944.56
741.444	14768.3
741.784	14757
742.124	14827.96
742.464	14843.55
742.804	14788.64
743.143	14890.33
743.483	14880.39
743.823	14762.65
744.162	14915.41
744.502	14970.78
744.841	15058.46
745.181	15022.3
745.52	14952.25
745.86	15128.51
746.199	15163.54
746.538	15082.41
746.877	15232.47
747.216	15218.68
747.556	15339.13
747.895	15359.7
748.234	15322.63
748.573	15397.43
748.911	15354.95
749.25	15480.37
749.589	15515.85
749.928	15641.72
750.267	15779.8
750.605	15814.15
750.944	15719.91
751.283	15836.97
751.621	15934.6
751.96	15990.41
752.298	16061.6
752.636	16199.9
752.975	16215.04
753.313	16278.31
753.651	16478.76
753.989	16505.2
754.327	16543.62
754.666	16569.83
755.004	16831.97
755.342	16920.78
755.679	16964.4
756.017	17157.39
756.355	17204.17
756.693	17308.34
757.031	17429.92
757.368	17391.73
757.706	17502.01
758.044	17626.53
758.381	17863.36
758.719	17906.07
759.056	18024.03
759.394	18047.08
759.731	18119.17
