Data from hue_210_FLMS001491_00041.txt Node
Date: Tue Feb 07 16:41:14 GMT 2017
User: dcchb
Spectrometer: FLMS00149
Trigger mode: 0
Integration Time (sec): 2.000000E-2
Scans to average: 10
Electric dark correction enabled: true
Nonlinearity correction enabled: false
Boxcar width: 0
XAxis mode: Wavelengths
Number of Pixels in Spectrum: 2048
>>>>>Begin Spectral Data<<<<<
341.393	-15.78
341.776	-15.78
342.16	-15.78
342.543	-79.28
342.927	-61.42
343.31	-72.95
343.693	-76.57
344.077	-81.54
344.46	-67.53
344.843	-57.13
345.226	-50.58
345.61	-29.56
345.993	-18.49
346.376	-1.99
346.759	7.95
347.142	37.33
347.525	54.05
347.908	72.81
348.291	63.09
348.674	103.99
349.057	117.1
349.44	134.5
349.823	150.77
350.206	154.84
350.588	196.2
350.971	204.33
351.354	213.37
351.737	230.77
352.119	233.93
352.502	278.45
352.884	257.89
353.267	269.19
353.65	272.13
354.032	300.37
354.414	309.19
354.797	324.55
355.179	305.8
355.562	327.72
355.944	318.45
356.326	325.46
356.709	329.3
357.091	322.75
357.473	331.11
357.855	319.36
358.238	327.72
358.62	343.99
359.002	320.03
359.384	330.88
359.766	308.28
360.148	344.44
360.53	318.23
360.912	330.2
361.294	346.47
361.676	336.08
362.057	338.34
362.439	339.69
362.821	318.68
363.203	320.26
363.584	324.78
363.966	319.81
364.348	315.06
364.729	322.29
365.111	325.46
365.493	325.01
365.874	309.64
366.256	309.86
366.637	311.67
367.019	284.33
367.4	319.13
367.781	319.36
368.163	309.41
368.544	306.7
368.925	336.08
369.306	292.92
369.688	330.43
370.069	296.53
370.45	299.02
370.831	316.64
371.212	315.51
371.593	304.44
371.974	318
372.355	289.3
372.736	301.5
373.117	305.12
373.498	304.22
373.879	295.85
374.26	303.09
374.641	325.91
375.021	301.05
375.402	316.19
375.783	311.9
376.163	343.31
376.544	335.85
376.925	332.69
377.305	313.48
377.686	317.32
378.066	325.46
378.447	301.5
378.827	319.13
379.208	319.58
379.588	319.81
379.968	308.51
380.349	336.98
380.729	346.02
381.109	350.77
381.489	332.24
381.87	323.88
382.25	337.66
382.63	340.82
383.01	331.11
383.39	344.44
383.77	336.08
384.15	350.09
384.53	347.15
384.91	333.59
385.29	327.04
385.67	359.13
386.049	364.55
386.429	351.45
386.809	350.77
387.189	344.67
387.568	342.41
387.948	347.6
388.328	353.93
388.707	354.38
389.087	360.48
389.466	365.23
389.846	345.34
390.225	362.74
390.605	349.19
390.984	361.84
391.363	359.58
391.743	364.55
392.122	352.58
392.501	365.91
392.881	361.39
393.26	384.21
393.639	383.08
394.018	377.89
394.397	388.73
394.776	380.37
395.155	383.31
395.534	389.41
395.913	391.67
396.292	393.48
396.671	367.49
397.05	372.46
397.429	399.58
397.808	390.77
398.186	395.29
398.565	386.25
398.944	390.09
399.323	408.17
399.701	417.43
400.08	387.15
400.458	405.46
400.837	442.29
401.215	404.78
401.594	416.08
401.972	412.91
402.351	416.75
402.729	423.31
403.107	411.11
403.486	436.42
403.864	423.53
404.242	436.42
404.62	430.31
404.999	440.71
405.377	455.62
405.755	451.1
406.133	452.91
406.511	463.31
406.889	465.11
407.267	478.67
407.645	488.17
408.023	478.45
408.401	481.84
408.779	489.75
409.156	472.12
409.534	509.63
409.912	499.01
410.29	546.69
410.667	522.06
411.045	535.85
411.422	550.76
411.8	557.77
412.178	554.6
412.555	554.38
412.933	575.85
413.31	591.44
413.687	602.51
414.065	607.26
414.442	607.71
414.819	624.43
415.197	628.05
415.574	638.9
415.951	644.32
416.328	629.63
416.705	639.35
417.082	659.46
417.46	641.16
417.837	683.41
418.214	681.15
418.591	683.64
418.967	719.57
419.344	704.66
419.721	716.63
420.098	737.42
420.475	728.16
420.852	764.54
421.228	784.43
421.605	786.46
421.982	784.65
422.358	819.91
422.735	807.48
423.111	821.72
423.488	843.64
423.864	844.54
424.241	883.41
424.617	893.58
424.994	933.13
425.37	924.31
425.746	914.37
426.123	949.62
426.499	946.23
426.875	957.08
427.251	987.81
427.627	1004.54
428.003	1036.17
428.379	1016.51
428.756	1043.4
429.132	1048.38
429.507	1048.38
429.883	1064.2
430.259	1090.64
430.635	1101.48
431.011	1097.87
431.387	1114.36
431.763	1144.87
432.138	1148.71
432.514	1200.91
432.89	1233.91
433.265	1223.29
433.641	1235.26
434.016	1260.35
434.392	1284.53
434.767	1307.58
435.143	1351.42
435.518	1314.36
435.894	1346.22
436.269	1423.96
436.644	1417.86
437.02	1428.93
437.395	1465.09
437.77	1465.31
438.145	1531.08
438.52	1508.7
438.895	1568.36
439.271	1548.02
439.646	1604.52
440.021	1635.03
440.395	1650.17
440.77	1648.81
441.145	1691.52
441.52	1680.68
441.895	1717.29
442.27	1765.87
442.645	1795.7
443.019	1798.19
443.394	1810.62
443.769	1831.18
444.143	1799.77
444.518	1848.13
444.892	1840.22
445.267	1844.29
445.641	1870.95
446.016	1901.24
446.39	1931.07
446.764	1938.07
447.139	1950.5
447.513	1980.56
447.887	1969.03
448.262	1976.94
448.636	2015.58
449.01	2026.43
449.384	2062.14
449.758	2051.51
450.132	2098.07
450.506	2087.22
450.88	2116.14
451.254	2112.76
451.628	2142.58
452.002	2162.7
452.376	2210.15
452.75	2227.55
453.123	2224.84
453.497	2295.12
453.871	2289.25
454.244	2298.51
454.618	2349.13
454.992	2359.75
455.365	2398.4
455.739	2442.46
456.112	2440.66
456.486	2479.98
456.859	2495.8
457.232	2485.63
457.606	2508
457.979	2557.26
458.352	2588.9
458.725	2583.48
459.099	2643.81
459.472	2709.12
459.845	2699.18
460.218	2732.4
460.591	2766.52
460.964	2771.72
461.337	2823.47
461.71	2858.05
462.083	2904.82
462.456	2900.08
462.829	2940.98
463.201	2975.56
463.574	2967.42
463.947	3013.3
464.32	3082.22
464.692	3096.46
465.065	3129.68
465.438	3202.67
465.81	3232.27
466.183	3260.3
466.555	3311.59
466.928	3319.5
467.3	3331.48
467.672	3371.93
468.045	3458.71
468.417	3496.22
468.789	3463.68
469.161	3510.91
469.534	3551.59
469.906	3641.08
470.278	3662.32
470.65	3712.94
471.022	3751.36
471.394	3844.91
471.766	3834.29
472.138	3901.18
472.51	3971.24
472.882	3998.13
473.253	4051.91
473.625	4131.01
473.997	4155.41
474.369	4218.01
474.74	4221.63
475.112	4336.43
475.484	4366.93
475.855	4430.21
476.227	4449.42
476.598	4577.55
476.97	4636.08
477.341	4706.36
477.713	4755.17
478.084	4808.5
478.455	4934.38
478.827	4971.89
479.198	5081.72
479.569	5080.36
479.94	5206.69
480.311	5251.88
480.682	5321.03
481.053	5414.14
481.424	5518.54
481.795	5544.76
482.166	5590.18
482.537	5678.09
482.908	5758.54
483.279	5797.4
483.65	5909.04
484.021	5990.85
484.391	6064.29
484.762	6107.68
485.133	6159.43
485.503	6245.75
485.874	6367.56
486.244	6398.97
486.615	6472.19
486.985	6555.35
487.356	6699.53
487.726	6730.94
488.097	6830.6
488.467	6852.74
488.837	6969.35
489.207	7018.84
489.578	7100.65
489.948	7149.01
490.318	7244.6
490.688	7265.16
491.058	7344.71
491.428	7416.34
491.798	7524.59
492.168	7612.72
492.538	7652.72
492.908	7697.02
493.278	7858.14
493.648	7756.22
494.017	7882.1
494.387	7963.9
494.757	7981.53
495.126	8068.98
495.496	8115.76
495.866	8083.45
496.235	8221.52
496.605	8263.1
496.974	8302.2
497.344	8337.9
497.713	8426.49
498.082	8450.89
498.452	8479.82
498.821	8545.13
499.19	8499.93
499.559	8617.44
499.928	8649.53
500.298	8623.77
500.667	8741.73
501.036	8633.49
501.405	8696.54
501.774	8738.57
502.143	8820.6
502.512	8813.14
502.88	8866.7
503.249	8868.96
503.618	8924.78
503.987	8991.9
504.356	8963.42
504.724	9040.03
505.093	9011.56
505.462	9005.46
505.83	9055.17
506.199	9159.8
506.567	9202.74
506.936	9160.93
507.304	9211.1
507.672	9260.82
508.041	9261.95
508.409	9246.58
508.777	9433.69
509.145	9394.6
509.514	9336.97
509.882	9381.26
510.25	9416.97
510.618	9435.05
510.986	9406.8
511.354	9482.05
511.722	9542.16
512.09	9587.36
512.458	9501.94
512.826	9569.73
513.193	9584.88
513.561	9582.39
513.929	9649.05
514.297	9643.86
514.664	9657.19
515.032	9658.32
515.4	9720.46
515.767	9691.09
516.135	9753.46
516.502	9640.01
516.869	9728.15
517.237	9848.37
517.604	9749.62
517.972	9756.4
518.339	9802.72
518.706	9781.71
519.073	9764.76
519.44	9797.98
519.808	9835.94
520.175	9764.76
520.542	9877.97
520.909	9974.24
521.276	9871.87
521.643	9977.86
522.009	9873.23
522.376	9937.86
522.743	9918.88
523.11	9993.9
523.477	10046.78
523.843	10064.64
524.21	10075.26
524.577	10148.25
524.943	10072.32
525.31	10098.99
525.676	10190.51
526.043	10094.24
526.409	10068.25
526.776	10153.67
527.142	10146.22
527.508	10174.69
527.874	10124.75
528.241	10146.89
528.607	10076.84
528.973	10146.89
529.339	10171.75
529.705	10215.14
530.071	10252.43
530.437	10167.23
530.803	10208.59
531.169	10232.32
531.535	10157.29
531.901	10117.74
532.267	10160
532.632	10183.73
532.998	10088.14
533.364	10104.18
533.73	10074.81
534.095	10179.21
534.461	10017.63
534.826	10103.73
535.192	10059.66
535.557	10082.49
535.923	10097.18
536.288	9993.45
536.653	9975.37
537.019	9946.22
537.384	9980.12
537.749	9892.44
538.114	9924.3
538.479	9876.17
538.845	9792.33
539.21	9775.15
539.575	9765.89
539.94	9849.05
540.305	9774.02
540.67	9809.95
541.034	9805.89
541.399	9753.01
541.764	9694.48
542.129	9694.7
542.494	9644.99
542.858	9582.39
543.223	9640.47
543.587	9554.59
543.952	9579.9
544.316	9527.48
544.681	9507.81
545.045	9513.24
545.41	9516.18
545.774	9442.96
546.138	9445.67
546.503	9359.57
546.867	9310.08
547.231	9369.06
547.595	9374.94
547.959	9367.93
548.324	9293.81
548.688	9289.29
549.052	9192.12
549.416	9212.91
549.779	9141.5
550.143	9130.88
550.507	9150.31
550.871	9087.49
551.235	9104.66
551.599	9058.11
551.962	9071.44
552.326	8959.58
552.689	9032.12
553.053	8917.77
553.417	8883.2
553.78	8966.13
554.143	8871.22
554.507	8896.53
554.87	8883.65
555.234	8946.25
555.597	8918
555.96	8821.73
556.323	8813.37
556.686	8772.24
557.05	8873.71
557.413	8765.69
557.776	8741.73
558.139	8788.96
558.502	8770.89
558.865	8718.91
559.228	8781.96
559.59	8735.41
559.953	8715.75
560.316	8775.63
560.679	8748.29
561.041	8766.59
561.404	8779.7
561.767	8753.03
562.129	8697.89
562.492	8783.99
562.854	8754.61
563.217	8746.71
563.579	8715.75
563.941	8792.35
564.304	8750.77
564.666	8803.88
565.028	8772.02
565.39	8759.13
565.753	8713.03
566.115	8798.91
566.477	8826.02
566.839	8783.99
567.201	8838.68
567.563	8797.1
567.925	8857.44
568.287	8874.61
568.648	8824.67
569.01	8849.98
569.372	8861.5
569.734	8861.28
570.095	8881.84
570.457	8878.9
570.819	8934.95
571.18	8904.89
571.542	8889.53
571.903	8989.18
572.265	8910.32
572.626	8964.55
572.987	8988.05
573.349	8964.33
573.71	9042.74
574.071	9038
574.432	9007.49
574.794	9080.26
575.155	9072.57
575.516	9058.11
575.877	9052.01
576.238	9063.31
576.599	9035.96
576.96	9177.2
577.32	9102.4
577.681	9165.23
578.042	9163.19
578.403	9090.42
578.763	9146.69
579.124	9155.73
579.485	9154.6
579.845	9220.82
580.206	9178.78
580.566	9147.6
580.927	9143.76
581.287	9240.03
581.648	9217.2
582.008	9214.72
582.368	9225.56
582.728	9190.99
583.089	9297.43
583.449	9223.98
583.809	9280.25
584.169	9251.78
584.529	9303.07
584.889	9314.37
585.249	9272.11
585.609	9248.84
585.969	9316.18
586.329	9235.05
586.688	9353.24
587.048	9241.38
587.408	9331.55
587.768	9260.14
588.127	9251.1
588.487	9237.77
588.846	9357.54
589.206	9311.89
589.565	9323.87
589.925	9336.07
590.284	9284.09
590.643	9370.42
591.003	9317.99
591.362	9402.28
591.721	9351.21
592.08	9335.62
592.44	9351.89
592.799	9419.91
593.158	9286.8
593.517	9375.84
593.876	9423.3
594.235	9322.96
594.593	9340.14
594.952	9397.31
595.311	9339.01
595.67	9419.23
596.029	9462.84
596.387	9409.06
596.746	9406.8
597.104	9371.55
597.463	9336.75
597.822	9475.05
598.18	9355.73
598.538	9289.97
598.897	9399.34
599.255	9348.05
599.613	9447.93
599.972	9431.43
600.33	9403.64
600.688	9361.83
601.046	9464.88
601.404	9444.09
601.762	9402.73
602.12	9462.17
602.478	9488.83
602.836	9494.03
603.194	9419
603.552	9439.57
603.91	9417.87
604.268	9456.29
604.625	9393.69
604.983	9411.55
605.341	9392.56
605.698	9455.39
606.056	9467.14
606.413	9463.75
606.771	9464.2
607.128	9508.27
607.485	9475.05
607.843	9388.04
608.2	9512.79
608.557	9524.76
608.914	9466.69
609.272	9513.92
609.629	9536.06
609.986	9539
610.343	9526.35
610.7	9528.15
611.057	9530.64
611.414	9538.1
611.771	9593.91
612.127	9589.85
612.484	9544.65
612.841	9595.5
613.198	9559.79
613.554	9584.42
613.911	9601.82
614.267	9593.46
614.624	9625.1
614.98	9585.1
615.337	9633.91
615.693	9632.33
616.05	9633.46
616.406	9686.79
616.762	9598.21
617.118	9603.41
617.475	9587.36
617.831	9678.66
618.187	9710.07
618.543	9702.84
618.899	9734.93
619.255	9676.4
619.611	9690.64
619.967	9749.62
620.323	9753.91
620.678	9755.72
621.034	9630.52
621.39	9663.29
621.746	9688.15
622.101	9831.65
622.457	9680.01
622.812	9755.04
623.168	9721.82
623.523	9706.23
623.879	9755.94
624.234	9671.88
624.589	9681.6
624.945	9682.05
625.3	9716.62
625.655	9670.52
626.01	9676.85
626.365	9706.45
626.72	9659.45
627.075	9664.42
627.43	9668.26
627.785	9635.04
628.14	9629.17
628.495	9703.97
628.85	9691.99
629.205	9684.31
629.559	9679.34
629.914	9642.05
630.269	9670.07
630.623	9598.66
630.978	9611.32
631.332	9623.52
631.687	9617.64
632.041	9587.13
632.396	9601.6
632.75	9526.12
633.104	9516.85
633.459	9522.5
633.813	9519.79
634.167	9561.37
634.521	9547.36
634.875	9508.04
635.229	9498.1
635.583	9397.99
635.937	9475.27
636.291	9439.12
636.645	9372.23
636.999	9389.4
637.352	9381.49
637.706	9404.99
638.06	9436.18
638.413	9373.81
638.767	9366.35
639.121	9404.31
639.474	9352.34
639.828	9353.02
640.181	9337.2
640.534	9421.26
640.888	9337.65
641.241	9319.8
641.594	9305.33
641.947	9339.01
642.301	9265.11
642.654	9282.28
643.007	9235.73
643.36	9259.91
643.713	9279.8
644.066	9287.48
644.419	9239.8
644.771	9122.74
645.124	9078.67
645.477	9110.31
645.83	9097.2
646.182	9026.47
646.535	8982.86
646.888	8929.07
647.24	8929.98
647.593	8987.83
647.945	8975.17
648.298	8906.93
648.65	8888.17
649.002	8848.17
649.355	8943.54
649.707	8937.89
650.059	8942.86
650.411	9092.46
650.763	9085
651.115	9148.28
651.467	9129.75
651.819	9061.05
652.171	9136.98
652.523	9127.03
652.875	9071.22
653.227	9082.29
653.578	9122.97
653.93	9199.8
654.282	9126.36
654.633	9085.68
654.985	9122.06
655.337	9151.67
655.688	9112.35
656.039	9174.72
656.391	9049.75
656.742	9106.92
657.094	9114.15
657.445	9103.76
657.796	9094.94
658.147	9083.65
658.498	9105.79
658.849	9145.11
659.2	9085
659.551	9091.1
659.902	9158.45
660.253	9106.47
660.604	9150.08
660.955	9094.72
661.306	9109.63
661.656	9094.04
662.007	9133.36
662.358	9141.5
662.708	9142.17
663.059	9101.95
663.409	9134.04
663.76	9144.21
664.11	9188.95
664.461	9086.13
664.811	9137.2
665.161	9131.55
665.511	9138.79
665.862	9080.48
666.212	9141.95
666.562	9189.18
666.912	9196.41
667.262	9152.8
667.612	9157.32
667.962	9176.75
668.312	9163.19
668.662	9226.24
669.011	9198.22
669.361	9108.73
669.711	9166.81
670.06	9145.11
670.41	9157.32
670.76	9142.85
671.109	9151.89
671.459	9094.49
671.808	9060.6
672.157	9070.31
672.507	9085
672.856	9068.05
673.205	9033.03
673.554	9162.29
673.904	9103.31
674.253	9134.72
674.602	9049.75
674.951	8967.72
675.3	8869.87
675.649	8998.68
675.998	9003.87
676.346	9014.49
676.695	9068.28
677.044	8998.68
677.393	8991.44
677.741	9005.46
678.09	8923.65
678.438	8938.34
678.787	8907.15
679.135	8986.7
679.484	8915.29
679.832	8938.11
680.181	8844.78
680.529	8877.55
680.877	8827.83
681.225	8839.36
681.573	8856.53
681.922	8811.34
682.27	8725.01
682.618	8833.93
682.966	8792.81
683.314	8778.79
683.661	8758.46
684.009	8701.96
684.357	8661.28
684.705	8636.65
685.053	8702.41
685.4	8674.39
685.748	8581.74
686.095	8609.53
686.443	8528.63
686.79	8600.04
687.138	8581.29
687.485	8535.41
687.832	8490.44
688.18	8474.85
688.527	8458.8
688.874	8462.87
689.221	8437.79
689.568	8401.18
689.915	8427.17
690.262	8357.11
690.609	8300.16
690.956	8320.95
691.303	8295.19
691.65	8287.96
691.997	8211.58
692.344	8176.1
692.69	8153.27
693.037	8171.8
693.383	8103.33
693.73	8175.19
694.077	8087.51
694.423	8042.32
694.769	8058.14
695.116	8025.37
695.462	8015.65
695.808	7941.08
696.155	7974.97
696.501	7915.99
696.847	7879.38
697.193	7826.28
697.539	7790.35
697.885	7810.46
698.231	7798.26
698.577	7703.57
698.923	7699.5
699.269	7669.67
699.614	7655.21
699.96	7577.24
700.306	7553.97
700.651	7533.18
700.997	7530.01
701.342	7472.39
701.688	7483.24
702.033	7447.76
702.379	7406.63
702.724	7403.69
703.069	7398.04
703.415	7328.44
703.76	7339.06
704.105	7320.98
704.45	7302.45
704.795	7269.68
705.14	7250.25
705.485	7259.06
705.83	7167.09
706.175	7187.88
706.52	7121.66
706.865	7094.09
707.209	7122.34
707.554	7078.73
707.899	7033.3
708.243	7085.28
708.588	7032.17
708.932	6996.92
709.277	6967.54
709.621	6982.23
709.966	6956.7
710.31	7016.13
710.654	6876.47
710.998	6920.31
711.342	6888.22
711.687	6912.85
712.031	6824.72
712.375	6807.55
712.719	6841.9
713.063	6753.54
713.407	6852.97
713.75	6763.93
714.094	6733.2
714.438	6724.84
714.782	6753.54
715.125	6713.31
715.469	6723.48
715.812	6695.23
716.156	6697.04
716.499	6654.33
716.843	6689.58
717.186	6602.81
717.53	6657.27
717.873	6640.32
718.216	6620.21
718.559	6615.01
718.902	6561
719.246	6619.08
719.589	6520.55
719.932	6549.02
720.275	6537.5
720.617	6471.74
720.96	6541.79
721.303	6518.29
721.646	6546.54
721.989	6524.62
722.331	6562.36
722.674	6518.06
723.016	6491.85
723.359	6532.98
723.701	6524.84
724.044	6495.92
724.386	6437.39
724.729	6447.78
725.071	6401.68
725.413	6458.86
725.755	6445.52
726.097	6422.47
726.439	6381.34
726.782	6369.59
727.124	6446.2
727.465	6421.57
727.807	6425.64
728.149	6370.72
728.491	6405.52
728.833	6416.6
729.175	6383.6
729.516	6363.94
729.858	6420.21
730.199	6372.08
730.541	6453.21
730.882	6372.08
731.224	6483.71
731.565	6400.55
731.906	6374.56
732.248	6382.7
732.589	6403.94
732.93	6354.68
733.271	6391.96
733.612	6348.12
733.953	6356.49
734.294	6375.69
734.635	6357.84
734.976	6377.5
735.317	6394.22
735.658	6398.74
735.999	6391.29
736.339	6410.04
736.68	6407.56
737.021	6353.1
737.361	6418.18
737.702	6408.46
738.042	6396.71
738.383	6446.88
738.723	6393.77
739.063	6447.33
739.404	6485.75
739.744	6474
740.084	6431.51
740.424	6481
740.764	6463.6
741.104	6485.75
741.444	6476.48
741.784	6519.42
742.124	6565.75
742.464	6542.7
742.804	6572.3
743.143	6535.01
743.483	6633.99
743.823	6622.92
744.162	6631.28
744.502	6645.74
744.841	6666.76
745.181	6739.07
745.52	6735.68
745.86	6779.98
746.199	6771.84
746.538	6882.8
746.877	6881.44
747.216	6897.04
747.556	6908.11
747.895	7008.22
748.234	6998.95
748.573	7098.39
748.911	7139.97
749.25	7179.97
749.589	7197.82
749.928	7242.79
750.267	7377.7
750.605	7443.24
750.944	7501.99
751.283	7528.66
751.621	7626.73
751.96	7626.73
752.298	7789.89
752.636	7862.89
752.975	7883.45
753.313	8017.01
753.651	8096.1
753.989	8240.28
754.327	8327.51
754.666	8438.46
755.004	8549.65
755.342	8668.74
755.679	8797.1
756.017	8882.29
756.355	9002.74
756.693	9125.23
757.031	9312.11
757.368	9442.96
757.706	9588.49
758.044	9677.3
758.381	9880.91
758.719	9978.31
759.056	10154.58
759.394	10289.72
759.731	10359.32
760.068	10572.42
760.405	10720.89
760.743	10889.7
761.08	11089.24
761.417	11276.58
761.754	11292.63
762.091	11500.3
762.428	11673.86
762.765	11877.47
763.102	12067.07
763.438	12202.89
763.775	12412.6
764.112	12615.53
764.449	12750.22
764.785	12949.08
765.122	12971.23
765.458	13172.35
765.795	13323.76
766.131	13486.24
766.467	13556.52
766.804	13714.03
767.14	13866.12
767.476	14036.74
767.812	14184.75
768.148	14429.95
768.485	14523.05
