Data from hue_38_FLMS001491_00051.txt Node
Date: Tue Feb 07 17:31:40 GMT 2017
User: dcchb
Spectrometer: FLMS00149
Trigger mode: 0
Integration Time (sec): 2.000000E-2
Scans to average: 10
Electric dark correction enabled: true
Nonlinearity correction enabled: false
Boxcar width: 0
XAxis mode: Wavelengths
Number of Pixels in Spectrum: 2048
>>>>>Begin Spectral Data<<<<<
341.393	-12.22
341.776	-12.22
342.16	-12.22
342.543	-61.71
342.927	-70.29
343.31	-79.11
343.693	-64.87
344.077	-60.13
344.46	-47.92
344.843	-52.89
345.226	-57.64
345.61	-22.84
345.993	-25.55
346.376	-2.05
346.759	28.91
347.142	24.17
347.525	56.03
347.908	44.5
348.291	75.01
348.674	87.89
349.057	96.48
349.44	129.47
349.823	140.32
350.206	181.9
350.588	196.14
350.971	209.7
351.354	214.44
351.737	244.05
352.119	268.23
352.502	274.33
352.884	270.49
353.267	293.31
353.65	287.44
354.032	306.87
354.414	311.84
354.797	331.05
355.179	311.39
355.562	317.49
355.944	314.55
356.326	324.5
356.709	332.63
357.091	324.95
357.473	338.73
357.855	324.5
358.238	338.28
358.62	346.42
359.002	336.7
359.384	339.86
359.766	336.93
360.148	355.46
360.53	335.8
360.912	335.34
361.294	321.33
361.676	313.65
362.057	350.94
362.439	336.7
362.821	343.71
363.203	339.86
363.584	344.16
363.966	319.07
364.348	319.07
364.729	331.95
365.111	312.29
365.493	313.88
365.874	296.48
366.256	318.85
366.637	315.01
367.019	295.35
367.4	296.7
367.781	317.72
368.163	323.37
368.544	322.24
368.925	298.06
369.306	333.08
369.688	310.49
370.069	293.09
370.45	313.2
370.831	329.69
371.212	314.1
371.593	288.79
371.974	313.65
372.355	305.51
372.736	312.07
373.117	317.04
373.498	312.97
373.879	338.51
374.26	305.97
374.641	297.83
375.021	327.21
375.402	322.24
375.783	346.42
376.163	317.04
376.544	344.61
376.925	335.8
377.305	324.95
377.686	321.33
378.066	313.42
378.447	325.63
378.827	332.41
379.208	329.02
379.588	329.92
379.968	313.88
380.349	321.79
380.729	312.52
381.109	324.95
381.489	333.99
381.87	343.03
382.25	314.1
382.63	322.24
383.01	324.5
383.39	337.38
383.77	337.38
384.15	336.7
384.53	370.15
384.91	342.58
385.29	356.13
385.67	340.32
386.049	359.75
386.429	345.29
386.809	368.79
387.189	352.07
387.568	366.53
387.948	382.35
388.328	355
388.707	369.92
389.087	356.59
389.466	387.77
389.846	370.37
390.225	374.21
390.605	381.22
390.984	352.74
391.363	353.65
391.743	365.63
392.122	391.39
392.501	366.76
392.881	395.46
393.26	380.99
393.639	378.06
394.018	366.3
394.397	375.34
394.776	393.87
395.155	374.89
395.534	368.11
395.913	387.55
396.292	379.86
396.671	386.42
397.05	393.2
397.429	388.45
397.808	394.55
398.186	383.03
398.565	394.78
398.944	385.96
399.323	392.07
399.701	394.55
400.08	402.69
400.458	382.35
400.837	397.04
401.215	405.62
401.594	420.54
401.972	421.44
402.351	395
402.729	397.72
403.107	411.05
403.486	426.42
403.864	414.66
404.242	425.51
404.62	394.33
404.999	427.55
405.377	439.3
405.755	450.37
406.133	449.92
406.511	430.71
406.889	446.75
407.267	441.78
407.645	437.71
408.023	441.56
408.401	441.33
408.779	459.63
409.156	433.42
409.534	450.14
409.912	456.92
410.29	445.85
410.667	468.22
411.045	479.07
411.422	455.34
411.8	465.96
412.178	476.81
412.555	476.13
412.933	485.62
413.31	461.89
413.687	491.72
414.065	496.02
414.442	496.24
414.819	486.07
415.197	506.87
415.574	494.21
415.951	526.98
416.328	483.14
416.705	518.62
417.082	518.84
417.46	514.1
417.837	529.24
418.214	520.42
418.591	540.08
418.967	525.85
419.344	538.95
419.721	548.45
420.098	511.84
420.475	546.64
420.852	554.77
421.228	555.45
421.605	537.15
421.982	558.62
422.358	552.51
422.735	579.18
423.111	568.11
423.488	604.04
423.864	555
424.241	586.19
424.617	562.68
424.994	575.56
425.37	573.76
425.746	569.01
426.123	570.37
426.499	587.99
426.875	587.54
427.251	586.64
427.627	605.39
428.003	605.17
428.379	597.71
428.756	617.14
429.132	598.61
429.507	627.77
429.883	641.1
430.259	623.7
430.635	667.99
431.011	649.69
431.387	686.75
431.763	668.22
432.138	657.14
432.514	679.97
432.89	673.87
433.265	714.09
433.641	695.11
434.016	683.13
434.392	688.78
434.767	690.14
435.143	724.26
435.518	727.42
435.894	740.76
436.269	747.76
436.644	743.02
437.02	763.58
437.395	762.9
437.77	786.41
438.145	778.95
438.52	756.58
438.895	775.33
439.271	782.56
439.646	785.05
440.021	790.93
440.395	798.61
440.77	793.41
441.145	805.39
441.52	829.57
441.895	793.64
442.27	843.81
442.645	814.65
443.019	846.74
443.394	819.63
443.769	849.23
444.143	826.86
444.518	849.91
444.892	855.56
445.267	861.43
445.641	893.97
446.016	867.53
446.39	871.6
446.764	865.27
447.139	883.13
447.513	875.67
447.887	886.97
448.262	900.75
448.636	907.08
449.01	906.63
449.384	905.5
449.758	906.18
450.132	940.07
450.506	945.27
450.88	947.53
451.254	952.73
451.628	950.02
452.002	948.66
452.376	986.4
452.75	946.18
453.123	980.53
453.497	993.41
453.871	978.94
454.244	1018.72
454.618	1014.65
454.992	1007.87
455.365	1015.55
455.739	1048.32
456.112	1089
456.486	1071.37
456.859	1080.18
457.232	1087.87
457.606	1086.96
457.979	1131.48
458.352	1147.75
458.725	1125.61
459.099	1142.1
459.472	1153.63
459.845	1176.45
460.218	1204.93
460.591	1181.42
460.964	1194.98
461.337	1229.33
461.71	1238.82
462.083	1241.08
462.456	1269.11
462.829	1299.16
463.201	1295.55
463.574	1275.66
463.947	1298.03
464.32	1351.36
464.692	1358.14
465.065	1349.1
465.438	1383
465.81	1383.45
466.183	1403.34
466.555	1448.54
466.928	1458.93
467.3	1465.26
467.672	1515.2
468.045	1528.53
468.417	1564.92
468.789	1549.32
469.161	1589.32
469.534	1579.38
469.906	1651.24
470.278	1666.16
470.65	1704.12
471.022	1723.78
471.394	1738.25
471.766	1788.87
472.138	1766.72
472.51	1864.8
472.882	1870.67
473.253	1894.4
473.625	1940.95
473.997	2001.97
474.369	2017.33
474.74	2029.54
475.112	2106.82
475.484	2137.56
475.855	2174.39
476.227	2225.69
476.598	2308.17
476.97	2321.28
477.341	2356.08
477.713	2407.83
478.084	2474.05
478.455	2546.59
478.827	2610.31
479.198	2709.52
479.569	2686.92
479.94	2801.72
480.311	2862.06
480.682	2935.28
481.053	3063.18
481.424	3079.68
481.795	3123.52
482.166	3254.59
482.537	3315.83
482.908	3400.8
483.279	3484.87
483.65	3577.52
484.021	3686.67
484.391	3745.2
484.762	3820
485.133	3888.02
485.503	3987.23
485.874	4108.8
486.244	4210.72
486.615	4292.3
486.985	4377.5
487.356	4485.52
487.726	4608.68
488.097	4742.91
488.467	4820.2
488.837	4944.94
489.207	5042.57
489.578	5139.74
489.948	5249.11
490.318	5354.42
490.688	5390.58
491.058	5567.75
491.428	5687.52
491.798	5717.12
492.168	5886.84
492.538	6034.86
492.908	6111.01
493.278	6291.35
493.648	6341.51
494.017	6431.23
494.387	6544.67
494.757	6690.21
495.126	6745.57
495.496	6814.5
495.866	6963.64
496.235	7031.21
496.605	7168.16
496.974	7262.85
497.344	7380.36
497.713	7417.42
498.082	7528.15
498.452	7694.47
498.821	7826.45
499.19	7772.66
499.559	7895.6
499.928	8071.64
500.298	8068.25
500.667	8227.11
501.036	8327.9
501.405	8415.81
501.774	8477.05
502.143	8560.21
502.512	8594.56
502.88	8715.24
503.249	8753.65
503.618	8840.21
503.987	8973.99
504.356	9020.09
504.724	9107.99
505.093	9201.33
505.462	9223.25
505.83	9311.38
506.199	9425.95
506.567	9625.27
506.936	9554.31
507.304	9690.35
507.672	9748.2
508.041	9782.33
508.409	9971.48
508.777	10069.33
509.145	10139.15
509.514	10084.47
509.882	10252.15
510.25	10284.24
510.618	10314.74
510.986	10426.6
511.354	10526.94
511.722	10646.03
512.09	10691.23
512.458	10696.2
512.826	10808.29
513.193	10894.84
513.561	10883.32
513.929	11105.46
514.297	11061.16
514.664	11191.1
515.032	11275.62
515.4	11349.52
515.767	11441.72
516.135	11489.85
516.502	11400.14
516.869	11673.35
517.237	11653.46
517.604	11662.73
517.972	11809.84
518.339	11855.72
518.706	11899.33
519.073	11941.59
519.44	12030.18
519.808	12177.07
520.175	12103.62
520.542	12328.25
520.909	12381.81
521.276	12415.48
521.643	12542.25
522.009	12623.38
522.376	12632.65
522.743	12697.28
523.11	12840.33
523.477	12911.06
523.843	13052.3
524.21	13080.55
524.577	13294.78
524.943	13296.81
525.31	13402.35
525.676	13512.17
526.043	13558.27
526.409	13555.79
526.776	13751.94
527.142	13839.17
527.508	13878.72
527.874	13933.63
528.241	14013.18
528.607	14069.22
528.973	14233.06
529.339	14199.61
529.705	14327.29
530.071	14435.31
530.437	14557.8
530.803	14610
531.169	14720.73
531.535	14638.92
531.901	14706.04
532.267	14864.23
532.632	14944.45
532.998	14934.96
533.364	15149.19
533.73	15152.36
534.095	15228.06
534.461	15313.48
534.826	15299.92
535.192	15393.93
535.557	15614.49
535.923	15529.3
536.288	15533.36
536.653	15727.03
537.019	15576.07
537.384	15769.06
537.749	15852
538.114	15923.18
538.479	15858.1
538.845	15963.86
539.21	16013.58
539.575	16135.61
539.94	16051.99
540.305	16287.92
540.67	16204.53
541.034	16357.07
541.399	16463.73
541.764	16432.77
542.129	16597.97
542.494	16583.05
542.858	16615.14
543.223	16721.13
543.587	16744.63
543.952	16727.23
544.316	16816.72
544.681	16890.62
545.045	16964.96
545.41	17085.19
545.774	17216.26
546.138	17188.46
546.503	17252.64
546.867	17190.95
547.231	17493.99
547.595	17426.65
547.959	17487.66
548.324	17557.26
548.688	17510.94
549.052	17681.1
549.416	17615.57
549.779	17664.38
550.143	17809.01
550.507	17894.43
550.871	17869.8
551.235	17920.87
551.599	18032.05
551.962	18160.64
552.326	18160.86
552.689	18288.54
553.053	18147.53
553.417	18339.16
553.78	18445.6
554.143	18509.78
554.507	18566.28
554.87	18642.89
555.234	18787.06
555.597	18697.12
555.96	18684.24
556.323	18861.18
556.686	18925.59
557.05	18983.22
557.413	19038.36
557.776	19065.25
558.139	19208.75
558.502	19219.59
558.865	19307.5
559.228	19429.98
559.59	19495.07
559.953	19573.26
560.316	19673.37
560.679	19776.19
561.041	19855.06
561.404	19801.5
561.767	19998.1
562.129	19867.03
562.492	20067.25
562.854	20092.11
563.217	20226.35
563.579	20250.3
563.941	20329.85
564.304	20377.53
564.666	20511.54
565.028	20569.84
565.39	20615.26
565.753	20639.67
566.115	20898.65
566.477	20862.49
566.839	20861.13
567.201	20991.98
567.563	21097.74
567.925	21222.25
568.287	21293.89
568.648	21195.13
569.01	21408.24
569.372	21551.96
569.734	21519.65
570.095	21620.21
570.457	21822.01
570.819	21958.05
571.18	21843.25
571.542	22042.12
571.903	21959.86
572.265	22211.83
572.626	22292.06
572.987	22357.59
573.349	22433.07
573.71	22532.73
574.071	22579.28
574.432	22794.19
574.794	22982.66
575.155	22948.54
575.516	22944.92
575.877	23145.82
576.238	23239.37
576.599	23339.49
576.96	23481.85
577.32	23519.59
577.681	23659.7
578.042	23877.55
578.403	23963.2
578.763	24039.35
579.124	24195.51
579.485	24467.82
579.845	24574.48
580.206	24672.78
580.566	24842.95
580.927	24913.91
581.287	25221.02
581.648	25258.98
582.008	25544.62
582.368	25537.17
582.728	25891.28
583.089	25944.39
583.449	26110.94
583.809	26385.05
584.169	26531.72
584.529	26739.85
584.889	27071.82
585.249	27086.96
585.609	27158.59
585.969	27487.17
586.329	27681.97
586.688	27994.5
587.048	28129.87
587.408	28241.5
587.768	28481.72
588.127	28696.41
588.487	28992.44
588.846	29340.91
589.206	29354.92
589.565	29563.5
589.925	29911.52
590.284	29932.31
590.643	30161.23
591.003	30422.24
591.362	30758.95
591.721	30936.12
592.08	31180.63
592.44	31518.25
592.799	31573.39
593.158	31779.04
593.517	31934.51
593.876	32083.89
594.235	32369.76
594.593	32537.44
594.952	32864.88
595.311	32985.11
595.67	33381.48
596.029	33675.03
596.387	33949.38
596.746	34045.87
597.104	33985.31
597.463	34207.45
597.822	34625.06
598.18	34684.27
598.538	34907.09
598.897	35284.26
599.255	35159.06
599.613	35863
599.972	35774.64
600.33	36091.92
600.688	36108.19
601.046	36340.5
601.404	36461.63
601.762	36709.08
602.12	36956.08
602.478	37092.57
602.836	37312.23
603.194	37294.37
603.552	37495.95
603.91	37521.71
604.268	37822.72
604.625	37864.53
604.983	38163.95
605.341	38125.76
605.698	38440.56
606.056	38636.71
606.413	38708.8
606.771	39090.94
607.128	39194.44
607.485	39032.41
607.843	39338.84
608.2	39531.38
608.557	39866.51
608.914	39800.75
609.272	39985.6
609.629	40104.69
609.986	40355.31
610.343	40279.83
610.7	40702.64
611.057	40671.91
611.414	40742.87
611.771	41017.21
612.127	41063.99
612.484	41209.75
612.841	41594.6
613.198	41397.77
613.554	41503.08
613.911	41826.46
614.267	41764.09
614.624	41810.64
614.98	42172.21
615.337	42359.32
615.693	42273.22
616.05	42275.94
616.406	42724.29
616.762	42447.01
617.118	42475.48
617.475	42757.51
617.831	42841.12
618.187	42922.93
618.543	42930.61
618.899	43158.17
619.255	43267.1
619.611	43193.2
619.967	43428.45
620.323	43587.77
620.678	43545.96
621.034	43416.7
621.39	43416.02
621.746	43552.51
622.101	44053.52
622.457	43757.03
622.812	43881.09
623.168	43910.02
623.523	44055.78
623.879	44384.36
624.234	43940.07
624.589	44113.18
624.945	44238.37
625.3	44272.27
625.655	44303.23
626.01	44382.32
626.365	44460.51
626.72	44313.4
627.075	44500.06
627.43	44446.5
627.785	44297.8
628.14	44514.07
628.495	44718.81
628.85	44564.01
629.205	44474.07
629.559	44719.71
629.914	44487.18
630.269	44529.89
630.623	44686.04
630.978	44434.98
631.332	44665.7
631.687	44695.76
632.041	44536.67
632.396	44735.31
632.75	44636.78
633.104	44541.87
633.459	44481.53
633.813	44533.5
634.167	44518.14
634.521	44598.14
634.875	44589.55
635.229	44684.69
635.583	44477.46
635.937	44473.62
636.291	44642.88
636.645	44545.93
636.999	44563.79
637.352	44633.61
637.706	44307.3
638.06	44533.5
638.413	44525.82
638.767	44420.51
639.121	44561.07
639.474	44327.86
639.828	44190.24
640.181	44282.44
640.534	44292.61
640.888	44367.63
641.241	44023.24
641.594	44090.58
641.947	44262.78
642.301	44164.47
642.654	44150.92
643.007	44130.35
643.36	44212.38
643.713	43982.11
644.066	44292.61
644.419	44025.49
644.771	43675.67
645.124	43324.95
645.477	43333.76
645.83	43067.55
646.182	42861.68
646.535	42816.94
646.888	42998.86
647.24	42638.19
647.593	42972.87
647.945	42911.85
648.298	42534.69
648.65	42661.91
649.002	42609.94
649.355	42768.8
649.707	42740.33
650.059	42918.63
650.411	43279.3
650.763	43343.7
651.115	43810.59
651.467	43729.91
651.819	43587.77
652.171	43522.01
652.523	43488.33
652.875	43450.82
653.227	43286.98
653.578	43665.28
653.93	43568.78
654.282	43351.61
654.633	43286.31
654.985	43387.32
655.337	43395.68
655.688	43420.77
656.039	43526.3
656.391	43104.16
656.742	43195.01
657.094	43194.1
657.445	43414.89
657.796	43224.39
658.147	43260.32
658.498	43208.12
658.849	43358.85
659.2	43239.3
659.551	43071.62
659.902	43194.33
660.253	43010.83
660.604	43249.7
660.955	43086.08
661.306	43216.93
661.656	43174.22
662.007	43004.28
662.358	43086.76
662.708	42968.8
663.059	43032.98
663.409	42933.09
663.76	43227.78
664.11	43150.72
664.461	43125.18
664.811	43119.53
665.161	43070.04
665.511	43011.06
665.862	42882.02
666.212	43075.01
666.562	43131.51
666.912	42982.36
667.262	42856.03
667.612	42944.62
667.962	42922.7
668.312	42981.68
668.662	43220.54
669.011	43138.06
669.361	43048.12
669.711	43033.2
670.06	42884.51
670.41	42846.77
670.76	42794.34
671.109	42832.98
671.459	42777.39
671.808	42762.25
672.157	42869.14
672.507	42545.31
672.856	42635.25
673.205	42622.59
673.554	42769.93
673.904	42693.78
674.253	42960.66
674.602	42719.54
674.951	42169.27
675.3	41963.18
675.649	42697.39
675.998	42650.84
676.346	42494.24
676.695	42707.11
677.044	42387.35
677.393	42590.05
677.741	42541.47
678.09	42416.95
678.438	42281.81
678.787	42459.66
679.135	42521.35
679.484	42017.64
679.832	42302.83
680.181	42189.16
680.529	42254.92
680.877	42172.89
681.225	42017.64
681.573	42380.79
681.922	41933.57
682.27	41862.84
682.618	41910.3
682.966	41746.91
683.314	41816.51
683.661	41703.75
684.009	41455.84
684.357	41454.26
684.705	41306.24
685.053	41506.92
685.4	41389.18
685.748	41257.66
686.095	41339.24
686.443	41100.15
686.79	41026.93
687.138	41148.73
687.485	41090.66
687.832	40996.65
688.18	40987.61
688.527	40858.12
688.874	40826.03
689.221	40765.92
689.568	40632.14
689.915	40550.78
690.262	40653.61
690.609	40410.9
690.956	40194.18
691.303	40196.22
691.65	40038.03
691.997	39981.31
692.344	39854.31
692.69	39826.96
693.037	39908.77
693.383	39568.21
693.73	39666.06
694.077	39401.89
694.423	39376.13
694.769	39391.49
695.116	39247.54
695.462	39247.09
695.808	39000.99
696.155	39156.47
696.501	38831.51
696.847	38853.65
697.193	38567.79
697.539	38857.04
697.885	38583.83
698.231	38502.93
698.577	38500.89
698.923	38335.48
699.269	38259.09
699.614	38101.36
699.96	37980
700.306	38002.38
700.651	37765.32
700.997	37776.39
701.342	37709.95
701.688	37592.22
702.033	37490.75
702.379	37380.7
702.724	37211.21
703.069	37374.82
703.415	37128.28
703.76	37125.79
704.105	37077.88
704.45	36864.78
704.795	36678.34
705.14	36643.54
705.485	36608.97
705.83	36483.55
706.175	36443.55
706.52	36333.04
706.865	36261.18
707.209	36299.82
707.554	36115.65
707.899	36201.29
708.243	35948.42
708.588	35910.45
708.932	35578.49
709.277	35703.23
709.621	35721.76
709.966	35450.35
710.31	35491.71
710.654	35294.88
710.998	35347.76
711.342	35314.54
711.687	35234.54
712.031	35146.86
712.375	34939.41
712.719	34977.82
713.063	34993.19
713.407	34967.88
713.75	34878.16
714.094	34757.04
714.438	34627.1
714.782	34551.17
715.125	34400.21
715.469	34578.96
715.812	34384.62
716.156	34182.82
716.499	34241.12
716.843	34256.71
717.186	34043.84
717.53	34281.12
717.873	34233.89
718.216	33900.11
718.559	33846.55
718.902	33650.4
719.246	33835.48
719.589	33614.92
719.932	33579.44
720.275	33436.17
720.617	33525.21
720.96	33459.67
721.303	33417.86
721.646	33438.65
721.989	33172.67
722.331	33364.53
722.674	33313.46
723.016	33173.35
723.359	33189.62
723.701	33218.32
724.044	32850.2
724.386	32796.19
724.729	33116.4
725.071	32917.09
725.413	32858.33
725.755	32825.56
726.097	32740.82
726.439	32570.65
726.782	32565.68
727.124	32665.79
727.465	32473.93
727.807	32451.11
728.149	32423.99
728.491	32174.28
728.833	32513.03
729.175	32196.65
729.516	32128.63
729.858	32144.9
730.199	32233.94
730.541	32084.11
730.882	32150.78
731.224	32190.33
731.565	31801.86
731.906	31918.69
732.248	31795.31
732.589	31778.36
732.93	31628.98
733.271	31622.21
733.612	31711.92
733.953	31590.12
734.294	31481.87
734.635	31499.04
734.976	31595.31
735.317	31393.06
735.658	31465.15
735.999	31423.11
736.339	31237.36
736.68	31390.57
737.021	31292.5
737.361	31123.24
737.702	31262.89
738.042	31120.98
738.383	31025.38
738.723	31135.89
739.063	30965.95
739.404	30982.67
739.744	30814.32
740.084	30708.56
740.424	30823.81
740.764	30743.81
741.104	30766.86
741.444	30591.95
741.784	30570.93
742.124	30623.59
742.464	30480.09
742.804	30537.04
743.143	30463.59
743.483	30441.9
743.823	30278.96
744.162	30183.82
744.502	30260.21
744.841	30191.73
745.181	30295.23
745.52	30141.11
745.86	30134.79
746.199	30108.35
746.538	29952.42
746.877	30134.79
747.216	30096.37
747.556	29980.21
747.895	29983.83
748.234	29922.59
748.573	29840.33
748.911	29763.5
749.25	29710.84
749.589	29708.36
749.928	29551.3
750.267	29708.81
750.605	29499.1
750.944	29481.7
751.283	29264.53
751.621	29531.64
751.96	29199.9
752.298	29312.89
752.636	29334.36
752.975	29121.03
753.313	29139.33
753.651	29198.77
753.989	28965.1
754.327	28994.7
754.666	28752.68
755.004	28826.35
755.342	28877.64
755.679	28750.42
756.017	28630.65
756.355	28637.42
756.693	28555.62
