Data from hue_160_FLMS001491_00065.txt Node
Date: Tue Feb 07 16:51:31 GMT 2017
User: dcchb
Spectrometer: FLMS00149
Trigger mode: 0
Integration Time (sec): 2.000000E-2
Scans to average: 10
Electric dark correction enabled: true
Nonlinearity correction enabled: false
Boxcar width: 0
XAxis mode: Wavelengths
Number of Pixels in Spectrum: 2048
>>>>>Begin Spectral Data<<<<<
341.393	-3.69
341.776	-3.69
342.16	-3.69
342.543	-76.45
342.927	-63.8
343.31	-54.08
343.693	-77.36
344.077	-96.34
344.46	-51.59
344.843	-50.69
345.226	-26.28
345.61	-38.49
345.993	-12.73
346.376	-3.91
346.759	18.46
347.142	-4.14
347.525	36.54
347.908	71.57
348.291	86.03
348.674	93.71
349.057	109.31
349.44	116.31
349.823	150.66
350.206	154.28
350.588	176.87
350.971	217.55
351.354	214.84
351.737	227.72
352.119	238.34
352.502	260.49
352.884	277.44
353.267	275.4
353.65	314.72
354.032	300.26
354.414	296.64
354.797	307.27
355.179	324.67
355.562	312.92
355.944	328.06
356.326	331.22
356.709	339.81
357.091	333.03
357.473	334.84
357.855	350.88
358.238	356.3
358.62	343.42
359.002	347.72
359.384	342.75
359.766	356.76
360.148	338.45
360.53	343.65
360.912	359.92
361.294	345.46
361.676	350.88
362.057	325.57
362.439	333.03
362.821	326.47
363.203	324.89
363.584	339.13
363.966	330.09
364.348	338.23
364.729	315.85
365.111	333.03
365.493	302.07
365.874	328.28
366.256	319.47
366.637	305.91
367.019	344.55
367.4	326.93
367.781	309.75
368.163	313.14
368.544	321.28
368.925	318.34
369.306	318.34
369.688	299.13
370.069	345.91
370.45	298.45
370.831	319.02
371.212	326.47
371.593	309.98
371.974	309.98
372.355	306.14
372.736	319.92
373.117	302.29
373.498	309.98
373.879	317.44
374.26	298.23
374.641	308.85
375.021	291.45
375.402	311.11
375.783	325.34
376.163	333.03
376.544	316.31
376.925	329.41
377.305	345.01
377.686	328.06
378.066	336.87
378.447	316.98
378.827	323.76
379.208	331.45
379.588	327.38
379.968	341.16
380.349	344.1
380.729	335.06
381.109	341.39
381.489	330.54
381.87	345.68
382.25	335.29
382.63	362.18
383.01	330.32
383.39	353.37
383.77	342.52
384.15	355.17
384.53	363.08
384.91	356.53
385.29	343.2
385.67	366.02
386.049	345.01
386.429	347.94
386.809	352.69
387.189	352.46
387.568	358.11
387.948	357.21
388.328	330.32
388.707	370.77
389.087	344.1
389.466	352.46
389.846	370.77
390.225	360.6
390.605	360.15
390.984	365.8
391.363	367.6
391.743	376.19
392.122	363.76
392.501	370.32
392.881	372.8
393.26	369.41
393.639	379.58
394.018	370.54
394.397	365.12
394.776	389.07
395.155	369.19
395.534	362.86
395.913	374.16
396.292	386.59
396.671	384.78
397.05	396.98
397.429	389.75
397.808	407.83
398.186	393.82
398.565	389.07
398.944	410.99
399.323	373.48
399.701	396.76
400.08	379.58
400.458	405.34
400.837	422.29
401.215	418
401.594	429.75
401.972	415.74
402.351	414.16
402.729	413.48
403.107	410.54
403.486	407.38
403.864	416.42
404.242	421.39
404.62	419.35
404.999	433.36
405.377	446.02
405.755	415.96
406.133	428.17
406.511	418.22
406.889	441.5
407.267	453.02
407.645	469.3
408.023	432.69
408.401	428.84
408.779	445.57
409.156	461.84
409.534	468.39
409.912	455.74
410.29	473.14
410.667	477.2
411.045	480.14
411.422	477.66
411.8	465.68
412.178	470.43
412.555	479.24
412.933	471.78
413.31	490.31
413.687	514.27
414.065	498.9
414.442	493.48
414.819	499.35
415.197	513.81
415.574	493.7
415.951	517.2
416.328	512.01
416.705	517.88
417.082	532.34
417.46	531.44
417.837	512.01
418.214	528.28
418.591	537.99
418.967	530.99
419.344	533.47
419.721	546.13
420.098	530.08
420.475	550.42
420.852	557.2
421.228	547.26
421.605	536.64
421.982	563.53
422.358	573.25
422.735	585.9
423.111	580.93
423.488	585.45
423.864	582.96
424.241	586.58
424.617	594.49
424.994	608.73
425.37	620.03
425.746	621.61
426.123	627.94
426.499	582.29
426.875	611.44
427.251	630.2
427.627	633.13
428.003	637.43
428.379	639.69
428.756	623.64
429.132	649.86
429.507	669.06
429.883	668.39
430.259	661.83
430.635	693.7
431.011	681.27
431.387	687.82
431.763	727.37
432.138	699.12
432.514	735.73
432.89	726.92
433.265	718.78
433.641	717.88
434.016	716.97
434.392	744.77
434.767	735.73
435.143	734.83
435.518	755.39
435.894	770.53
436.269	784.54
436.644	781.6
437.02	795.61
437.395	779.57
437.77	790.64
438.145	801.04
438.52	804.88
438.895	833.35
439.271	809.85
439.646	835.61
440.021	841.04
440.395	842.39
440.77	843.07
441.145	874.26
441.52	878.1
441.895	864.09
442.27	859.79
442.645	887.14
443.019	911.54
443.394	881.71
443.769	922.84
444.143	893.69
444.518	928.04
444.892	897.31
445.267	912.45
445.641	947.02
446.016	934.37
446.39	939.79
446.764	950.19
447.139	949.06
447.513	952.67
447.887	953.35
448.262	981.37
448.636	961.49
449.01	1001.03
449.384	987.02
449.758	981.82
450.132	989.28
450.506	1009.39
450.88	1014.82
451.254	1041.48
451.628	1060.69
452.002	1047.81
452.376	1056.62
452.75	1060.69
453.123	1081.93
453.497	1088.71
453.871	1082.16
454.244	1108.83
454.618	1128.04
454.992	1130.97
455.365	1142.05
455.739	1157.41
456.112	1194.25
456.486	1200.35
456.859	1205.77
457.232	1224.3
457.606	1214.36
457.979	1235.83
458.352	1282.38
458.725	1285.32
459.099	1291.87
459.472	1289.39
459.845	1333.23
460.218	1372.32
460.591	1342.72
460.964	1361.02
461.337	1393.79
461.71	1388.59
462.083	1429.5
462.456	1430.4
462.829	1443.28
463.201	1495.71
463.574	1483.73
463.947	1488.48
464.32	1493.45
464.692	1543.62
465.065	1583.39
465.438	1598.53
465.81	1614.58
466.183	1635.59
466.555	1639.21
466.928	1689.6
467.3	1697.74
467.672	1747.23
468.045	1779.54
468.417	1793.1
468.789	1807.57
469.161	1854.34
469.534	1862.03
469.906	1932.99
470.278	1899.99
470.65	1950.84
471.022	2004.62
471.394	2055.47
471.766	2113.09
472.138	2112.19
472.51	2151.06
472.882	2232.64
473.253	2248.68
473.625	2274.22
473.997	2330.94
474.369	2353.31
474.74	2444.38
475.112	2483.25
475.484	2542.24
475.855	2599.41
476.227	2650.48
476.598	2719.63
476.97	2773.19
477.341	2815.22
477.713	2906.07
478.084	2945.39
478.455	3061.32
478.827	3106.74
479.198	3210.24
479.569	3243.91
479.94	3380.41
480.311	3433.74
480.682	3517.58
481.053	3649.1
481.424	3738.36
481.795	3793.28
482.166	3951.92
482.537	4010.67
482.908	4109.2
483.279	4222.42
483.65	4306.03
484.021	4475.52
484.391	4574.95
484.762	4608.17
485.133	4751.89
485.503	4835.96
485.874	4972.45
486.244	5057.2
486.615	5173.58
486.985	5322.5
487.356	5487.92
487.726	5555.26
488.097	5730.4
488.467	5820.79
488.837	5931.07
489.207	6096.04
489.578	6225.08
489.948	6320.44
490.318	6486.76
490.688	6532.19
491.058	6733.09
491.428	6882.46
491.798	7000.42
492.168	7196.58
492.538	7265.05
492.908	7378.27
493.278	7520.18
493.648	7582.1
494.017	7751.82
494.387	7855.09
494.757	7966.05
495.126	8153.84
495.496	8196.1
495.866	8303.89
496.235	8410.1
496.605	8631.11
496.974	8658.23
497.344	8785.01
497.713	8862.52
498.082	8974.61
498.452	9135.51
498.821	9221.38
499.19	9246.92
499.559	9345.22
499.928	9492.79
500.298	9561.71
500.667	9649.85
501.036	9687.13
501.405	9787.47
501.774	9878.54
502.143	10033.56
502.512	10057.74
502.88	10150.62
503.249	10148.36
503.618	10306.55
503.987	10349.04
504.356	10498.86
504.724	10590.84
505.093	10619.09
505.462	10671.29
505.83	10791.28
506.199	10862.69
506.567	10931.62
506.936	10938.62
507.304	11045.97
507.672	11078.73
508.041	11138.17
508.409	11204.15
508.777	11367.54
509.145	11343.13
509.514	11412.06
509.882	11384.26
510.25	11478.5
510.618	11509.01
510.986	11568.21
511.354	11636.01
511.722	11749.68
512.09	11800.52
512.458	11802.1
512.826	11890.92
513.193	11850.01
513.561	11966.17
513.929	12071.93
514.297	12077.58
514.664	12153.51
515.032	12174.3
515.4	12250.45
515.767	12244.13
516.135	12255.88
516.502	12224.47
516.869	12383.56
517.237	12396.44
517.604	12323.9
517.972	12452.71
518.339	12485.93
518.706	12496.32
519.073	12493.84
519.44	12564.57
519.808	12682.99
520.175	12558.92
520.542	12750.78
520.909	12686.15
521.276	12661.29
521.643	12797.56
522.009	12821.29
522.376	12810.44
522.743	12853.83
523.11	12857.44
523.477	13006.59
523.843	12960.49
524.21	13086.59
524.577	13147.61
524.943	13131.79
525.31	13064.67
525.676	13174.95
526.043	13228.73
526.409	13210.66
526.776	13314.38
527.142	13278
527.508	13306.92
527.874	13340.82
528.241	13339.92
528.607	13286.59
528.973	13342.18
529.339	13347.83
529.705	13429.63
530.071	13398.67
530.437	13344.44
530.803	13425.57
531.169	13458.78
531.535	13332.69
531.901	13294.27
532.267	13339.92
532.632	13357.54
532.998	13419.01
533.364	13385.34
533.73	13368.62
534.095	13388.96
534.461	13388.73
534.826	13284.55
535.192	13415.85
535.557	13408.16
535.923	13238
536.288	13296.08
536.653	13232.8
537.019	13187.15
537.384	13143.99
537.749	13208.62
538.114	13175.4
538.479	13094.73
538.845	13106.7
539.21	13100.83
539.575	13109.42
539.94	12985.35
540.305	13084.11
540.67	12962.98
541.034	12908.29
541.399	12950.1
541.764	12927.95
542.129	12957.33
542.494	12853.83
542.858	12884.34
543.223	12808.63
543.587	12848.18
543.952	12716.21
544.316	12731.12
544.681	12726.15
545.045	12767.5
545.41	12729.09
545.774	12635.98
546.138	12587.85
546.503	12597.79
546.867	12468.3
547.231	12591.46
547.595	12559.15
547.959	12422.65
548.324	12351.92
548.688	12398.47
549.052	12321.41
549.416	12330.45
549.779	12351.24
550.143	12228.31
550.507	12295.88
550.871	12306.5
551.235	12166.16
551.599	12233.28
551.962	12181.08
552.326	12175.88
552.689	12126.84
553.053	12077.8
553.417	12027.18
553.78	12199.38
554.143	12019.5
554.507	12096.79
554.87	12052.27
555.234	12118.71
555.597	11996.45
555.96	12013.85
556.323	11957.36
556.686	11902.89
557.05	11947.41
557.413	11969.33
557.776	11909.22
558.139	11949.67
558.502	11898.83
558.865	11904.02
559.228	11857.24
559.59	11827.42
559.953	11840.97
560.316	12053.85
560.679	11851.37
561.041	11906.96
561.404	11937.02
561.767	12016.34
562.129	11956.45
562.492	12047.75
562.854	11888.88
563.217	11979.73
563.579	11965.94
563.941	12018.82
564.304	12058.6
564.666	12020.18
565.028	12046.39
565.39	11983.34
565.753	12036.45
566.115	12029.67
566.477	12023.79
566.839	12084.13
567.201	12097.69
567.563	12121.87
567.925	12198.93
568.287	12221.3
568.648	12213.62
569.01	12213.17
569.372	12263.11
569.734	12225.37
570.095	12230.57
570.457	12296.78
570.819	12235.31
571.18	12254.07
571.542	12307.63
571.903	12390.56
572.265	12341.75
572.626	12355.54
572.987	12358.25
573.349	12350.34
573.71	12409.77
574.071	12430.56
574.432	12359.38
574.794	12491.35
575.155	12442.09
575.516	12421.52
575.877	12381.75
576.238	12400.06
576.599	12428.3
576.96	12496.78
577.32	12401.86
577.681	12467.17
578.042	12477.79
578.403	12463.33
578.763	12421.52
579.124	12402.09
579.485	12393.05
579.845	12494.97
580.206	12446.83
580.566	12487.06
580.927	12463.78
581.287	12503.78
581.648	12413.39
582.008	12523.22
582.368	12407.96
582.728	12396.89
583.089	12440.73
583.449	12430.34
583.809	12459.26
584.169	12374.97
584.529	12418.81
584.889	12530.22
585.249	12402.54
585.609	12320.74
585.969	12376.33
586.329	12371.81
586.688	12403.9
587.048	12359.38
587.408	12340.85
587.768	12326.38
588.127	12241.19
588.487	12293.62
588.846	12293.62
589.206	12218.59
589.565	12290.91
589.925	12339.94
590.284	12327.06
590.643	12277.57
591.003	12360.73
591.362	12391.47
591.721	12328.42
592.08	12325.48
592.44	12277.12
592.799	12363.22
593.158	12205.48
593.517	12266.95
593.876	12346.72
594.235	12247.06
594.593	12296.33
594.952	12260.4
595.311	12248.19
595.67	12289.78
596.029	12173.17
596.387	12372.03
596.746	12245.94
597.104	12226.73
597.463	12187.86
597.822	12184.92
598.18	12201.87
598.538	12164.13
598.897	12219.95
599.255	12126.62
599.613	12230.12
599.972	12275.54
600.33	12250.68
600.688	12183.79
601.046	12231.02
601.404	12272.6
601.762	12208.87
602.12	12261.08
602.478	12271.92
602.836	12264.69
603.194	12205.71
603.552	12305.14
603.91	12194.64
604.268	12295.88
604.625	12222.66
604.983	12272.6
605.341	12181.76
605.698	12266.5
606.056	12276.44
606.413	12281.19
606.771	12307.85
607.128	12379.26
607.485	12264.69
607.843	12302.66
608.2	12311.02
608.557	12352.15
608.914	12310.11
609.272	12341.75
609.629	12389.21
609.986	12355.76
610.343	12373.39
610.7	12403.22
611.057	12451.58
611.414	12357.57
611.771	12417.46
612.127	12382.88
612.484	12432.14
612.841	12403.67
613.198	12354.86
613.554	12411.58
613.911	12388.76
614.267	12489.77
614.624	12420.39
614.98	12492.71
615.337	12498.13
615.693	12492.26
616.05	12475.31
616.406	12588.07
616.762	12598.92
617.118	12527.74
617.475	12537.23
617.831	12613.16
618.187	12512.37
618.543	12612.71
618.899	12638.02
619.255	12541.75
619.611	12479.6
619.967	12615.42
620.323	12638.47
620.678	12607.96
621.034	12564.34
621.39	12550.56
621.746	12480.28
622.101	12671.23
622.457	12554.63
622.812	12634.4
623.168	12626.04
623.523	12636.21
623.879	12627.39
624.234	12535.42
624.589	12628.07
624.945	12635.76
625.3	12626.94
625.655	12562.76
626.01	12628.98
626.365	12571.58
626.72	12595.08
627.075	12609.09
627.43	12608.86
627.785	12605.02
628.14	12605.93
628.495	12643.44
628.85	12577.45
629.205	12581.75
629.559	12618.35
629.914	12555.98
630.269	12576.55
630.623	12516.44
630.978	12532.26
631.332	12487.74
631.687	12568.64
632.041	12456.55
632.396	12466.72
632.75	12443.9
633.104	12456.55
633.459	12449.77
633.813	12385.37
634.167	12411.81
634.521	12434.86
634.875	12434.18
635.229	12301.53
635.583	12352.37
635.937	12314.41
636.291	12348.98
636.645	12319.38
636.999	12360.73
637.352	12375.65
637.706	12260.85
638.06	12233.73
638.413	12193.96
638.767	12156.45
639.121	12220.17
639.474	12155.99
639.828	12188.54
640.181	12133.85
640.534	12123.23
640.888	12117.8
641.241	12091.36
641.594	12140.63
641.947	12209.1
642.301	12051.36
642.654	12093.4
643.007	12067.18
643.36	12154.64
643.713	12052.72
644.066	12155.32
644.419	12011.14
644.771	11944.93
645.124	11851.14
645.477	11878.49
645.83	11820.41
646.182	11722.33
646.535	11726.85
646.888	11723.24
647.24	11587.65
647.593	11656.35
647.945	11629.68
648.298	11605.95
648.65	11438.27
649.002	11558.72
649.355	11544.03
649.707	11620.64
650.059	11680.53
650.411	11827.87
650.763	11847.08
651.115	11906.06
651.467	11952.38
651.819	11871.03
652.171	11918.71
652.523	11910.12
652.875	11821.31
653.227	11818.38
653.578	11959.84
653.93	11899.5
654.282	11870.8
654.633	11837.13
654.985	11833.06
655.337	11870.13
655.688	11871.03
656.039	11913.29
656.391	11796.68
656.742	11870.58
657.094	11868.32
657.445	11929.56
657.796	11848.21
658.147	11814.99
658.498	11854.76
658.849	11830.8
659.2	11869.9
659.551	11797.36
659.902	11851.14
660.253	11893.4
660.604	11934.76
660.955	11833.52
661.306	11920.75
661.656	11873.74
662.007	11910.8
662.358	11882.1
662.708	11948.32
663.059	11944.93
663.409	11832.61
663.76	12010.01
664.11	11894.31
664.461	11901.76
664.811	11902.89
665.161	11938.37
665.511	11904.7
665.862	11880.52
666.212	11869
666.562	11882.55
666.912	11869.9
667.262	11956
667.612	11944.25
667.962	11879.17
668.312	11967.3
668.662	11929.33
669.011	11880.29
669.361	11893.63
669.711	11795.55
670.06	11847.75
670.41	11854.76
670.76	11864.48
671.109	11800.75
671.459	11826.51
671.808	11804.59
672.157	11814.99
672.507	11748.55
672.856	11697.7
673.205	11863.57
673.554	11847.75
673.904	11766.4
674.253	11876
674.602	11797.13
674.951	11610.02
675.3	11524.15
675.649	11706.74
675.998	11731.37
676.346	11710.13
676.695	11747.42
677.044	11710.58
677.393	11687.98
677.741	11792.39
678.09	11685.72
678.438	11727.53
678.787	11617.93
679.135	11663.35
679.484	11571.15
679.832	11659.74
680.181	11490.7
680.529	11647.53
680.877	11600.53
681.225	11481.21
681.573	11502.23
681.922	11444.6
682.27	11439.4
682.618	11396.47
682.966	11417.03
683.314	11438.05
683.661	11420.65
684.009	11276.02
684.357	11362.12
684.705	11277.15
685.053	11293.42
685.4	11233.08
685.748	11206.19
686.095	11249.35
686.443	11181.33
686.79	11151.73
687.138	11233.76
687.485	11134.1
687.832	11152.4
688.18	11107.66
688.527	11080.99
688.874	11029.47
689.221	10970.04
689.568	11054.78
689.915	10972.3
690.262	10920.55
690.609	10878.97
690.956	10858.17
691.303	10807.78
691.65	10751.51
691.997	10687.78
692.344	10666.77
692.69	10681.23
693.037	10657.28
693.383	10570.72
693.73	10613.44
694.077	10521.23
694.423	10598.52
694.769	10519.43
695.116	10477.39
695.462	10449.37
695.808	10333.89
696.155	10359.43
696.501	10357.4
696.847	10305.65
697.193	10298.64
697.539	10174.58
697.885	10123.05
698.231	10072.66
698.577	10170.51
698.923	10143.84
699.269	10049.61
699.614	9984.07
699.96	9950.63
700.306	9976.16
700.651	9902.04
700.997	9863.17
701.342	9837.64
701.688	9863.85
702.033	9802.61
702.379	9748.6
702.724	9738.2
703.069	9736.4
703.415	9655.27
703.76	9621.15
704.105	9660.24
704.45	9647.13
704.795	9514.26
705.14	9533.69
705.485	9510.41
705.83	9421.38
706.175	9462.05
706.52	9425.9
706.865	9401.49
707.209	9347.03
707.554	9306.8
707.899	9394.03
708.243	9250.76
708.588	9264.77
708.932	9205.11
709.277	9186.13
709.621	9163.76
709.966	9121.72
710.31	9157.88
710.654	9092.12
710.998	9052.8
711.342	9025.91
711.687	9030.2
712.031	9053.02
712.375	8946.13
712.719	8947.26
713.063	8988.62
713.407	8978.22
713.75	8862.07
714.094	8874.05
714.438	8895.74
714.782	8870.66
715.125	8899.13
715.469	8845.35
715.812	8879.92
716.156	8714.95
716.499	8832.47
716.843	8791.34
717.186	8710.66
717.53	8718.34
717.873	8766.7
718.216	8769.87
718.559	8690.32
718.902	8608.74
719.246	8684.22
719.589	8654.17
719.932	8614.84
720.275	8621.62
720.617	8598.57
720.96	8664.33
721.303	8612.13
721.646	8653.26
721.989	8548.41
722.331	8603.32
722.674	8560.16
723.016	8519.93
723.359	8550.67
723.701	8501.85
724.044	8471.57
724.386	8448.75
724.729	8485.58
725.071	8507.28
725.413	8423.66
725.755	8438.35
726.097	8475.86
726.439	8390.22
726.782	8415.98
727.124	8445.13
727.465	8364.46
727.807	8479.71
728.149	8415.3
728.491	8396.09
728.833	8351.57
729.175	8427.05
729.516	8432.25
729.858	8416.43
730.199	8352.93
730.541	8366.04
730.882	8385.25
731.224	8430.22
731.565	8363.33
731.906	8337.34
732.248	8339.82
732.589	8317.68
732.93	8302.08
733.271	8314.29
733.612	8386.15
733.953	8383.66
734.294	8340.05
734.635	8349.31
734.976	8375.98
735.317	8324.46
735.658	8335.76
735.999	8286.04
736.339	8312.03
736.68	8341.18
737.021	8377.79
737.361	8340.5
737.702	8390.9
738.042	8349.54
738.383	8376.43
738.723	8280.16
739.063	8384.57
739.404	8366.94
739.744	8371.91
740.084	8408.07
740.424	8447.39
740.764	8417.79
741.104	8442.65
741.444	8394.74
741.784	8419.37
742.124	8450.33
742.464	8506.15
742.804	8493.72
743.143	8475.86
743.483	8493.49
743.823	8432.7
744.162	8548.63
744.502	8559.03
744.841	8632.7
745.181	8595.18
745.52	8618.01
745.86	8674.05
746.199	8685.12
746.538	8692.13
746.877	8809.87
747.216	8803.54
747.556	8832.47
747.895	8917.44
748.234	8881.5
748.573	8912.24
748.911	8918.56
749.25	9049.18
749.589	9086.47
749.928	9144.55
750.267	9250.31
750.605	9393.58
750.944	9319.68
751.283	9347.71
751.621	9528.04
751.96	9527.59
752.298	9668.83
752.636	9709.28
752.975	9825.21
753.313	9820.69
753.651	10039.67
753.989	10098.87
754.327	10147.91
754.666	10215.93
755.004	10380.22
755.342	10594.23
755.679	10672.19
756.017	10705.18
756.355	10872.86
756.693	10974.78
757.031	11134.1
757.368	11203.02
757.706	11329.57
758.044	11525.5
758.381	11673.75
758.719	11774.99
