Data from hue_220_FLMS001491_00022.txt Node
Date: Tue Feb 07 16:39:10 GMT 2017
User: dcchb
Spectrometer: FLMS00149
Trigger mode: 0
Integration Time (sec): 2.000000E-2
Scans to average: 10
Electric dark correction enabled: true
Nonlinearity correction enabled: false
Boxcar width: 0
XAxis mode: Wavelengths
Number of Pixels in Spectrum: 2048
>>>>>Begin Spectral Data<<<<<
341.393	-19.53
341.776	-19.53
342.16	-19.53
342.543	-55.92
342.927	-48.91
343.31	-71.06
343.693	-65.86
344.077	-67.67
344.46	-70.38
344.843	-52.75
345.226	-58.18
345.61	-28.8
345.993	-17.27
346.376	13.91
346.759	15.04
347.142	11.65
347.525	53.69
347.908	44.19
348.291	87.36
348.674	105.44
349.057	100.69
349.44	118.54
349.823	137.98
350.206	173.46
350.588	210.07
350.971	189.73
351.354	216.84
351.737	238.31
352.119	241.48
352.502	251.65
352.884	262.95
353.267	262.27
353.65	291.64
354.032	291.19
354.414	318.99
354.797	309.05
355.179	324.64
355.562	325.54
355.944	316.5
356.326	315.37
356.709	311.76
357.091	336.62
357.473	349.5
357.855	324.64
358.238	339.55
358.62	340.01
359.002	334.36
359.384	351.98
359.766	311.08
360.148	351.53
360.53	335.71
360.912	323.28
361.294	337.52
361.676	342.27
362.057	331.64
362.439	328.03
362.821	333.45
363.203	332.55
363.584	316.05
363.966	309.5
364.348	323.06
364.729	311.31
365.111	318.08
365.493	313.11
365.874	291.87
366.256	325.32
366.637	325.32
367.019	328.25
367.4	303.62
367.781	318.54
368.163	310.63
368.544	303.85
368.925	317.41
369.306	320.12
369.688	307.46
370.069	310.4
370.45	330.29
370.831	319.21
371.212	311.31
371.593	321.47
371.974	320.34
372.355	302.04
372.736	320.12
373.117	314.47
373.498	325.99
373.879	317.41
374.26	297.07
374.641	325.54
375.021	327.35
375.402	313.11
375.783	314.7
376.163	299.33
376.544	303.85
376.925	320.8
377.305	318.54
377.686	325.54
378.066	324.64
378.447	318.99
378.827	326.22
379.208	319.21
379.588	330.06
379.968	321.7
380.349	333.45
380.729	335.26
381.109	336.84
381.489	331.87
381.87	326.45
382.25	335.94
382.63	312.21
383.01	350.4
383.39	349.5
383.77	323.51
384.15	330.51
384.53	334.13
384.91	327.58
385.29	329.38
385.67	344.3
386.049	339.1
386.429	324.86
386.809	345.43
387.189	356.5
387.568	349.5
387.948	339.33
388.328	342.72
388.707	363.73
389.087	347.46
389.466	337.52
389.846	338.42
390.225	373.22
390.605	342.27
390.984	358.76
391.363	365.32
391.743	365.32
392.122	370.29
392.501	349.95
392.881	371.19
393.26	367.12
393.639	372.77
394.018	369.61
394.397	363.73
394.776	375.26
395.155	386.78
395.534	380.91
395.913	364.19
396.292	350.17
396.671	376.84
397.05	388.59
397.429	375.71
397.808	417.97
398.186	418.65
398.565	408.25
398.944	411.64
399.323	389.27
399.701	404.41
400.08	396.95
400.458	398.08
400.837	395.14
401.215	400.12
401.594	393.79
401.972	410.29
402.351	409.83
402.729	408.93
403.107	429.27
403.486	424.52
403.864	414.58
404.242	431.53
404.62	426.78
404.999	432.66
405.377	426.78
405.755	428.36
406.133	453.45
406.511	443.28
406.889	453.9
407.267	467.46
407.645	465.2
408.023	459.1
408.401	477.18
408.779	457.74
409.156	466.33
409.534	452.09
409.912	470.4
410.29	490.74
410.667	514.24
411.045	506.55
411.422	512.2
411.8	518.31
412.178	525.99
412.555	548.36
412.933	550.62
413.31	547.91
413.687	552.65
414.065	553.11
414.442	575.48
414.819	594.69
415.197	579.77
415.574	598.08
415.951	601.02
416.328	610.05
416.705	601.47
417.082	623.16
417.46	633.78
417.837	626.33
418.214	665.87
418.591	645.99
418.967	652.99
419.344	645.99
419.721	662.48
420.098	675.36
420.475	704.74
420.852	705.19
421.228	723.05
421.605	713.55
421.982	731.63
422.358	777.73
422.735	762.14
423.111	780.67
423.488	791.52
423.864	806.43
424.241	808.69
424.617	853.44
424.994	830.61
425.37	861.57
425.746	842.36
426.123	860.22
426.499	856.38
426.875	884.62
427.251	934.34
427.627	924.4
428.003	916.49
428.379	924.62
428.756	939.76
429.132	968.92
429.507	963.04
429.883	995.13
430.259	988.35
430.635	991.74
431.011	1022.25
431.387	1025.86
431.763	1051.17
432.138	1055.47
432.514	1053.66
432.89	1092.98
433.265	1096.37
433.641	1143.6
434.016	1160.55
434.392	1175.46
434.767	1213.88
435.143	1176.82
435.518	1227.21
435.894	1231.51
436.269	1285.29
436.644	1281.22
437.02	1326.65
437.395	1328.45
437.77	1362.8
438.145	1363.48
438.52	1357.83
438.895	1379.3
439.271	1423.82
439.646	1466.76
440.021	1481.44
440.395	1482.8
440.77	1466.98
441.145	1526.64
441.52	1533.42
441.895	1562.12
442.27	1583.59
442.645	1586.07
443.019	1610.25
443.394	1582.46
443.769	1613.87
444.143	1641.67
444.518	1668.78
444.892	1665.39
445.267	1684.83
445.641	1682.12
446.016	1690.25
446.39	1709.23
446.764	1699.07
447.139	1724.6
447.513	1744.04
447.887	1756.01
448.262	1756.47
448.636	1762.11
449.01	1767.09
449.384	1789.46
449.758	1837.82
450.132	1850.25
450.506	1882.56
450.88	1895.9
451.254	1871.04
451.628	1909.46
452.002	1922.56
452.376	1950.58
452.75	1955.33
453.123	1967.08
453.497	1978.61
453.871	1989
454.244	2056.12
454.618	2076
454.992	2057.7
455.365	2079.62
455.739	2140.64
456.112	2154.19
456.486	2122.78
456.859	2191.71
457.232	2227.19
457.606	2217.02
457.979	2238.03
458.352	2264.93
458.725	2283.91
459.099	2308.54
459.472	2368.88
459.845	2357.81
460.218	2414.53
460.591	2398.26
460.964	2374.08
461.337	2486.62
461.71	2492.26
462.083	2531.36
462.456	2536.11
462.829	2539.5
463.201	2581.3
463.574	2591.7
463.947	2629.66
464.32	2705.37
464.692	2710.79
465.065	2713.73
465.438	2782.65
465.81	2797.12
466.183	2794.4
466.555	2861.75
466.928	2863.33
467.3	2873.27
467.672	2920.73
468.045	3000.5
468.417	3004.12
468.789	3018.35
469.161	3046.37
469.534	3107.62
469.906	3113.27
470.278	3143.1
470.65	3197.11
471.022	3223.32
471.394	3330.89
471.766	3314.39
472.138	3344.45
472.51	3395.52
472.882	3502.63
473.253	3498.34
473.625	3483.43
473.997	3567.04
474.369	3634.61
474.74	3638
475.112	3682.52
475.484	3708.28
475.855	3790.99
476.227	3829.86
476.598	3904.88
476.97	3927.71
477.341	4028.72
477.713	4084.09
478.084	4062.85
478.455	4196.17
478.827	4203.41
479.198	4306.68
479.569	4322.95
479.94	4416.51
480.311	4466.9
480.682	4520.69
481.053	4629.84
481.424	4656.05
481.795	4688.59
482.166	4769.04
482.537	4803.84
482.908	4897.63
483.279	4924.07
483.65	4958.19
484.021	5075.02
484.391	5116.38
484.762	5149.82
485.133	5250.84
485.503	5273.21
485.874	5393.66
486.244	5419.65
486.615	5480.89
486.985	5523.15
487.356	5645.4
487.726	5609.7
488.097	5766.08
488.467	5718.62
488.837	5869.58
489.207	5887.88
489.578	5981.21
489.948	6062.57
490.318	6097.14
490.688	6096.24
491.058	6209.91
491.428	6267.98
491.798	6231.15
492.168	6363.12
492.538	6447.64
492.908	6470.47
493.278	6510.24
493.648	6504.36
494.017	6590.46
494.387	6622.1
494.757	6630.69
495.126	6707.97
495.496	6778.03
495.866	6714.98
496.235	6816.45
496.605	6895.31
496.974	6899.38
497.344	6935.31
497.713	7003.78
498.082	7067.06
498.452	7019.6
498.821	7044.69
499.19	7043.56
499.559	7122.2
499.928	7177.57
500.298	7150.22
500.667	7280.16
501.036	7267.96
501.405	7257.11
501.774	7254.85
502.143	7269.77
502.512	7340.73
502.88	7391.35
503.249	7369.88
503.618	7408.75
503.987	7435.64
504.356	7475.18
504.724	7490.78
505.093	7422.3
505.462	7497.78
505.83	7477.9
506.199	7585.92
506.567	7631.79
506.936	7590.66
507.304	7659.59
507.672	7652.36
508.041	7761.28
508.409	7746.82
508.777	7813.93
509.145	7790.2
509.514	7738
509.882	7728.74
510.25	7784.33
510.618	7775.29
510.986	7792.01
511.354	7846.93
511.722	7824.78
512.09	7926.7
512.458	7928.96
512.826	7939.58
513.193	7927.83
513.561	7869.75
513.929	7926.92
514.297	7995.85
514.664	8038.56
515.032	7987.94
515.4	7966.47
515.767	7970.31
516.135	8006.47
516.502	7939.81
516.869	8020.48
517.237	8045.11
517.604	7990.65
517.972	8057.54
518.339	8097.99
518.706	8098.67
519.073	8092.57
519.44	8021.84
519.808	8123.53
520.175	8039.69
520.542	8112.23
520.909	8135.96
521.276	8082.85
521.643	8166.69
522.009	8131.44
522.376	8124.89
522.743	8152.46
523.11	8147.71
523.477	8192.91
523.843	8244.88
524.21	8251.21
524.577	8244.88
524.943	8231.32
525.31	8197.65
525.676	8246.92
526.043	8210.53
526.409	8243.07
526.776	8300.02
527.142	8310.64
527.508	8168.27
527.874	8307.25
528.241	8286.46
528.607	8296.86
528.973	8315.16
529.339	8280.36
529.705	8259.12
530.071	8289.63
530.437	8323.07
530.803	8241.04
531.169	8333.02
531.535	8303.41
531.901	8204.88
532.267	8216.86
532.632	8183.87
532.998	8208.27
533.364	8260.93
533.73	8196.3
534.095	8243.53
534.461	8185.9
534.826	8249.63
535.192	8213.47
535.557	8234.26
535.923	8130.08
536.288	8090.08
536.653	8117.2
537.019	8078.78
537.384	8067.49
537.749	8082.85
538.114	8040.82
538.479	8044.44
538.845	7975.06
539.21	7959.24
539.575	7952.23
539.94	7950.2
540.305	7915.85
540.67	7914.27
541.034	7896.64
541.399	7880.37
541.764	7816.19
542.129	7801.96
542.494	7778
542.858	7800.15
543.223	7774.16
543.587	7815.51
543.952	7699.59
544.316	7762.63
544.681	7678.57
545.045	7697.78
545.41	7635.18
545.774	7675.41
546.138	7593.6
546.503	7586.82
546.867	7533.71
547.231	7669.76
547.595	7549.76
547.959	7516.77
548.324	7526.71
548.688	7415.07
549.052	7461.4
549.416	7401.29
549.779	7408.29
550.143	7393.61
550.507	7405.36
550.871	7314.96
551.235	7301.4
551.599	7323.32
551.962	7288.3
552.326	7272.03
552.689	7251.01
553.053	7215.3
553.417	7169.2
553.78	7285.81
554.143	7189.77
554.507	7234.74
554.87	7188.41
555.234	7218.69
555.597	7216.66
555.96	7137.79
556.323	7128.3
556.686	7104.57
557.05	7080.84
557.413	7100.28
557.776	7058.92
558.139	7110
558.502	7105.03
558.865	7074.52
559.228	7039.94
559.59	7153.16
559.953	7037.68
560.316	7119.94
560.679	7084.69
561.041	7076.33
561.404	7109.32
561.767	7097.79
562.129	7029.77
562.492	7065.7
562.854	7033.39
563.217	7073.84
563.579	7086.04
563.941	7046.27
564.304	7077
564.666	7043.56
565.028	7070.22
565.39	7076.1
565.753	7094.63
566.115	7132.37
566.477	7137.34
566.839	7164.91
567.201	7084.69
567.563	7140.05
567.925	7120.62
568.287	7168.3
568.648	7139.6
569.01	7133.72
569.372	7221.41
569.734	7126.27
570.095	7152.03
570.457	7233.61
570.819	7196.55
571.18	7206.04
571.542	7244.23
571.903	7218.69
572.265	7252.37
572.626	7276.32
572.987	7313.38
573.349	7277.22
573.71	7317.45
574.071	7328.07
574.432	7295.08
574.794	7420.27
575.155	7343.89
575.516	7303.89
575.877	7357.67
576.238	7368.97
576.599	7402.87
576.96	7432.7
577.32	7416.66
577.681	7410.78
578.042	7481.29
578.403	7441.74
578.763	7518.35
579.124	7472.25
579.485	7484.45
579.845	7515.41
580.206	7555.41
580.566	7585.46
580.927	7532.81
581.287	7597.67
581.648	7565.13
582.008	7584.33
582.368	7629.08
582.728	7688.29
583.089	7684.9
583.449	7651.23
583.809	7647.61
584.169	7742.07
584.529	7654.16
584.889	7778.91
585.249	7712.69
585.609	7655.75
585.969	7760.6
586.329	7709.53
586.688	7708.85
587.048	7748.62
587.408	7749.75
587.768	7809.87
588.127	7799.24
588.487	7802.18
588.846	7860.03
589.206	7790.43
589.565	7813.71
589.925	7839.47
590.284	7852.8
590.643	7895.74
591.003	7898.9
591.362	7933.48
591.721	7992.23
592.08	7907.94
592.44	7979.35
592.799	7996.08
593.158	7969.64
593.517	7991.1
593.876	8038.11
594.235	7984.1
594.593	7974.83
594.952	7973.48
595.311	7918.56
595.67	7926.02
596.029	8041.5
596.387	8079.91
596.746	8055.96
597.104	8008.28
597.463	8039.92
597.822	8069.75
598.18	8027.49
598.538	8074.72
598.897	8070.2
599.255	8044.89
599.613	8131.21
599.972	8087.6
600.33	8094.6
600.688	8110.42
601.046	8114.49
601.404	8186.13
601.762	8079.91
602.12	8209.18
602.478	8141.38
602.836	8195.62
603.194	8158.1
603.552	8195.17
603.91	8123.98
604.268	8129.18
604.625	8121.72
604.983	8180.48
605.341	8057.09
605.698	8215.28
606.056	8174.6
606.413	8138.67
606.771	8173.92
607.128	8219.35
607.485	8129.63
607.843	8180.03
608.2	8210.08
608.557	8224.09
608.914	8247.82
609.272	8285.33
609.629	8276.75
609.986	8300.25
610.343	8218.22
610.7	8291.43
611.057	8300.93
611.414	8251.21
611.771	8254.15
612.127	8323.52
612.484	8309.29
612.841	8330.76
613.198	8359.91
613.554	8328.95
613.911	8378.21
614.267	8336.41
614.624	8319.68
614.98	8349.74
615.337	8357.87
615.693	8388.38
616.05	8352.22
616.406	8416.63
616.762	8450.98
617.118	8396.52
617.475	8430.87
617.831	8396.74
618.187	8429.06
618.543	8406.91
618.899	8490.98
619.255	8494.82
619.611	8408.27
619.967	8410.3
620.323	8475.16
620.678	8477.87
621.034	8501.82
621.39	8424.09
621.746	8397.19
622.101	8545.89
622.457	8502.28
622.812	8494.82
623.168	8465.67
623.523	8470.41
623.879	8511.77
624.234	8404.88
624.589	8418.66
624.945	8496.63
625.3	8528.04
625.655	8500.24
626.01	8544.08
626.365	8455.5
626.72	8466.57
627.075	8502.73
627.43	8460.47
627.785	8412.34
628.14	8434.03
628.495	8486.68
628.85	8458.89
629.205	8466.35
629.559	8479.68
629.914	8404.2
630.269	8419.79
630.623	8372.34
630.978	8334.15
631.332	8444.88
631.687	8453.01
632.041	8370.3
632.396	8442.62
632.75	8334.15
633.104	8283.98
633.459	8295.73
633.813	8271.55
634.167	8351.32
634.521	8349.51
634.875	8373.92
635.229	8303.64
635.583	8272.45
635.937	8290.98
636.291	8315.39
636.645	8212.79
636.999	8288.95
637.352	8307.93
637.706	8207.82
638.06	8253.92
638.413	8249.18
638.767	8214.6
639.121	8191.78
639.474	8167.37
639.828	8139.12
640.181	8216.41
640.534	8163.08
640.888	8143.19
641.241	8164.88
641.594	8125.79
641.947	8176.18
642.301	8110.2
642.654	8117.2
643.007	8160.59
643.36	8115.39
643.713	8119.46
644.066	8104.32
644.419	8124.66
644.771	8038.11
645.124	7933.7
645.477	7938.45
645.83	7940.03
646.182	7897.77
646.535	7867.04
646.888	7869.98
647.24	7871.11
647.593	7905
647.945	7889.41
648.298	7822.52
648.65	7811.45
649.002	7802.86
649.355	7836.53
649.707	7874.27
650.059	7927.6
650.411	8003.08
650.763	7971.67
651.115	8053.93
651.467	8027.03
651.819	8018.22
652.171	8067.94
652.523	7994.04
652.875	8001.5
653.227	7956.53
653.578	8013.93
653.93	8000.14
654.282	7983.65
654.633	7994.95
654.985	7971.44
655.337	8037.88
655.688	7990.43
656.039	8090.54
656.391	7979.13
656.742	8003.31
657.094	8007.6
657.445	8016.19
657.796	8009.41
658.147	7995.17
658.498	7981.61
658.849	8057.09
659.2	8030.65
659.551	8012.57
659.902	8075.4
660.253	8005.34
660.604	8065.9
660.955	7988.84
661.306	8059.58
661.656	8027.03
662.007	8096.19
662.358	8053.7
662.708	8113.13
663.059	8094.83
663.409	8054.6
663.76	8096.86
664.11	8061.38
664.461	8120.82
664.811	8088.28
665.161	8059.12
665.511	8089.63
665.862	8102.29
666.212	8166.92
666.562	8138.44
666.912	8067.49
667.262	8099.58
667.612	8021.39
667.962	8102.06
668.312	8126.47
668.662	8084.21
669.011	8074.94
669.361	8018.45
669.711	8035.85
670.06	8032.91
670.41	8016.41
670.76	8050.54
671.109	8029.75
671.459	8057.32
671.808	8003.08
672.157	8065.68
672.507	7981.84
672.856	7969.18
673.205	8019.35
673.554	8030.65
673.904	8004.66
674.253	8046.47
674.602	8014.38
674.951	7829.07
675.3	7881.95
675.649	7983.42
675.998	7949.07
676.346	7960.14
676.695	7974.15
677.044	7960.6
677.393	7920.37
677.741	7929.86
678.09	7889.41
678.438	7919.24
678.787	7835.85
679.135	7869.52
679.484	7876.08
679.832	7832.01
680.181	7885.12
680.529	7811.45
680.877	7748.85
681.225	7843.08
681.573	7828.85
681.922	7789.3
682.27	7723.31
682.618	7774.16
682.966	7784.33
683.314	7744.33
683.661	7690.55
684.009	7685.8
684.357	7701.85
684.705	7645.8
685.053	7692.13
685.4	7628.85
685.748	7643.09
686.095	7637.21
686.443	7606.71
686.79	7531.23
687.138	7526.93
687.485	7612.36
687.832	7507.95
688.18	7547.05
688.527	7433.6
688.874	7469.76
689.221	7456.43
689.568	7446.48
689.915	7334.17
690.262	7366.26
690.609	7332.82
690.956	7273.38
691.303	7360.39
691.65	7248.3
691.997	7303.89
692.344	7220.28
692.69	7192.71
693.037	7188.86
693.383	7196.32
693.73	7131.47
694.077	7128.08
694.423	7148.19
694.769	7040.85
695.116	7079.49
695.462	7008.53
695.808	7016.67
696.155	7010.34
696.501	6918.14
696.847	6926.27
697.193	6905.93
697.539	6931.92
697.885	6890.12
698.231	6820.51
698.577	6853.05
698.923	6862.32
699.269	6799.5
699.614	6779.84
699.96	6707.75
700.306	6714.53
700.651	6665.94
700.997	6643.57
701.342	6636.11
701.688	6633.4
702.033	6603.57
702.379	6594.08
702.724	6560.18
703.069	6536
703.415	6524.02
703.76	6475.89
704.105	6473.63
704.45	6450.13
704.795	6447.42
705.14	6366.74
705.485	6406.29
705.83	6306.4
706.175	6345.5
706.52	6319.28
706.865	6267.76
707.209	6305.95
707.554	6308.66
707.899	6255.33
708.243	6203.81
708.588	6207.42
708.932	6207.65
709.277	6156.8
709.621	6156.12
709.966	6147.76
710.31	6128.78
710.654	6137.14
710.998	6087.65
711.342	6111.83
711.687	6108.89
712.031	6077.93
712.375	6012.17
712.719	5992.96
713.063	5974.21
713.407	5979.63
713.75	5932.17
714.094	5912.51
714.438	5845.62
714.782	5945.96
715.125	5906.19
715.469	5950.03
715.812	5903.25
716.156	5868
716.499	5889.46
716.843	5879.29
717.186	5823.02
717.53	5883.59
717.873	5839.52
718.216	5842.23
718.559	5829.13
718.902	5790.03
719.246	5801.33
719.589	5804.04
719.932	5790.03
720.275	5810.82
720.617	5786.87
720.96	5773.53
721.303	5771.05
721.646	5804.04
721.989	5747.55
722.331	5728.56
722.674	5740.54
723.016	5745.96
723.359	5704.61
723.701	5737.6
724.044	5741.45
724.386	5699.86
724.729	5721.33
725.071	5744.61
725.413	5703.93
725.755	5702.8
726.097	5639.98
726.439	5679.75
726.782	5682.01
727.124	5713.65
727.465	5630.71
727.807	5716.14
728.149	5723.82
728.491	5662.58
728.833	5672.29
729.175	5699.41
729.516	5640.88
729.858	5648.79
730.199	5667.55
730.541	5668.9
730.882	5617.15
731.224	5676.14
731.565	5653.31
731.906	5604.27
732.248	5667.77
732.589	5674.55
732.93	5614.44
733.271	5633.43
733.612	5662.13
733.953	5711.84
734.294	5689.02
734.635	5670.03
734.976	5653.54
735.317	5623.26
735.658	5710.03
735.999	5619.64
736.339	5677.72
736.68	5685.4
737.021	5701.22
737.361	5689.92
737.702	5764.27
738.042	5700.32
738.383	5683.59
738.723	5684.95
739.063	5734.44
739.404	5729.47
739.744	5700.09
740.084	5762.69
740.424	5695.57
740.764	5756.81
741.104	5819.86
741.444	5763.82
741.784	5809.69
742.124	5796.36
742.464	5820.54
742.804	5777.83
743.143	5819.86
743.483	5869.35
743.823	5878.16
744.162	5872.29
744.502	5875.45
744.841	5988.67
745.181	6038.16
745.52	6022.57
745.86	6014.88
746.199	6043.13
746.538	6119.51
746.877	6118.16
747.216	6192.73
747.556	6205.39
747.895	6218.27
748.234	6252.84
748.573	6368.1
748.911	6390.47
749.25	6458.71
749.589	6526.51
749.928	6545.72
750.267	6590.46
750.605	6698.71
750.944	6706.39
751.283	6790.01
751.621	6860.06
751.96	6957.46
752.298	6991.36
752.636	7138.92
752.975	7212.82
753.313	7258.24
753.651	7361.74
753.989	7506.6
754.327	7564.9
754.666	7674.05
755.004	7790.66
755.342	7898.9
755.679	8003.53
756.017	8174.83
756.355	8325.78
756.693	8358.1
757.031	8507.7
757.368	8655.94
757.706	8873.34
758.044	8887.58
758.381	9114.24
758.719	9189.26
759.056	9387
759.394	9557.62
759.731	9648.46
760.068	9908.57
760.405	10002.58
760.743	10153.76
761.08	10341.55
761.417	10507.87
761.754	10687.98
762.091	10749.67
762.428	10966.84
762.765	11090.91
763.102	11361.18
763.438	11485.93
763.775	11566.6
764.112	11764.56
764.449	11966.14
764.785	12108.51
765.122	12185.12
765.458	12339.01
765.795	12580.59
766.131	12694.93
766.467	12892.9
766.804	13034.81
767.14	13108.48
767.476	13276.16
767.812	13469.38
768.148	13609.26
768.485	13625.53
768.821	13726.77
769.157	13969.48
