Data from hue_290_FLMS001491_00081.txt Node
Date: Tue Feb 07 15:53:23 GMT 2017
User: dcchb
Spectrometer: FLMS00149
Trigger mode: 0
Integration Time (sec): 2.000000E-2
Scans to average: 10
Electric dark correction enabled: true
Nonlinearity correction enabled: false
Boxcar width: 0
XAxis mode: Wavelengths
Number of Pixels in Spectrum: 2048
>>>>>Begin Spectral Data<<<<<
341.393	-14.31
341.776	-14.31
342.16	-14.31
342.543	-59.5
342.927	-63.8
343.31	-79.62
343.693	-75.77
344.077	-74.19
344.46	-52.05
344.843	-28.54
345.226	-53.85
345.61	-26.28
345.993	-19.96
346.376	4.45
346.759	-7.53
347.142	23.88
347.525	39.02
347.908	58.46
348.291	86.71
348.674	82.41
349.057	122.86
349.44	128.74
349.823	120.38
350.206	157.21
350.588	186.59
350.971	190.88
351.354	199.92
351.737	235.18
352.119	213.94
352.502	251.45
352.884	266.36
353.267	257.1
353.65	300.71
354.032	287.15
354.414	288.96
354.797	295.29
355.179	306.81
355.562	307.94
355.944	317.66
356.326	329.64
356.709	319.69
357.091	314.72
357.473	327.6
357.855	338.68
358.238	302.07
358.62	321.5
359.002	336.42
359.384	342.75
359.766	321.28
360.148	318.11
360.53	311.11
360.912	315.63
361.294	327.38
361.676	300.49
362.057	324.21
362.439	315.18
362.821	316.31
363.203	338.68
363.584	290.09
363.966	327.38
364.348	325.8
364.729	325.34
365.111	339.58
365.493	316.31
365.874	312.24
366.256	310.66
366.637	302.52
367.019	305.46
367.4	302.52
367.781	306.14
368.163	295.06
368.544	308.17
368.925	310.2
369.306	304.1
369.688	300.94
370.069	324.44
370.45	301.62
370.831	310.2
371.212	310.2
371.593	292.58
371.974	309.98
372.355	298.23
372.736	314.5
373.117	310.66
373.498	312.92
373.879	291.67
374.26	294.84
374.641	304.33
375.021	312.24
375.402	308.4
375.783	304.33
376.163	312.46
376.544	315.18
376.925	309.98
377.305	309.3
377.686	326.47
378.066	323.76
378.447	332.12
378.827	306.81
379.208	329.86
379.588	317.66
379.968	319.69
380.349	345.68
380.729	311.79
381.109	331.22
381.489	321.73
381.87	318.57
382.25	323.08
382.63	310.2
383.01	350.88
383.39	335.74
383.77	317.44
384.15	326.93
384.53	335.74
384.91	345.46
385.29	347.94
385.67	339.58
386.049	346.36
386.429	329.41
386.809	350.65
387.189	357.43
387.568	334.84
387.948	348.62
388.328	352.46
388.707	349.52
389.087	344.1
389.466	348.85
389.846	353.59
390.225	364.89
390.605	337.77
390.984	364.67
391.363	368.28
391.743	378.9
392.122	362.18
392.501	370.77
392.881	370.32
393.26	373.48
393.639	375.06
394.018	383.65
394.397	373.48
394.776	366.25
395.155	370.09
395.534	380.03
395.913	384.33
396.292	398.11
396.671	374.38
397.05	410.31
397.429	400.6
397.808	392.91
398.186	410.54
398.565	403.76
398.944	395.85
399.323	388.62
399.701	407.6
400.08	409.18
400.458	403.53
400.837	428.84
401.215	407.83
401.594	405.12
401.972	392.24
402.351	428.84
402.729	428.17
403.107	432.91
403.486	439.01
403.864	420.71
404.242	444.89
404.62	440.82
404.999	427.04
405.377	447.38
405.755	450.99
406.133	443.08
406.511	436.53
406.889	475.62
407.267	448.28
407.645	481.27
408.023	468.17
408.401	481.27
408.779	486.47
409.156	520.37
409.534	515.85
409.912	483.08
410.29	508.62
410.667	516.07
411.045	495.51
411.422	542.06
411.8	532.8
412.178	537.32
412.555	549.52
412.933	547.49
413.31	567.82
413.687	561.27
414.065	585.22
414.442	598.78
414.819	579.12
415.197	592.91
415.574	615.96
415.951	613.47
416.328	606.02
416.705	616.18
417.082	615.96
417.46	634.04
417.837	615.51
418.214	650.76
418.591	643.75
418.967	655.73
419.344	704.09
419.721	700.25
420.098	666.35
420.475	697.76
420.852	706.8
421.228	716.29
421.605	738.44
421.982	710.65
422.358	753.36
422.735	761.49
423.111	744.32
423.488	777.54
423.864	777.08
424.241	816.41
424.617	801.94
424.994	797.2
425.37	807.14
425.746	803.75
426.123	832
426.499	845.78
426.875	841.49
427.251	848.49
427.627	878.78
428.003	882.84
428.379	891.21
428.756	892.79
429.132	893.47
429.507	926.01
429.883	938.89
430.259	946.35
430.635	951.54
431.011	971.88
431.387	980.69
431.763	1015.5
432.138	1001.48
432.514	1050.3
432.89	1010.3
433.265	1034.03
433.641	1062.95
434.016	1049.62
434.392	1085.32
434.767	1095.95
435.143	1086.45
435.518	1079.68
435.894	1102.5
436.269	1139.79
436.644	1136.62
437.02	1175.27
437.395	1190.86
437.77	1182.95
438.145	1191.99
438.52	1226.79
438.895	1251.87
439.271	1242.61
439.646	1281.48
440.021	1268.6
440.395	1274.02
440.77	1255.26
441.145	1307.01
441.52	1299.56
441.895	1307.69
442.27	1325.77
442.645	1321.02
443.019	1324.87
443.394	1345.43
443.769	1357.63
444.143	1314.25
444.518	1351.53
444.892	1385.43
445.267	1388.14
445.641	1391.76
446.016	1407.35
446.39	1401.7
446.764	1392.44
447.139	1407.35
447.513	1427.01
447.887	1418.88
448.262	1429.72
448.636	1417.75
449.01	1422.49
449.384	1451.87
449.758	1438.54
450.132	1444.19
450.506	1494.13
450.88	1463.85
451.254	1479.89
451.628	1467.01
452.002	1484.86
452.376	1517.63
452.75	1569.15
453.123	1564.63
453.497	1520.34
453.871	1568.93
454.244	1584.97
454.618	1580.68
454.992	1617.97
455.365	1589.72
455.739	1619.1
456.112	1626.55
456.486	1663.61
456.859	1675.37
457.232	1667.46
457.606	1666.1
457.979	1709.04
458.352	1725.31
458.725	1739.09
459.099	1759.66
459.472	1768.7
459.845	1781.35
460.218	1793.78
460.591	1804.18
460.964	1836.94
461.337	1831.29
461.71	1869.03
462.083	1852.99
462.456	1871.74
462.829	1879.2
463.201	1889.15
463.574	1901.35
463.947	1935.02
464.32	1954.45
464.692	1961.46
465.065	1934.34
465.438	1995.81
465.81	2030.61
466.183	2024.73
466.555	2073.77
466.928	2080.33
467.3	2073.77
467.672	2078.74
468.045	2121
468.417	2126.88
468.789	2156.26
469.161	2158.29
469.534	2194
469.906	2236.71
470.278	2219.08
470.65	2279.19
471.022	2301.34
471.394	2315.12
471.766	2339.75
472.138	2332.98
472.51	2411.62
472.882	2410.49
473.253	2434.67
473.625	2437.83
473.997	2499.98
474.369	2493.65
474.74	2521.9
475.112	2557.38
475.484	2560.31
475.855	2618.84
476.227	2615.23
476.598	2666.53
476.97	2725.73
477.341	2754.66
477.713	2795.79
478.084	2802.79
478.455	2815.67
478.827	2876.69
479.198	2882.79
479.569	2924.6
479.94	3006.18
480.311	2993.52
480.682	3019.06
481.053	3086.85
481.424	3103.8
481.795	3152.16
482.166	3194.65
482.537	3180.86
482.908	3244.36
483.279	3275.1
483.65	3326.4
484.021	3379.28
484.391	3367.75
484.762	3388.99
485.133	3423.57
485.503	3427.18
485.874	3507.86
486.244	3524.81
486.615	3610
486.985	3599.61
487.356	3663.79
487.726	3703.11
488.097	3754.86
488.467	3768.64
488.837	3817.91
489.207	3881.86
489.578	3837.34
489.948	3896.78
490.318	3954.63
490.688	3972.25
491.058	3970.67
491.428	4044.34
491.798	4094.96
492.168	4123.21
492.538	4163.21
492.908	4148.52
493.278	4237.78
493.648	4268.74
494.017	4311.45
494.387	4301.06
494.757	4280.95
495.126	4384.22
495.496	4309.87
495.866	4401.4
496.235	4394.84
496.605	4455.63
496.974	4475.97
497.344	4488.17
497.713	4518
498.082	4523.65
498.452	4575.4
498.821	4625.34
499.19	4599.58
499.559	4598.23
499.928	4668.28
500.298	4647.04
500.667	4722.29
501.036	4689.07
501.405	4736.08
501.774	4713.48
502.143	4765
502.512	4863.76
502.88	4795.51
503.249	4787.37
503.618	4858.56
503.987	4861.27
504.356	4821.5
504.724	4871.67
505.093	4905.79
505.462	4884.32
505.83	4911.21
506.199	4920.93
506.567	5001.61
506.936	4942.62
507.304	5033.24
507.672	5000.93
508.041	5062.17
508.409	5110.53
508.777	5132.9
509.145	5154.37
509.514	5125.44
509.882	5141.49
510.25	5141.26
510.618	5197.53
510.986	5136.07
511.354	5198.44
511.722	5268.49
512.09	5249.51
512.458	5237.31
512.826	5262.84
513.193	5283.41
513.561	5328.38
513.929	5326.34
514.297	5404.53
514.664	5416.74
515.032	5403.18
515.4	5430.3
515.767	5504.87
516.135	5416.74
516.502	5422.39
516.869	5480.24
517.237	5486.11
517.604	5440.01
517.972	5575.15
518.339	5538.99
518.706	5555.49
519.073	5607.24
519.44	5581.25
519.808	5622.15
520.175	5574.25
520.542	5656.05
520.909	5672.1
521.276	5659.22
521.643	5758.87
522.009	5683.85
522.376	5722.04
522.743	5763.39
523.11	5858.98
523.477	5842.71
523.843	5899.66
524.21	5889.27
524.577	5921.58
524.943	5952.32
525.31	5976.27
525.676	5990.05
526.043	6027.12
526.409	5979.21
526.776	6108.24
527.142	6073.67
527.508	6160.67
527.874	6179.2
528.241	6174
528.607	6184.17
528.973	6237.96
529.339	6181.24
529.705	6245.19
530.071	6290.61
530.437	6340.33
530.803	6333.55
531.169	6402.92
531.535	6397.28
531.901	6432.3
532.267	6461.45
532.632	6460.32
532.998	6508.68
533.364	6504.62
533.73	6505.97
534.095	6574.22
534.461	6538.97
534.826	6550.72
535.192	6635.01
535.557	6717.94
535.923	6640.88
536.288	6649.02
536.653	6668
537.019	6683.37
537.384	6660.32
537.749	6753.42
538.114	6782.58
538.479	6750.71
538.845	6806.08
539.21	6745.06
539.575	6785.51
539.94	6805.63
540.305	6869.35
540.67	6855.34
541.034	6870.03
541.399	6953.87
541.764	6922.91
542.129	6950.03
542.494	6986.64
542.858	6994.32
543.223	6954.32
543.587	7044.49
543.952	7010.37
544.316	7093.3
544.681	7064.6
545.045	7069.8
545.41	7094.66
545.774	7162.9
546.138	7143.24
546.503	7111.38
546.867	7103.92
547.231	7157.03
547.595	7234.32
547.959	7209.01
548.324	7212.62
548.688	7255.33
549.052	7278.38
549.416	7242.9
549.779	7291.94
550.143	7337.82
550.507	7354.76
550.871	7385.27
551.235	7385.05
551.599	7444.03
551.962	7407.64
552.326	7398.15
552.689	7437.47
553.053	7473.18
553.417	7399.73
553.78	7553.18
554.143	7557.24
554.507	7438.6
554.87	7567.19
555.234	7621.88
555.597	7571.93
555.96	7642.67
556.323	7624.81
556.686	7603.8
557.05	7646.28
557.413	7683.57
557.776	7731.48
558.139	7725.83
558.502	7752.04
558.865	7742.55
559.228	7767.41
559.59	7813.51
559.953	7775.09
560.316	7870.23
560.679	7865.94
561.041	7900.51
561.404	7935.99
561.767	7915.88
562.129	7940.74
562.492	8012.15
562.854	8027.97
563.217	7983.22
563.579	8043.79
563.941	8096.21
564.304	8133.95
564.666	8194.06
565.028	8147.74
565.39	8177.57
565.753	8227.06
566.115	8281.97
566.477	8221.18
566.839	8212.14
567.201	8285.14
567.563	8316.77
567.925	8424.79
568.287	8336.43
568.648	8410.78
569.01	8435.87
569.372	8432.25
569.734	8496.88
570.095	8549.54
570.457	8556.54
570.819	8578.01
571.18	8554.05
571.542	8661.62
571.903	8654.39
572.265	8696.2
572.626	8787.04
572.987	8731.68
573.349	8769.42
573.71	8767.83
574.071	8880.37
574.432	8960.6
574.794	8996.98
575.155	9041.73
575.516	8954.72
575.877	9139.12
576.238	9111.1
576.599	9164.66
576.96	9188.39
577.32	9237.43
577.681	9320.81
578.042	9450.08
578.403	9460.25
578.763	9536.4
579.124	9501.83
579.485	9646.23
579.845	9698.43
580.206	9719.45
580.566	9827.02
580.927	9847.58
581.287	9999.89
581.648	10000.57
582.008	10084.41
582.368	10180.68
582.728	10195.59
583.089	10404.85
583.449	10396.72
583.809	10579.09
584.169	10683.04
584.529	10702.47
584.889	10808.01
585.249	10902.24
585.609	10977.72
585.969	11144.72
586.329	11230.14
586.688	11351.27
587.048	11417.93
587.408	11533.19
587.768	11709.9
588.127	11803.01
588.487	11916.68
588.846	12134.98
589.206	12066.5
589.565	12348.76
589.925	12536.32
590.284	12534.06
590.643	12627.39
591.003	12825.13
591.362	13052.47
591.721	13089.3
592.08	13314.38
592.44	13452.68
592.799	13568.84
593.158	13632.79
593.517	13755.73
593.876	13980.35
594.235	14021.71
594.593	14177.18
594.952	14331.76
595.311	14432.09
595.67	14597.06
596.029	14713.44
596.387	14888.58
596.746	15029.14
597.104	15054.22
597.463	15188.46
597.822	15377.83
598.18	15473.42
598.538	15603.13
598.897	15801.77
599.255	15770.14
599.613	16100.52
599.972	16121.99
600.33	16170.35
600.688	16245.15
601.046	16447.41
601.404	16595.2
601.762	16699.6
602.12	16901.18
602.478	17002.87
602.836	17037.67
603.194	17040.16
603.552	17145.02
603.91	17207.16
604.268	17421.62
604.625	17442.41
604.983	17489.86
605.341	17629.3
605.698	17795.62
606.056	17913.13
606.413	17930.31
606.771	18080.13
607.128	18217.3
607.485	18102.5
607.843	18163.52
608.2	18511.53
608.557	18495.49
608.914	18558.31
609.272	18760.79
609.629	18783.62
609.986	18899.09
610.343	18889.6
610.7	19088.47
611.057	19058.86
611.414	19317.39
611.771	19140.9
612.127	19191.52
612.484	19422.47
612.841	19414.56
613.198	19413.66
613.554	19465.18
613.911	19623.37
614.267	19737.49
614.624	19629.24
614.98	19742.46
615.337	19972.96
615.693	19858.84
616.05	19869.46
616.406	20064.03
616.762	20027.43
617.118	20059.97
617.475	20068.55
617.831	20251.83
618.187	20253.18
618.543	20318.04
618.899	20487.98
619.255	20491.14
619.611	20387.42
619.967	20504.7
620.323	20683.23
620.678	20587.41
621.034	20572.95
621.39	20648.88
621.746	20588.54
622.101	20865.82
622.457	20741.76
622.812	20821.98
623.168	20832.6
623.523	20866.5
623.879	20914.86
624.234	20857.23
624.589	20915.31
624.945	20949.89
625.3	20933.84
625.655	20966.16
626.01	20972.94
626.365	21012.94
626.72	20991.92
627.075	21045.7
627.43	21085.48
627.785	21068.98
628.14	21064.46
628.495	21174.51
628.85	21103.33
629.205	21076.21
629.559	21285.25
629.914	21016.1
630.269	21099.94
630.623	21103.1
630.978	21051.58
631.332	21090.22
631.687	21151.92
632.041	21062.43
632.396	21100.17
632.75	20999.6
633.104	21056.1
633.459	20973.39
633.813	20933.39
634.167	20949.21
634.521	20988.53
634.875	21035.08
635.229	21076.44
635.583	21002.77
635.937	20940.4
636.291	20965.03
636.645	20940.62
636.999	20934.29
637.352	21022.43
637.706	20814.07
638.06	21038.02
638.413	20895.88
638.767	20850.91
639.121	20924.58
639.474	20874.63
639.828	20756.67
640.181	20827.18
640.534	20851.13
640.888	20800.06
641.241	20567.07
641.594	20705.37
641.947	20784.02
642.301	20736.11
642.654	20647.75
643.007	20891.58
643.36	20815.2
643.713	20697.24
644.066	20836.44
644.419	20628.99
644.771	20569.78
645.124	20372.95
645.477	20454.31
645.83	20195.56
646.182	20202.56
646.535	20146.29
646.888	20178.61
647.24	20138.38
647.593	20201.43
647.945	20159.85
648.298	19925.06
648.65	20076.46
649.002	20058.61
649.355	20120.53
649.707	20150.36
650.059	20209.79
650.411	20539.05
650.763	20400.52
651.115	20697.92
651.467	20677.8
651.819	20634.64
652.171	20538.82
652.523	20546.51
652.875	20494.31
653.227	20512.38
653.578	20680.29
653.93	20662.66
654.282	20446.85
654.633	20433.29
654.985	20457.92
655.337	20464.7
655.688	20590.12
656.039	20661.76
656.391	20477.13
656.742	20495.89
657.094	20548.99
657.445	20716.22
657.796	20584.25
658.147	20496.34
658.498	20569.33
658.849	20508.09
659.2	20525.72
659.551	20524.81
659.902	20605.72
660.253	20618.14
660.604	20600.07
660.955	20515.55
661.306	20610.69
661.656	20573.85
662.007	20587.64
662.358	20549.45
662.708	20556.45
663.059	20570.24
663.409	20465.15
663.76	20637.35
664.11	20622.66
664.461	20685.04
664.811	20656.56
665.161	20599.39
665.511	20596
665.862	20606.85
666.212	20631.48
666.562	20757.8
666.912	20655.88
667.262	20702.66
667.612	20659.05
667.962	20606.39
668.312	20581.99
668.662	20656.11
669.011	20656.56
669.361	20552.38
669.711	20604.13
670.06	20679.16
670.41	20558.94
670.76	20571.14
671.109	20636.22
671.459	20601.2
671.808	20498.6
672.157	20588.31
672.507	20393.97
672.856	20482.1
673.205	20457.47
673.554	20556.9
673.904	20393.74
674.253	20474.65
674.602	20495.66
674.951	20169.79
675.3	20143.13
675.649	20344.71
675.998	20308.32
676.346	20384.48
676.695	20455.21
677.044	20342.9
677.393	20338.6
677.741	20318.72
678.09	20223.58
678.438	20326.85
678.787	20297.93
679.135	20354.65
679.484	20093.86
679.832	20131.15
680.181	20093.41
680.529	20114.65
680.877	20061.32
681.225	20024.26
681.573	20139.51
681.922	19970.25
682.27	19856.58
682.618	19910.82
682.966	19870.59
683.314	19944.49
683.661	19861.55
684.009	19737.49
684.357	19762.12
684.705	19721.44
685.053	19719.18
685.4	19728
685.748	19595.12
686.095	19539.08
686.443	19544.5
686.79	19473.99
687.138	19470.15
687.485	19539.98
687.832	19361.91
688.18	19379.98
688.527	19339.99
688.874	19324.39
689.221	19298.63
689.568	19090.5
689.915	19151.74
690.262	19082.14
690.609	19017.73
690.956	18897.51
691.303	18958.3
691.65	18772.32
691.997	18836.5
692.344	18748.59
692.69	18725.31
693.037	18629.04
693.383	18532.78
693.73	18673.79
694.077	18446.22
694.423	18474.25
694.769	18380.01
695.116	18294.36
695.462	18241.94
695.808	18088.04
696.155	18251.65
696.501	17981.15
696.847	18097.76
697.193	17963.07
697.539	18025.9
697.885	17735.73
698.231	17787.71
698.577	17781.16
698.923	17727.6
699.269	17624.55
699.614	17529.64
699.96	17469.98
700.306	17501.62
700.651	17371
700.997	17319.7
701.342	17324.9
701.688	17372.13
702.033	17219.82
702.379	17166.26
702.724	17145.92
703.069	17189.31
703.415	16921.29
703.76	16927.39
704.105	16938.47
704.45	16888.07
704.795	16712.71
705.14	16735.99
705.485	16717
705.83	16604.01
706.175	16698.7
706.52	16567.86
706.865	16522.21
707.209	16519.27
707.554	16387.97
707.899	16392.49
708.243	16364.02
708.588	16234.53
708.932	16199.96
709.277	16190.24
709.621	16193.63
709.966	15994.76
710.31	16014.42
710.654	15940.75
710.998	15916.57
711.342	16004.93
711.687	15872.28
712.031	15827.31
712.375	15811.27
712.719	15814.43
713.063	15764.94
713.407	15726.97
713.75	15701.66
714.094	15565.4
714.438	15608.78
714.782	15667.54
715.125	15466.42
715.469	15539.18
715.812	15462.12
716.156	15376.7
716.499	15404.5
716.843	15460.77
717.186	15310.71
717.53	15346.64
717.873	15395
718.216	15307.1
718.559	15321.33
718.902	15197.95
719.246	15224.39
719.589	15185.07
719.932	15159.76
720.275	15117.5
720.617	15129.7
720.96	15058.97
721.303	15111.4
721.646	15147.1
721.989	15041.34
722.331	15106.42
722.674	14998.63
723.016	15033.88
723.359	15070.72
723.701	14932.42
724.044	14938.52
724.386	14765.87
724.729	14976.94
725.071	14804.74
725.413	14795.47
725.755	14869.82
726.097	14737.85
726.439	14723.84
726.782	14741.91
727.124	14868.69
727.465	14728.13
727.807	14734.91
728.149	14768.81
728.491	14740.56
728.833	14682.03
729.175	14648.13
729.516	14714.34
729.858	14691.75
730.199	14618.3
730.541	14683.39
730.882	14660.56
731.224	14664.4
731.565	14503.73
731.906	14603.84
732.248	14597.06
732.589	14553.9
732.93	14509.38
733.271	14545.31
733.612	14574.69
733.953	14581.24
734.294	14529.49
734.635	14483.62
734.976	14550.06
735.317	14517.97
735.658	14474.8
735.999	14508.47
736.339	14510.96
736.68	14562.48
737.021	14427.35
737.361	14484.52
737.702	14502.37
738.042	14534.24
738.383	14472.09
738.723	14574.24
739.063	14568.13
739.404	14581.69
739.744	14482.03
740.084	14542.6
740.424	14564.29
740.764	14534.69
741.104	14619.88
741.444	14592.31
741.784	14562.48
742.124	14636.83
742.464	14570.17
742.804	14575.82
743.143	14608.81
743.483	14570.62
743.823	14588.47
744.162	14614.91
744.502	14713.21
744.841	14677.96
745.181	14758.64
745.52	14844.74
745.86	14856.49
746.199	14967.45
746.538	14887.9
746.877	14972.64
747.216	14978.29
747.556	15049.48
747.895	15052.64
748.234	15038.63
748.573	15097.61
748.911	15188.91
749.25	15300.77
749.589	15221.22
749.928	15420.31
750.267	15534.44
750.605	15525.62
750.944	15521.1
751.283	15603.81
751.621	15699.4
751.96	15754.09
752.298	15795.9
752.636	15895.78
752.975	15929.23
753.313	15932.39
753.651	16196.34
753.989	16199.73
754.327	16277.69
754.666	16313.4
755.004	16512.49
755.342	16526.73
755.679	16647.18
756.017	16682.43
756.355	16867.73
756.693	16855.76
757.031	17049.88
757.368	17153.15
757.706	17208.29
758.044	17335.97
758.381	17503.42
758.719	17513.59
759.056	17669.52
759.394	17650.54
759.731	17782.74
