Data from hue_190_FLMS001491_00043.txt Node
Date: Tue Feb 07 16:45:20 GMT 2017
User: dcchb
Spectrometer: FLMS00149
Trigger mode: 0
Integration Time (sec): 2.000000E-2
Scans to average: 10
Electric dark correction enabled: true
Nonlinearity correction enabled: false
Boxcar width: 0
XAxis mode: Wavelengths
Number of Pixels in Spectrum: 2048
>>>>>Begin Spectral Data<<<<<
341.393	-25.99
341.776	-25.99
342.16	-25.99
342.543	-61.02
342.927	-79.09
343.31	-73.67
343.693	-63.28
344.077	-81.35
344.46	-65.99
344.843	-80.9
345.226	-57.4
345.61	-8.59
345.993	-6.33
346.376	-3.39
346.759	-2.26
347.142	25.99
347.525	59.66
347.908	54.01
348.291	103.95
348.674	96.72
349.057	102.82
349.44	145.53
349.823	134.23
350.206	152.99
350.588	184.4
350.971	215.14
351.354	217.85
351.737	251.97
352.119	240.67
352.502	263.27
352.884	270.95
353.267	275.47
353.65	287.68
354.032	314.79
354.414	306.21
354.797	298.3
355.179	321.57
355.562	328.13
355.944	329.03
356.326	320.44
356.709	348.01
357.091	335.58
357.473	331.06
357.855	340.56
358.238	341.91
358.62	343.27
359.002	331.06
359.384	324.29
359.766	335.81
360.148	321.35
360.53	323.61
360.912	341.69
361.294	327.45
361.676	310.27
362.057	339.2
362.439	317.51
362.821	326.09
363.203	329.93
363.584	308.92
363.966	322.25
364.348	336.49
364.729	319.54
365.111	297.17
365.493	322.7
365.874	328.13
366.256	334.45
366.637	306.21
367.019	283.61
367.4	323.83
367.781	316.15
368.163	300.56
368.544	291.52
368.925	324.51
369.306	321.12
369.688	325.42
370.069	309.14
370.45	300.56
370.831	344.17
371.212	317.51
371.593	300.56
371.974	307.11
372.355	310.5
372.736	340.33
373.117	307.79
373.498	314.57
373.879	307.79
374.26	308.92
374.641	332.19
375.021	342.14
375.402	324.96
375.783	319.09
376.163	329.71
376.544	317.73
376.925	315.92
377.305	331.29
377.686	333.55
378.066	327
378.447	300.78
378.827	330.84
379.208	299.2
379.588	343.95
379.968	334.68
380.349	331.06
380.729	350.27
381.109	327.45
381.489	326.32
381.87	321.57
382.25	334.68
382.63	336.71
383.01	339.65
383.39	341.46
383.77	346.66
384.15	335.58
384.53	344.85
384.91	327.9
385.29	355.47
385.67	333.55
386.049	342.82
386.429	346.21
386.809	348.47
387.189	353.66
387.568	348.01
387.948	345.75
388.328	374.68
388.707	365.19
389.087	344.62
389.466	356.83
389.846	361.57
390.225	360.22
390.605	357.28
390.984	357.73
391.363	354.11
391.743	354.11
392.122	370.39
392.501	353.21
392.881	385.98
393.26	369.71
393.639	376.71
394.018	371.29
394.397	372.19
394.776	389.14
395.155	371.29
395.534	379.88
395.913	379.88
396.292	391.18
396.671	362.93
397.05	401.12
397.429	379.2
397.808	382.81
398.186	391.18
398.565	383.72
398.944	402.02
399.323	385.53
399.701	402.7
400.08	395.7
400.458	405.19
400.837	419.65
401.215	423.49
401.594	423.94
401.972	410.61
402.351	411.74
402.729	418.07
403.107	431.18
403.486	439.08
403.864	430.05
404.242	436.15
404.62	441.8
404.999	415.36
405.377	423.27
405.755	462.81
406.133	463.04
406.511	455.36
406.889	472.08
407.267	480.44
407.645	445.19
408.023	454.45
408.401	491.51
408.779	471.85
409.156	461
409.534	494.45
409.912	486.31
410.29	517.27
410.667	518.63
411.045	515.01
411.422	556.37
411.8	537.39
412.178	517.05
412.555	534
412.933	552.53
413.31	547.78
413.687	568.12
414.065	588.91
414.442	606.54
414.819	611.74
415.197	583.94
415.574	600.21
415.951	628.23
416.328	634.79
416.705	634.11
417.082	628.01
417.46	645.41
417.837	672.07
418.214	658.29
418.591	652.64
418.967	663.03
419.344	688.8
419.721	707.78
420.098	709.13
420.475	720.88
420.852	732.64
421.228	743.94
421.605	755.01
421.982	751.17
422.358	788.68
422.735	778.96
423.111	782.35
423.488	831.39
423.864	804.72
424.241	835.68
424.617	850.6
424.994	863.03
425.37	857.38
425.746	855.57
426.123	887.89
426.499	914.55
426.875	909.58
427.251	929.47
427.627	961.33
428.003	954.33
428.379	963.36
428.756	966.08
429.132	999.97
429.507	994.55
429.883	996.58
430.259	1026.19
430.635	1025.74
431.011	1042.91
431.387	1053.76
431.763	1067.54
432.138	1091.72
432.514	1101.21
432.89	1107.77
433.265	1122.46
433.641	1189.35
434.016	1191.16
434.392	1203.36
434.767	1231.15
435.143	1229.8
435.518	1271.6
435.894	1295.33
436.269	1297.37
436.644	1342.56
437.02	1319.74
437.395	1356.57
437.77	1364.26
438.145	1419.62
438.52	1442.45
438.895	1469.57
439.271	1458.94
439.646	1504.82
440.021	1499.17
440.395	1530.58
440.77	1536
441.145	1533.74
441.52	1591.6
441.895	1599.73
442.27	1647.87
442.645	1613.74
443.019	1688.09
443.394	1673.18
443.769	1699.16
444.143	1700.52
444.518	1721.08
444.892	1741.2
445.267	1743.01
445.641	1792.27
446.016	1790.46
446.39	1814.87
446.764	1851.93
447.139	1788.65
447.513	1858.71
447.887	1827.97
448.262	1853.96
448.636	1899.61
449.01	1907.52
449.384	1915.43
449.758	1938.25
450.132	1959.04
450.506	1950.23
450.88	1975.77
451.254	2001.76
451.628	2037.69
452.002	2074.3
452.376	2045.14
452.75	2065.26
453.123	2084.69
453.497	2141.19
453.871	2120.62
454.244	2190
454.618	2173.73
454.992	2244.69
455.365	2232.03
455.739	2291.24
456.112	2277.68
456.486	2320.39
456.859	2349.32
457.232	2390.22
457.606	2430.44
457.979	2454.62
458.352	2489.2
458.725	2487.39
459.099	2533.49
459.472	2591.57
459.845	2599.71
460.218	2629.76
460.591	2624.34
460.964	2673.15
461.337	2723.32
461.71	2777.78
462.083	2822.98
462.456	2826.82
462.829	2843.09
463.201	2899.81
463.574	2858.91
463.947	2934.39
464.32	3019.36
464.692	3015.51
465.065	3072.91
465.438	3082.18
465.81	3155.17
466.183	3176.19
466.555	3266.58
466.928	3286.47
467.3	3248.28
467.672	3358.1
468.045	3387.03
468.417	3411.21
468.789	3443.98
469.161	3507.25
469.534	3569.4
469.906	3617.53
470.278	3655.5
470.65	3726.68
471.022	3734.14
471.394	3819.79
471.766	3885.77
472.138	3950.86
472.51	3987.24
472.882	4074.02
473.253	4130.06
473.625	4154.24
473.997	4269.49
474.369	4262.49
474.74	4364.41
475.112	4444.63
475.484	4539.54
475.855	4584.29
476.227	4618.64
476.598	4768.24
476.97	4792.42
477.341	4912.19
477.713	4955.58
478.084	4998.51
478.455	5155.8
478.827	5140.88
479.198	5303.59
479.569	5323.25
479.94	5505.62
480.311	5515.79
480.682	5678.95
481.053	5763.01
481.424	5883.69
481.795	5909
482.166	5997.13
482.537	6140.18
482.908	6262.21
483.279	6274.19
483.65	6393.28
484.021	6530
484.391	6586.72
484.762	6700.16
485.133	6740.16
485.503	6842.76
485.874	6982.42
486.244	7028.29
486.615	7176.99
486.985	7233.93
487.356	7388.05
487.726	7469.18
488.097	7575.62
488.467	7658.56
488.837	7789.4
489.207	7893.58
489.578	7994.14
489.948	8040.69
490.318	8145.55
490.688	8170.63
491.058	8310.74
491.428	8408.59
491.798	8492.66
492.168	8637.96
492.538	8659.21
492.908	8738.08
493.278	8878.18
493.648	8906.88
494.017	8928.13
494.387	9054.23
494.757	9169.48
495.126	9155.01
495.496	9282.69
495.866	9276.59
496.235	9333.31
496.605	9454.67
496.974	9486.3
497.344	9609.24
497.713	9587.09
498.082	9661.44
498.452	9779.18
498.821	9762.91
499.19	9766.07
499.559	9826.86
499.928	9885.39
500.298	9918.61
500.667	10005.61
501.036	9962.9
501.405	10086.06
501.774	10041.09
502.143	10181.43
502.512	10168.32
502.88	10235.89
503.249	10267.98
503.618	10249.22
503.987	10275.21
504.356	10340.97
504.724	10387.07
505.093	10386.39
505.462	10380.29
505.83	10432.49
506.199	10495.09
506.567	10606.95
506.936	10569.89
507.304	10585.48
507.672	10688.08
508.041	10693.28
508.409	10715.2
508.777	10800.17
509.145	10836.78
509.514	10760.85
509.882	10813.27
510.25	10862.54
510.618	10843.33
510.986	10819.38
511.354	10962.88
511.722	10984.8
512.09	10971.69
512.458	10996.77
512.826	10998.81
513.193	11042.2
513.561	11053.95
513.929	11069.54
514.297	11095.3
514.664	11137.33
515.032	11118.58
515.4	11162.42
515.767	11206.94
516.135	11190.89
516.502	11181.85
516.869	11222.08
517.237	11191.57
517.604	11134.4
517.972	11180.95
518.339	11258.24
518.706	11222.3
519.073	11191.57
519.44	11230.21
519.808	11279.93
520.175	11258.69
520.542	11363.09
520.909	11267.27
521.276	11272.7
521.643	11328.97
522.009	11390.89
522.376	11300.04
522.743	11376.42
523.11	11410.32
523.477	11467.72
523.843	11463.88
524.21	11450.77
524.577	11549.3
524.943	11456.42
525.31	11476.31
525.676	11613.93
526.043	11556.98
526.409	11549.53
526.776	11618.68
527.142	11507.04
527.508	11529.87
527.874	11496.65
528.241	11559.02
528.607	11471.56
528.973	11507.72
529.339	11476.99
529.705	11555.4
530.071	11491.68
530.437	11455.97
530.803	11442.64
531.169	11382.98
531.535	11381.17
531.901	11253.49
532.267	11393.15
532.632	11320.83
532.998	11231.34
533.364	11281.06
533.73	11156.54
534.095	11257.11
534.461	11179.14
534.826	11184.79
535.192	11113.83
535.557	11170.78
535.923	11106.37
536.288	11117.67
536.653	10981.18
537.019	10978.24
537.384	10910.9
537.749	10898.7
538.114	10825.48
538.479	10681.3
538.845	10748.64
539.21	10676.33
539.575	10670
539.94	10670.45
540.305	10616.22
540.67	10525.37
541.034	10587.97
541.399	10509.78
541.764	10426.84
542.129	10393.17
542.494	10426.39
542.858	10308.43
543.223	10228.21
543.587	10327.41
543.952	10155.21
544.316	10142.11
544.681	10072.05
545.045	10060.75
545.41	10021.43
545.774	9941.43
546.138	9893.75
546.503	9787.09
546.867	9727.43
547.231	9812.85
547.595	9754.09
547.959	9735.56
548.324	9590.03
548.688	9580.54
549.052	9491.73
549.416	9554.55
549.779	9482.01
550.143	9492.86
550.507	9431.62
550.871	9327.89
551.235	9371.28
551.599	9331.96
551.962	9289.93
552.326	9174
552.689	9204.96
553.053	9076.15
553.417	9072.53
553.78	9114.56
554.143	9013.1
554.507	9040.67
554.87	8982.36
555.234	9071.17
555.597	8898.07
555.96	8832.99
556.323	8841.12
556.686	8811.29
557.05	8799.77
557.413	8793.44
557.776	8758.87
558.139	8737.4
558.502	8689.72
558.865	8659.43
559.228	8686.1
559.59	8666.89
559.953	8667.57
560.316	8636.16
560.679	8644.52
561.041	8609.27
561.404	8575.14
561.767	8568.59
562.129	8575.59
562.492	8567.46
562.854	8540.34
563.217	8521.36
563.579	8507.35
563.941	8446.78
564.304	8528.82
564.666	8552.77
565.028	8500.12
565.39	8526.33
565.753	8506.22
566.115	8525.2
566.477	8507.8
566.839	8472.77
567.201	8463.05
567.563	8507.8
567.925	8475.48
568.287	8505.99
568.648	8497.86
569.01	8502.6
569.372	8526.56
569.734	8493.56
570.095	8500.12
570.457	8498.53
570.819	8543.96
571.18	8465.09
571.542	8465.99
571.903	8492.21
572.265	8521.81
572.626	8473.9
572.987	8436.16
573.349	8481.58
573.71	8421.7
574.071	8465.31
574.432	8452.89
574.794	8511.19
575.155	8467.12
575.516	8471.42
575.877	8495.82
576.238	8517.97
576.599	8451.98
576.96	8472.32
577.32	8411.08
577.681	8498.31
578.042	8449.95
578.403	8447.91
578.763	8499.21
579.124	8428.7
579.485	8426.67
579.845	8505.09
580.206	8432.77
580.566	8406.56
580.927	8409.95
581.287	8418.08
581.648	8369.05
582.008	8435.94
582.368	8360.46
582.728	8529.27
583.089	8387.35
583.449	8355.71
583.809	8372.44
584.169	8436.39
584.529	8348.93
584.889	8359.33
585.249	8262.38
585.609	8298.54
585.969	8404.3
586.329	8321.59
586.688	8281.59
587.048	8260.35
587.408	8276.62
587.768	8244.98
588.127	8214.7
588.487	8209.95
588.846	8311.65
589.206	8200.91
589.565	8212.89
589.925	8256.96
590.284	8210.41
590.643	8196.85
591.003	8241.14
591.362	8237.52
591.721	8230.52
592.08	8199.56
592.44	8230.97
592.799	8124.76
593.158	8119.33
593.517	8131.31
593.876	8191.42
594.235	8169.5
594.593	8121.82
594.952	8156.62
595.311	8014.25
595.67	8107.58
596.029	8121.14
596.387	8097.41
596.746	8123.18
597.104	8093.8
597.463	8096.96
597.822	8043.4
598.18	8060.13
598.538	8027.36
598.897	8071.43
599.255	8005.89
599.613	8102.84
599.972	8047.92
600.33	8044.99
600.688	8042.05
601.046	8047.25
601.404	8053.12
601.762	8064.42
602.12	8089.96
602.478	8078.66
602.836	8061.03
603.194	8021.94
603.552	8009.28
603.91	8018.77
604.268	7976.51
604.625	8007.02
604.983	8029.62
605.341	7954.37
605.698	7988.94
606.056	8030.52
606.413	7943.52
606.771	8027.13
607.128	8055.61
607.485	7983.74
607.843	7956.17
608.2	7988.49
608.557	8071.2
608.914	8008.83
609.272	8053.35
609.629	8104.65
609.986	7978.1
610.343	8032.78
610.7	8110.07
611.057	7975.38
611.414	8014.25
611.771	8055.38
612.127	8049.05
612.484	8098.54
612.841	8082.73
613.198	8039.34
613.554	8054.25
613.911	8108.04
614.267	8104.87
614.624	8046.79
614.98	8101.48
615.337	8155.04
615.693	8105.78
616.05	8068.04
616.406	8110.52
616.762	8115.04
617.118	8095.15
617.475	8056.51
617.831	8094.48
618.187	8193.68
618.543	8158.2
618.899	8143.74
619.255	8115.72
619.611	8132.44
619.967	8150.52
620.323	8189.62
620.678	8142.16
621.034	8142.16
621.39	8113.91
621.746	8163.18
622.101	8241.37
622.457	8106
622.812	8138.54
623.168	8215.15
623.523	8146.68
623.879	8178.99
624.234	8105.1
624.589	8131.76
624.945	8127.47
625.3	8143.06
625.655	8149.39
626.01	8194.81
626.365	8124.76
626.72	8128.83
627.075	8110.07
627.43	8160.01
627.785	8114.36
628.14	8105.55
628.495	8130.86
628.85	8075.72
629.205	8080.24
629.559	8085.66
629.914	8062.61
630.269	8021.48
630.623	8124.08
630.978	8108.94
631.332	8115.72
631.687	8045.44
632.041	7989.39
632.396	8102.61
632.75	8025.33
633.104	8016.29
633.459	7996.85
633.813	7990.98
634.167	8007.93
634.521	7996.17
634.875	8044.53
635.229	7968.38
635.583	7946.23
635.937	7869.4
636.291	7941.94
636.645	7908.94
636.999	7892.45
637.352	7879.79
637.706	7810.64
638.06	7922.28
638.413	7843.64
638.767	7843.41
639.121	7872.34
639.474	7767.25
639.828	7834.82
640.181	7786.24
640.534	7806.35
640.888	7729.51
641.241	7769.51
641.594	7766.8
641.947	7861.49
642.301	7795.05
642.654	7776.07
643.007	7764.77
643.36	7780.13
643.713	7781.94
644.066	7740.81
644.419	7749.4
644.771	7635.28
645.124	7654.49
645.477	7557.32
645.83	7555.73
646.182	7542.63
646.535	7484.1
646.888	7563.64
647.24	7488.84
647.593	7492.91
647.945	7474.15
648.298	7459.24
648.65	7511.89
649.002	7417.43
649.355	7513.47
649.707	7535.85
650.059	7571.78
650.411	7556.41
650.763	7641.16
651.115	7678.22
651.467	7651.1
651.819	7732
652.171	7671.44
652.523	7649.52
652.875	7687.26
653.227	7605
653.578	7693.58
653.93	7652.68
654.282	7675.5
654.633	7644.54
654.985	7706.69
655.337	7633.7
655.688	7659.69
656.039	7738.1
656.391	7626.24
656.742	7668.05
657.094	7742.85
657.445	7687.26
657.796	7654.04
658.147	7690.87
658.498	7668.72
658.849	7675.73
659.2	7675.28
659.551	7709.4
659.902	7725.67
660.253	7742.17
660.604	7746.46
660.955	7720.7
661.306	7736.29
661.656	7717.31
662.007	7745.11
662.358	7722.28
662.708	7726.35
663.059	7749.85
663.409	7677.09
663.76	7714.6
664.11	7776.97
664.461	7772.45
664.811	7753.47
665.161	7750.53
665.511	7728.84
665.862	7785.78
666.212	7786.69
666.562	7702.62
666.912	7721.83
667.262	7716.63
667.612	7792.34
667.962	7813.81
668.312	7756.41
668.662	7781.72
669.011	7732.45
669.361	7736.29
669.711	7763.19
670.06	7725.22
670.41	7697.2
670.76	7716.86
671.109	7777.2
671.459	7684.54
671.808	7730.19
672.157	7778.1
672.507	7724.77
672.856	7644.09
673.205	7740.36
673.554	7748.04
673.904	7697.65
674.253	7739.68
674.602	7653.58
674.951	7599.12
675.3	7538.33
675.649	7708.72
675.998	7731.1
676.346	7594.38
676.695	7661.04
677.044	7616.07
677.393	7619.01
677.741	7671.89
678.09	7575.39
678.438	7615.62
678.787	7603.64
679.135	7569.29
679.484	7550.08
679.832	7638.44
680.181	7507.83
680.529	7499.92
680.877	7516.19
681.225	7493.59
681.573	7495.85
681.922	7510.76
682.27	7491.1
682.618	7439.13
682.966	7418.56
683.314	7436.87
683.661	7386.7
684.009	7330.65
684.357	7353.93
684.705	7365.23
685.053	7360.71
685.4	7369.07
685.748	7252.01
686.095	7283.42
686.443	7283.2
686.79	7205.69
687.138	7292.24
687.485	7209.08
687.832	7178.79
688.18	7152.13
688.527	7179.92
688.874	7106.71
689.221	7086.14
689.568	7084.79
689.915	7006.82
690.262	7035.75
690.609	7064
690.956	7016.09
691.303	7014.73
691.65	6939.03
691.997	6924.11
692.344	6910.55
692.69	6957.56
693.037	6911.91
693.383	6838.69
693.73	6817.22
694.077	6846.15
694.423	6787.17
694.769	6769.54
695.116	6730.9
695.462	6725.7
695.808	6674.85
696.155	6649.32
696.501	6598.7
696.847	6613.84
697.193	6584.23
697.539	6579.49
697.885	6513.73
698.231	6522.99
698.577	6503.78
698.923	6534.52
699.269	6443.22
699.614	6441.86
699.96	6404.35
700.306	6434.86
700.651	6380.17
700.997	6347.18
701.342	6331.13
701.688	6287.29
702.033	6292.94
702.379	6249.33
702.724	6191.25
703.069	6243.68
703.415	6165.26
703.76	6161.19
704.105	6185.37
704.45	6212.94
704.795	6083.68
705.14	6129.1
705.485	6099.27
705.83	6072.16
706.175	6125.94
706.52	6024.93
706.865	5998.94
707.209	6034.42
707.554	5951.71
707.899	5923.91
708.243	5935.21
708.588	5927.53
708.932	5846.63
709.277	5882.33
709.621	5878.04
709.966	5812.5
710.31	5846.63
710.654	5768.21
710.998	5802.11
711.342	5823.58
711.687	5738.83
712.031	5719.62
712.375	5700.19
712.719	5778.38
713.063	5744.93
713.407	5753.07
713.75	5732.96
714.094	5751.71
714.438	5667.87
714.782	5697.03
715.125	5663.81
715.469	5642.56
715.812	5632.85
716.156	5565.5
716.499	5606.41
716.843	5607.31
717.186	5603.92
717.53	5626.52
717.873	5575.67
718.216	5575.22
718.559	5534.09
718.902	5537.71
719.246	5528.67
719.589	5564.15
719.932	5515.56
720.275	5561.44
720.617	5529.57
720.96	5521.89
721.303	5541.55
721.646	5459.07
721.989	5485.96
722.331	5490.48
722.674	5459.29
723.016	5470.82
723.359	5445.05
723.701	5454.77
724.044	5435.11
724.386	5450.7
724.729	5478.95
725.071	5473.75
725.413	5476.24
725.755	5447.99
726.097	5382.91
726.439	5417.48
726.782	5412.06
727.124	5464.72
727.465	5391.72
727.807	5379.75
728.149	5363.93
728.491	5393.08
728.833	5432.4
729.175	5375
729.516	5405.96
729.858	5406.19
730.199	5375.68
730.541	5395.11
730.882	5409.12
731.224	5407.54
731.565	5387.2
731.906	5386.53
732.248	5455.68
732.589	5382.46
732.93	5338.62
733.271	5383.81
733.612	5399.41
733.953	5453.19
734.294	5395.56
734.635	5417.03
734.976	5440.53
735.317	5404.15
735.658	5403.02
735.999	5410.25
736.339	5406.86
736.68	5492.28
737.021	5465.62
737.361	5433.3
737.702	5459.74
738.042	5452.74
738.383	5410.48
738.723	5509.46
739.063	5454.32
739.404	5513.75
739.744	5462.46
740.084	5507.65
740.424	5529.57
740.764	5533.19
741.104	5510.36
741.444	5509.46
741.784	5544.94
742.124	5584.26
742.464	5580.19
742.804	5592.4
743.143	5666.52
743.483	5685.05
743.823	5638.04
744.162	5629.23
744.502	5718.27
744.841	5684.82
745.181	5780.41
745.52	5800.07
745.86	5806.4
746.199	5825.16
746.538	5812.28
746.877	5941.54
747.216	5921.88
747.556	5971.59
747.895	6024.47
748.234	6024.25
748.573	6155.09
748.911	6153.51
749.25	6250.46
749.589	6188.31
749.928	6291.36
750.267	6408.65
750.605	6471.47
750.944	6481.41
751.283	6551.92
751.621	6654.29
751.96	6720.73
752.298	6808.41
752.636	6881.63
752.975	7000.72
753.313	7080.27
753.651	7175.18
753.989	7290.88
754.327	7418.79
754.666	7512.8
755.004	7611.55
755.342	7720.47
755.679	7886.35
756.017	8033.46
756.355	8145.32
756.693	8180.12
757.031	8339.22
757.368	8497.18
757.706	8630.96
758.044	8798.86
758.381	8985.98
758.719	9069.82
759.056	9287.44
759.394	9404.5
759.731	9471.39
760.068	9665.06
760.405	9867.31
760.743	9974.88
761.08	10134.42
761.417	10345.72
761.754	10517.01
762.091	10645.37
762.428	10794.74
762.765	10938.02
763.102	11271.12
763.438	11336.2
763.775	11439.02
764.112	11740.93
764.449	11902.96
764.785	12037.65
765.122	12107.7
765.458	12304.08
765.795	12453.46
766.131	12677.41
766.467	12855.03
766.804	12893.9
