Data from hue_210_FLMS001491_00015.txt Node
Date: Tue Feb 07 16:40:49 GMT 2017
User: dcchb
Spectrometer: FLMS00149
Trigger mode: 0
Integration Time (sec): 2.000000E-2
Scans to average: 10
Electric dark correction enabled: true
Nonlinearity correction enabled: false
Boxcar width: 0
XAxis mode: Wavelengths
Number of Pixels in Spectrum: 2048
>>>>>Begin Spectral Data<<<<<
341.393	-21.55
341.776	-21.55
342.16	-21.55
342.543	-66.52
342.927	-62.91
343.31	-71.72
343.693	-59.07
344.077	-68.33
344.46	-50.93
344.843	-66.98
345.226	-45.06
345.61	-28.11
345.993	-20.65
346.376	12.8
346.759	1.95
347.142	35.17
347.525	20.03
347.908	52.34
348.291	69.29
348.674	88.05
349.057	131.21
349.44	136.63
349.823	147.93
350.206	164.66
350.588	205.33
350.971	199.91
351.354	227.25
351.737	244.2
352.119	239.23
352.502	289.17
352.884	275.16
353.267	293.47
353.65	295.73
354.032	301.6
354.414	306.12
354.797	300.02
355.179	325.1
355.562	315.61
355.944	329.4
356.326	334.6
356.709	338.21
357.091	335.5
357.473	340.47
357.855	326.69
358.238	356.29
358.62	328.04
359.002	326.69
359.384	346.57
359.766	344.99
360.148	328.49
360.53	337.53
360.912	333.92
361.294	348.15
361.676	329.4
362.057	354.93
362.439	334.14
362.821	316.74
363.203	348.15
363.584	330.75
363.966	328.04
364.348	352
364.729	338.44
365.111	344.76
365.493	331.43
365.874	321.71
366.256	326.01
366.637	319.91
367.019	321.49
367.4	309.51
367.781	330.53
368.163	317.42
368.544	309.51
368.925	315.39
369.306	307.93
369.688	312.45
370.069	301.38
370.45	332.34
370.831	309.06
371.212	320.81
371.593	313.58
371.974	316.07
372.355	316.74
372.736	322.39
373.117	292.34
373.498	321.71
373.879	326.46
374.26	330.3
374.641	323.75
375.021	316.97
375.402	324.2
375.783	316.52
376.163	336.86
376.544	331.21
376.925	313.13
377.305	327.82
377.686	318.1
378.066	334.14
378.447	326.23
378.827	333.47
379.208	334.6
379.588	323.07
379.968	340.02
380.349	338.66
380.729	323.52
381.109	334.6
381.489	334.6
381.87	334.37
382.25	338.44
382.63	348.83
383.01	343.18
383.39	333.92
383.77	360.81
384.15	342.05
384.53	334.82
384.91	357.65
385.29	347.7
385.67	368.72
386.049	345.22
386.429	353.13
386.809	368.95
387.189	354.71
387.568	376.4
387.948	380.47
388.328	355.39
388.707	350.19
389.087	354.26
389.466	352.9
389.846	340.25
390.225	373.69
390.605	368.95
390.984	367.59
391.363	368.04
391.743	396.29
392.122	363.97
392.501	382.05
392.881	391.77
393.26	369.17
393.639	398.77
394.018	387.25
394.397	393.8
394.776	382.73
395.155	392.45
395.534	402.16
395.913	368.49
396.292	410.53
396.671	392.45
397.05	400.81
397.429	397.19
397.808	409.17
398.186	401.71
398.565	390.41
398.944	413.69
399.323	410.07
399.701	404.65
400.08	400.58
400.458	426.12
400.837	436.06
401.215	418.89
401.594	429.96
401.972	430.19
402.351	442.39
402.729	430.41
403.107	435.38
403.486	443.97
403.864	429.96
404.242	449.39
404.62	456.85
404.999	452.11
405.377	460.24
405.755	446.23
406.133	471.32
406.511	483.97
406.889	471.32
407.267	473.12
407.645	494.59
408.023	481.48
408.401	509.73
408.779	517.64
409.156	504.99
409.534	526.23
409.912	526.68
410.29	531.88
410.667	573.01
411.045	547.7
411.422	529.84
411.8	564.65
412.178	563.97
412.555	594.25
412.933	605.78
413.31	596.51
413.687	613.68
414.065	607.13
414.442	634.7
414.819	640.12
415.197	636.96
415.574	653.46
415.951	663.17
416.328	660.46
416.705	663.85
417.082	681.03
417.46	690.07
417.837	727.81
418.214	729.39
418.591	726.45
418.967	721.03
419.344	763.96
419.721	761.7
420.098	742.27
420.475	764.19
420.852	795.15
421.228	818.88
421.605	813
421.982	819.78
422.358	853.68
422.735	856.16
423.111	876.95
423.488	844.19
423.864	871.98
424.241	917.86
424.617	912.89
424.994	936.84
425.37	949.27
425.746	954.24
426.123	965.99
426.499	985.2
426.875	984.52
427.251	1007.35
427.627	1029.27
428.003	1034.46
428.379	1062.94
428.756	1049.61
429.132	1057.06
429.507	1063.16
429.883	1104.52
430.259	1139.09
430.635	1107.23
431.011	1146.33
431.387	1154.46
431.763	1153.33
432.138	1173.22
432.514	1214.57
432.89	1227
433.265	1233.56
433.641	1248.92
434.016	1282.37
434.392	1303.61
434.767	1339.77
435.143	1331.86
435.518	1374.57
435.894	1389.94
436.269	1410.27
436.644	1443.95
437.02	1463.83
437.395	1529.37
437.77	1529.14
438.145	1521.46
438.52	1575.24
438.895	1591.96
439.271	1616.82
439.646	1637.39
440.021	1660.44
440.395	1703.15
440.77	1696.59
441.145	1674.45
441.52	1753.77
441.895	1755.8
442.27	1761.9
442.645	1780.66
443.019	1797.38
443.394	1836.93
443.769	1836.7
444.143	1836.7
444.518	1888.91
444.892	1896.14
445.267	1928.68
445.641	1946.76
446.016	1944.04
446.39	1979.3
446.764	1960.77
447.139	1969.13
447.513	2023.36
447.887	2019.52
448.262	2028.11
448.636	2023.82
449.01	2061.78
449.384	2084.38
449.758	2115.11
450.132	2163.93
450.506	2138.39
450.88	2151.05
451.254	2161.67
451.628	2172.51
452.002	2204.6
452.376	2230.37
452.75	2246.18
453.123	2287.99
453.497	2313.3
453.871	2305.84
454.244	2335.67
454.618	2356.92
454.992	2405.28
455.365	2431.72
455.739	2472.84
456.112	2490.7
456.486	2519.85
456.859	2532.73
457.232	2581.32
457.606	2585.84
457.979	2622.67
458.352	2661.54
458.725	2701.54
459.099	2698.38
459.472	2732.05
459.845	2784.25
460.218	2776.11
460.591	2828.77
460.964	2821.54
461.337	2845.26
461.71	2911.7
462.083	2977.92
462.456	2963.23
462.829	2986.73
463.201	3080.51
463.574	3025.6
463.947	3079.83
464.32	3125.71
464.692	3178.59
465.065	3198.7
465.438	3257.46
465.81	3275.76
466.183	3318.25
466.555	3366.38
466.928	3370.67
467.3	3407.96
467.672	3500.84
468.045	3516.21
468.417	3565.47
468.789	3624.23
469.161	3638.92
469.534	3644.57
469.906	3774.05
470.278	3793.26
470.65	3791
471.022	3871.9
471.394	3901.28
471.766	3948.29
472.138	3988.06
472.51	4047.72
472.882	4114.38
473.253	4099.69
473.625	4199.35
473.997	4291.33
474.369	4327.26
474.74	4343.76
475.112	4427.37
475.484	4457.43
475.855	4577.65
476.227	4618.1
476.598	4686.57
476.97	4708.94
477.341	4800.47
477.713	4901.48
478.084	4925.21
478.455	5015.15
478.827	5033
479.198	5252.88
479.569	5200.23
479.94	5305.54
480.311	5378.3
480.682	5434.8
481.053	5547.11
481.424	5673.44
481.795	5716.15
482.166	5813.32
482.537	5798.86
482.908	5969.25
483.279	6006.99
483.65	6096.48
484.021	6230.03
484.391	6247.43
484.762	6327.43
485.133	6388.22
485.503	6391.84
485.874	6534.66
486.244	6569.01
486.615	6700.3
486.985	6770.81
487.356	6861.2
487.726	6888.1
488.097	6994.08
488.467	7084.7
488.837	7181.2
489.207	7249.22
489.578	7320.4
489.948	7409.66
490.318	7399.49
490.688	7448.98
491.058	7604.24
491.428	7675.87
491.798	7719.26
492.168	7832.48
492.538	7876.32
492.908	7959.93
493.278	8048.07
493.648	8013.94
494.017	8152.24
494.387	8212.58
494.757	8147.72
495.126	8267.04
495.496	8279.7
495.866	8399.92
496.235	8418.22
496.605	8477.21
496.974	8498
497.344	8579.35
497.713	8696.86
498.082	8659.8
498.452	8661.61
498.821	8720.36
499.19	8759.23
499.559	8807.14
499.928	8819.12
500.298	8847.14
500.667	8901.6
501.036	8905.67
501.405	9027.02
501.774	8950.41
502.143	9024.54
502.512	9105.66
502.88	9116.51
503.249	9079.9
503.618	9133.91
503.987	9166.23
504.356	9210.29
504.724	9220.92
505.093	9292.33
505.462	9264.53
505.83	9375.04
506.199	9429.72
506.567	9367.8
506.936	9403.96
507.304	9522.38
507.672	9554.92
508.041	9521.25
508.409	9579.1
508.777	9558.99
509.145	9670.85
509.514	9636.72
509.882	9681.02
510.25	9664.75
510.618	9758.3
510.986	9689.38
511.354	9787
511.722	9808.7
512.09	9836.94
512.458	9719.21
512.826	9834.46
513.193	9817.96
513.561	9837.4
513.929	9917.85
514.297	9908.81
514.664	9925.76
515.032	9947.22
515.4	9990.61
515.767	9967.11
516.135	9951.07
516.502	9876.49
516.869	10019.54
517.237	10024.51
517.604	9979.09
517.972	10058.41
518.339	10113.77
518.706	10057.96
519.073	10061.8
519.44	10106.54
519.808	10127.78
520.175	10083.04
520.542	10202.13
520.909	10195.35
521.276	10063.83
521.643	10148.12
522.009	10219.08
522.376	10201.68
522.743	10248.46
523.11	10288.01
523.477	10305.63
523.843	10378.17
524.21	10322.58
524.577	10424.73
524.943	10327.78
525.31	10295.01
525.676	10337.72
526.043	10411.84
526.409	10366.87
526.776	10444.61
527.142	10382.69
527.508	10410.04
527.874	10463.59
528.241	10458.4
528.607	10469.02
528.973	10374.56
529.339	10347.89
529.705	10447.32
530.071	10417.95
530.437	10404.16
530.803	10433.09
531.169	10416.59
531.535	10332.3
531.901	10373.43
532.267	10370.94
532.632	10346.99
532.998	10283.26
533.364	10376.59
533.73	10364.61
534.095	10355.35
534.461	10308.34
534.826	10322.58
535.192	10281.45
535.557	10277.84
535.923	10216.6
536.288	10250.27
536.653	10230.38
537.019	10168.24
537.384	10196.94
537.749	10081.46
538.114	10121.68
538.479	10078.52
538.845	10110.16
539.21	9973.44
539.575	9975.7
539.94	10028.13
540.305	9949.94
540.67	9897.73
541.034	9905.87
541.399	9856.15
541.764	9813.44
542.129	9861.58
542.494	9816.61
542.858	9819.32
543.223	9754.46
543.587	9751.3
543.952	9730.51
544.316	9646.67
544.681	9615.48
545.045	9616.84
545.41	9622.71
545.774	9614.35
546.138	9592.43
546.503	9469.95
546.867	9426.79
547.231	9492.55
547.595	9445.32
547.959	9440.34
548.324	9360.12
548.688	9353.12
549.052	9354.47
549.416	9309.73
549.779	9313.79
550.143	9237.64
550.507	9254.59
550.871	9208.26
551.235	9210.52
551.599	9170.07
551.962	9182.27
552.326	9101.37
552.689	9139.79
553.053	9069.28
553.417	8937.99
553.78	9095.95
554.143	8988.15
554.507	9057.76
554.87	8924.43
555.234	9018.89
555.597	8926.46
555.96	8940.25
556.323	8884.65
556.686	8858.44
557.05	8905.9
557.413	8834.26
557.776	8897.31
558.139	8831.1
558.502	8902.28
558.865	8802.62
559.228	8833.58
559.59	8818.21
559.953	8829.29
560.316	8858.21
560.679	8805.56
561.041	8836.75
561.404	8867.7
561.767	8886.91
562.129	8758.33
562.492	8841.72
562.854	8805.79
563.217	8850.3
563.579	8804.43
563.941	8909.51
564.304	8799.23
564.666	8883.52
565.028	8886.46
565.39	8803.53
565.753	8841.26
566.115	8892.56
566.477	8916.52
566.839	8937.31
567.201	8948.61
567.563	8900.02
567.925	8923.97
568.287	8926.01
568.648	8952.9
569.01	8938.21
569.372	8976.85
569.734	8964.2
570.095	8961.71
570.457	9020.02
570.819	9028.15
571.18	9011.88
571.542	9066.57
571.903	9062.05
572.265	9037.87
572.626	9095.72
572.987	9037.87
573.349	9121.71
573.71	9094.14
574.071	9068.38
574.432	9119.68
574.794	9148.83
575.155	9190.18
575.516	9110.86
575.877	9157.87
576.238	9116.96
576.599	9204.19
576.96	9182.27
577.32	9187.7
577.681	9208.71
578.042	9213.23
578.403	9234.25
578.763	9240.58
579.124	9216.4
579.485	9244.42
579.845	9315.83
580.206	9270.41
580.566	9281.71
580.927	9324.19
581.287	9278.54
581.648	9227.92
582.008	9306.56
582.368	9269.05
582.728	9353.34
583.089	9310.63
583.449	9382.49
583.809	9310.4
584.169	9342.49
584.529	9284.42
584.889	9361.93
585.249	9347.24
585.609	9289.61
585.969	9445.77
586.329	9323.51
586.688	9366.22
587.048	9310.86
587.408	9352.66
587.768	9374.36
588.127	9356.28
588.487	9366.22
588.846	9399.67
589.206	9413.91
589.565	9348.82
589.925	9417.97
590.284	9397.18
590.643	9477.86
591.003	9431.98
591.362	9495.71
591.721	9445.09
592.08	9457.07
592.44	9427.46
592.799	9466.33
593.158	9451.64
593.517	9449.84
593.876	9394.7
594.235	9471.53
594.593	9397.41
594.952	9416.84
595.311	9395.15
595.67	9491.64
596.029	9453.9
596.387	9424.3
596.746	9491.64
597.104	9462.49
597.463	9491.42
597.822	9530.74
598.18	9447.35
598.538	9498.2
598.897	9467.24
599.255	9424.75
599.613	9563.73
599.972	9470.63
600.33	9551.3
600.688	9455.94
601.046	9483.06
601.404	9426.79
601.762	9484.19
602.12	9464.53
602.478	9546.33
602.836	9488.03
603.194	9425.66
603.552	9515.82
603.91	9464.98
604.268	9498.65
604.625	9478.99
604.983	9556.27
605.341	9453.45
605.698	9548.82
606.056	9570.51
606.413	9556.73
606.771	9570.51
607.128	9500.68
607.485	9529.61
607.843	9482.38
608.2	9621.36
608.557	9577.29
608.914	9547.46
609.272	9598.98
609.629	9624.75
609.986	9610.51
610.343	9560.12
610.7	9616.61
611.057	9585.2
611.414	9629.27
611.771	9588.36
612.127	9650.96
612.484	9646.89
612.841	9728.02
613.198	9676.5
613.554	9649.15
613.911	9703.84
614.267	9668.59
614.624	9596.5
614.98	9642.83
615.337	9761.92
615.693	9714.46
616.05	9731.18
616.406	9734.12
616.762	9655.71
617.118	9670.85
617.475	9686.89
617.831	9763.05
618.187	9736.16
618.543	9694.12
618.899	9777.29
619.255	9723.5
619.611	9765.31
619.967	9785.65
620.323	9818.87
620.678	9796.72
621.034	9792.88
621.39	9750.17
621.746	9842.59
622.101	9871.97
622.457	9799.21
622.812	9833.33
623.168	9829.04
623.523	9862.25
623.879	9910.84
624.234	9739.55
624.589	9729.38
624.945	9817.74
625.3	9894.12
625.655	9846.21
626.01	9769.38
626.365	9795.82
626.72	9741.35
627.075	9808.47
627.43	9759.43
627.785	9714.69
628.14	9824.74
628.495	9804.18
628.85	9770.96
629.205	9760.56
629.559	9846.21
629.914	9728.02
630.269	9774.35
630.623	9660
630.978	9653.45
631.332	9790.62
631.687	9823.16
632.041	9703.16
632.396	9702.26
632.75	9635.37
633.104	9641.24
633.459	9643.73
633.813	9606.44
634.167	9695.71
634.521	9611.87
634.875	9640.57
635.229	9564.18
635.583	9574.8
635.937	9538.2
636.291	9578.42
636.645	9560.12
636.999	9472.21
637.352	9608.25
637.706	9452.77
638.06	9497.74
638.413	9510.17
638.767	9451.42
639.121	9512.89
639.474	9406.22
639.828	9403.51
640.181	9447.58
640.534	9467.46
640.888	9456.84
641.241	9350.4
641.594	9408.48
641.947	9441.7
642.301	9394.24
642.654	9358.54
643.007	9397.18
643.36	9367.35
643.713	9406
644.066	9380.69
644.419	9378.88
644.771	9252.1
645.124	9228.15
645.477	9210.75
645.83	9094.14
646.182	9108.38
646.535	9096.17
646.888	9131.2
647.24	9010.75
647.593	9067.25
647.945	9084.65
648.298	8999.23
648.65	9050.98
649.002	9002.16
649.355	9059.34
649.707	8969.4
650.059	9118.32
650.411	9135.27
650.763	9231.54
651.115	9240.58
651.467	9258.88
651.819	9257.3
652.171	9259.11
652.523	9200.35
652.875	9252.78
653.227	9141.82
653.578	9188.6
653.93	9238.99
654.282	9133.01
654.633	9182.05
654.985	9242.16
655.337	9238.54
655.688	9233.12
656.039	9288.03
656.391	9206.45
656.742	9287.13
657.094	9266.11
657.445	9297.98
657.796	9289.61
658.147	9248.49
658.498	9245.77
658.849	9260.01
659.2	9233.8
659.551	9290.97
659.902	9217.3
660.253	9200.8
660.604	9216.4
660.955	9186.79
661.306	9209.62
661.656	9252.78
662.007	9287.58
662.358	9308.82
662.708	9244.42
663.059	9310.18
663.409	9171.65
663.76	9302.04
664.11	9240.8
664.461	9300.69
664.811	9334.59
665.161	9273.57
665.511	9286.68
665.862	9265.66
666.212	9255.49
666.562	9326.45
666.912	9272.21
667.262	9288.26
667.612	9251.88
667.962	9241.25
668.312	9216.4
668.662	9336.39
669.011	9342.72
669.361	9251.88
669.711	9253.91
670.06	9234.7
670.41	9286.68
670.76	9249.84
671.109	9231.08
671.459	9159.67
671.808	9208.94
672.157	9244.19
672.507	9154.02
672.856	9176.4
673.205	9219.56
673.554	9247.81
673.904	9167.13
674.253	9227.7
674.602	9210.75
674.951	9073.35
675.3	9001.26
675.649	9159.67
675.998	9093.46
676.346	9163.06
676.695	9155.61
677.044	9066.12
677.393	9125.33
677.741	9124.2
678.09	9072.67
678.438	9094.82
678.787	9056.85
679.135	9097.98
679.484	8930.53
679.832	9033.8
680.181	8986.57
680.529	8912.22
680.877	8928.27
681.225	8890.75
681.573	8959.45
681.922	8902.28
682.27	8864.77
682.618	8933.69
682.966	8856.63
683.314	8812.34
683.661	8915.61
684.009	8801.04
684.357	8810.98
684.705	8772.79
685.053	8797.2
685.4	8772.79
685.748	8718.56
686.095	8732.12
686.443	8702.96
686.79	8658.67
687.138	8642.17
687.485	8683.98
687.832	8592.91
688.18	8598.79
688.527	8548.17
688.874	8577.32
689.221	8507.04
689.568	8558.56
689.915	8512.01
690.262	8503.19
690.609	8478.34
690.956	8431.78
691.303	8400.6
691.65	8298
691.997	8364.44
692.344	8303.88
692.69	8290.09
693.037	8347.49
693.383	8241.96
693.73	8199.93
694.077	8144.56
694.423	8163.99
694.769	8108.63
695.116	8075.18
695.462	8085.8
695.808	8026.37
696.155	8079.93
696.501	7983.66
696.847	7985.24
697.193	7929.65
697.539	7970.55
697.885	7890.1
698.231	7812.37
698.577	7788.86
698.923	7845.13
699.269	7747.96
699.614	7684.68
699.96	7719.03
700.306	7671.35
700.651	7626.61
700.997	7707.28
701.342	7662.76
701.688	7630
702.033	7552.49
702.379	7565.82
702.724	7519.94
703.069	7545.48
703.415	7465.03
703.76	7446.27
704.105	7429.78
704.45	7412.15
704.795	7317.01
705.14	7336.22
705.485	7344.58
705.83	7290.35
706.175	7289.67
706.52	7341.87
706.865	7260.06
707.209	7234.3
707.554	7173.51
707.899	7196.79
708.243	7149.33
708.588	7151.82
708.932	7131.03
709.277	7136.68
709.621	7118.15
709.966	7065.27
710.31	7049
710.654	7014.65
710.998	7001.77
711.342	6959.73
711.687	6957.02
712.031	6951.14
712.375	6974.2
712.719	6953.86
713.063	6938.72
713.407	6937.13
713.75	6895.55
714.094	6833.63
714.438	6821.43
714.782	6854.2
715.125	6842
715.469	6823.69
715.812	6801.54
716.156	6797.93
716.499	6797.7
716.843	6776.69
717.186	6710.02
717.53	6745.27
717.873	6778.95
718.216	6765.84
718.559	6747.08
718.902	6647.65
719.246	6686.07
719.589	6679.51
719.932	6657.37
720.275	6658.27
720.617	6655.33
720.96	6646.07
721.303	6609.46
721.646	6625.5
721.989	6624.83
722.331	6626.41
722.674	6625.96
723.016	6582.79
723.359	6602
723.701	6627.76
724.044	6566.3
724.386	6582.79
724.729	6596.58
725.071	6502.34
725.413	6506.41
725.755	6555.9
726.097	6500.54
726.439	6496.69
726.782	6514.77
727.124	6535.56
727.465	6521.55
727.807	6514.77
728.149	6472.29
728.491	6472.06
728.833	6455.79
729.175	6455.79
729.516	6497.82
729.858	6495.34
730.199	6487.43
730.541	6510.48
730.882	6453.98
731.224	6464.83
731.565	6484.04
731.906	6479.07
732.248	6446.3
732.589	6506.18
732.93	6452.63
733.271	6381.67
733.612	6454.43
733.953	6435.68
734.294	6480.2
734.635	6468.22
734.976	6454.43
735.317	6505.96
735.658	6464.38
735.999	6441.55
736.339	6456.02
736.68	6462.8
737.021	6435.9
737.361	6440.65
737.702	6445.85
738.042	6487.43
738.383	6459.18
738.723	6474.77
739.063	6442.46
739.404	6539.63
739.744	6509.57
740.084	6494.21
740.424	6537.82
740.764	6519.07
741.104	6531.95
741.444	6552.29
741.784	6536.69
742.124	6572.62
742.464	6612.4
742.804	6615.33
743.143	6624.15
743.483	6652.17
743.823	6626.86
744.162	6691.94
744.502	6762
744.841	6687.65
745.181	6781.43
745.52	6793.86
745.86	6824.14
746.199	6859.4
746.538	6865.05
746.877	6924.03
747.216	6961.09
747.556	7020.07
747.895	7042.44
748.234	7049.22
748.573	7186.84
748.911	7156.79
749.25	7248.54
749.589	7240.85
749.928	7304.13
750.267	7437.01
750.605	7503.45
750.944	7553.16
751.283	7624.35
751.621	7699.15
751.96	7714.06
752.298	7865.25
752.636	7928.29
752.975	8021.17
753.313	8040.38
753.651	8238.12
753.989	8241.73
754.327	8443.08
754.666	8412.35
755.004	8653.25
755.342	8703.42
755.679	8914.94
756.017	8931.66
756.355	9142.73
756.693	9205.55
757.031	9342.72
757.368	9505.65
757.706	9550.85
758.044	9761.47
758.381	9930.5
758.719	10036.94
759.056	10249.59
759.394	10374.33
759.731	10487.78
760.068	10705.62
760.405	10827.88
760.743	10919.18
761.08	11256.34
761.417	11360.97
761.754	11501.08
762.091	11692.04
762.428	11845.71
762.765	11906.04
763.102	12262.19
763.438	12350.78
763.775	12485.91
764.112	12700.6
764.449	12851.78
764.785	13012.91
765.122	13103.3
765.458	13281.15
765.795	13486.57
766.131	13623.74
766.467	13788.03
766.804	13987.34
767.14	14043.61
767.476	14258.07
767.812	14346.88
768.148	14541.23
