Data from hue_26_FLMS001491_00027.txt Node
Date: Tue Feb 07 17:13:46 GMT 2017
User: dcchb
Spectrometer: FLMS00149
Trigger mode: 0
Integration Time (sec): 2.000000E-2
Scans to average: 10
Electric dark correction enabled: true
Nonlinearity correction enabled: false
Boxcar width: 0
XAxis mode: Wavelengths
Number of Pixels in Spectrum: 2048
>>>>>Begin Spectral Data<<<<<
341.393	-28.63
341.776	-28.63
342.16	-28.63
342.543	-69.76
342.927	-64.56
343.31	-85.58
343.693	-67.27
344.077	-74.73
344.46	-48.74
344.843	-84.45
345.226	-32.7
345.61	-9.65
345.993	-50.78
346.376	-10.1
346.759	25.38
347.142	39.62
347.525	39.62
347.908	67.41
348.291	77.81
348.674	96.11
349.057	118.03
349.44	127.07
349.823	153.06
350.206	157.58
350.588	193.51
350.971	212.72
351.354	216.56
351.737	249.78
352.119	255.88
352.502	254.08
352.884	272.61
353.267	276
353.65	283.68
354.032	304.24
354.414	309.22
354.797	308.99
355.179	327.75
355.562	318.03
355.944	314.86
356.326	337.01
356.709	343.11
357.091	344.24
357.473	334.3
357.855	356.9
358.238	345.15
358.62	320.06
359.002	336.11
359.384	332.04
359.766	329.1
360.148	330.46
360.53	356.22
360.912	324.36
361.294	346.28
361.676	334.98
362.057	346.28
362.439	325.26
362.821	329.55
363.203	342.89
363.584	319.84
363.966	325.94
364.348	318.93
364.729	310.57
365.111	320.06
365.493	308.54
365.874	344.24
366.256	310.57
366.637	317.12
367.019	327.75
367.4	313.96
367.781	313.51
368.163	322.55
368.544	312.38
368.925	313.28
369.306	305.15
369.688	329.78
370.069	310.34
370.45	304.7
370.831	314.19
371.212	331.59
371.593	329.1
371.974	307.18
372.355	323.45
372.736	310.8
373.117	318.25
373.498	304.92
373.879	310.34
374.26	319.16
374.641	316.67
375.021	324.36
375.402	315.09
375.783	322.77
376.163	332.49
376.544	328.2
376.925	306.5
377.305	330.91
377.686	335.43
378.066	325.03
378.447	329.55
378.827	322.1
379.208	344.92
379.588	317.12
379.968	320.29
380.349	336.78
380.729	331.59
381.109	323.23
381.489	340.4
381.87	331.14
382.25	341.53
382.63	344.24
383.01	328.88
383.39	332.49
383.77	340.17
384.15	349.44
384.53	339.27
384.91	356.45
385.29	346.05
385.67	335.88
386.049	347.86
386.429	346.95
386.809	352.38
387.189	362.55
387.568	341.98
387.948	354.41
388.328	367.74
388.707	361.42
389.087	359.61
389.466	370.68
389.846	356.45
390.225	376.78
390.605	350.8
390.984	342.66
391.363	365.48
391.743	348.76
392.122	373.62
392.501	379.72
392.881	377.24
393.26	364.13
393.639	369.33
394.018	372.94
394.397	378.14
394.776	375.88
395.155	392.83
395.534	387.86
395.913	388.99
396.292	382.89
396.671	373.85
397.05	388.53
397.429	386.5
397.808	383.79
398.186	384.02
398.565	389.89
398.944	390.34
399.323	389.66
399.701	365.94
400.08	395.09
400.458	387.41
400.837	386.95
401.215	376.78
401.594	402.55
401.972	398.03
402.351	397.35
402.729	393.05
403.107	419.49
403.486	414.3
403.864	410
404.242	410.68
404.62	420.62
404.999	411.59
405.377	416.56
405.755	414.3
406.133	423.79
406.511	439.61
406.889	422.21
407.267	449.78
407.645	427.63
408.023	421.53
408.401	441.19
408.779	435.09
409.156	443.9
409.534	458.36
409.912	438.93
410.29	463.34
410.667	457.91
411.045	449.55
411.422	468.76
411.8	438.03
412.178	484.13
412.555	454.75
412.933	479.83
413.31	479.61
413.687	479.38
414.065	465.82
414.442	475.31
414.819	488.42
415.197	473.28
415.574	490
415.951	478.7
416.328	499.94
416.705	506.95
417.082	468.31
417.46	487.29
417.837	497.91
418.214	491.36
418.591	489.32
418.967	505.59
419.344	514.41
419.721	502.88
420.098	528.19
420.475	504.92
420.852	515.54
421.228	527.06
421.605	511.92
421.982	530.23
422.358	511.92
422.735	541.53
423.111	533.62
423.488	547.85
423.864	538.36
424.241	556.44
424.617	533.16
424.994	568.19
425.37	558.02
425.746	562.09
426.123	544.01
426.499	564.8
426.875	564.58
427.251	605.48
427.627	547.63
428.003	562.99
428.379	581.52
428.756	611.35
429.132	591.02
429.507	593.05
429.883	607.06
430.259	629.21
430.635	602.99
431.011	599.83
431.387	628.3
431.763	622.43
432.138	621.3
432.514	613.39
432.89	631.01
433.265	653.39
433.641	616.1
434.016	638.92
434.392	651.8
434.767	673.27
435.143	673.05
435.518	680.96
435.894	678.7
436.269	655.42
436.644	710.33
437.02	696.78
437.395	684.57
437.77	693.84
438.145	728.19
438.52	717.79
438.895	685.02
439.271	690.9
439.646	725.25
440.021	734.29
440.395	718.7
440.77	722.09
441.145	741.97
441.52	748.3
441.895	756.89
442.27	748.07
442.645	753.5
443.019	750.33
443.394	754.4
443.769	748.07
444.143	774.97
444.518	789.88
444.892	765.47
445.267	807.96
445.641	811.8
446.016	784.68
446.39	787.85
446.764	803.21
447.139	812.25
447.513	819.03
447.887	795.53
448.262	791.24
448.636	822.2
449.01	813.38
449.384	838.24
449.758	841.63
450.132	834.17
450.506	842.99
450.88	839.82
451.254	844.34
451.628	849.09
452.002	863.1
452.376	882.76
452.75	863.32
453.123	891.35
453.497	904.23
453.871	875.53
454.244	916.66
454.618	912.59
454.992	903.78
455.365	929.99
455.739	923.66
456.112	952.59
456.486	940.61
456.859	976.09
457.232	934.74
457.606	932.7
457.979	981.97
458.352	991.91
458.725	1006.15
459.099	1029.42
459.472	1009.31
459.845	1047.27
460.218	1063.55
460.591	1065.58
460.964	1047.27
461.337	1078.91
461.71	1083.88
462.083	1121.62
462.456	1107.61
462.829	1105.13
463.201	1107.84
463.574	1114.17
463.947	1155.29
464.32	1159.14
464.692	1184.67
465.065	1182.64
465.438	1197.33
465.81	1209.08
466.183	1223.77
466.555	1236.2
466.928	1234.84
467.3	1267.16
467.672	1278.23
468.045	1320.94
468.417	1322.52
468.789	1303.99
469.161	1329.98
469.534	1392.35
469.906	1410.2
470.278	1412.01
470.65	1403.88
471.022	1435.74
471.394	1432.35
471.766	1478.9
472.138	1502.18
472.51	1535.4
472.882	1535.62
473.253	1572.01
473.625	1606.81
473.997	1595.28
474.369	1643.19
474.74	1681.16
475.112	1667.15
475.484	1720.48
475.855	1730.42
476.227	1738.33
476.598	1817.88
476.97	1835.73
477.341	1867.82
477.713	1898.33
478.084	1934.71
478.455	1983.3
478.827	1983.3
479.198	2061.94
479.569	2084.76
479.94	2125.89
480.311	2134.03
480.682	2186
481.053	2246.79
481.424	2292.44
481.795	2298.09
482.166	2375.83
482.537	2395.49
482.908	2453.34
483.279	2478.42
483.65	2540.79
484.021	2599.1
484.391	2603.84
484.762	2647.23
485.133	2695.37
485.503	2736.27
485.874	2783.95
486.244	2837.74
486.615	2907.11
486.985	2951.63
487.356	2995.25
487.726	3043.61
488.097	3101.91
488.467	3096.94
488.837	3200.66
489.207	3262.81
489.578	3320.66
489.948	3305.52
490.318	3393.43
490.688	3446.99
491.058	3438.17
491.428	3563.59
491.798	3570.15
492.168	3638.39
492.538	3683.14
492.908	3752.29
493.278	3785.96
493.648	3803.13
494.017	3858.5
494.387	3921.1
494.757	3914.32
495.126	3929.68
495.496	4006.29
495.866	4063.01
496.235	4077.7
496.605	4129.45
496.974	4148.66
497.344	4198.6
497.713	4263.69
498.082	4232.95
498.452	4285.38
498.821	4357.92
499.19	4357.47
499.559	4434.76
499.928	4392.72
500.298	4433.63
500.667	4507.07
501.036	4525.83
501.405	4577.58
501.774	4622.32
502.143	4627.52
502.512	4665.03
502.88	4711.13
503.249	4677.91
503.618	4749.32
503.987	4739.61
504.356	4822.99
504.724	4812.15
505.093	4758.36
505.462	4846.95
505.83	4877
506.199	4894.86
506.567	4984.12
506.936	4997
507.304	5016.44
507.672	5008.3
508.041	5033.38
508.409	5161.52
508.777	5087.17
509.145	5218.46
509.514	5182.31
509.882	5234.06
510.25	5206.94
510.618	5256.43
510.986	5263.66
511.354	5269.99
511.722	5337.33
512.09	5365.13
512.458	5361.51
512.826	5387.73
513.193	5409.19
513.561	5451.9
513.929	5447.16
514.297	5518.34
514.664	5592.24
515.032	5530.32
515.4	5596.53
515.767	5621.62
516.135	5622.52
516.502	5594.73
516.869	5710.65
517.237	5744.1
517.604	5739.35
517.972	5835.17
518.339	5789.75
518.706	5765.12
519.073	5776.19
519.44	5831.78
519.808	5804.44
520.175	5894.6
520.542	5916.3
520.909	5917.66
521.276	5999.01
521.643	5987.48
522.009	6027.48
522.376	6044.21
522.743	6135.95
523.11	6137.08
523.477	6214.37
523.843	6157.42
524.21	6228.83
524.577	6291.66
524.943	6317.87
525.31	6283.07
525.676	6423.63
526.043	6397.19
526.409	6452.1
526.776	6476.06
527.142	6520.13
527.508	6585.89
527.874	6577.3
528.241	6593.57
528.607	6695.71
528.973	6669.27
529.339	6668.6
529.705	6757.41
530.071	6802.83
530.437	6764.86
530.803	6860.46
531.169	6915.59
531.535	6859.1
531.901	6952.2
532.267	6947.91
532.632	6954.24
532.998	7018.87
533.364	7070.85
533.73	7051.86
534.095	7118.08
534.461	7194.23
534.826	7187
535.192	7171.63
535.557	7257.05
535.923	7280.56
536.288	7211.63
536.653	7316.26
537.019	7307.9
537.384	7348.8
537.749	7388.35
538.114	7377.05
538.479	7450.95
538.845	7440.1
539.21	7382.02
539.575	7510.83
539.94	7521.45
540.305	7576.37
540.67	7572.75
541.034	7621.11
541.399	7671.06
541.764	7690.04
542.129	7703.82
542.494	7811.62
542.858	7860.88
543.223	7785.18
543.587	7862.69
543.952	7944.04
544.316	7948.34
544.681	7911.5
545.045	7965.06
545.41	8020.2
545.774	8042.35
546.138	7999.18
546.503	8065.62
546.867	8085.73
547.231	8119.41
547.595	8226.75
547.959	8208.89
548.324	8207.54
548.688	8231.04
549.052	8264.71
549.416	8315.78
549.779	8278.72
550.143	8376.12
550.507	8433.07
550.871	8409.12
551.235	8467.42
551.599	8447.08
551.962	8542.44
552.326	8480.98
552.689	8631.03
553.053	8539.96
553.417	8593.52
553.78	8694.08
554.143	8625.83
554.507	8693.63
554.87	8696.57
555.234	8805.04
555.597	8732.95
555.96	8770.01
556.323	8850.23
556.686	8894.3
557.05	8939.5
557.413	8905.6
557.776	8950.34
558.139	8935.43
558.502	8906.05
558.865	9050.23
559.228	9037.8
559.59	9102.88
559.953	9140.85
560.316	9154.41
560.679	9219.94
561.041	9270.34
561.404	9279.15
561.767	9358.02
562.129	9284.57
562.492	9379.26
562.854	9379.26
563.217	9383.78
563.579	9457.22
563.941	9444.79
564.304	9454.06
564.666	9581.51
565.028	9582.87
565.39	9613.83
565.753	9630.33
566.115	9668.29
566.477	9682.75
566.839	9727.5
567.201	9757.1
567.563	9869.64
567.925	9866.48
568.287	9878.91
568.648	9973.37
569.01	9915.29
569.372	10045.68
569.734	9941.96
570.095	10063.53
570.457	10087.04
570.819	10132.46
571.18	10134.49
571.542	10347.37
571.903	10239.12
572.265	10341.49
572.626	10430.76
572.987	10475.73
573.349	10463.98
573.71	10546.01
574.071	10622.84
574.432	10689.06
574.794	10738.55
575.155	10809.73
575.516	10821.93
575.877	10908.26
576.238	10925.43
576.599	11071.42
576.96	11142.6
577.32	11238.42
577.681	11247.23
578.042	11383.95
578.403	11409.94
578.763	11537.39
579.124	11657.39
579.485	11788.46
579.845	11908.68
580.206	11928.57
580.566	12061.22
580.927	12125.4
581.287	12400.87
581.648	12480.87
582.008	12557.93
582.368	12771.49
582.728	12825.72
583.089	13061.87
583.449	13170.57
583.809	13343.9
584.169	13528.98
584.529	13582.76
584.889	13977.1
585.249	14017.78
585.609	14193.37
585.969	14455.51
586.329	14661.83
586.688	14907.93
587.048	15161.03
587.408	15301.36
587.768	15464.97
588.127	15694.35
588.487	15910.16
588.846	16328.68
589.206	16418.85
589.565	16627.88
589.925	16973.41
590.284	17206.17
590.643	17461.98
591.003	17860.17
591.362	18090.22
591.721	18316.43
592.08	18606.59
592.44	19049.29
592.799	19240.47
593.158	19453.12
593.517	19730.85
593.876	20079.54
594.235	20261.46
594.593	20675.91
594.952	20954.77
595.311	21037.48
595.67	21488.77
596.029	21851.02
596.387	22199.94
596.746	22439.03
597.104	22738.68
597.463	23039.24
597.822	23372.56
598.18	23521.49
598.538	23844.87
598.897	24297.06
599.255	24385.64
599.613	24986.98
599.972	25137.94
600.33	25473.53
600.688	25609.79
601.046	26011.36
601.404	26385.14
601.762	26591.01
602.12	27041.62
602.478	27216.3
602.836	27613.81
603.194	27728.83
603.552	28016.06
603.91	28123.85
604.268	28535.14
604.625	28755.02
604.983	29201.34
605.341	29250.15
605.698	29691.95
606.056	30018.94
606.413	30080.18
606.771	30363.57
607.128	30584.8
607.485	30723.1
607.843	31058.24
608.2	31401.96
608.557	31629.75
608.914	31822.96
609.272	32337.53
609.629	32336.62
609.986	32738.64
610.343	32739.77
610.7	33234.23
611.057	33265.64
611.414	33319.87
611.771	33591.5
612.127	34004.83
612.484	34173.86
612.841	34401.2
613.198	34542.67
613.554	34659.27
613.911	35017.68
614.267	35283.66
614.624	35292.93
614.98	35472.81
615.337	35685.91
615.693	35990.76
616.05	35936.98
616.406	36309.85
616.762	36188.72
617.118	36409.28
617.475	36515.04
617.831	36895.15
618.187	36946.22
618.543	36967.01
618.899	37451.52
619.255	37472.53
619.611	37486.99
619.967	37674.56
620.323	37910.03
620.678	37883.37
621.034	37972.18
621.39	38086.98
621.746	38114.55
622.101	38561.77
622.457	38420.53
622.812	38667.75
623.168	38644.7
623.523	38858.94
623.879	38909.56
624.234	38755.21
624.589	39083.11
624.945	39128.31
625.3	39320.39
625.655	39260.28
626.01	39457.34
626.365	39548.64
626.72	39510.67
627.075	39701.17
627.43	39708.86
627.785	39625.7
628.14	39872.24
628.495	39800.83
628.85	39919.47
629.205	39804.22
629.559	40039.24
629.914	40040.15
630.269	40035.4
630.623	40048.51
630.978	40034.72
631.332	40267.71
631.687	40281.27
632.041	40108.39
632.396	40150.2
632.75	40346.81
633.104	40225.91
633.459	40216.19
633.813	40234.27
634.167	40352.68
634.521	40227.94
634.875	40412.57
635.229	40349.74
635.583	40419.35
635.937	40248.96
636.291	40438.33
636.645	40408.73
636.999	40281.05
637.352	40433.36
637.706	40219.8
638.06	40464.54
638.413	40309.07
638.767	40160.6
639.121	40356.75
639.474	40107.72
639.828	40156.08
640.181	40323.76
640.534	40255.51
640.888	40180.03
641.241	39956.76
641.594	40133.03
641.947	40258
642.301	40210.76
642.654	40220.93
643.007	40160.82
643.36	40197.88
643.713	40028.62
644.066	40207.15
644.419	40057.77
644.771	39857.33
645.124	39501.63
645.477	39375.53
645.83	39121.08
646.182	39142.77
646.535	38998.14
646.888	39119.49
647.24	38877.24
647.593	39208.76
647.945	39085.37
648.298	38932.15
648.65	38831.82
649.002	38678.6
649.355	39016.67
649.707	38858.26
650.059	39123.34
650.411	39613.49
650.763	39624.11
651.115	40038.79
651.467	39771.68
651.819	39967.83
652.171	39719.03
652.523	39620.5
652.875	39754.28
653.227	39528.52
653.578	39813.04
653.93	39747.05
654.282	39730.78
654.633	39498.69
654.985	39682.64
655.337	39609.65
655.688	39595.87
656.039	39649.65
656.391	39432.93
656.742	39533.27
657.094	39462.76
657.445	39627.96
657.796	39548.64
658.147	39476.09
658.498	39368.08
658.849	39449.88
659.2	39520.61
659.551	39334.18
659.902	39430.9
660.253	39510.44
660.604	39434.51
660.955	39325.59
661.306	39529.2
661.656	39437.9
662.007	39411.92
662.358	39423.67
662.708	39429.99
663.059	39365.59
663.409	39277
663.76	39501.18
664.11	39490.78
664.461	39483.78
664.811	39474.29
665.161	39345.02
665.511	39345.7
665.862	39324.23
666.212	39496.66
666.562	39345.48
666.912	39402.88
667.262	39311.81
667.612	39190.68
667.962	39366.72
668.312	39423.89
668.662	39406.72
669.011	39371.24
669.361	39352.26
669.711	39239.04
670.06	39132.6
670.41	39108.19
670.76	39147.06
671.109	39289.43
671.459	39131.7
671.808	39147.29
672.157	39219.83
672.507	38982.55
672.856	38968.54
673.205	39095.99
673.554	39172.15
673.904	38985.71
674.253	39286.27
674.602	39040.63
674.951	38537.14
675.3	38357.03
675.649	39100.29
675.998	38871.14
676.346	38930.8
676.695	39097.12
677.044	38722.22
677.393	38891.93
677.741	38982.77
678.09	38802.89
678.438	38757.47
678.787	38886.51
679.135	38825.49
679.484	38529.23
679.832	38751.37
680.181	38580.07
680.529	38616.46
680.877	38356.35
681.225	38478.61
681.573	38800.18
681.922	38385.73
682.27	38270.48
682.618	38128.33
682.966	38140.76
683.314	38295.33
683.661	38259.18
684.009	37940.32
684.357	37973.08
684.705	37956.13
685.053	38030.03
685.4	37926.08
685.748	37777.61
686.095	37837.72
686.443	37644.05
686.79	37452.87
687.138	37560.44
687.485	37632.3
687.832	37506.66
688.18	37493.55
688.527	37358.86
688.874	37226.21
689.221	37089.26
689.568	37058.76
689.915	36981.25
690.262	36980.79
690.609	36951.64
690.956	36813.79
691.303	36666.23
691.65	36504.42
691.997	36704.42
692.344	36329.06
692.69	36371.09
693.037	36365.89
693.383	36041.83
693.73	36260.36
694.077	36042.29
694.423	36030.31
694.769	35890.65
695.116	35879.58
695.462	35878.22
695.808	35593.94
696.155	35709.19
696.501	35362.3
696.847	35521.4
697.193	35221.97
697.539	35353.94
697.885	35096.77
698.231	35055.19
698.577	35007.96
698.923	34878.48
699.269	34950.11
699.614	34698.14
699.96	34550.35
700.306	34554.87
700.651	34550.8
700.997	34428.54
701.342	34153.97
701.688	34240.75
702.033	34185.39
702.379	34223.58
702.724	34049.12
703.069	34137.48
703.415	33728
703.76	33727.32
704.105	33798.96
704.45	33665.17
704.795	33426.31
705.14	33375.46
705.485	33498.85
705.83	33213.89
706.175	33294.11
706.52	33231.51
706.865	33025.64
707.209	32939.32
707.554	32861.35
707.899	33060.44
708.243	32742.94
708.588	32776.61
708.932	32519.67
709.277	32495.26
709.621	32544.98
709.966	32322.16
710.31	32452.32
710.654	32096.63
710.998	32171.88
711.342	32248.04
711.687	32173.91
712.031	31897.31
712.375	31822.28
712.719	31923.98
713.063	31846.24
713.407	31867.93
713.75	31709.75
714.094	31742.06
714.438	31505.68
714.782	31627.94
715.125	31382.97
715.469	31568.73
715.812	31304.11
716.156	31207.84
716.499	31205.58
716.843	31270.89
717.186	31068.18
717.53	31144.79
717.873	31213.94
718.216	31157.9
718.559	30900.95
718.902	30626.84
719.246	30804.46
719.589	30673.16
719.932	30606.95
720.275	30580.28
720.617	30618.25
720.96	30476.78
721.303	30391.36
721.646	30540.28
721.989	30300.29
722.331	30338.03
722.674	30354.53
723.016	30269.56
723.359	30225.26
723.701	30229.33
724.044	30097.81
724.386	29942.33
724.729	30227.75
725.071	29940.98
725.413	29857.14
725.755	29956.8
726.097	29810.36
726.439	29698.05
726.782	29651.49
727.124	29631.61
727.465	29562.46
727.807	29531.27
728.149	29552.29
728.491	29381.67
728.833	29469.35
729.175	29324.5
729.516	29334.44
729.858	29292.63
730.199	29260.54
730.541	29341.9
730.882	29129.7
731.224	29291.28
731.565	29066.65
731.906	29097.38
732.248	29149.59
732.589	28809.93
732.93	28943.94
733.271	28888.35
733.612	28922.47
733.953	28923.38
734.294	28658.75
734.635	28625.76
734.976	28773.33
735.317	28593.44
735.658	28668.7
735.999	28500.79
736.339	28515.71
736.68	28600.67
737.021	28464.41
737.361	28427.57
737.702	28524.97
738.042	28356.39
738.383	28302.6
738.723	28316.84
739.063	28202.94
739.404	28304.86
739.744	28219.44
740.084	28180.8
740.424	28158.88
740.764	28082.27
741.104	28304.19
741.444	28093.34
741.784	27853.12
742.124	27998.43
742.464	27903.29
742.804	27814.93
743.143	27783.97
743.483	27776.29
743.823	27686.35
744.162	27639.57
744.502	27780.13
744.841	27496.97
745.181	27710.53
745.52	27582.85
745.86	27648.61
746.199	27616.52
746.538	27536.07
746.877	27588.72
747.216	27519.8
747.556	27413.36
747.895	27384.44
748.234	27199.36
748.573	27276.87
748.911	27247.94
749.25	27269.18
749.589	26995.52
749.928	27132.01
750.267	27055.63
750.605	27111.22
750.944	26935.63
751.283	27032.58
751.621	26989.19
751.96	26865.8
752.298	26796.43
752.636	26870.1
752.975	26579.71
753.313	26647.05
753.651	26645.92
753.989	26559.37
754.327	26514.18
754.666	26471.46
755.004	26525.93
755.342	26570.9
755.679	26303.33
756.017	26168.65
756.355	26290.23
756.693	26233.51
757.031	26206.39
757.368	26072.61
757.706	25922.55
758.044	25856.34
758.381	25981.31
758.719	25869.9
759.056	25798.94
759.394	25760.3
759.731	25652.28
760.068	25690.69
