Data from hue_210_FLMS001491_00069.txt Node
Date: Tue Feb 07 16:41:33 GMT 2017
User: dcchb
Spectrometer: FLMS00149
Trigger mode: 0
Integration Time (sec): 2.000000E-2
Scans to average: 10
Electric dark correction enabled: true
Nonlinearity correction enabled: false
Boxcar width: 0
XAxis mode: Wavelengths
Number of Pixels in Spectrum: 2048
>>>>>Begin Spectral Data<<<<<
341.393	-31.33
341.776	-31.33
342.16	-31.33
342.543	-77.88
342.927	-79.91
343.31	-73.59
343.693	-64.77
344.077	-59.57
344.46	-51.21
344.843	-44.66
345.226	-41.95
345.61	-27.94
345.993	-17.09
346.376	-5.34
346.759	3.93
347.142	19.97
347.525	48.67
347.908	74.89
348.291	54.77
348.674	80.08
349.057	103.81
349.44	111.27
349.823	155.33
350.206	176.58
350.588	187.88
350.971	219.74
351.354	211.38
351.737	241.89
352.119	269.46
352.502	226.52
352.884	257.93
353.267	246.63
353.65	292.51
354.032	290.92
354.414	299.29
354.797	327.31
355.179	321.21
355.562	320.98
355.944	313.52
356.326	302.45
356.709	313.75
357.091	348.78
357.473	325.05
357.855	333.18
358.238	325.73
358.62	350.81
359.002	353.75
359.384	343.8
359.766	333.18
360.148	340.64
360.53	342.67
360.912	337.48
361.294	335.67
361.676	332.51
362.057	322.79
362.439	333.18
362.821	312.62
363.203	321.88
363.584	339.51
363.966	308.78
364.348	328.44
364.729	331.6
365.111	307.42
365.493	311.04
365.874	288.44
366.256	299.74
366.637	325.05
367.019	306.97
367.4	321.66
367.781	311.94
368.163	306.07
368.544	295.22
368.925	314.88
369.306	326.18
369.688	311.49
370.069	313.07
370.45	323.01
370.831	327.53
371.212	310.13
371.593	312.84
371.974	291.15
372.355	312.17
372.736	323.47
373.117	295.9
373.498	309.68
373.879	304.48
374.26	298.16
374.641	302
375.021	300.64
375.402	297.93
375.783	337.03
376.163	307.42
376.544	308.33
376.925	326.63
377.305	322.56
377.686	336.12
378.066	320.53
378.447	316.46
378.827	325.5
379.208	315.33
379.588	343.8
379.968	332.51
380.349	320.75
380.729	304.03
381.109	332.96
381.489	342
381.87	345.61
382.25	301.55
382.63	347.19
383.01	320.08
383.39	332.05
383.77	344.71
384.15	337.03
384.53	339.51
384.91	331.83
385.29	349.45
385.67	355.1
386.049	349.23
386.429	359.17
386.809	342.45
387.189	310.81
387.568	343.8
387.948	332.51
388.328	345.61
388.707	364.37
389.087	355.78
389.466	368.44
389.846	377.93
390.225	374.31
390.605	345.61
390.984	369.57
391.363	374.09
391.743	374.54
392.122	370.92
392.501	369.57
392.881	373.18
393.26	371.83
393.639	372.28
394.018	367.76
394.397	391.26
394.776	367.31
395.155	367.08
395.534	383.8
395.913	383.35
396.292	391.94
396.671	381.54
397.05	406.18
397.429	401.2
397.808	391.26
398.186	394.65
398.565	400.53
398.944	413.41
399.323	415.67
399.701	399.4
400.08	417.7
400.458	394.2
400.837	402.79
401.215	419.06
401.594	412.28
401.972	420.86
402.351	415.44
402.729	426.74
403.107	425.38
403.486	425.61
403.864	450.47
404.242	447.76
404.62	424.03
404.999	462.45
405.377	451.37
405.755	447.76
406.133	486.17
406.511	473.97
406.889	456.8
407.267	460.19
407.645	463.58
408.023	465.38
408.401	500.18
408.779	489.79
409.156	475.78
409.534	499.51
409.912	508.09
410.29	522.1
410.667	544.7
411.045	541.09
411.422	558.26
411.8	557.13
412.178	565.27
412.555	578.83
412.933	593.74
413.31	600.52
413.687	599.39
414.065	621.76
414.442	613.63
414.819	598.94
415.197	638.71
415.574	640.75
415.951	646.85
416.328	664.93
416.705	675.1
417.082	671.71
417.46	680.74
417.837	681.87
418.214	694.08
418.591	717.13
418.967	736.79
419.344	707.41
419.721	730.91
420.098	734.3
420.475	763.23
420.852	777.69
421.228	763.91
421.605	813.62
421.982	790.35
422.358	830.35
422.735	830.35
423.111	845.71
423.488	839.16
423.864	862.89
424.241	878.71
424.617	881.87
424.994	912.6
425.37	898.59
425.746	922.09
426.123	927.97
426.499	921.87
426.875	975.2
427.251	978.36
427.627	1006.39
428.003	1033.96
428.379	1011.81
428.756	1035.76
429.132	1032.15
429.507	1053.84
429.883	1092.26
430.259	1076.21
430.635	1096.1
431.011	1099.26
431.387	1153.27
431.763	1148.76
432.138	1165.7
432.514	1191.01
432.89	1189.88
433.265	1223.56
433.641	1228.53
434.016	1272.37
434.392	1293.16
434.767	1311.01
435.143	1310.56
435.518	1311.91
435.894	1379.03
436.269	1386.71
436.644	1407.51
437.02	1426.94
437.395	1456.32
437.77	1466.26
438.145	1484.34
438.52	1515.75
438.895	1546.94
439.271	1565.47
439.646	1596.2
440.021	1619.25
440.395	1661.96
440.77	1637.78
441.145	1671.91
441.52	1700.83
441.895	1689.53
442.27	1746.25
442.645	1811.11
443.019	1790.09
443.394	1772.92
443.769	1795.52
444.143	1788.74
444.518	1843.43
444.892	1835.29
445.267	1876.65
445.641	1888.4
446.016	1882.52
446.39	1950.77
446.764	1932.01
447.139	1937.89
447.513	1954.61
447.887	1956.19
448.262	1992.8
448.636	1988.51
449.01	2018.56
449.384	2032.35
449.758	2038.9
450.132	2087.94
450.506	2075.28
450.88	2114.83
451.254	2111.89
451.628	2131.1
452.002	2181.5
452.376	2205.68
452.75	2244.09
453.123	2218.78
453.497	2264.66
453.871	2260.14
454.244	2297.65
454.618	2301.49
454.992	2349.18
455.365	2351.44
455.739	2437.76
456.112	2416.07
456.486	2453.13
456.859	2490.41
457.232	2514.82
457.606	2506.01
457.979	2558.44
458.352	2609.51
458.725	2635.95
459.099	2630.98
459.472	2686.57
459.845	2689.96
460.218	2713.91
460.591	2740.58
460.964	2771.99
461.337	2846.34
461.71	2837.3
462.083	2866.68
462.456	2888.82
462.829	2902.83
463.201	2941.02
463.574	2968.14
463.947	3042.49
464.32	3077.07
464.692	3142.15
465.065	3125.2
465.438	3154.58
465.81	3197.29
466.183	3206.55
466.555	3293.33
466.928	3303.73
467.3	3315.03
467.672	3413.1
468.045	3406.32
468.417	3450.16
468.789	3465.53
469.161	3498.52
469.534	3596.83
469.906	3640.67
470.278	3624.17
470.65	3725.18
471.022	3774.9
471.394	3847.44
471.766	3839.31
472.138	3906.87
472.51	3963.37
472.882	4027.1
473.253	4070.94
473.625	4135.8
473.997	4185.29
474.369	4173.53
474.74	4230.48
475.112	4304.83
475.484	4350.7
475.855	4428.89
476.227	4431.61
476.598	4628.21
476.97	4653.07
477.341	4705.5
477.713	4773.97
478.084	4822.78
478.455	4938.71
478.827	4951.37
479.198	5116.79
479.569	5099.16
479.94	5224.13
480.311	5246.95
480.682	5388.64
481.053	5495.76
481.424	5563.33
481.795	5567.17
482.166	5661.4
482.537	5678.58
482.908	5843.32
483.279	5824.34
483.65	6011.68
484.021	6040.6
484.391	6121.28
484.762	6166.25
485.133	6202.41
485.503	6293.25
485.874	6432.23
486.244	6496.41
486.615	6545
486.985	6647.82
487.356	6706.12
487.726	6770.98
488.097	6882.84
488.467	6861.83
488.837	7020.24
489.207	7091.88
489.578	7125.32
489.948	7223.85
490.318	7360.12
490.688	7334.13
491.058	7420.45
491.428	7502.94
491.798	7551.52
492.168	7741.12
492.538	7669.94
492.908	7813.21
493.278	7855.7
493.648	7907.45
494.017	7986.54
494.387	8034.9
494.757	8070.83
495.126	8123.71
495.496	8133.2
495.866	8150.38
496.235	8252.07
496.605	8326.87
496.974	8441.67
497.344	8400.09
497.713	8396.7
498.082	8480.54
498.452	8537.49
498.821	8612.74
499.19	8570.25
499.559	8647.99
499.928	8678.73
500.298	8734.09
500.667	8773.41
501.036	8755.11
501.405	8805.05
501.774	8864.71
502.143	8929.34
502.512	8965.05
502.88	8958.27
503.249	9014.76
503.618	9027.42
503.987	9003.24
504.356	9105.38
504.724	9044.14
505.093	9066.29
505.462	9110.58
505.83	9171.6
506.199	9256.79
506.567	9256.79
506.936	9313.29
507.304	9360.97
507.672	9396.67
508.041	9333.62
508.409	9415.66
508.777	9526.39
509.145	9480.51
509.514	9489.55
509.882	9465.15
510.25	9555.31
510.618	9563.22
510.986	9575.88
511.354	9636.89
511.722	9692.03
512.09	9683.67
512.458	9660.17
512.826	9709.21
513.193	9773.61
513.561	9750.11
513.929	9752.14
514.297	9779.04
514.664	9753.73
515.032	9907.85
515.4	9934.96
515.767	9887.96
516.135	9911.24
516.502	9778.81
516.869	9911.69
517.237	9927.51
517.604	9947.62
517.972	9951.69
518.339	9972.48
518.706	10017
519.073	10000.73
519.44	10054.74
519.808	10022.42
520.175	9980.16
520.542	10087.73
520.909	10073.94
521.276	10048.18
521.643	9995.75
522.009	10160.72
522.376	10163.43
522.743	10121.85
523.11	10171.79
523.477	10219.48
523.843	10277.33
524.21	10286.14
524.577	10329.53
524.943	10300.15
525.31	10271
525.676	10306.48
526.043	10328.17
526.409	10334.95
526.776	10427.16
527.142	10322.75
527.508	10402.98
527.874	10341.51
528.241	10367.04
528.607	10405.69
528.973	10488.85
529.339	10390.55
529.705	10463.76
530.071	10486.14
530.437	10432.35
530.803	10466.25
531.169	10460.6
531.535	10460.83
531.901	10385.35
532.267	10364.56
532.632	10399.13
532.998	10349.87
533.364	10392.35
533.73	10390.32
534.095	10385.35
534.461	10380.15
534.826	10423.77
535.192	10284.11
535.557	10323.66
535.923	10227.39
536.288	10311.23
536.653	10263.77
537.019	10189.65
537.384	10163.89
537.749	10157.33
538.114	10221.74
538.479	10151.91
538.845	10122.98
539.21	10047.05
539.575	10120.5
539.94	10083.89
540.305	10085.47
540.67	10076.43
541.034	10030.33
541.399	9972.93
541.764	10030.33
542.129	9904.23
542.494	9903.55
542.858	9884.12
543.223	9872.82
543.587	9877.79
543.952	9768.19
544.316	9830.79
544.681	9700.85
545.045	9674.18
545.41	9764.35
545.774	9735.2
546.138	9646.38
546.503	9627.18
546.867	9621.98
547.231	9572.49
547.595	9602.77
547.959	9622.2
548.324	9538.82
548.688	9530
549.052	9454.53
549.416	9471.93
549.779	9394.19
550.143	9408.2
550.507	9383.57
550.871	9417.01
551.235	9353.29
551.599	9420.85
551.962	9370.46
552.326	9321.87
552.689	9284.13
553.053	9216.57
553.417	9278.03
553.78	9203.91
554.143	9245.27
554.507	9235.77
554.87	9138.6
555.234	9226.28
555.597	9095.89
555.96	9099.73
556.323	9120.07
556.686	9120.3
557.05	9158.26
557.413	9131.6
557.776	9045.95
558.139	9067.64
558.502	9014.31
558.865	9082.56
559.228	9029.23
559.59	9037.36
559.953	9064.25
560.316	9063.58
560.679	9007.98
561.041	9086.63
561.404	9112.16
561.767	9108.32
562.129	9022.45
562.492	9065.38
562.854	9022.45
563.217	9086.4
563.579	9122.78
563.941	9110.35
564.304	9072.84
564.666	9105.38
565.028	9101.54
565.39	9125.49
565.753	9092.95
566.115	9120.52
566.477	9178.37
566.839	9189.9
567.201	9176.79
567.563	9107.19
567.925	9210.01
568.287	9204.36
568.648	9198.03
569.01	9180.63
569.372	9219.5
569.734	9188.09
570.095	9212.5
570.457	9324.81
570.819	9199.39
571.18	9266.06
571.542	9294.3
571.903	9239.39
572.265	9319.61
572.626	9309.9
572.987	9326.62
573.349	9381.31
573.71	9342.44
574.071	9354.87
574.432	9353.96
574.794	9407.97
575.155	9382.66
575.516	9412.04
575.877	9443.23
576.238	9441.19
576.599	9447.97
576.96	9517.12
577.32	9455.88
577.681	9493.62
578.042	9486.16
578.403	9499.95
578.763	9465.15
579.124	9542.66
579.485	9576.56
579.845	9552.15
580.206	9544.92
580.566	9576.1
580.927	9514.41
581.287	9611.81
581.648	9632.37
582.008	9619.04
582.368	9609.55
582.728	9583.56
583.089	9581.53
583.449	9595.09
583.809	9617.46
584.169	9666.5
584.529	9687.74
584.889	9699.49
585.249	9631.24
585.609	9570.91
585.969	9730.68
586.329	9652.49
586.688	9699.26
587.048	9689.32
587.408	9675.08
587.768	9638.02
588.127	9646.38
588.487	9736.33
588.846	9785.82
589.206	9635.54
589.565	9635.31
589.925	9824.69
590.284	9676.21
590.643	9687.97
591.003	9673.05
591.362	9727.29
591.721	9756.21
592.08	9704.69
592.44	9805.48
592.799	9750.11
593.158	9778.81
593.517	9790.79
593.876	9786.04
594.235	9790.56
594.593	9773.84
594.952	9784.91
595.311	9718.7
595.67	9828.3
596.029	9857
596.387	9832.37
596.746	9822.2
597.104	9786.04
597.463	9751.92
597.822	9768.42
598.18	9744.46
598.538	9671.92
598.897	9772.26
599.255	9781.52
599.613	9880.5
599.972	9749.88
600.33	9833.95
600.688	9727.96
601.046	9832.14
601.404	9828.75
601.762	9826.04
602.12	9856.55
602.478	9839.6
602.836	9811.58
603.194	9814.97
603.552	9811.58
603.91	9809.77
604.268	9808.41
604.625	9785.36
604.983	9778.81
605.341	9786.04
605.698	9790.11
606.056	9852.03
606.413	9851.58
606.771	9849.54
607.128	9893.61
607.485	9779.94
607.843	9779.04
608.2	9888.19
608.557	9984.23
608.914	9876.44
609.272	9884.34
609.629	9946.04
609.986	9982.65
610.343	9882.31
610.7	10000.27
611.057	10027.84
611.414	9947.39
611.771	10009.77
612.127	10069.65
612.484	9995.75
612.841	9934.51
613.198	9972.93
613.554	9991.46
613.911	10031.01
614.267	10008.86
614.624	9987.39
614.98	10024.68
615.337	10084.11
615.693	9998.92
616.05	9989.43
616.406	10064.45
616.762	10041.18
617.118	10027.62
617.475	10087.28
617.831	10149.42
618.187	10066.49
618.543	10112.36
618.899	10184.22
619.255	10152.13
619.611	10152.59
619.967	10125.24
620.323	10170.66
620.678	10157.78
621.034	10135.41
621.39	10083.66
621.746	10076.88
622.101	10125.24
622.457	10147.61
622.812	10183.77
623.168	10124.79
623.523	10168.18
623.879	10157.56
624.234	10113.04
624.589	10127.5
624.945	10156.43
625.3	10187.61
625.655	10138.35
626.01	10146.26
626.365	10164.56
626.72	10129.54
627.075	10140.61
627.43	10137.22
627.785	10113.49
628.14	10126.82
628.495	10180.38
628.85	10158.24
629.205	10086.37
629.559	10129.54
629.914	10035.75
630.269	10091.8
630.623	9990.56
630.978	9971.35
631.332	10019.03
631.687	10024.68
632.041	10021.52
632.396	10051.8
632.75	10057.45
633.104	10012.93
633.459	9986.71
633.813	9996.88
634.167	9981.29
634.521	9918.69
634.875	9949.88
635.229	9915.08
635.583	9877.57
635.937	9901.52
636.291	9902.42
636.645	9882.76
636.999	9913.27
637.352	9922.76
637.706	9748.98
638.06	9919.37
638.413	9800.73
638.767	9800.28
639.121	9854.29
639.474	9788.53
639.828	9776.1
640.181	9766.38
640.534	9753.73
640.888	9707.4
641.241	9673.95
641.594	9720.06
641.947	9714.63
642.301	9677.34
642.654	9767.96
643.007	9678.7
643.36	9709.21
643.713	9634.63
644.066	9719.6
644.419	9619.49
644.771	9537.46
645.124	9523.45
645.477	9530.23
645.83	9449.55
646.182	9326.85
646.535	9358.71
646.888	9443
647.24	9336.34
647.593	9356
647.945	9353.29
648.298	9312.83
648.65	9294.76
649.002	9322.1
649.355	9323
649.707	9332.27
650.059	9350.12
650.411	9487.74
650.763	9470.34
651.115	9533.62
651.467	9588.53
651.819	9501.08
652.171	9584.69
652.523	9494.52
652.875	9538.82
653.227	9556.22
653.578	9539.04
653.93	9552.38
654.282	9549.44
654.633	9525.48
654.985	9554.18
655.337	9552.38
655.688	9530
656.039	9595.31
656.391	9489.78
656.742	9552.38
657.094	9435.99
657.445	9585.82
657.796	9558.7
658.147	9508.76
658.498	9538.59
658.849	9529.78
659.2	9581.75
659.551	9558.7
659.902	9571.36
660.253	9539.72
660.604	9633.5
660.955	9507.63
661.306	9542.21
661.656	9504.02
662.007	9551.92
662.358	9588.08
662.708	9588.08
663.059	9556.22
663.409	9542.43
663.76	9600.74
664.11	9547.18
664.461	9572.94
664.811	9587.86
665.161	9603.67
665.511	9588.53
665.862	9593.05
666.212	9572.49
666.562	9591.24
666.912	9556.67
667.262	9538.59
667.612	9585.37
667.962	9625.59
668.312	9559.83
668.662	9619.27
669.011	9591.92
669.361	9539.04
669.711	9509.44
670.06	9574.3
670.41	9554.64
670.76	9520.51
671.109	9563.22
671.459	9608.87
671.808	9504.02
672.157	9553.96
672.507	9497.01
672.856	9483.23
673.205	9542.21
673.554	9539.04
673.904	9468.76
674.253	9523
674.602	9508.76
674.951	9372.95
675.3	9357.58
675.649	9417.92
675.998	9405.94
676.346	9448.42
676.695	9437.8
677.044	9300.18
677.393	9363.91
677.741	9392.38
678.09	9326.62
678.438	9343.34
678.787	9365.49
679.135	9401.87
679.484	9239.39
679.832	9309.44
680.181	9205.49
680.529	9263.12
680.877	9221.54
681.225	9187.19
681.573	9320.52
681.922	9214.53
682.27	9216.57
682.618	9186.74
682.966	9122.1
683.314	9214.31
683.661	9111.26
684.009	9137.92
684.357	9107.64
684.705	9062.9
685.053	9132.5
685.4	9046.4
685.748	9042.78
686.095	9005.72
686.443	9017.02
686.79	8926.18
687.138	8878.5
687.485	8988.32
687.832	8907.65
688.18	8866.97
688.527	8878.27
688.874	8814.99
689.221	8833.75
689.568	8787.42
689.915	8770.02
690.262	8737.48
690.609	8710.14
690.956	8723.47
691.303	8699.52
691.65	8583.36
691.997	8675.11
692.344	8541.78
692.69	8545.4
693.037	8511.73
693.383	8519.41
693.73	8499.52
694.077	8463.14
694.423	8461.78
694.769	8416.36
695.116	8386.53
695.462	8345.63
695.808	8311.05
696.155	8302.01
696.501	8309.02
696.847	8301.56
697.193	8209.59
697.539	8211.62
697.885	8163.03
698.231	8105.63
698.577	8092.98
698.923	8062.25
699.269	8002.81
699.614	7985.41
699.96	7974.11
700.306	7903.15
700.651	7904.74
700.997	7866.77
701.342	7878.97
701.688	7848.69
702.033	7812.08
702.379	7797.85
702.724	7784.51
703.069	7753.55
703.415	7651.41
703.76	7693.89
704.105	7650.51
704.45	7644.63
704.795	7605.53
705.14	7573.44
705.485	7521.47
705.83	7528.47
706.175	7497.97
706.52	7474.24
706.865	7410.74
707.209	7434.01
707.554	7407.8
707.899	7352.89
708.243	7409.83
708.588	7381.36
708.932	7238.99
709.277	7304.75
709.621	7322.38
709.966	7257.52
710.31	7244.64
710.654	7168.94
710.998	7232.89
711.342	7238.99
711.687	7166.9
712.031	7121.71
712.375	7090.29
712.719	7085.32
713.063	7104.76
713.407	7103.85
713.75	7094.14
714.094	7115.15
714.438	7035.15
714.782	7076.73
715.125	7021.82
715.469	7062.95
715.812	7008.94
716.156	7021.6
716.499	6977.53
716.843	6981.37
717.186	6949.73
717.53	6920.58
717.873	6934.59
718.216	6937.53
718.559	6937.53
718.902	6860.7
719.246	6877.42
719.589	6883.97
719.932	6807.14
720.275	6897.76
720.617	6878.77
720.96	6845.1
721.303	6812.79
721.646	6832.9
721.989	6800.81
722.331	6836.29
722.674	6757.65
723.016	6804.65
723.359	6834.71
723.701	6836.74
724.044	6799.45
724.386	6738.89
724.729	6746.57
725.071	6733.02
725.413	6763.07
725.755	6709.51
726.097	6725.56
726.439	6674.03
726.782	6704.99
727.124	6750.42
727.465	6694.82
727.807	6701.38
728.149	6650.08
728.491	6661.15
728.833	6667.48
729.175	6744.54
729.516	6648.95
729.858	6654.83
730.199	6637.42
730.541	6644.66
730.882	6659.12
731.224	6682.85
731.565	6623.87
731.906	6662.06
732.248	6673.13
732.589	6689.17
732.93	6638.78
733.271	6629.06
733.612	6650.98
733.953	6659.34
734.294	6672.45
734.635	6610.08
734.976	6706.35
735.317	6686.91
735.658	6627.26
735.999	6694.82
736.339	6601.49
736.68	6694.15
737.021	6722.17
737.361	6671.55
737.702	6642.62
738.042	6712.9
738.383	6687.14
738.723	6735.5
739.063	6688.72
739.404	6741.38
739.744	6749.51
740.084	6705.67
740.424	6729.63
740.764	6724.65
741.104	6750.42
741.444	6724.2
741.784	6753.81
742.124	6787.48
742.464	6819.34
742.804	6814.37
743.143	6892.11
743.483	6848.49
743.823	6895.72
744.162	6833.8
744.502	6960.58
744.841	6862.73
745.181	6944.08
745.52	6966.91
745.86	6987.7
746.199	7052.33
746.538	7054.14
746.877	7098.66
747.216	7186.34
747.556	7191.99
747.895	7216.62
748.234	7252.78
748.573	7298.42
748.911	7367.12
749.25	7410.74
749.589	7424.52
749.928	7473.11
750.267	7638.3
750.605	7611.86
750.944	7643.05
751.283	7782.03
751.621	7861.12
751.96	7912.65
752.298	8017.95
752.636	8057.27
752.975	8207.33
753.313	8204.84
753.651	8330.04
753.989	8492.06
754.327	8521.22
754.666	8607.09
755.004	8797.59
755.342	8882.11
755.679	8989.23
756.017	9080.3
756.355	9282.1
756.693	9367.75
757.031	9499.95
757.368	9597.8
757.706	9775.42
758.044	9912.82
758.381	10064
758.719	10204.11
759.056	10388.74
759.394	10560.03
759.731	10625.34
760.068	10803.87
760.405	10939.91
760.743	11054.94
761.08	11292.67
761.417	11383.74
761.754	11663.05
762.091	11739.44
762.428	11853.33
762.765	12082.25
763.102	12244.96
763.438	12372.87
763.775	12539.87
764.112	12826.64
764.449	12928.78
764.785	13095.56
765.122	13213.75
765.458	13414.2
765.795	13584.13
766.131	13751.36
766.467	13705.49
