Data from hue_50_FLMS001491_87.txt Node
Date: Mon Feb 06 15:11:10 GMT 2017
User: dcchb
Spectrometer: FLMS00149
Trigger mode: 0
Integration Time (sec): 2.000000E-2
Scans to average: 10
Electric dark correction enabled: true
Nonlinearity correction enabled: false
Boxcar width: 0
XAxis mode: Wavelengths
Number of Pixels in Spectrum: 2048
>>>>>Begin Spectral Data<<<<<
341.393	-26.47
341.776	-26.47
342.16	-26.47
342.543	-53.59
342.927	-54.04
343.31	-69.63
343.693	-62.85
344.077	-59.01
344.46	-63.76
344.843	-50.2
345.226	-48.61
345.61	-12.01
345.993	-16.52
346.376	-0.48
346.759	5.17
347.142	23.25
347.525	37.03
347.908	46.98
348.291	77.03
348.674	91.95
349.057	101.66
349.44	130.36
349.823	143.02
350.206	168.1
350.588	199.74
350.971	215.79
351.354	233.86
351.737	243.58
352.119	262.56
352.502	260.53
352.884	285.39
353.267	276.35
353.65	290.81
354.032	291.04
354.414	297.37
354.797	317.25
355.179	333.75
355.562	334.65
355.944	336.46
356.326	342.11
356.709	339.62
357.091	326.29
357.473	315.67
357.855	364.03
358.238	340.53
358.62	326.97
359.002	346.18
359.384	344.14
359.766	341.66
360.148	359.96
360.53	336.23
360.912	325.16
361.294	321.32
361.676	324.03
362.057	352.28
362.439	332.62
362.821	324.48
363.203	330.36
363.584	313.18
363.966	328.55
364.348	323.58
364.729	340.75
365.111	321.09
365.493	335.78
365.874	326.74
366.256	331.04
366.637	306.86
367.019	298.95
367.4	300.53
367.781	312.51
368.163	312.73
368.544	326.29
368.925	323.58
369.306	323.58
369.688	314.99
370.069	328.32
370.45	297.59
370.831	305.73
371.212	325.61
371.593	309.12
371.974	312.96
372.355	321.09
372.736	315.22
373.117	310.7
373.498	319.96
373.879	328.32
374.26	315.22
374.641	313.86
375.021	301.21
375.402	324.48
375.783	328.1
376.163	327.19
376.544	352.5
376.925	323.35
377.305	343.47
377.686	350.47
378.066	320.64
378.447	337.59
378.827	336.23
379.208	327.65
379.588	334.2
379.968	329
380.349	329.23
380.729	353.18
381.109	335.78
381.489	346.86
381.87	329.91
382.25	344.6
382.63	326.97
383.01	349.34
383.39	351.83
383.77	337.14
384.15	344.37
384.53	343.92
384.91	351.37
385.29	343.01
385.67	338.27
386.049	340.75
386.429	351.83
386.809	349.12
387.189	343.47
387.568	356.12
387.948	348.89
388.328	383.46
388.707	357.48
389.087	361.77
389.466	333.75
389.846	369.45
390.225	354.31
390.605	357.48
390.984	380.3
391.363	351.83
391.743	364.93
392.122	339.4
392.501	367.19
392.881	367.42
393.26	380.07
393.639	377.14
394.018	383.24
394.397	394.54
394.776	362
395.155	391.6
395.534	378.94
395.913	379.62
396.292	380.98
396.671	384.59
397.05	392.05
397.429	395.89
397.808	394.76
398.186	383.69
398.565	382.79
398.944	383.24
399.323	395.67
399.701	385.05
400.08	399.96
400.458	413.07
400.837	417.81
401.215	401.77
401.594	416.01
401.972	404.71
402.351	399.28
402.729	416.91
403.107	409.45
403.486	397.7
403.864	409.9
404.242	410.58
404.62	413.97
404.999	417.59
405.377	436.57
405.755	427.31
406.133	428.89
406.511	436.57
406.889	417.36
407.267	421.66
407.645	423.01
408.023	434.08
408.401	449.9
408.779	448.77
409.156	439.28
409.534	447.19
409.912	432.95
410.29	445.84
410.667	428.89
411.045	424.59
411.422	449.23
411.8	456
412.178	461.43
412.555	463.24
412.933	462.56
413.31	479.73
413.687	473.63
414.065	451.94
414.442	476.57
414.819	491.48
415.197	470.69
415.574	482.44
415.951	491.03
416.328	478.83
416.705	496.68
417.082	501.43
417.46	481.77
417.837	488.32
418.214	510.01
418.591	525.16
418.967	497.59
419.344	490.81
419.721	493.52
420.098	537.13
420.475	547.75
420.852	524.03
421.228	539.62
421.605	540.52
421.982	504.59
422.358	516.12
422.735	520.86
423.111	567.19
423.488	534.19
423.864	541.65
424.241	550.24
424.617	564.7
424.994	557.7
425.37	551.14
425.746	544.14
426.123	551.82
426.499	544.82
426.875	569.67
427.251	578.04
427.627	577.58
428.003	584.14
428.379	589.33
428.756	597.24
429.132	604.25
429.507	588.43
429.883	575.1
430.259	604.02
430.635	606.28
431.011	603.8
431.387	630.46
431.763	619.39
432.138	633.4
432.514	619.62
432.89	611.93
433.265	639.05
433.641	654.64
434.016	648.09
434.392	664.59
434.767	682.67
435.143	664.81
435.518	675.89
435.894	672.5
436.269	668.65
436.644	700.74
437.02	696
437.395	696.9
437.77	697.58
438.145	710.24
438.52	714.53
438.895	702.78
439.271	731.7
439.646	728.09
440.021	718.37
440.395	741.65
440.77	726.96
441.145	731.7
441.52	772.83
441.895	727.18
442.27	754.53
442.645	758.82
443.019	781.19
443.394	762.21
443.769	752.27
444.143	770.57
444.518	793.17
444.892	773.06
445.267	782.55
445.641	791.82
446.016	794.75
446.39	794.53
446.764	796.11
447.139	795.43
447.513	804.02
447.887	823.68
448.262	818.03
448.636	828.65
449.01	827.97
449.384	831.14
449.758	834.07
450.132	850.57
450.506	861.87
450.88	818.26
451.254	877.24
451.628	870.68
452.002	838.82
452.376	885.37
452.75	884.47
453.123	880.17
453.497	903
453.871	909.55
454.244	938.03
454.618	926.5
454.992	945.03
455.365	948.65
455.739	924.47
456.112	935.31
456.486	987.29
456.859	985.26
457.232	992.94
457.606	994.52
457.979	980.51
458.352	1010.79
458.725	1044.69
459.099	1044.24
459.472	1047.4
459.845	1064.35
460.218	1067.97
460.591	1097.57
460.964	1072.94
461.337	1076.55
461.71	1091.24
462.083	1138.92
462.456	1140.05
462.829	1173.5
463.201	1163.33
463.574	1147.06
463.947	1205.82
464.32	1215.76
464.692	1226.61
465.065	1209.43
465.438	1243.33
465.81	1295.98
466.183	1285.36
466.555	1292.14
466.928	1313.16
467.3	1321.29
467.672	1349.77
468.045	1349.09
468.417	1417.79
468.789	1428.86
469.161	1414.85
469.534	1441.06
469.906	1490.78
470.278	1492.14
470.65	1507.28
471.022	1549.08
471.394	1559.93
471.766	1612.58
472.138	1638.35
472.51	1690.1
472.882	1719.93
473.253	1756.54
473.625	1776.42
473.997	1805.12
474.369	1837.89
474.74	1866.36
475.112	1971.22
475.484	1965.57
475.855	2015.74
476.227	2030.65
476.598	2111.1
476.97	2129.41
477.341	2207.37
477.713	2250.76
478.084	2288.05
478.455	2408.72
478.827	2437.87
479.198	2500.02
479.569	2549.74
479.94	2662.73
480.311	2697.75
480.682	2754.93
481.053	2895.26
481.424	2966.67
481.795	3003.06
482.166	3089.16
482.537	3212.32
482.908	3289.15
483.279	3371.18
483.65	3456.6
484.021	3588.13
484.391	3721.46
484.762	3765.07
485.133	3828.57
485.503	3938.63
485.874	4081.45
486.244	4206.19
486.615	4328.45
486.985	4411.38
487.356	4562.34
487.726	4634.65
488.097	4825.16
488.467	4931.82
488.837	5067.18
489.207	5155.09
489.578	5274.18
489.948	5414.74
490.318	5563.44
490.688	5610.67
491.058	5752.81
491.428	6001.85
491.798	6079.81
492.168	6262.41
492.538	6406.81
492.908	6527.26
493.278	6659.01
493.648	6793.92
494.017	6892.22
494.387	7085.89
494.757	7176.28
495.126	7375.37
495.496	7470.74
495.866	7601.58
496.235	7737.62
496.605	7924.28
496.974	8047.9
497.344	8156.37
497.713	8279.53
498.082	8373.31
498.452	8588.22
498.821	8720.65
499.19	8806.29
499.559	8865.05
499.928	8984.82
500.298	9143.23
500.667	9403.34
501.036	9427.75
501.405	9582.54
501.774	9628.19
502.143	9776.44
502.512	9883.1
502.88	10035.64
503.249	10131.46
503.618	10292.58
503.987	10385.91
504.356	10453.48
504.724	10650.99
505.093	10740.48
505.462	10760.37
505.83	10952.23
506.199	11055.27
506.567	11229.51
506.936	11284.42
507.304	11507.24
507.672	11548.59
508.041	11616.84
508.409	11762.37
508.777	11941.58
509.145	12115.13
509.514	12058.64
509.882	12253.21
510.25	12256.82
510.618	12446.88
510.986	12518.51
511.354	12691.62
511.722	12848.22
512.09	12946.75
512.458	12921.21
512.826	13101.77
513.193	13221.32
513.561	13218.83
513.929	13452.27
514.297	13496.11
514.664	13696.56
515.032	13764.36
515.4	13824.47
515.767	13931.58
516.135	14124.35
516.502	13981.98
516.869	14242.76
517.237	14370.22
517.604	14393.72
517.972	14516.2
518.339	14650.89
518.706	14657.44
519.073	14868.51
519.44	14903.76
519.808	15072.8
520.175	15117.31
520.542	15312.79
520.909	15440.7
521.276	15347.82
521.643	15646.11
522.009	15672.78
522.376	15896.73
522.743	15852.44
523.11	16173.56
523.477	16258.08
523.843	16362.25
524.21	16568.12
524.577	16703.26
524.943	16676.14
525.31	16787.1
525.676	17072.29
526.043	17099.86
526.409	17176.24
526.776	17341.89
527.142	17407.88
527.508	17476.12
527.874	17638.15
528.241	17805.15
528.607	17753.86
528.973	18035.88
529.339	17999.27
529.705	18238.59
530.071	18333.95
530.437	18319.04
530.803	18555.87
531.169	18684
531.535	18677.45
531.901	18678.58
532.267	18824.11
532.632	18978.68
532.998	18986.59
533.364	19198.11
533.73	19193.59
534.095	19333.7
534.461	19352.01
534.826	19669.06
535.192	19559.23
535.557	19780.24
535.923	19798.32
536.288	19844.2
536.653	19913.12
537.019	19952.22
537.384	20038.77
537.749	20122.38
538.114	20168.93
538.479	20243.06
538.845	20387.91
539.21	20331.19
539.575	20504.07
539.94	20560.34
540.305	20640.11
540.67	20712.2
541.034	20756.04
541.399	20898.86
541.764	20947.22
542.129	21060.89
542.494	21019.98
542.858	21112.86
543.223	21191.5
543.587	21422.69
543.952	21356.47
544.316	21484.6
544.681	21423.36
545.045	21587.2
545.41	21718.72
545.774	21775.9
546.138	21643.7
546.503	21840.53
546.867	21851.6
547.231	22178.15
547.595	22177.47
547.959	22170.24
548.324	22143.57
548.688	22325.71
549.052	22343.11
549.416	22416.56
549.779	22517.57
550.143	22686.83
550.507	22698.36
550.871	22735.19
551.235	22775.19
551.599	22881.4
551.962	22963.66
552.326	23034.39
552.689	23176.31
553.053	23099.93
553.417	23189.64
553.78	23474.38
554.143	23281.85
554.507	23488.62
554.87	23637.32
555.234	23786.92
555.597	23640.93
555.96	23779.01
556.323	23866.01
556.686	23924.99
557.05	24092.45
557.413	24104.87
557.776	24147.13
558.139	24341.03
558.502	24345.55
558.865	24528.59
559.228	24736.95
559.59	24806.33
559.953	24793.9
560.316	25169.93
560.679	25120.22
561.041	25217.39
561.404	25262.58
561.767	25402.24
562.129	25368.8
562.492	25677.04
562.854	25663.48
563.217	25689.24
563.579	25875.22
563.941	25985.28
564.304	26035.22
564.666	26173.75
565.028	26067.99
565.39	26276.34
565.753	26538.03
566.115	26678.37
566.477	26683.11
566.839	26718.59
567.201	26882.65
567.563	26862.54
567.925	27115.42
568.287	27127.17
568.648	27148.18
569.01	27351.34
569.372	27449.42
569.734	27497.78
570.095	27736.42
570.457	27701.62
570.819	27946.13
571.18	27895.06
571.542	28146.12
571.903	28117.42
572.265	28312
572.626	28357.64
572.987	28286.01
573.349	28515.38
573.71	28587.92
574.071	28726.45
574.432	28858.65
574.794	29104.29
575.155	29040.79
575.516	29038.08
575.877	29244.63
576.238	29254.12
576.599	29585.41
576.96	29546.54
577.32	29623.83
577.681	29772.3
578.042	29802.35
578.403	29819.98
578.763	30075.34
579.124	30127.77
579.485	30218.84
579.845	30378.61
580.206	30353.52
580.566	30674.65
580.927	30617.7
581.287	30857.24
581.648	30884.58
582.008	30967.75
582.368	31028.76
582.728	31272.37
583.089	31248.42
583.449	31344.91
583.809	31562.98
584.169	31755.75
584.529	31713.71
584.889	32218.11
585.249	31957.32
585.609	32064.21
585.969	32393.02
586.329	32334.26
586.688	32522.96
587.048	32553.92
587.408	32614.71
587.768	32818.32
588.127	32754.82
588.487	33011.99
588.846	33164.52
589.206	33250.62
589.565	33281.36
589.925	33552.08
590.284	33727.45
590.643	33712.76
591.003	33867.78
591.362	34087.66
591.721	33984.39
592.08	34149.58
592.44	34459.86
592.799	34458.73
593.158	34541.21
593.517	34646.74
593.876	35005.38
594.235	34874.31
594.593	35023.46
594.952	35183.45
595.311	35105.49
595.67	35348.65
596.029	35531.69
596.387	35692.82
596.746	35821.63
597.104	35719.48
597.463	35859.14
597.822	36132.36
598.18	36139.36
598.538	36135.52
598.897	36378.68
599.255	36275.85
599.613	36834.48
599.972	36687.37
600.33	36742.51
600.688	36801.72
601.046	36951.32
601.404	37114.02
601.762	37006.91
602.12	37315.37
602.478	37475.6
602.836	37375.03
603.194	37425.43
603.552	37483.28
603.91	37506.78
604.268	37756.27
604.625	37685.31
604.983	38055.47
605.341	37760.56
605.698	38102.92
606.056	38109.48
606.413	38127.33
606.771	38438.51
607.128	38494.1
607.485	38421.11
607.843	38542.91
608.2	38672.4
608.557	38787.2
608.914	38636.92
609.272	39029.68
609.629	39148.09
609.986	39262.22
610.343	39004.82
610.7	39423.57
611.057	39352.61
611.414	39529.1
611.771	39526.16
612.127	39633.05
612.484	39716.22
612.841	39795.76
613.198	39867.85
613.554	39931.8
613.911	40104.68
614.267	40271.46
614.624	40068.07
614.98	40235.52
615.337	40451.11
615.693	40323.21
616.05	40296.31
616.406	40659.02
616.762	40544.22
617.118	40590.99
617.475	40511.9
617.831	40807.94
618.187	40836.64
618.543	40938.56
618.899	41074.82
619.255	41221.71
619.611	41029.18
619.967	41237.31
620.323	41349.62
620.678	41170.41
621.034	41293.35
621.39	41233.46
621.746	41127.03
622.101	41704.41
622.457	41476.85
622.812	41413.12
623.168	41626
623.523	41590.29
623.879	41716.39
624.234	41601.82
624.589	41570.18
624.945	41668.71
625.3	41845.65
625.655	41751.64
626.01	41799.1
626.365	41994.57
626.72	41833.45
627.075	41895.14
627.43	41837.06
627.785	41714.58
628.14	41847.23
628.495	41908.47
628.85	41837.74
629.205	41701.7
629.559	42094.91
629.914	41840.68
630.269	41937.4
630.623	41848.14
630.978	41642.27
631.332	41966.55
631.687	42070.05
632.041	41818.53
632.396	42055.82
632.75	41821.7
633.104	41857.85
633.459	41565.88
633.813	41711.87
634.167	41889.49
634.521	41879.32
634.875	41869.15
635.229	41872.77
635.583	41496.96
635.937	41721.59
636.291	41443.18
636.645	41582.16
636.999	41393.01
637.352	41626
637.706	41395.04
638.06	41643.62
638.413	41591.87
638.767	41410.18
639.121	41414.48
639.474	41152.11
639.828	41346.46
640.181	41279.34
640.534	41377.87
640.888	41281.82
641.241	41073.02
641.594	41145.78
641.947	41355.04
642.301	41103.52
642.654	41044.54
643.007	41157.08
643.36	41029.63
643.713	41127.48
644.066	41137.87
644.419	40879.8
644.771	40664.89
645.124	40317.56
645.477	40265.81
645.83	40034.63
646.182	39902.65
646.535	39865.59
646.888	39828.76
647.24	39722.54
647.593	39904.69
647.945	39814.29
648.298	39720.06
648.65	39648.87
649.002	39488.65
649.355	39742.66
649.707	39558.03
650.059	39782.43
650.411	40205.24
650.763	40170.44
651.115	40645.68
651.467	40486.59
651.819	40506.93
652.171	40449.08
652.523	40318.46
652.875	40405.01
653.227	40223.55
653.578	40492.01
653.93	40302.41
654.282	40261.51
654.633	40132.25
654.985	40150.33
655.337	40158.46
655.688	40189.88
656.039	40282.75
656.391	39988.75
656.742	40085.25
657.094	40088.64
657.445	40138.8
657.796	40070.56
658.147	39979.49
658.498	39991.01
658.849	40186.26
659.2	40109.65
659.551	39812.26
659.902	40067.84
660.253	39874.4
660.604	39900.39
660.955	39770.9
661.306	39956.66
661.656	39775.42
662.007	39792.15
662.358	39763.22
662.708	39898.58
663.059	39783.11
663.409	39602.09
663.76	39985.14
664.11	39902.65
664.461	39856.55
664.811	39934.29
665.161	39760.51
665.511	39772.49
665.862	39805.93
666.212	39979.26
666.562	39971.12
666.912	39820.17
667.262	39804.12
667.612	39828.76
667.962	39811.81
668.312	39795.76
668.662	39963.89
669.011	39673.28
669.361	39840.73
669.711	39744.69
670.06	39715.31
670.41	39669.44
670.76	39445.04
671.109	39728.64
671.459	39446.62
671.808	39428.09
672.157	39455.43
672.507	39245.49
672.856	39274.87
673.205	39340.63
673.554	39482.1
673.904	39359.61
674.253	39556.9
674.602	39431.25
674.951	38965.27
675.3	38710.14
675.649	39360.29
675.998	39321.88
676.346	39289.11
676.695	39256.79
677.044	39079.17
677.393	39353.74
677.741	39348.77
678.09	39040.53
678.438	39090.24
678.787	39173.63
679.135	39111.94
679.484	38881.21
679.832	38886.63
680.181	38686.64
680.529	38950.59
680.877	38769.8
681.225	38710.82
681.573	38952.62
681.922	38684.15
682.27	38529.13
682.618	38652.97
682.966	38502.91
683.314	38556.47
683.661	38577.71
684.009	38207.55
684.357	38233.77
684.705	38283.94
685.053	38260.43
685.4	38149.48
685.748	37968.24
686.095	37968.46
686.443	37925.75
686.79	37907.45
687.138	37963.72
687.485	37880.78
687.832	37769.15
688.18	37687.12
688.527	37607.12
688.874	37589.04
689.221	37480.57
689.568	37293
689.915	37275.6
690.262	37213.68
690.609	37136.85
690.956	37078.77
691.303	36974.37
691.65	36893.46
691.997	36830.42
692.344	36621.61
692.69	36550.2
693.037	36681.49
693.383	36414.38
693.73	36419.13
694.077	36222.07
694.423	36239.47
694.769	36145.91
695.116	36108.85
695.462	36065.69
695.808	35940.04
696.155	35912.7
696.501	35666.83
696.847	35716.77
697.193	35540.96
697.539	35551.58
697.885	35276.78
698.231	35275.88
698.577	35203.57
698.923	35144.36
699.269	34914.31
699.614	34859.17
699.96	34721.32
700.306	34861.43
700.651	34648.55
700.997	34425.73
701.342	34467.09
701.688	34353.42
702.033	34159.3
702.379	34296.02
702.724	34097.15
703.069	34112.07
703.415	33836.37
703.76	33898.52
704.105	33889.7
704.45	33881.34
704.795	33683.61
705.14	33664.4
705.485	33459.43
705.83	33270.06
706.175	33467.79
706.52	33358.87
706.865	33175.82
707.209	33182.6
707.554	33094.47
707.899	33040.23
708.243	33009.95
708.588	32941.25
708.932	32734.03
709.277	32633.46
709.621	32658.1
709.966	32385.11
710.31	32558.89
710.654	32268.05
710.998	32468.04
711.342	32266.24
711.687	32294.94
712.031	32140.6
712.375	31873.03
712.719	32074.16
713.063	32065.57
713.407	32122.29
713.75	31786.03
714.094	31885.69
714.438	31732.02
714.782	31861.51
715.125	31554.17
715.469	31661.74
715.812	31448.41
716.156	31365.7
716.499	31296.78
716.843	31451.57
717.186	31072.15
717.53	31286.61
717.873	31165.03
718.216	31163.67
718.559	30997.12
718.902	30796
719.246	30846.62
719.589	30623.8
719.932	30623.57
720.275	30725.04
720.617	30685.04
720.96	30571.82
721.303	30575.89
721.646	30604.14
721.989	30490.47
722.331	30524.14
722.674	30332.73
723.016	30385.61
723.359	30194.66
723.701	30358.27
724.044	30208.89
724.386	30123.7
724.729	30248.22
725.071	30056.58
725.413	29989.92
725.755	30053.87
726.097	29785.4
726.439	29671.06
726.782	29750.6
727.124	29695.69
727.465	29728
727.807	29719.64
728.149	29624.96
728.491	29546.31
728.833	29547.44
729.175	29459.76
729.516	29394.68
729.858	29322.59
730.199	29334.34
730.541	29150.62
730.882	29182.71
731.224	29263.38
731.565	29053.9
731.906	29116.27
732.248	29201.01
732.589	29020.9
732.93	28859.55
733.271	28798.99
733.612	28856.84
733.953	28874.69
734.294	28726.67
734.635	28593.12
734.976	28778.65
735.317	28501.82
735.658	28633.34
735.999	28411.2
736.339	28534.59
736.68	28643.74
737.021	28399.23
737.361	28394.25
737.702	28524.87
738.042	28351.09
738.383	28385.21
738.723	28374.59
739.063	28238.55
739.404	28214.15
739.744	28038.78
740.084	27991.78
740.424	28200.13
740.764	28066.58
741.104	28107.03
741.444	27891.22
741.784	27928.95
742.124	27956.3
742.464	27787.72
742.804	27812.12
743.143	27694.38
743.483	27850.76
743.823	27619.13
744.162	27607.61
744.502	27653.03
744.841	27449.65
745.181	27580.49
745.52	27557.21
745.86	27538.91
746.199	27391.34
746.538	27400.16
746.877	27394.96
747.216	27408.29
747.556	27231.12
747.895	27374.39
748.234	27091.69
748.573	27138.92
748.911	27127.85
749.25	27037
749.589	26854.86
749.928	26834.75
750.267	27112.48
750.605	26840.4
750.944	26841.3
751.283	26657.12
751.621	26728.99
751.96	26583.68
752.298	26562.66
752.636	26607.86
752.975	26427.98
753.313	26379.39
753.651	26530.35
753.989	26300.3
754.327	26340.97
754.666	26229.34
755.004	26070.92
755.342	26197.7
755.679	26140.75
756.017	25929.01
756.355	26057.59
756.693	25855.34
