Data from hue_28_FLMS001491_00095.txt Node
Date: Tue Feb 07 17:18:04 GMT 2017
User: dcchb
Spectrometer: FLMS00149
Trigger mode: 0
Integration Time (sec): 2.000000E-2
Scans to average: 10
Electric dark correction enabled: true
Nonlinearity correction enabled: false
Boxcar width: 0
XAxis mode: Wavelengths
Number of Pixels in Spectrum: 2048
>>>>>Begin Spectral Data<<<<<
341.393	-23.08
341.776	-23.08
342.16	-23.08
342.543	-70.76
342.927	-52.23
343.31	-80.7
343.693	-85.68
344.077	-65.79
344.46	-55.62
344.843	-47.26
345.226	-29.86
345.61	-52.46
345.993	-19.01
346.376	2.91
346.759	14.21
347.142	32.97
347.525	27.09
347.908	70.93
348.291	84.94
348.674	88.11
349.057	115.22
349.44	110.25
349.823	130.82
350.206	181.21
350.588	195.22
350.971	202.9
351.354	231.83
351.737	232.06
352.119	268.67
352.502	255.56
352.884	271.6
353.267	283.13
353.65	300.08
354.032	307.99
354.414	301.43
354.797	317.7
355.179	304.6
355.562	330.13
355.944	310.92
356.326	328.1
356.709	318.83
357.091	352.73
357.473	339.17
357.855	340.08
358.238	357.02
358.62	317.93
359.002	344.6
359.384	340.75
359.766	348.21
360.148	347.08
360.53	327.65
360.912	317.7
361.294	338.04
361.676	334.65
362.057	314.09
362.439	326.29
362.821	325.39
363.203	326.06
363.584	315.44
363.966	315.9
364.348	312.05
364.729	318.38
365.111	322.9
365.493	319.96
365.874	312.73
366.256	324.71
366.637	318.16
367.019	296.24
367.4	301.21
367.781	328.78
368.163	310.7
368.544	310.92
368.925	322.45
369.306	310.02
369.688	329.23
370.069	319.96
370.45	321.09
370.831	312.96
371.212	290.13
371.593	306.86
371.974	322
372.355	321.55
372.736	324.26
373.117	310.92
373.498	290.13
373.879	303.69
374.26	307.76
374.641	316.57
375.021	293.52
375.402	322.22
375.783	319.29
376.163	310.92
376.544	324.26
376.925	332.62
377.305	322
377.686	325.39
378.066	333.52
378.447	347.53
378.827	328.1
379.208	335.56
379.588	346.4
379.968	323.13
380.349	342.34
380.729	316.35
381.109	330.81
381.489	334.88
381.87	342.56
382.25	321.77
382.63	341.43
383.01	345.27
383.39	351.15
383.77	358.61
384.15	332.84
384.53	334.43
384.91	349.79
385.29	324.48
385.67	355.22
386.049	366.52
386.429	356.8
386.809	352.05
387.189	341.88
387.568	355.67
387.948	348.89
388.328	364.48
388.707	369.45
389.087	354.76
389.466	356.35
389.846	362
390.225	346.4
390.605	359.06
390.984	365.16
391.363	341.43
391.743	374.43
392.122	364.48
392.501	374.2
392.881	344.14
393.26	352.5
393.639	380.53
394.018	391.15
394.397	372.17
394.776	354.31
395.155	384.37
395.534	364.26
395.913	382.79
396.292	378.94
396.671	371.26
397.05	390.47
397.429	386.63
397.808	376.69
398.186	387.31
398.565	406.29
398.944	379.4
399.323	385.72
399.701	423.24
400.08	389.34
400.458	387.76
400.837	406.29
401.215	405.61
401.594	419.4
401.972	418.72
402.351	387.98
402.729	382.79
403.107	407.87
403.486	396.12
403.864	428.44
404.242	394.31
404.62	409.68
404.999	423.46
405.377	413.29
405.755	397.02
406.133	430.02
406.511	420.53
406.889	427.98
407.267	415.1
407.645	425.72
408.023	442.9
408.401	428.66
408.779	424.37
409.156	442.45
409.534	461.2
409.912	450.36
410.29	451.49
410.667	443.12
411.045	456.23
411.422	441.32
411.8	445.84
412.178	461.2
412.555	467.53
412.933	458.49
413.31	476.57
413.687	482.44
414.065	464.82
414.442	477.7
414.819	480.19
415.197	485.83
415.574	497.36
415.951	494.42
416.328	477.47
416.705	485.61
417.082	501.88
417.46	489.68
417.837	516.34
418.214	505.72
418.591	511.37
418.967	509.11
419.344	514.08
419.721	510.24
420.098	516.34
420.475	510.01
420.852	531.71
421.228	535.78
421.605	535.32
421.982	537.58
422.358	533.52
422.735	540.52
423.111	536.68
423.488	553.63
423.864	585.72
424.241	540.97
424.617	535.55
424.994	550.69
425.37	547.3
425.746	559.28
426.123	569.67
426.499	593.4
426.875	589.11
427.251	571.93
427.627	597.47
428.003	586.62
428.379	585.49
428.756	585.95
429.132	605.61
429.507	609.9
429.883	585.49
430.259	611.71
430.635	617.58
431.011	626.4
431.387	624.81
431.763	617.81
432.138	643.34
432.514	651.25
432.89	660.52
433.265	670.24
433.641	665.49
434.016	673.85
434.392	668.65
434.767	688.99
435.143	684.47
435.518	694.87
435.894	690.35
436.269	692.38
436.644	702.55
437.02	686.51
437.395	715.66
437.77	695.32
438.145	747.75
438.52	721.76
438.895	724.7
439.271	758.37
439.646	766.73
440.021	752.04
440.395	736.68
440.77	764.25
441.145	746.17
441.52	768.77
441.895	760.18
442.27	777.35
442.645	785.94
443.019	796.11
443.394	787.3
443.769	791.14
444.143	791.14
444.518	783.68
444.892	807.41
445.267	793.17
445.641	815.77
446.016	825.49
446.39	837.46
446.764	844.7
447.139	840.85
447.513	819.39
447.887	843.79
448.262	836.56
448.636	845.83
449.01	839.72
449.384	840.85
449.758	850.34
450.132	853.06
450.506	879.27
450.88	881.08
451.254	897.58
451.628	880.63
452.002	886.73
452.376	900.51
452.75	883.79
453.123	906.39
453.497	898.48
453.871	932.15
454.244	958.82
454.618	969.21
454.992	960.17
455.365	951.13
455.739	977.35
456.112	991.81
456.486	987.52
456.859	1019.61
457.232	1039.72
457.606	1019.15
457.979	1047.4
458.352	1043.11
458.725	1043.79
459.099	1053.73
459.472	1056.22
459.845	1064.58
460.218	1092.82
460.591	1088.76
460.964	1084.01
461.337	1125.82
461.71	1149.77
462.083	1150
462.456	1163.56
462.829	1168.3
463.201	1191.13
463.574	1188.87
463.947	1201.52
464.32	1232.26
464.692	1228.87
465.065	1227.96
465.438	1279.71
465.81	1258.47
466.183	1260.05
466.555	1316.1
466.928	1324.68
467.3	1332.14
467.672	1346.15
468.045	1380.5
468.417	1397.45
468.789	1398.58
469.161	1432.02
469.534	1454.62
469.906	1453.72
470.278	1482.64
470.65	1478.35
471.022	1512.93
471.394	1535.98
471.766	1531.91
472.138	1572.81
472.51	1606.94
472.882	1640.15
473.253	1600.83
473.625	1685.58
473.997	1722.86
474.369	1707.27
474.74	1756.31
475.112	1777.1
475.484	1824.56
475.855	1815.52
476.227	1891.9
476.598	1917.21
476.97	1962.18
477.341	1978.45
477.713	2001.28
478.084	2058.45
478.455	2094.61
478.827	2135.96
479.198	2207.6
479.569	2202.63
479.94	2271.55
480.311	2285.56
480.682	2348.61
481.053	2418.89
481.424	2488.27
481.795	2493.24
482.166	2564.65
482.537	2593.8
482.908	2627.25
483.279	2681.71
483.65	2767.81
484.021	2789.73
484.391	2823.17
484.762	2872.89
485.133	2949.05
485.503	2989.72
485.874	3120.12
486.244	3107.46
486.615	3204.63
486.985	3203.28
487.356	3265.65
487.726	3337.06
488.097	3397.17
488.467	3423.61
488.837	3543.16
489.207	3571.18
489.578	3614.34
489.948	3744.73
490.318	3750.38
490.688	3764.39
491.058	3845.75
491.428	3921
491.798	3956.7
492.168	4055.91
492.538	4080.09
492.908	4105.17
493.278	4203.7
493.648	4213.65
494.017	4271.27
494.387	4369.57
494.757	4396.69
495.126	4409.12
495.496	4484.6
495.866	4513.07
496.235	4585.84
496.605	4645.73
496.974	4670.36
497.344	4730.47
497.713	4757.13
498.082	4807.3
498.452	4895.66
498.821	4891.37
499.19	4917.81
499.559	4995.55
499.928	5000.52
500.298	5106.96
500.667	5123.23
501.036	5118.03
501.405	5157.58
501.774	5190.8
502.143	5216.56
502.512	5211.81
502.88	5284.13
503.249	5319.83
503.618	5380.17
503.987	5401.41
504.356	5472.14
504.724	5458.36
505.093	5494.74
505.462	5574.74
505.83	5537.91
506.199	5583.33
506.567	5647.73
506.936	5662.87
507.304	5728.18
507.672	5766.37
508.041	5787.84
508.409	5857.44
508.777	5835.75
509.145	5930.44
509.514	5907.39
509.882	5935.63
510.25	5979.7
510.618	5963.88
510.986	6029.64
511.354	6064.9
511.722	6112.35
512.09	6165.23
512.458	6245.01
512.826	6202.97
513.193	6272.8
513.561	6270.77
513.929	6275.29
514.297	6376.98
514.664	6352.35
515.032	6372.69
515.4	6460.82
515.767	6432.8
516.135	6476.64
516.502	6443.87
516.869	6579.23
517.237	6564.77
517.604	6532.68
517.972	6623.75
518.339	6671.21
518.706	6649.06
519.073	6633.24
519.44	6724.77
519.808	6750.08
520.175	6767.93
520.542	6828.72
520.909	6901.49
521.276	6905.78
521.643	6882.28
522.009	6961.82
522.376	6913.24
522.743	7023.97
523.11	7044.31
523.477	7073.68
523.843	7121.37
524.21	7185.55
524.577	7262.61
524.943	7311.19
525.31	7262.38
525.676	7380.57
526.043	7377.86
526.409	7426.22
526.776	7505.31
527.142	7533.11
527.508	7535.59
527.874	7620.11
528.241	7628.02
528.607	7634.35
528.973	7694.01
529.339	7703.05
529.705	7822.14
530.071	7836.15
530.437	7891.74
530.803	7927.45
531.169	7990.72
531.535	7942.14
531.901	7969.03
532.267	8057.61
532.632	8152.3
532.998	8122.02
533.364	8105.3
533.73	8200.21
534.095	8249.25
534.461	8224.39
534.826	8398.62
535.192	8364.95
535.557	8408.56
535.923	8412.18
536.288	8509.8
536.653	8504.61
537.019	8464.38
537.384	8521.56
537.749	8533.53
538.114	8605.4
538.479	8566.98
538.845	8602.46
539.21	8632.29
539.575	8732.4
539.94	8730.82
540.305	8841.1
540.67	8788.22
541.034	8811.04
541.399	8891.94
541.764	8955.89
542.129	8928.55
542.494	9012.62
542.858	8994.31
543.223	9026.4
543.587	9126.06
543.952	9083.8
544.316	9190.24
544.681	9185.27
545.045	9207.41
545.41	9267.75
545.774	9349.56
546.138	9352.72
546.503	9338.03
546.867	9404.47
547.231	9464.58
547.595	9510.91
547.959	9552.49
548.324	9491.47
548.688	9586.16
549.052	9564.47
549.416	9694.18
549.779	9645.14
550.143	9726.04
550.507	9717.46
550.871	9689.89
551.235	9745.7
551.599	9823.22
551.962	9813.27
552.326	9855.98
552.689	9896.89
553.053	9967.62
553.417	9891.69
553.78	10060.27
554.143	10043.55
554.507	10048.07
554.87	10086.49
555.234	10190.89
555.597	10123.55
555.96	10171.46
556.323	10262.75
556.686	10217.1
557.05	10353.15
557.413	10288.97
557.776	10293.94
558.139	10400.6
558.502	10493.26
558.865	10539.58
559.228	10535.74
559.59	10633.14
559.953	10560.82
560.316	10703.19
560.679	10687.83
561.041	10710.2
561.404	10737.54
561.767	10802.85
562.129	10798.11
562.492	10902.96
562.854	10836.52
563.217	10902.06
563.579	10987.03
563.941	11021.38
564.304	10992
564.666	11071.09
565.028	11120.36
565.39	11114.03
565.753	11157.42
566.115	11167.81
566.477	11173.24
566.839	11299.11
567.201	11293.91
567.563	11415.26
567.925	11430.86
568.287	11495.26
568.648	11488.71
569.01	11619.1
569.372	11631.53
569.734	11681.92
570.095	11715.82
570.457	11719.66
570.819	11826.55
571.18	11836.72
571.542	11843.5
571.903	11971.86
572.265	11982.71
572.626	12076.26
572.987	12016.6
573.349	12156.26
573.71	12283.26
574.071	12260.67
574.432	12371.4
574.794	12433.09
575.155	12478.97
575.516	12498.63
575.877	12608.91
576.238	12703.37
576.599	12821.78
576.96	12846.19
577.32	12981.78
577.681	13001.66
578.042	13142
578.403	13227.42
578.763	13361.65
579.124	13465.38
579.485	13647.3
579.845	13776.33
580.206	13851.13
580.566	13979.04
580.927	14046.83
581.287	14243.89
581.648	14356.88
582.008	14586.93
582.368	14610.44
582.728	14841.16
583.089	14996.41
583.449	15128.61
583.809	15393.24
584.169	15503.29
584.529	15708.71
584.889	16011.98
585.249	16007.01
585.609	16167.91
585.969	16496.26
586.329	16820.32
586.688	17044.95
587.048	17189.58
587.408	17396.8
587.768	17584.14
588.127	17947.07
588.487	18125.37
588.846	18366.04
589.206	18600.84
589.565	18931.23
589.925	19276.08
590.284	19408.5
590.643	19726.46
591.003	19981.59
591.362	20342.94
591.721	20571.63
592.08	20704.51
592.44	21104.05
592.799	21417.49
593.158	21710.59
593.517	21937.25
593.876	22258.82
594.235	22542.66
594.593	22815.64
594.952	23231.23
595.311	23312.81
595.67	23791.66
596.029	24122.05
596.387	24413.12
596.746	24767.91
597.104	24865.31
597.463	25206.31
597.822	25583.03
598.18	25800.2
598.538	26034.99
598.897	26470.01
599.255	26604.47
599.613	27147.96
599.972	27377.33
600.33	27773.03
600.688	27866.36
601.046	28112.9
601.404	28509.5
601.762	28668.14
602.12	29091.86
602.478	29464.96
602.836	29664.28
603.194	29800.09
603.552	30050.26
603.91	30263.36
604.268	30626.51
604.625	30826.96
604.983	31216.78
605.341	31287.51
605.698	31641.63
606.056	31967.94
606.413	32125.23
606.771	32385.56
607.128	32583.97
607.485	32815.83
607.843	33123.62
608.2	33334.69
608.557	33581.46
608.914	33693.1
609.272	33997.72
609.629	34288.56
609.986	34520.42
610.343	34570.59
610.7	35003.57
611.057	35096.22
611.414	35234.53
611.771	35562.43
612.127	35765.81
612.484	35826.83
612.841	36171.22
613.198	36120.15
613.554	36489.41
613.911	36740.02
614.267	36898.44
614.624	36907.25
614.98	37238.99
615.337	37546.78
615.693	37449.61
616.05	37726.21
616.406	37963.49
616.762	37803.05
617.118	38140.21
617.475	38380.43
617.831	38359.64
618.187	38540.43
618.543	38701.55
618.899	39060.87
619.255	39028.32
619.611	39041.66
619.967	39298.83
620.323	39442.55
620.678	39382.21
621.034	39508.31
621.39	39548.99
621.746	39606.61
622.101	40186.71
622.457	39828.53
622.812	40087.28
623.168	40225.81
623.523	40314.17
623.879	40503.54
624.234	40305.13
624.589	40516.65
624.945	40630.54
625.3	40853.13
625.655	40813.81
626.01	40977.43
626.365	40999.12
626.72	41102.62
627.075	41060.59
627.43	41109.85
627.785	41113.02
628.14	41202.05
628.495	41185.33
628.85	41306.91
629.205	41320.92
629.559	41546.9
629.914	41256.06
630.269	41445.66
630.623	41488.6
630.978	41370.64
631.332	41531.08
631.687	41745.54
632.041	41514.81
632.396	41676.84
632.75	41648.37
633.104	41695.15
633.459	41523.85
633.813	41586.22
634.167	41678.65
634.521	41607.24
634.875	41724.75
635.229	41838.19
635.583	41608.14
635.937	41628.48
636.291	41641.14
636.645	41689.05
636.999	41549.39
637.352	41787.57
637.706	41489.95
638.06	41756.39
638.413	41571.99
638.767	41566.79
639.121	41802.94
639.474	41517.98
639.828	41491.54
640.181	41602.04
640.534	41581.03
640.888	41568.82
641.241	41386
641.594	41428.49
641.947	41622.83
642.301	41414.02
642.654	41558.65
643.007	41519.56
643.36	41486.56
643.713	41328.83
644.066	41671.87
644.419	41306.23
644.771	41116.86
645.124	40772.46
645.477	40672.8
645.83	40489.53
646.182	40395.52
646.535	40168.63
646.888	40235.07
647.24	40045.02
647.593	40333.37
647.945	40312.13
648.298	40167.96
648.65	40199.37
649.002	39915.08
649.355	40194.62
649.707	40108.75
650.059	40467.83
650.411	40849.29
650.763	40888.39
651.115	41279.34
651.467	41181.26
651.819	41184.2
652.171	41108.27
652.523	40829.41
652.875	41047.25
653.227	40773.14
653.578	41068.04
653.93	41056.75
654.282	40830.99
654.633	40805.45
654.985	40706.25
655.337	40871.21
655.688	40879.8
656.039	40999.35
656.391	40716.19
656.742	40739.24
657.094	40793.25
657.445	40815.17
657.796	40890.42
658.147	40832.8
658.498	40782.85
658.849	40821.95
659.2	40704.89
659.551	40589.64
659.902	40782.18
660.253	40645.23
660.604	40909.86
660.955	40623.08
661.306	40756.19
661.656	40686.13
662.007	40773.81
662.358	40687.04
662.708	40651.11
663.059	40651.78
663.409	40542.18
663.76	40721.16
664.11	40718.68
664.461	40811.78
664.811	40779.24
665.161	40769.3
665.511	40633.03
665.862	40610.43
666.212	40727.49
666.562	40753.7
666.912	40613.37
667.262	40640.26
667.612	40595.74
667.962	40778.33
668.312	40625.34
668.662	40743.08
669.011	40630.77
669.361	40497.66
669.711	40552.13
670.06	40562.75
670.41	40410.21
670.76	40448.4
671.109	40553.93
671.459	40487.27
671.808	40478.23
672.157	40590.99
672.507	40437.33
672.856	40254.51
673.205	40387.16
673.554	40525.46
673.904	40333.83
674.253	40553.26
674.602	40381.73
674.951	39773.62
675.3	39621.53
675.649	40236.43
675.998	40202.08
676.346	40151.01
676.695	40331.57
677.044	40068.97
677.393	40202.3
677.741	40247.5
678.09	40116.43
678.438	40046.38
678.787	40064.46
679.135	40188.75
679.484	39829.66
679.832	40083.21
680.181	39844.8
680.529	39939.03
680.877	39840.05
681.225	39854.52
681.573	40089.77
681.922	39656.33
682.27	39632.15
682.618	39694.3
682.966	39481.87
683.314	39657.23
683.661	39487.52
684.009	39346.73
684.357	39190.81
684.705	39185.83
685.053	39297.47
685.4	39251.6
685.748	39028.32
686.095	39068.55
686.443	39021.09
686.79	38828.56
687.138	38822
687.485	38746.98
687.832	38702.46
688.18	38691.16
688.527	38584.95
688.874	38528.68
689.221	38410.26
689.568	38465.85
689.915	38237.38
690.262	38277.16
690.609	38129.82
690.956	38053.66
691.303	38009.82
691.65	37856.38
691.997	37885.3
692.344	37667.23
692.69	37527.35
693.037	37674.01
693.383	37362.61
693.73	37421.81
694.077	37095.27
694.423	37297.3
694.769	37101.82
695.116	36983.41
695.462	37093.46
695.808	36939.57
696.155	37012.33
696.501	36900.7
696.847	36735.28
697.193	36509.29
697.539	36693.24
697.885	36310.43
698.231	36311.79
698.577	36221.84
698.923	36215.52
699.269	36107.27
699.614	35868.86
699.96	35825.24
700.306	35764.23
700.651	35653.72
700.997	35552.26
701.342	35589.09
701.688	35428.19
702.033	35375.76
702.379	35351.58
702.724	35228.88
703.069	35291.02
703.415	34887.42
703.76	35012.61
704.105	35013.74
704.45	34837.25
704.795	34667.31
705.14	34638.83
705.485	34529.46
705.83	34422.34
706.175	34448.56
706.52	34406.98
706.865	34262.12
707.209	34195.46
707.554	34100.77
707.899	34258.73
708.243	33936.93
708.588	34015.57
708.932	33666.43
709.277	33685.64
709.621	33634.79
709.966	33535.36
710.31	33487.68
710.654	33203.62
710.998	33308.7
711.342	33381.24
711.687	33196.39
712.031	33061.93
712.375	32976.05
712.719	33152.09
713.063	33022.61
713.407	33157.74
713.75	32960.24
714.094	32830.52
714.438	32701.48
714.782	32765.89
715.125	32562.28
715.469	32652.67
715.812	32480.7
716.156	32367.03
716.499	32496.74
716.843	32393.47
717.186	32107.15
717.53	32275.06
717.873	32307.6
718.216	32088.39
718.559	31924.56
718.902	31783.54
719.246	31816.31
719.589	31911.68
719.932	31608.18
720.275	31711.91
720.617	31769.31
720.96	31641.85
721.303	31581.97
721.646	31607.5
721.989	31412.48
722.331	31550.1
722.674	31449.54
723.016	31424.91
723.359	31397.79
723.701	31300.17
724.044	31096.33
724.386	30958.03
724.729	31291.13
725.071	31119.15
725.413	31070.12
725.755	30955.99
726.097	30885.04
726.439	30783.8
726.782	30819.27
727.124	30915.77
727.465	30747.41
727.807	30698.15
728.149	30674.19
728.491	30469.68
728.833	30544.25
729.175	30504.71
729.516	30396.01
729.858	30456.57
730.199	30485.5
730.541	30291.15
730.882	30335.67
731.224	30297.93
731.565	30105.62
731.906	30146.75
732.248	30064.49
732.589	30053.87
732.93	29870.15
733.271	29932.29
733.612	29939.75
733.953	29935.46
734.294	29856.36
734.635	29744.95
734.976	29792.18
735.317	29706.99
735.658	29615.01
735.999	29664.28
736.339	29529.59
736.68	29610.27
737.021	29493.21
737.361	29394.68
737.702	29507.44
738.042	29530.27
738.383	29432.42
738.723	29434.45
739.063	29414.34
739.404	29292.99
739.744	29217.28
740.084	29192.88
740.424	29175.02
740.764	29139.54
741.104	29252.99
741.444	28975.48
741.784	28953.11
742.124	28963.96
742.464	28945.88
742.804	28794.69
743.143	28838.99
743.483	28864.07
743.823	28723.28
744.162	28701.14
744.502	28685.77
744.841	28592.21
745.181	28643.29
745.52	28619.56
745.86	28495.49
746.199	28480.13
746.538	28507.7
746.877	28446.23
747.216	28504.98
747.556	28491.2
747.895	28465.89
748.234	28259.79
748.573	28130.98
748.911	28136.63
749.25	28085.56
749.589	28015.05
749.928	28203.52
750.267	28119.46
750.605	27975.28
750.944	27977.77
751.283	27899.58
751.621	27904.55
751.96	27712.69
752.298	27770.32
752.636	27821.39
752.975	27653.03
753.313	27566.03
753.651	27677.21
753.989	27614.61
754.327	27502.75
754.666	27317.9
755.004	27335.3
755.342	27382.75
755.679	27244.91
756.017	27208.07
756.355	27299.59
756.693	27078.13
757.031	27187.96
757.368	26960.39
757.706	26916.55
758.044	26932.82
758.381	26877.46
758.719	26895.54
759.056	26766.27
