Data from hue_10_FLMS001491_87.txt Node
Date: Mon Feb 06 15:32:42 GMT 2017
User: dcchb
Spectrometer: FLMS00149
Trigger mode: 0
Integration Time (sec): 2.000000E-2
Scans to average: 10
Electric dark correction enabled: true
Nonlinearity correction enabled: false
Boxcar width: 0
XAxis mode: Wavelengths
Number of Pixels in Spectrum: 2048
>>>>>Begin Spectral Data<<<<<
341.393	3.77
341.776	3.77
342.16	3.77
342.543	-61.31
342.927	-81.65
343.31	-71.93
343.693	-40.75
344.077	-72.84
344.46	-57.7
344.843	-43.46
345.226	-43.46
345.61	-31.71
345.993	-24.25
346.376	-7.98
346.759	27.73
347.142	9.19
347.525	29.99
347.908	54.17
348.291	86.48
348.674	86.48
349.057	100.04
349.44	133.71
349.823	152.92
350.206	171
350.588	206.93
350.971	226.59
351.354	222.3
351.737	220.49
352.119	245.8
352.502	252.58
352.884	264.78
353.267	276.76
353.65	292.58
354.032	301.84
354.414	305.46
354.797	319.47
355.179	301.39
355.562	336.87
355.944	345.91
356.326	320.37
356.709	341.84
357.091	352.69
357.473	340.26
357.855	351.56
358.238	339.58
358.62	345.91
359.002	337.32
359.384	357.21
359.766	344.33
360.148	358.11
360.53	344.33
360.912	353.59
361.294	326.47
361.676	341.62
362.057	340.26
362.439	326.93
362.821	335.74
363.203	338
363.584	336.42
363.966	321.73
364.348	324.44
364.729	329.19
365.111	303.42
365.493	325.57
365.874	311.11
366.256	331.67
366.637	338.23
367.019	323.54
367.4	317.66
367.781	321.5
368.163	327.15
368.544	316.53
368.925	291
369.306	319.02
369.688	319.24
370.069	342.29
370.45	320.82
370.831	328.28
371.212	309.75
371.593	339.58
371.974	318.34
372.355	313.37
372.736	334.16
373.117	297.55
373.498	306.81
373.879	316.76
374.26	342.75
374.641	319.02
375.021	324.67
375.402	324.89
375.783	321.05
376.163	327.83
376.544	328.28
376.925	312.69
377.305	329.86
377.686	312.46
378.066	310.66
378.447	330.32
378.827	346.36
379.208	346.36
379.588	327.38
379.968	340.26
380.349	335.51
380.729	353.14
381.109	339.13
381.489	347.26
381.87	334.38
382.25	329.41
382.63	350.43
383.01	343.65
383.39	348.39
383.77	360.15
384.15	344.33
384.53	339.13
384.91	348.39
385.29	340.26
385.67	358.34
386.049	360.82
386.429	354.27
386.809	354.04
387.189	352.69
387.568	339.58
387.948	342.52
388.328	349.3
388.707	359.47
389.087	350.43
389.466	355.17
389.846	355.85
390.225	356.53
390.605	373.7
390.984	365.8
391.363	352.01
391.743	353.14
392.122	358.34
392.501	381.39
392.881	369.19
393.26	369.86
393.639	386.59
394.018	365.12
394.397	356.98
394.776	368.06
395.155	370.54
395.534	375.74
395.913	380.94
396.292	381.84
396.671	386.81
397.05	371.22
397.429	392.24
397.808	367.6
398.186	383.42
398.565	399.47
398.944	388.85
399.323	371.22
399.701	370.77
400.08	395.85
400.458	389.07
400.837	390.65
401.215	389.52
401.594	399.47
401.972	392.24
402.351	365.8
402.729	370.99
403.107	392.46
403.486	404.66
403.864	420.26
404.242	421.61
404.62	405.57
404.999	413.48
405.377	415.29
405.755	408.28
406.133	414.38
406.511	416.42
406.889	418.22
407.267	413.7
407.645	441.73
408.023	420.71
408.401	442.86
408.779	448.28
409.156	432.23
409.534	442.18
409.912	439.01
410.29	451.44
410.667	456.41
411.045	443.99
411.422	448.73
411.8	442.18
412.178	468.84
412.555	434.72
412.933	458.45
413.31	453.93
413.687	457.09
414.065	468.84
414.442	472.01
414.819	466.81
415.197	466.13
415.574	470.88
415.951	481.05
416.328	456.87
416.705	488.96
417.082	484.44
417.46	485.34
417.837	509.29
418.214	498.9
418.591	502.97
418.967	493.48
419.344	502.74
419.721	496.41
420.098	496.64
420.475	509.97
420.852	522.63
421.228	518.56
421.605	496.41
421.982	512.01
422.358	520.37
422.735	541.61
423.111	509.75
423.488	539.8
423.864	551.33
424.241	541.38
424.617	521.5
424.994	551.55
425.37	536.41
425.746	544.32
426.123	533.93
426.499	552.01
426.875	559.69
427.251	558.33
427.627	564.43
428.003	552.68
428.379	585.45
428.756	563.76
429.132	559.24
429.507	567.15
429.883	578.67
430.259	574.38
430.635	603.98
431.011	602.63
431.387	599.91
431.763	605.79
432.138	622.74
432.514	598.11
432.89	609.63
433.265	633.13
433.641	628.84
434.016	623.64
434.392	612.12
434.767	662.06
435.143	623.42
435.518	643.3
435.894	636.3
436.269	656.18
436.644	641.95
437.02	681.04
437.395	652.57
437.77	679.23
438.145	673.58
438.52	689.63
438.895	705.9
439.271	680.36
439.646	700.02
440.021	712
440.395	717.2
440.77	684.88
441.145	708.61
441.52	707.03
441.895	758.1
442.27	745.45
442.645	706.8
443.019	725.33
443.394	722.17
443.769	738.22
444.143	743.19
444.518	737.99
444.892	753.13
445.267	755.84
445.641	768.04
446.016	750.19
446.39	768.27
446.764	765.33
447.139	778.44
447.513	758.1
447.887	763.53
448.262	780.93
448.636	781.83
449.01	777.31
449.384	806.69
449.758	784.99
450.132	807.82
450.506	803.98
450.88	797.65
451.254	794.03
451.628	819.34
452.002	838.33
452.376	823.86
452.75	837.2
453.123	846.23
453.497	833.13
453.871	854.14
454.244	863.18
454.618	851.43
454.992	867.48
455.365	874.93
455.739	897.53
456.112	897.31
456.486	882.17
456.859	900.7
457.232	929.17
457.606	950.64
457.979	906.8
458.352	976.17
458.725	951.09
459.099	965.55
459.472	972.56
459.845	970.53
460.218	994.93
460.591	991.77
460.964	988.83
461.337	1006.46
461.71	1024.99
462.083	1051.65
462.456	1041.71
462.829	1069.28
463.201	1050.3
463.574	1053.69
463.947	1085.32
464.32	1093.46
464.692	1111.54
465.065	1087.58
465.438	1105.44
465.81	1113.12
466.183	1129.84
466.555	1164.87
466.928	1176.62
467.3	1185.21
467.672	1209.16
468.045	1225.43
468.417	1212.78
468.789	1220.69
469.161	1237.41
469.534	1240.12
469.906	1295.71
470.278	1308.6
470.65	1310.86
471.022	1323.51
471.394	1351.08
471.766	1357.63
472.138	1388.37
472.51	1408.25
472.882	1415.71
473.253	1463.62
473.625	1466.56
473.997	1498.65
474.369	1517.63
474.74	1492.77
475.112	1528.48
475.484	1557.4
475.855	1590.62
476.227	1611.86
476.598	1629.04
476.97	1666.33
477.341	1696.16
477.713	1718.75
478.084	1733.9
478.455	1750.84
478.827	1839.43
479.198	1872.87
479.569	1873.55
479.94	1927.11
480.311	1939.31
480.682	1981.8
481.053	2027.9
481.424	2065.41
481.795	2086.88
482.166	2102.02
482.537	2138.63
482.908	2186.76
483.279	2235.12
483.65	2248.23
484.021	2311.73
484.391	2320.32
484.762	2388.57
485.133	2416.59
485.503	2466.76
485.874	2511.05
486.244	2500.65
486.615	2550.14
486.985	2609.35
487.356	2630.82
487.726	2658.84
488.097	2760.31
488.467	2760.76
488.837	2779.07
489.207	2878.72
489.578	2888.22
489.948	2938.16
490.318	3002.56
490.688	3006.63
491.058	3093.41
491.428	3129.79
491.798	3118.94
492.168	3211.14
492.538	3201.2
492.908	3237.81
493.278	3277.81
493.648	3264.7
494.017	3402.1
494.387	3418.82
494.757	3389.22
495.126	3465.15
495.496	3454.08
495.866	3501.76
496.235	3558.48
496.605	3572.26
496.974	3614.52
497.344	3653.39
497.713	3654.75
498.082	3692.26
498.452	3717.57
498.821	3763.67
499.19	3763.45
499.559	3811.35
499.928	3821.75
500.298	3869.66
500.667	3897.91
501.036	3877.57
501.405	3915.31
501.774	3918.92
502.143	3971.35
502.512	3959.37
502.88	4043.66
503.249	4063.1
503.618	4070.56
503.987	4062.42
504.356	4081.18
504.724	4156.66
505.093	4144.45
505.462	4208.86
505.83	4153.04
506.199	4222.42
506.567	4270.33
506.936	4281.17
507.304	4297.67
507.672	4338.8
508.041	4351
508.409	4338.12
508.777	4381.28
509.145	4409.3
509.514	4455.18
509.882	4445.01
510.25	4474.39
510.618	4502.41
510.986	4527.95
511.354	4577.21
511.722	4562.3
512.09	4568.85
512.458	4563.2
512.826	4604.55
513.193	4620.37
513.561	4674.16
513.929	4683.87
514.297	4687.26
514.664	4700.14
515.032	4726.58
515.4	4774.49
515.767	4769.52
516.135	4798
516.502	4712.12
516.869	4816.3
517.237	4828.05
517.604	4813.59
517.972	4880.93
518.339	4866.92
518.706	4875.73
519.073	4876.19
519.44	4921.38
519.808	4978.33
520.175	4953.47
520.542	5012.9
520.909	5003.64
521.276	5011.55
521.643	5087.71
522.009	5132.9
522.376	5084.32
522.743	5117.53
523.11	5175.39
523.477	5228.04
523.843	5244.99
524.21	5234.37
524.577	5280.92
524.943	5297.87
525.31	5304.2
525.676	5380.13
526.043	5359.11
526.409	5435.49
526.776	5433.01
527.142	5508.03
527.508	5496.73
527.874	5529.05
528.241	5536.28
528.607	5613.79
528.973	5607.69
529.339	5648.59
529.705	5689.27
530.071	5715.71
530.437	5725.65
530.803	5771.3
531.169	5803.84
531.535	5816.95
531.901	5809.27
532.267	5832.09
532.632	5901.92
532.998	5896.05
533.364	5880
533.73	5927.46
534.095	5933.33
534.461	5996.61
534.826	6046.55
535.192	6059.43
535.557	6050.39
535.923	6084.29
536.288	6103.27
536.653	6158.64
537.019	6154.57
537.384	6132.2
537.749	6180.33
538.114	6290.61
538.479	6218.97
538.845	6296.26
539.21	6310.5
539.575	6278.86
539.94	6336.26
540.305	6363.15
540.67	6386.88
541.034	6381
541.399	6434.79
541.764	6421
542.129	6474.34
542.494	6484.05
542.858	6553.43
543.223	6551.85
543.587	6560.43
543.952	6619.87
544.316	6600.66
544.681	6698.96
545.045	6692.18
545.41	6719.07
545.774	6780.09
546.138	6766.98
546.503	6767.89
546.867	6825.96
547.231	6899.86
547.595	6851.27
547.959	6882.01
548.324	6893.76
548.688	6935.57
549.052	6969.92
549.416	6969.69
549.779	6961.1
550.143	6976.02
550.507	7035.45
550.871	7083.36
551.235	7100.76
551.599	7157.93
551.962	7183.24
552.326	7137.14
552.689	7270.7
553.053	7171.04
553.417	7249.23
553.78	7331.26
554.143	7241.77
554.507	7339.17
554.87	7272.05
555.234	7395.22
555.597	7354.31
555.96	7422.33
556.323	7379.17
556.686	7419.4
557.05	7515.21
557.413	7465.72
557.776	7604.25
558.139	7578.04
558.502	7658.03
558.865	7572.16
559.228	7737.35
559.59	7675.43
559.953	7650.12
560.316	7738.93
560.679	7732.61
561.041	7777.13
561.404	7796.56
561.767	7808.31
562.129	7833.85
562.492	7913.62
562.854	7910
563.217	7957.69
563.579	7916.56
563.941	7945.48
564.304	8025.48
564.666	8030.68
565.028	8031.36
565.39	8125.82
565.753	8118.81
566.115	8098.02
566.477	8250.11
566.839	8194.29
567.201	8232.03
567.563	8331.01
567.925	8353.16
568.287	8331.91
568.648	8369.43
569.01	8393.61
569.372	8478.35
569.734	8409.2
570.095	8536.65
570.457	8507.05
570.819	8547.28
571.18	8572.59
571.542	8697.55
571.903	8655.52
572.265	8759.25
572.626	8820.94
572.987	8829.3
573.349	8871.33
573.71	8942.75
574.071	8974.61
574.432	9034.04
574.794	9161.95
575.155	9107.03
575.516	9129.86
575.877	9286.01
576.238	9293.02
576.599	9326.01
576.96	9370.08
577.32	9428.16
577.681	9566.01
578.042	9690.52
578.403	9750.18
578.763	9776.4
579.124	10006.45
579.485	9996.95
579.845	10151.07
580.206	10239.89
580.566	10326.21
580.927	10432.2
581.287	10603.72
581.648	10669.93
582.008	10819.98
582.368	10945.4
582.728	11048.45
583.089	11193.53
583.449	11385.17
583.809	11519.63
584.169	11692.28
584.529	11841.2
584.889	12161.64
585.249	12204.58
585.609	12351.92
585.969	12600.95
586.329	12753.49
586.688	13027.38
587.048	13180.37
587.408	13452.91
587.768	13631.44
588.127	13864.42
588.487	14060.12
588.846	14441.36
589.206	14484.29
589.565	14800.44
589.925	15161.79
590.284	15384.16
590.643	15616.24
591.003	15896.01
591.362	16244.25
591.721	16381.87
592.08	16722.65
592.44	17065.02
592.799	17285.8
593.158	17575.06
593.517	17823.42
593.876	18254.14
594.235	18510.18
594.593	18733
594.952	19125.98
595.311	19316.03
595.67	19726.87
596.029	19999.4
596.387	20360.52
596.746	20811.81
597.104	20925.48
597.463	21139.03
597.822	21542.19
598.18	21772.69
598.538	22030.76
598.897	22593.23
599.255	22655.83
599.613	23296.72
599.972	23389.82
600.33	23814.67
600.688	23905.52
601.046	24253.08
601.404	24614.2
601.762	24947.07
602.12	25289.43
602.478	25573.95
602.836	25964.22
603.194	26019.81
603.552	26313.59
603.91	26665.44
604.268	26994.25
604.625	27119.67
604.983	27426.33
605.341	27572.99
605.698	27967.33
606.056	28344.49
606.413	28633.98
606.771	28794.65
607.128	29060.18
607.485	29306.05
607.843	29519.15
608.2	29955.98
608.557	30204.11
608.914	30318
609.272	30672.34
609.629	30956.4
609.986	31364.75
610.343	31186.45
610.7	31707.57
611.057	31863.27
611.414	32051.06
611.771	32245.41
612.127	32454.44
612.484	32581.22
612.841	32870.48
613.198	32955.45
613.554	33252.39
613.911	33557.92
614.267	33701.64
614.624	33766.73
614.98	34152.25
615.337	34359.03
615.693	34322.87
616.05	34468.85
616.406	34955.17
616.762	34860.48
617.118	35056.86
617.475	35250.08
617.831	35417.98
618.187	35513.57
618.543	35785.88
618.899	35983.39
619.255	36163.27
619.611	36238.75
619.967	36384.74
620.323	36690.72
620.678	36536.6
621.034	36655.69
621.39	36767.55
621.746	36737.27
622.101	37235.79
622.457	37155.34
622.812	37217.71
623.168	37397.82
623.523	37491.82
623.879	37752.16
624.234	37469.45
624.589	37885.49
624.945	37840.97
625.3	38010.23
625.655	38079.83
626.01	38099.27
626.365	38191.02
626.72	38352.14
627.075	38293.61
627.43	38366.15
627.785	38296.1
628.14	38524.34
628.495	38676.2
628.85	38546.71
629.205	38465.58
629.559	38919.36
629.914	38754.62
630.269	38875.07
630.623	38862.41
630.978	38688.63
631.332	38938.11
631.687	38920.49
632.041	39002.29
632.396	38948.28
632.75	38725.24
633.104	39000.03
633.459	38871.9
633.813	38965.68
634.167	38995.74
634.521	39034.84
634.875	39096.08
635.229	39055.63
635.583	38916.65
635.937	38987.38
636.291	39006.59
636.645	38997.77
636.999	38982.63
637.352	39074.83
637.706	38921.17
638.06	39137.66
638.413	39061.28
638.767	38960.94
639.121	39107.15
639.474	38779.47
639.828	38998.45
640.181	39052.01
640.534	38938.79
640.888	38931.11
641.241	38767.05
641.594	38988.06
641.947	38915.97
642.301	38787.16
642.654	39012.69
643.007	38710.78
643.36	38765.01
643.713	38786.25
644.066	39013.14
644.419	38677.78
644.771	38497
645.124	38154.18
645.477	38096.1
645.83	38016.33
646.182	37760.07
646.535	37667.87
646.888	37870.12
647.24	37631.03
647.593	37803.46
647.945	37819.27
648.298	37702.44
648.65	37575.21
649.002	37429.91
649.355	37693.63
649.707	37496.8
650.059	37709.22
650.411	38148.98
650.763	38301.97
651.115	38576.77
651.467	38372.03
651.819	38520.27
652.171	38407.28
652.523	38236.44
652.875	38327.06
653.227	38141.07
653.578	38365.02
653.93	38316.44
654.282	38186.04
654.633	38101.07
654.985	38196.89
655.337	38229.66
655.688	38190.11
656.039	38206.61
656.391	38037.12
656.742	38009.33
657.094	38148.53
657.445	38173.84
657.796	38188.08
658.147	37996.67
658.498	37928.88
658.849	38095.2
659.2	38012.04
659.551	38066.5
659.902	38137.01
660.253	37967.97
660.604	37951.02
660.955	37920.06
661.306	38034.18
661.656	37960.06
662.007	37931.14
662.358	37980.63
662.708	38002.09
663.059	38066.73
663.409	37751.93
663.76	37994.41
664.11	37852.27
664.461	37965.26
664.811	37895.43
665.161	37888.2
665.511	37798.71
665.862	38054.3
666.212	37953.51
666.562	37930.68
666.912	38071.02
667.262	37863.34
667.612	37854.75
667.962	37953.28
668.312	37728.65
668.662	37869.44
669.011	37929.33
669.361	37893.4
669.711	37697.02
670.06	37881.87
670.41	37751.48
670.76	37681.88
671.109	37866.28
671.459	37637.58
671.808	37692.5
672.157	37721.2
672.507	37459.51
672.856	37449.79
673.205	37560.52
673.554	37757.13
673.904	37485.05
674.253	37700.86
674.602	37537.25
674.951	36989.24
675.3	36855.68
675.649	37444.82
675.998	37409.79
676.346	37387.87
676.695	37461.77
677.044	37240.98
677.393	37335.9
677.741	37440.98
678.09	37283.24
678.438	37248.22
678.787	37286.63
679.135	37243.47
679.484	37090.93
679.832	37125.51
680.181	37040.99
680.529	37059.07
680.877	37056.13
681.225	37015
681.573	37211.83
681.922	37023.59
682.27	36898.85
682.618	36841.22
682.966	36612.98
683.314	36780.43
683.661	36686.87
684.009	36586.54
684.357	36424.73
684.705	36441.91
685.053	36468.35
685.4	36385.64
685.748	36073.56
686.095	36244.63
686.443	36133.22
686.79	36164.63
687.138	36105.87
687.485	36045.54
687.832	36034.46
688.18	35930.74
688.527	35705.66
688.874	35753.11
689.221	35620.46
689.568	35590.63
689.915	35508.83
690.262	35540.92
690.609	35288.04
690.956	35315.38
691.303	35278.1
691.65	35142.96
691.997	35159.46
692.344	34865.23
692.69	34858.22
693.037	34894.38
693.383	34542.52
693.73	34855.28
694.077	34493.49
694.423	34673.37
694.769	34337.33
695.116	34294.85
695.462	34262.31
695.808	34233.15
696.155	34212.59
696.501	34031.12
696.847	33957.91
697.193	33699.83
697.539	34003.1
697.885	33658.93
698.231	33586.39
698.577	33560.4
698.923	33479.28
699.269	33236.8
699.614	33201.09
699.96	33113.18
700.306	33254.87
700.651	33044.48
700.997	32880.65
701.342	32806.3
701.688	32982.79
702.033	32640.43
702.379	32751.84
702.724	32501.22
703.069	32561.79
703.415	32376.03
703.76	32328.34
704.105	32304.16
704.45	32294
704.795	32116.6
705.14	31983.95
705.485	31955.25
705.83	31725.42
706.175	31867.11
706.52	31690.4
706.865	31707.12
707.209	31651.75
707.554	31498.99
707.899	31503.06
708.243	31368.6
708.588	31397.97
708.932	31223.06
709.277	31120.02
709.621	31101.48
709.966	30902.62
710.31	31054.48
710.654	30665.11
710.998	30745.34
711.342	30677.09
711.687	30567.04
712.031	30522.06
712.375	30499.92
712.719	30499.92
713.063	30353.03
713.407	30353.03
713.75	30290.66
714.094	30196.88
714.438	30195.29
714.782	30267.16
715.125	29983.77
715.469	30074.62
715.812	29921.85
716.156	29798.47
716.499	29891.12
716.843	29896.32
717.186	29702.43
717.53	29830.33
717.873	29832.59
718.216	29757.34
718.559	29493.17
718.902	29351.7
719.246	29495.43
719.589	29330.46
719.932	29169.56
720.275	29359.16
720.617	29261.31
720.96	29202.55
721.303	29118.03
721.646	29101.99
721.989	29029.45
722.331	29057.02
722.674	28890.02
723.016	28940.86
723.359	28960.75
723.701	28846.4
724.044	28718.5
724.386	28567.77
724.729	28673.98
725.071	28478.28
725.413	28609.57
725.755	28687.54
726.097	28459.52
726.439	28340.2
726.782	28402.8
727.124	28422.46
727.465	28285.97
727.807	28250.49
728.149	28261.11
728.491	28178.85
728.833	28096.82
729.175	28085.97
729.516	27975.46
729.858	28026.54
730.199	28044.62
730.541	27963.26
730.882	27838.97
731.224	27878.97
731.565	27655.93
731.906	27714.45
732.248	27878.52
732.589	27626.32
732.93	27371.41
733.271	27541.58
733.612	27580.22
733.953	27595.36
734.294	27391.98
734.635	27350.4
734.976	27388.36
735.317	27316.95
735.658	27345.88
735.999	27321.47
736.339	27205.32
736.68	27337.52
737.021	27157.86
737.361	27038.77
737.702	27285.54
738.042	27103.17
738.383	27020.46
738.723	27047.35
739.063	27027.69
739.404	26987.69
739.744	26915.15
740.084	26760.81
740.424	26882.61
740.764	26823.63
741.104	26784.08
741.444	26647.36
741.784	26539.57
742.124	26669.51
742.464	26542.28
742.804	26493.47
743.143	26466.8
743.483	26512
743.823	26373.25
744.162	26249.18
744.502	26336.19
744.841	26248.73
745.181	26361.95
745.52	26245.34
745.86	26263.65
746.199	26116.53
746.538	26192.01
746.877	26235.17
747.216	26194.49
747.556	26026.36
747.895	26102.75
748.234	25957.66
748.573	25959.02
748.911	25890.32
749.25	25915.18
749.589	25756.54
749.928	25875.41
750.267	25752.25
750.605	25794.96
750.944	25631.57
751.283	25585.92
751.621	25630.44
751.96	25457.11
752.298	25534.17
752.636	25508.86
752.975	25403.78
753.313	25270
753.651	25444.91
753.989	25240.17
754.327	25126.73
754.666	25117.46
755.004	25074.98
755.342	25130.34
755.679	25113.17
756.017	24882.66
756.355	24992.49
756.693	24983.91
757.031	24929.22
757.368	24748.43
757.706	24746.4
758.044	24586.18
758.381	24658.26
758.719	24592.96
759.056	24488.1
759.394	24388.21
759.731	24333.3
760.068	24265.73
760.405	24160.88
760.743	24193.64
761.08	24138.05
