Data from hue_290_FLMS001491_00035.txt Node
Date: Tue Feb 07 15:52:39 GMT 2017
User: dcchb
Spectrometer: FLMS00149
Trigger mode: 0
Integration Time (sec): 2.000000E-2
Scans to average: 10
Electric dark correction enabled: true
Nonlinearity correction enabled: false
Boxcar width: 0
XAxis mode: Wavelengths
Number of Pixels in Spectrum: 2048
>>>>>Begin Spectral Data<<<<<
341.393	-16.65
341.776	-16.65
342.16	-16.65
342.543	-81.28
342.927	-65.46
343.31	-67.72
343.693	-63.43
344.077	-55.07
344.46	-55.97
344.843	-66.14
345.226	-42.41
345.61	-33.37
345.993	-4.22
346.376	-0.83
346.759	-1.51
347.142	21.09
347.525	36.23
347.908	76.68
348.291	71.93
348.674	96.79
349.057	87.98
349.44	121.42
349.823	138.15
350.206	147.86
350.588	192.61
350.971	194.42
351.354	215.21
351.737	220.4
352.119	227.18
352.502	220.63
352.884	238.26
353.267	274.87
353.65	266.73
354.032	281.19
354.414	310.12
354.797	277.58
355.179	311.7
355.562	325.49
355.944	320.06
356.326	316.9
356.709	313.06
357.091	313.73
357.473	348.54
357.855	346.5
358.238	318.48
358.62	318.93
359.002	331.59
359.384	323
359.766	306.96
360.148	328.42
360.53	332.94
360.912	327.29
361.294	335.66
361.676	325.71
362.057	333.17
362.439	300.18
362.821	314.19
363.203	312.83
363.584	330.23
363.966	316.45
364.348	279.39
364.729	312.15
365.111	302.66
365.493	325.49
365.874	316.9
366.256	306.5
366.637	306.73
367.019	298.59
367.4	307.86
367.781	320.97
368.163	294.07
368.544	312.83
368.925	284.36
369.306	322.32
369.688	305.6
370.069	306.05
370.45	296.11
370.831	316.22
371.212	305.37
371.593	330.01
371.974	316.22
372.355	315.09
372.736	300.63
373.117	291.59
373.498	279.61
373.879	292.04
374.26	304.02
374.641	319.84
375.021	308.09
375.402	300.85
375.783	283.45
376.163	316.22
376.544	306.96
376.925	315.99
377.305	303.79
377.686	335.66
378.066	335.88
378.447	330.91
378.827	339.5
379.208	323
379.588	298.14
379.968	316.9
380.349	316.9
380.729	307.63
381.109	306.96
381.489	331.14
381.87	318.48
382.25	324.58
382.63	339.72
383.01	335.88
383.39	305.83
383.77	344.92
384.15	325.26
384.53	330.46
384.91	344.69
385.29	333.17
385.67	314.41
386.049	338.37
386.429	333.17
386.809	342.21
387.189	342.43
387.568	358.25
387.948	349.67
388.328	347.63
388.707	362.77
389.087	357.58
389.466	384.69
389.846	371.36
390.225	362.09
390.605	357.58
390.984	334.53
391.363	370
391.743	369.55
392.122	342.43
392.501	387.63
392.881	361.42
393.26	359.16
393.639	357.8
394.018	342.89
394.397	349.89
394.776	363
395.155	378.14
395.534	367.07
395.913	390.34
396.292	391.7
396.671	374.07
397.05	386.95
397.429	386.73
397.808	401.42
398.186	356.22
398.565	394.18
398.944	404.13
399.323	399.83
399.701	396.67
400.08	409.78
400.458	391.7
400.837	396.9
401.215	417.23
401.594	405.94
401.972	410
402.351	414.07
402.729	420.62
403.107	427.4
403.486	431.7
403.864	427.18
404.242	424.69
404.62	424.01
404.999	437.8
405.377	424.24
405.755	454.75
406.133	442.32
406.511	442.54
406.889	493.39
407.267	480.96
407.645	475.76
408.023	472.6
408.401	454.97
408.779	473.28
409.156	458.14
409.534	481.64
409.912	497.01
410.29	483.67
410.667	484.58
411.045	521.86
411.422	539.04
411.8	522.09
412.178	517.35
412.555	543.33
412.933	533.84
413.31	536.78
413.687	567.74
414.065	573.16
414.442	583.56
414.819	581.52
415.197	582.43
415.574	591.47
415.951	586.95
416.328	592.6
416.705	614.07
417.082	621.75
417.46	626.49
417.837	642.31
418.214	645.7
418.591	669.21
418.967	668.3
419.344	664.46
419.721	680.96
420.098	693.84
420.475	672.6
420.852	684.12
421.228	689.77
421.605	717.79
421.982	721.41
422.358	726.83
422.735	728.41
423.111	761.41
423.488	762.31
423.864	760.5
424.241	773.84
424.617	787.62
424.994	786.04
425.37	785.13
425.746	826.26
426.123	825.13
426.499	814.06
426.875	832.82
427.251	841.4
427.627	862.19
428.003	833.95
428.379	872.14
428.756	888.18
429.132	915.75
429.507	902.65
429.883	928.41
430.259	932.7
430.635	950.1
431.011	953.49
431.387	954.4
431.763	1003.21
432.138	982.19
432.514	1005.92
432.89	1006.6
433.265	1043.43
433.641	1028.74
434.016	1058.8
434.392	1054.73
434.767	1072.58
435.143	1069.65
435.518	1090.66
435.894	1101.74
436.269	1144.67
436.644	1136.76
437.02	1152.36
437.395	1176.99
437.77	1153.26
438.145	1208.17
438.52	1205.24
438.895	1205.91
439.271	1216.54
439.646	1244.33
440.021	1269.42
440.395	1252.24
440.77	1248.85
441.145	1242.75
441.52	1266.25
441.895	1278.91
442.27	1306.02
442.645	1266.03
443.019	1315.74
443.394	1327.95
443.769	1310.09
444.143	1303.31
444.518	1362.75
444.892	1350.09
445.267	1362.75
445.641	1344.89
446.016	1357.55
446.39	1371.11
446.764	1403.2
447.139	1391.9
447.513	1381.5
447.887	1351.67
448.262	1378.79
448.636	1417.89
449.01	1435.51
449.384	1432.35
449.758	1420.15
450.132	1461.5
450.506	1452.24
450.88	1465.57
451.254	1449.75
451.628	1470.54
452.002	1486.36
452.376	1447.94
452.75	1489.3
453.123	1495.4
453.497	1501.27
453.871	1507.15
454.244	1546.02
454.618	1554.61
454.992	1607.26
455.365	1558.45
455.739	1602.29
456.112	1597.32
456.486	1590.99
456.859	1639.58
457.232	1652.68
457.606	1639.58
457.979	1669.18
458.352	1684.32
458.725	1733.81
459.099	1696.52
459.472	1737.88
459.845	1738.56
460.218	1751.44
460.591	1781.72
460.964	1743.98
461.337	1809.29
461.71	1798.44
462.083	1854.26
462.456	1837.76
462.829	1828.72
463.201	1866.01
463.574	1856.97
463.947	1884.54
464.32	1915.95
464.692	1939.45
465.065	1955.05
465.438	1974.03
465.81	1955.5
466.183	1996.63
466.555	2025.33
466.928	2008.38
467.3	2031.43
467.672	2061.26
468.045	2096.51
468.417	2120.92
468.789	2113.46
469.161	2123.86
469.534	2126.57
469.906	2151.43
470.278	2189.84
470.65	2167.7
471.022	2252.21
471.394	2237.3
471.766	2289.5
472.138	2286.79
472.51	2329.73
472.882	2360.91
473.253	2352.55
473.625	2393
473.997	2430.06
474.369	2429.84
474.74	2451.76
475.112	2473.68
475.484	2550.06
475.855	2555.71
476.227	2567.69
476.598	2618.31
476.97	2640.68
477.341	2724.74
477.713	2697.63
478.084	2700.11
478.455	2772.43
478.827	2754.35
479.198	2823.5
479.569	2832.54
479.94	2884.29
480.311	2919.54
480.682	2968.81
481.053	3022.36
481.424	3048.8
481.795	3058.07
482.166	3102.36
482.537	3091.97
482.908	3190.95
483.279	3183.04
483.65	3278.63
484.021	3273.66
484.391	3303.94
484.762	3332.41
485.133	3333.32
485.503	3385.97
485.874	3459.64
486.244	3469.13
486.615	3475.91
486.985	3516.14
487.356	3577.38
487.726	3596.36
488.097	3658.96
488.467	3662.57
488.837	3689.24
489.207	3755.23
489.578	3787.99
489.948	3802.23
490.318	3838.61
490.688	3825.73
491.058	3895.56
491.428	3949.57
491.798	4013.98
492.168	4009.91
492.538	4058.04
492.908	4013.98
493.278	4133.75
493.648	4097.36
494.017	4149.79
494.387	4166.06
494.757	4200.64
495.126	4244.03
495.496	4233.41
495.866	4251.03
496.235	4296.91
496.605	4305.27
496.974	4376.68
497.344	4324.93
497.713	4381.65
498.082	4399.05
498.452	4418.26
498.821	4462.55
499.19	4497.35
499.559	4501.42
499.928	4517.24
500.298	4524.25
500.667	4538.71
501.036	4572.61
501.405	4576.22
501.774	4584.36
502.143	4604.02
502.512	4650.57
502.88	4695.31
503.249	4658.25
503.618	4728.99
503.987	4693.96
504.356	4721.75
504.724	4724.01
505.093	4719.04
505.462	4769.66
505.83	4773.28
506.199	4831.36
506.567	4887.85
506.936	4809.44
507.304	4905.93
507.672	4878.59
508.041	4913.39
508.409	4892.37
508.777	4966.49
509.145	4985.02
509.514	4955.42
509.882	4993.84
510.25	5001.3
510.618	5049.66
510.986	5014.4
511.354	5028.19
511.722	5037
512.09	5129.88
512.458	5111.57
512.826	5118.58
513.193	5074.06
513.561	5101.86
513.929	5157.45
514.297	5214.62
514.664	5216.88
515.032	5228.86
515.4	5227.05
515.767	5236.77
516.135	5301.63
516.502	5248.75
516.869	5346.14
517.237	5303.21
517.604	5221.85
517.972	5321.29
518.339	5351.79
518.706	5365.58
519.073	5349.31
519.44	5356.54
519.808	5402.41
520.175	5354.28
520.542	5487.61
520.909	5430.21
521.276	5479.02
521.643	5513.82
522.009	5486.93
522.376	5534.84
522.743	5526.03
523.11	5555.63
523.477	5628.17
523.843	5576.42
524.21	5660.03
524.577	5703.88
524.943	5666.81
525.31	5696.87
525.676	5749.3
526.043	5772.12
526.409	5826.58
526.776	5826.81
527.142	5818.67
527.508	5876.75
527.874	5842.4
528.241	5907.26
528.607	5917.66
528.973	5973.47
529.339	5994.49
529.705	6022.96
530.071	6061.61
530.437	6111.77
530.803	6083.53
531.169	6126.01
531.535	6083.75
531.901	6109.06
532.267	6134.15
532.632	6194.94
532.998	6176.63
533.364	6229.29
533.73	6212.56
534.095	6238.55
534.461	6257.08
534.826	6346.8
535.192	6330.75
535.557	6338.89
535.923	6371.2
536.288	6312.67
536.653	6409.62
537.019	6350.19
537.384	6378.66
537.749	6432.44
538.114	6422.05
538.479	6468.38
538.845	6473.57
539.21	6445.78
539.575	6472.22
539.94	6525.77
540.305	6532.33
540.67	6542.27
541.034	6564.19
541.399	6564.19
541.764	6556.28
542.129	6654.36
542.494	6647.35
542.858	6671.99
543.223	6748.37
543.587	6769.61
543.952	6717.63
544.316	6796.73
544.681	6756.73
545.045	6751.76
545.41	6793.11
545.774	6804.64
546.138	6893.9
546.503	6838.99
546.867	6864.97
547.231	6920.79
547.595	6861.59
547.959	6928.48
548.324	6947.46
548.688	6968.93
549.052	6935.93
549.416	6981.36
549.779	6957.18
550.143	7004.41
550.507	6995.59
550.871	6996.04
551.235	7013.22
551.599	7061.35
551.962	7059.32
552.326	7076.95
552.689	7114.23
553.053	7089.38
553.417	7118.53
553.78	7154.68
554.143	7158.07
554.507	7192.42
554.87	7139.54
555.234	7207.34
555.597	7158.75
555.96	7213.67
556.323	7226.55
556.686	7280.11
557.05	7319.88
557.413	7352.19
557.776	7295.7
558.139	7356.94
558.502	7335.24
558.865	7411.85
559.228	7373.21
559.59	7414.79
559.953	7449.37
560.316	7535.69
560.679	7480.1
561.041	7554.9
561.404	7523.04
561.767	7583.37
562.129	7598.06
562.492	7651.62
562.854	7613.66
563.217	7656.82
563.579	7687.33
563.941	7685.74
564.304	7706.76
564.666	7746.99
565.028	7768
565.39	7812.75
565.753	7803.93
566.115	7833.08
566.477	7861.33
566.839	7896.81
567.201	7904.5
567.563	7974.1
567.925	7968.67
568.287	7980.65
568.648	7991.5
569.01	8009.58
569.372	8096.13
569.734	8067.43
570.095	8105.85
570.457	8120.31
570.819	8177.48
571.18	8197.37
571.542	8196.01
571.903	8302.45
572.265	8297.93
572.626	8306.74
572.987	8349.23
573.349	8356.24
573.71	8401.21
574.071	8488.89
574.432	8459.74
574.794	8516.23
575.155	8559.39
575.516	8562.33
575.877	8643.01
576.238	8661.31
576.599	8708.32
576.96	8788.77
577.32	8822.66
577.681	8917.35
578.042	9019.04
578.403	8991.25
578.763	9006.61
579.124	9034.18
579.485	9182.88
579.845	9212.71
580.206	9333.84
580.566	9288.41
580.927	9349.66
581.287	9509.43
581.648	9510.33
582.008	9640.5
582.368	9742.19
582.728	9770.44
583.089	9889.08
583.449	9965.01
583.809	10058.79
584.169	10147.83
584.529	10313.47
584.889	10401.83
585.249	10498.78
585.609	10591.2
585.969	10727.7
586.329	10763.18
586.688	10902.16
587.048	11044.07
587.408	11124.75
587.768	11271.64
588.127	11409.94
588.487	11481.58
588.846	11671.63
589.206	11698.52
589.565	11821.23
589.925	12049.7
590.284	12127.66
590.643	12295.57
591.003	12469.8
591.362	12608.55
591.721	12694.43
592.08	12768.32
592.44	13003.57
592.799	13168.54
593.158	13237.91
593.517	13387.06
593.876	13498.92
594.235	13649.43
594.593	13812.59
594.952	13889.42
595.311	13908.86
595.67	14198.34
596.029	14429.3
596.387	14510.2
596.746	14641.95
597.104	14721.27
597.463	14902.5
597.822	15062.5
598.18	15069.28
598.538	15223.85
598.897	15517.18
599.255	15422.04
599.613	15789.71
599.972	15743.16
600.33	15933.21
600.688	15959.88
601.046	16107.67
601.404	16335.23
601.762	16353.54
602.12	16452.75
602.478	16662.46
602.836	16703.81
603.194	16727.77
603.552	16925.05
603.91	16935.44
604.268	17066.97
604.625	17085.05
604.983	17312.61
605.341	17220.86
605.698	17386.05
606.056	17634.86
606.413	17644.35
606.771	17810.22
607.128	17820.84
607.485	17763.67
607.843	17916.44
608.2	18081.86
608.557	18196.88
608.914	18242.98
609.272	18307.16
609.629	18514.39
609.986	18641.61
610.343	18522.52
610.7	18728.17
611.057	18706.7
611.414	18828.95
611.771	18862.17
612.127	18990.98
612.484	18983.07
612.841	19214.71
613.198	19191.2
613.554	19259.23
613.911	19410.63
614.267	19395.27
614.624	19447.92
614.98	19505.77
615.337	19696.73
615.693	19707.58
616.05	19699.21
616.406	19702.38
616.762	19801.81
617.118	19833.9
617.475	19966.33
617.831	20004.52
618.187	20007.45
618.543	20191.63
618.899	20243.61
619.255	20217.39
619.611	20236.15
619.967	20350.72
620.323	20352.98
620.678	20366.99
621.034	20344.85
621.39	20394.11
621.746	20402.92
622.101	20670.94
622.457	20496.48
622.812	20523.15
623.168	20666.19
623.523	20631.62
623.879	20642.24
624.234	20648.34
624.589	20752.75
624.945	20773.76
625.3	20858.73
625.655	20791.16
626.01	20848.34
626.365	20873.42
626.72	20802.69
627.075	20894.66
627.43	20888.79
627.785	20823.93
628.14	20910.26
628.495	20957.49
628.85	20989.8
629.205	20924.27
629.559	21031.16
629.914	20931.72
630.269	20884.72
630.623	20884.04
630.978	20826.42
631.332	20978.05
631.687	20943.02
632.041	20806.53
632.396	20953.19
632.75	20825.74
633.104	20867.54
633.459	20853.76
633.813	20906.64
634.167	20747.32
634.521	20805.17
634.875	20972.4
635.229	20765.63
635.583	20821.22
635.937	20750.03
636.291	20700.09
636.645	20715.91
636.999	20745.74
637.352	20783.7
637.706	20607.66
638.06	20747.77
638.413	20786.19
638.767	20738.06
639.121	20704.84
639.474	20638.85
639.828	20630.49
640.181	20695.12
640.534	20802.01
640.888	20595.69
641.241	20606.08
641.594	20545.97
641.947	20780.54
642.301	20630.26
642.654	20672.75
643.007	20572.86
643.36	20591.85
643.713	20585.74
644.066	20647.21
644.419	20465.07
644.771	20369.48
645.124	20210.61
645.477	20251.06
645.83	20152.08
646.182	20065.31
646.535	20004.74
646.888	20106.21
647.24	19842.71
647.593	20058.75
647.945	19858.76
648.298	19868.93
648.65	19882.03
649.002	19801.58
649.355	19978.98
649.707	19948.02
650.059	20063.95
650.411	20265.07
650.763	20322.02
651.115	20520.21
651.467	20438.18
651.819	20434.56
652.171	20348.24
652.523	20382.13
652.875	20341.23
653.227	20287.67
653.578	20402.7
653.93	20400.66
654.282	20392.75
654.633	20223.95
654.985	20376.26
655.337	20361.8
655.688	20444.5
656.039	20547.33
656.391	20273.44
656.742	20403.38
657.094	20490.15
657.445	20510.72
657.796	20480.66
658.147	20471.85
658.498	20372.64
658.849	20565.63
659.2	20402.25
659.551	20467.33
659.902	20438.63
660.253	20438.4
660.604	20469.36
660.955	20381.91
661.306	20428.69
661.656	20463.49
662.007	20516.37
662.358	20478.85
662.708	20448.8
663.059	20551.17
663.409	20362.02
663.76	20547.1
664.11	20417.39
664.461	20574.9
664.811	20487.89
665.161	20471.4
665.511	20527.89
665.862	20528.12
666.212	20554.78
666.562	20598.4
666.912	20538.29
667.262	20493.77
667.612	20505.29
667.962	20556.37
668.312	20487.89
668.662	20538.97
669.011	20446.31
669.361	20416.26
669.711	20456.71
670.06	20439.31
670.41	20365.41
670.76	20423.94
671.109	20483.83
671.459	20420.55
671.808	20451.06
672.157	20467.78
672.507	20421.23
672.856	20275.02
673.205	20303.72
673.554	20475.01
673.904	20317.5
674.253	20293.77
674.602	20258.75
674.951	20130.61
675.3	19943.5
675.649	20236.83
675.998	20153.66
676.346	20205.42
676.695	20342.36
677.044	20195.47
677.393	20180.78
677.741	20263.72
678.09	20101.46
678.438	20144.4
678.787	20170.16
679.135	20181.23
679.484	20081.35
679.832	20024.63
680.181	20094.68
680.529	20002.03
680.877	20010.84
681.225	19980.11
681.573	20034.8
681.922	19804.3
682.27	19844.75
682.618	19825.76
682.966	19811.98
683.314	19849.72
683.661	19806.56
684.009	19592.1
684.357	19637.29
684.705	19545.09
685.053	19601.59
685.4	19634.81
685.748	19479.78
686.095	19466.45
686.443	19426.9
686.79	19284.76
687.138	19424.42
687.485	19373.57
687.832	19236.85
688.18	19209.28
688.527	19118.89
688.874	19178.1
689.221	19126.12
689.568	18980.36
689.915	19004.09
690.262	19014.49
690.609	18937.43
690.956	18869.63
691.303	18834.15
691.65	18705.79
691.997	18694.27
692.344	18534.95
692.69	18513.03
693.037	18555.29
693.383	18554.39
693.73	18574.05
694.077	18372.02
694.423	18346.48
694.769	18303.32
695.116	18227.84
695.462	18205.24
695.808	18088.18
696.155	18094.28
696.501	17948.53
696.847	17950.33
697.193	17887.74
697.539	17887.51
697.885	17737.01
698.231	17703.11
698.577	17727.74
698.923	17662.88
699.269	17573.17
699.614	17488.88
699.96	17400.74
700.306	17390.57
700.651	17277.13
700.997	17337.92
701.342	17264.25
701.688	17108.1
702.033	17149.45
702.379	17078.94
702.724	17003.92
703.069	17030.36
703.415	16890.93
703.76	16829.23
704.105	16870.59
704.45	16742.23
704.795	16683.47
705.14	16587.21
705.485	16537.49
705.83	16525.06
706.175	16459.98
706.52	16430.83
706.865	16407.1
707.209	16378.17
707.554	16329.13
707.899	16355.35
708.243	16231.73
708.588	16275.8
708.932	16105.64
709.277	16052.98
709.621	16055.69
709.966	15915.58
710.31	16049.59
710.654	15858.41
710.998	15856.38
711.342	15895.02
711.687	15865.64
712.031	15724.4
712.375	15719.66
712.719	15660.68
713.063	15629.04
713.407	15748.58
713.75	15574.58
714.094	15670.17
714.438	15540
714.782	15527.35
715.125	15505.65
715.469	15448.93
715.812	15336.16
716.156	15298.65
716.499	15293.91
716.843	15376.62
717.186	15209.16
717.53	15324.64
717.873	15395.6
718.216	15310.18
718.559	15112.89
718.902	15008.94
719.246	15111.54
719.589	15106.11
719.932	15034.25
720.275	15022.73
720.617	15082.61
720.96	14999.45
721.303	15094.59
721.646	15086.68
721.989	15009.17
722.331	15039
722.674	14970.98
723.016	14998.32
723.359	15007.59
723.701	15019.79
724.044	14723.3
724.386	14871.32
724.729	14812.34
725.071	14806.91
725.413	14789.74
725.755	14831.55
726.097	14682.85
726.439	14664.77
726.782	14681.49
727.124	14703.86
727.465	14647.37
727.807	14739.34
728.149	14675.39
728.491	14667.26
728.833	14721.49
729.175	14612.57
729.516	14637.65
729.858	14594.49
730.199	14747.25
730.541	14583.64
730.882	14612.34
731.224	14580.03
731.565	14555.39
731.906	14562.17
732.248	14507.26
732.589	14537.54
732.93	14461.84
733.271	14483.53
733.612	14476.75
733.953	14545.45
734.294	14410.99
734.635	14508.39
734.976	14545
735.317	14458.9
735.658	14385.23
735.999	14516.75
736.339	14408.51
736.68	14489.18
737.021	14433.82
737.361	14396.08
737.702	14500.93
738.042	14509.29
738.383	14458.22
738.723	14449.41
739.063	14427.94
739.404	14497.77
739.744	14495.06
740.084	14474.94
740.424	14470.2
740.764	14498.45
741.104	14594.26
741.444	14499.12
741.784	14491.67
742.124	14555.17
742.464	14549.74
742.804	14527.6
743.143	14488.96
743.483	14611.89
743.823	14614.15
744.162	14638.78
744.502	14629.52
744.841	14651.21
745.181	14758.1
745.52	14690.31
745.86	14687.37
746.199	14817.76
746.538	14806.01
746.877	14922.39
747.216	14956.97
747.556	14966
747.895	14999.9
748.234	15031.77
748.573	15023.4
748.911	15068.6
749.25	15122.38
749.589	15180.46
749.928	15302.27
750.267	15337.29
750.605	15344.53
750.944	15384.3
751.283	15487.8
751.621	15610.28
751.96	15537.29
752.298	15674.23
752.636	15800.79
752.975	15807.34
753.313	15934.11
753.651	16035.36
753.989	16085.07
754.327	16187.67
754.666	16189.02
755.004	16361.22
755.342	16586.98
755.679	16629.01
756.017	16706.07
756.355	16809.57
756.693	16800.31
757.031	17083.24
757.368	17055.44
757.706	17249.11
758.044	17261.09
758.381	17425.83
758.719	17425.6
759.056	17651.58
759.394	17654.07
759.731	17703.79
