Data from hue_140_FLMS001491_00090.txt Node
Date: Tue Feb 07 16:56:32 GMT 2017
User: dcchb
Spectrometer: FLMS00149
Trigger mode: 0
Integration Time (sec): 2.000000E-2
Scans to average: 10
Electric dark correction enabled: true
Nonlinearity correction enabled: false
Boxcar width: 0
XAxis mode: Wavelengths
Number of Pixels in Spectrum: 2048
>>>>>Begin Spectral Data<<<<<
341.393	-12.87
341.776	-12.87
342.16	-12.87
342.543	-61.91
342.927	-83.83
343.31	-80.21
343.693	-68.91
344.077	-76.37
344.46	-55.13
344.843	-51.28
345.226	-21.91
345.61	-27.56
345.993	-32.08
346.376	-8.57
346.759	6.57
347.142	28.94
347.525	36.4
347.908	53.12
348.291	95.6
348.674	78.88
349.057	122.5
349.44	120.01
349.823	143.29
350.206	168.15
350.588	184.87
350.971	222.61
351.354	201.14
351.737	202.04
352.119	230.29
352.502	255.15
352.884	254.7
353.267	290.18
353.65	282.72
354.032	292.44
354.414	291.76
354.797	288.14
355.179	317.07
355.562	312.32
355.944	336.5
356.326	338.99
356.709	309.84
357.091	343.06
357.473	353.23
357.855	337.18
358.238	369.04
358.62	340.8
359.002	312.1
359.384	327.01
359.766	353.9
360.148	334.47
360.53	311.87
360.912	329.27
361.294	313.45
361.676	327.46
362.057	340.34
362.439	298.99
362.821	334.24
363.203	333.56
363.584	307.58
363.966	328.82
364.348	334.02
364.729	322.04
365.111	313
365.493	317.07
365.874	327.01
366.256	310.29
366.637	327.01
367.019	318.88
367.4	292.21
367.781	313.23
368.163	315.94
368.544	298.99
368.925	276.84
369.306	310.74
369.688	306.67
370.069	308.93
370.45	298.54
370.831	304.64
371.212	297.86
371.593	296.05
371.974	304.19
372.355	300.12
372.736	285.2
373.117	329.5
373.498	305.54
373.879	333.79
374.26	327.69
374.641	318.65
375.021	332.66
375.402	306.9
375.783	314.13
376.163	313.9
376.544	319.33
376.925	338.54
377.305	332.89
377.686	332.89
378.066	337.18
378.447	325.88
378.827	326.79
379.208	317.52
379.588	342.83
379.968	325.66
380.349	330.4
380.729	321.36
381.109	330.85
381.489	342.6
381.87	340.8
382.25	338.31
382.63	343.96
383.01	334.92
383.39	342.38
383.77	326.33
384.15	334.92
384.53	343.28
384.91	336.05
385.29	337.63
385.67	352.55
386.049	326.33
386.429	362.94
386.809	370.85
387.189	345.09
387.568	351.42
387.948	351.42
388.328	361.81
388.707	359.55
389.087	350.51
389.466	355.03
389.846	369.27
390.225	362.04
390.605	359.55
390.984	370.17
391.363	373.79
391.743	357.52
392.122	352.55
392.501	362.04
392.881	367.91
393.26	372.66
393.639	371.08
394.018	362.72
394.397	345.54
394.776	370.63
395.155	364.52
395.534	376.28
395.913	360
396.292	381.02
396.671	370.17
397.05	365.2
397.429	377.41
397.808	372.43
398.186	392.09
398.565	406.11
398.944	381.02
399.323	361.59
399.701	406.33
400.08	364.52
400.458	377.86
400.837	397.74
401.215	400
401.594	392.55
401.972	395.94
402.351	395.26
402.729	393.68
403.107	412.21
403.486	404.52
403.864	394.13
404.242	397.97
404.62	427.35
404.999	378.54
405.377	383.96
405.755	423.51
406.133	410.4
406.511	429.16
406.889	410.17
407.267	425.77
407.645	422.38
408.023	435.03
408.401	419.66
408.779	428.03
409.156	450.17
409.534	438.19
409.912	438.65
410.29	476.84
410.667	446.78
411.045	463.5
411.422	419.44
411.8	449.04
412.178	459.66
412.555	448.14
412.933	472.54
413.31	482.04
413.687	483.62
414.065	455.82
414.442	474.8
414.819	464.18
415.197	473
415.574	494.46
415.951	491.3
416.328	473.67
416.705	504.63
417.082	484.3
417.46	511.41
417.837	489.49
418.214	488.81
418.591	513.9
418.967	494.92
419.344	514.35
419.721	509.83
420.098	507.57
420.475	503.28
420.852	530.85
421.228	528.36
421.605	519.1
421.982	540.34
422.358	543.73
422.735	536.5
423.111	557.74
423.488	522.94
423.864	555.25
424.241	556.84
424.617	553.9
424.994	534.92
425.37	568.36
425.746	542.15
426.123	567.91
426.499	556.84
426.875	548.93
427.251	565.42
427.627	579.66
428.003	565.87
428.379	579.89
428.756	578.3
429.132	598.64
429.507	598.87
429.883	620.56
430.259	609.26
430.635	607.91
431.011	629.38
431.387	638.42
431.763	643.16
432.138	639.77
432.514	640.9
432.89	642.94
433.265	655.36
433.641	640.22
434.016	672.99
434.392	675.7
434.767	677.28
435.143	680.22
435.518	642.94
435.894	672.76
436.269	676.83
436.644	708.24
437.02	716.38
437.395	734.68
437.77	747.11
438.145	745.53
438.52	728.81
438.895	724.06
439.271	745.98
439.646	747.34
440.021	752.54
440.395	752.08
440.77	765.87
441.145	738.3
441.52	758.19
441.895	762.71
442.27	777.17
442.645	766.1
443.019	796.38
443.394	767.9
443.769	806.09
444.143	767
444.518	788.02
444.892	791.63
445.267	821.46
445.641	858.3
446.016	813.55
446.39	808.81
446.764	834.34
447.139	813.55
447.513	842.48
447.887	844.29
448.262	865.98
448.636	842.25
449.01	869.14
449.384	843.61
449.758	863.04
450.132	887.67
450.506	887.22
450.88	892.87
451.254	893.32
451.628	907.79
452.002	921.35
452.376	950.05
452.75	926.77
453.123	931.52
453.497	944.85
453.871	952.08
454.244	976.03
454.618	961.34
454.992	988.01
455.365	1010.61
455.739	998.63
456.112	1026.88
456.486	1011.96
456.859	1059.65
457.232	1054.45
457.606	1066.43
457.979	1048.57
458.352	1073.88
458.725	1092.64
459.099	1098.74
459.472	1128.35
459.845	1111.17
460.218	1161.57
460.591	1162.24
460.964	1183.26
461.337	1172.64
461.71	1222.35
462.083	1198.17
462.456	1247.66
462.829	1230.94
463.201	1244.5
463.574	1256.25
463.947	1280.66
464.32	1304.84
464.692	1338.28
465.065	1330.6
465.438	1384.84
465.81	1395.46
466.183	1385.97
466.555	1410.6
466.928	1437.26
467.3	1417.38
467.672	1446.08
468.045	1481.56
468.417	1506.42
468.789	1519.07
469.161	1559.97
469.534	1589.8
469.906	1610.82
470.278	1651.95
470.65	1698.95
471.022	1720.65
471.394	1730.36
471.766	1757.71
472.138	1815.11
472.51	1862.79
472.882	1883.58
473.253	1893.52
473.625	1945.27
473.997	2011.49
474.369	2017.36
474.74	2083.58
475.112	2106.4
475.484	2142.56
475.855	2205.83
476.227	2272.04
476.598	2347.97
476.97	2389.33
477.341	2437.69
477.713	2466.16
478.084	2549.55
478.455	2627.97
478.827	2665.48
479.198	2757.91
479.569	2804.23
479.94	2944.57
480.311	2926.04
480.682	3025.92
481.053	3140.5
481.424	3244
481.795	3285.13
482.166	3423.2
482.537	3475.18
482.908	3563.76
483.279	3651.9
483.65	3694.38
484.021	3902.51
484.391	3992.45
484.762	4032.22
485.133	4135.05
485.503	4234.71
485.874	4384.31
486.244	4457.52
486.615	4611.42
486.985	4722.6
487.356	4870.39
487.726	4979.32
488.097	5050.95
488.467	5198.07
488.837	5371.85
489.207	5403.94
489.578	5604.16
489.948	5722.58
490.318	5838.28
490.688	5902.46
491.058	6092.28
491.428	6234.43
491.798	6296.35
492.168	6522.1
492.538	6557.36
492.908	6770.68
493.278	6896.78
493.648	6912.83
494.017	7100.39
494.387	7227.62
494.757	7397.56
495.126	7464.9
495.496	7563.43
495.866	7681.17
496.235	7808.4
496.605	7981.73
496.974	8070.08
497.344	8199.12
497.713	8285.22
498.082	8399.79
498.452	8565.21
498.821	8538.55
499.19	8681.37
499.559	8812.21
499.928	8894.92
500.298	9005.43
500.667	9054.01
501.036	9125.42
501.405	9309.6
501.774	9302.14
502.143	9416.94
502.512	9481.35
502.88	9605.86
503.249	9661.46
503.618	9775.12
503.987	9846.31
504.356	9910.71
504.724	10006.76
505.093	10032.97
505.462	10125.17
505.83	10283.81
506.199	10329.01
506.567	10464.82
506.936	10426.63
507.304	10549.79
507.672	10658.94
508.041	10645.84
508.409	10721.99
508.777	10807.41
509.145	10910.01
509.514	10975.09
509.882	11002.66
510.25	11039.72
510.618	11070.91
510.986	11175.31
511.354	11187.97
511.722	11285.14
512.09	11338.93
512.458	11334.63
512.826	11453.95
513.193	11496.21
513.561	11473.38
513.929	11514.74
514.297	11595.19
514.664	11633.38
515.032	11767.84
515.4	11726.94
515.767	11856.2
516.135	11825.24
516.502	11737.11
516.869	11950.66
517.237	11899.59
517.604	11895.75
517.972	12012.35
518.339	11981.17
518.706	11945.46
519.073	12053.48
519.44	12049.87
519.808	12123.09
520.175	12170.54
520.542	12301.39
520.909	12249.41
521.276	12194.95
521.643	12393.36
522.009	12392.23
522.376	12394.72
522.743	12382.97
523.11	12557.42
523.477	12537.76
523.843	12569.18
524.21	12713.35
524.577	12700.92
524.943	12647.37
525.31	12683.3
525.676	12781.6
526.043	12734.82
526.409	12841.94
526.776	12912.22
527.142	12905.89
527.508	12854.37
527.874	12886.91
528.241	12919.9
528.607	12900.69
528.973	12993.8
529.339	12842.16
529.705	12989.28
530.071	12985.44
530.437	12940.24
530.803	12975.94
531.169	12963.97
531.535	12854.14
531.901	12995.83
532.267	12966
532.632	13016.62
532.998	12946.11
533.364	12951.76
533.73	12957.64
534.095	13008.71
534.461	12962.39
534.826	12931.65
535.192	12968.49
535.557	12922.39
535.923	12874.7
536.288	12881.03
536.653	12874.48
537.019	12813.91
537.384	12739.11
537.749	12821.37
538.114	12763.29
538.479	12656.86
538.845	12721.26
539.21	12638.55
539.575	12677.87
539.94	12635.61
540.305	12685.56
540.67	12512
541.034	12535.73
541.399	12607.37
541.764	12577.99
542.129	12449.18
542.494	12458.67
542.858	12341.61
543.223	12462.96
543.587	12452.34
543.952	12246.92
544.316	12338.45
544.681	12275.4
545.045	12253.48
545.41	12250.09
545.774	12157.21
546.138	12128.06
546.503	12197.21
546.867	12077.66
547.231	12107.72
547.595	12036.99
547.959	12083.09
548.324	11999.7
548.688	11907.95
549.052	11936.42
549.416	11944.11
549.779	11802.64
550.143	11862.53
550.507	11827.05
550.871	11800.38
551.235	11703.44
551.599	11785.92
551.962	11748.63
552.326	11743.21
552.689	11794.73
553.053	11597.68
553.417	11641.97
553.78	11698.01
554.143	11582.76
554.507	11605.58
554.87	11639.48
555.234	11696.88
555.597	11527.17
555.96	11565.81
556.323	11573.04
556.686	11544.34
557.05	11601.74
557.413	11571.24
557.776	11484.46
558.139	11580.95
558.502	11483.1
558.865	11443.33
559.228	11486.27
559.59	11488.98
559.953	11493.27
560.316	11554.96
560.679	11458.47
561.041	11470.45
561.404	11497.11
561.767	11583.44
562.129	11466.83
562.492	11572.37
562.854	11519.03
563.217	11512.25
563.579	11506.38
563.941	11593.38
564.304	11536.43
564.666	11613.27
565.028	11588.64
565.39	11627.28
565.753	11630.67
566.115	11623.21
566.477	11620.95
566.839	11625.47
567.201	11712.02
567.563	11634.51
567.925	11702.98
568.287	11632.25
568.648	11655.07
569.01	11669.99
569.372	11722.19
569.734	11679.48
570.095	11682.42
570.457	11724.23
570.819	11767.16
571.18	11752.25
571.542	11738.46
571.903	11817.33
572.265	11838.57
572.626	11725.13
572.987	11858.01
573.349	11792.7
573.71	11869.31
574.071	11834.51
574.432	11856.88
574.794	11811
575.155	11939.81
575.516	11822.98
575.877	11871.57
576.238	11856.65
576.599	11897.78
576.96	11851
577.32	11833.83
577.681	11885.35
578.042	11905.46
578.403	11840.38
578.763	11954.05
579.124	11893.71
579.485	11932.13
579.845	11936.42
580.206	11921.96
580.566	11905.46
580.927	11899.81
581.287	11945.69
581.648	11866.82
582.008	12062.52
582.368	11842.87
582.728	11986.14
583.089	11911.11
583.449	11935.07
583.809	11904.33
584.169	11918.34
584.529	11877.89
584.889	11924.45
585.249	11843.54
585.609	11762.64
585.969	11911.34
586.329	11781.17
586.688	11830.21
587.048	11848.74
587.408	11809.42
587.768	11804.9
588.127	11790.66
588.487	11758.35
588.846	11904.79
589.206	11685.36
589.565	11778.01
589.925	11837.89
590.284	11763.09
590.643	11722.64
591.003	11803.09
591.362	11748.41
591.721	11757.45
592.08	11725.36
592.44	11688.52
592.799	11805.13
593.158	11690.78
593.517	11731.23
593.876	11740.27
594.235	11656.66
594.593	11653.72
594.952	11737.78
595.311	11581.86
595.67	11669.31
596.029	11767.16
596.387	11721.29
596.746	11749.76
597.104	11611.46
597.463	11676.77
597.822	11731.68
598.18	11608.75
598.538	11642.42
598.897	11724
599.255	11594.96
599.613	11799.93
599.972	11633.61
600.33	11683.55
600.688	11598.58
601.046	11661.4
601.404	11710.67
601.762	11675.41
602.12	11701.63
602.478	11763.55
602.836	11737.33
603.194	11613.95
603.552	11703.44
603.91	11639.48
604.268	11632.48
604.625	11623.66
604.983	11597.22
605.341	11624.79
605.698	11748.86
606.056	11731.23
606.413	11667.05
606.771	11705.02
607.128	11749.54
607.485	11660.05
607.843	11606.04
608.2	11733.49
608.557	11748.18
608.914	11667.73
609.272	11683.77
609.629	11748.86
609.986	11754.73
610.343	11723.55
610.7	11791.79
611.057	11755.64
611.414	11749.76
611.771	11797.44
612.127	11797.22
612.484	11801.51
612.841	11790.21
613.198	11769.2
613.554	11838.35
613.911	11819.59
614.267	11837.22
614.624	11791.34
614.98	11807.39
615.337	11905.92
615.693	11886.26
616.05	11871.57
616.406	11932.81
616.762	11879.7
617.118	11836.54
617.475	11876.09
617.831	11881.96
618.187	11917.89
618.543	11906.59
618.899	12067.04
619.255	11932.36
619.611	11886.93
619.967	12004.22
620.323	12004.44
620.678	11992.47
621.034	11934.62
621.39	11938.46
621.746	11925.12
622.101	12062.3
622.457	11988.85
622.812	11996.08
623.168	12053.03
623.523	12051.67
623.879	12084.67
624.234	11898.23
624.589	12042.86
624.945	12068.17
625.3	12008.51
625.655	11985.69
626.01	11998.34
626.365	12044.22
626.72	12001.73
627.075	12000.6
627.43	11977.33
627.785	11918.8
628.14	12039.7
628.495	12030.21
628.85	11986.59
629.205	11927.38
629.559	11973.48
629.914	11954.28
630.269	12027.49
630.623	11938.23
630.978	11913.15
631.332	11900.27
631.687	11935.07
632.041	11854.39
632.396	11921.73
632.75	11858.91
633.104	11836.09
633.459	11839.02
633.813	11845.35
634.167	11829.76
634.521	11795.18
634.875	11809.87
635.229	11817.1
635.583	11764.9
635.937	11745.92
636.291	11736.2
636.645	11722.64
636.999	11744.11
637.352	11695.3
637.706	11615.3
638.06	11613.04
638.413	11653.49
638.767	11601.07
639.121	11646.49
639.474	11597
639.828	11574.85
640.181	11534.4
640.534	11615.3
640.888	11519.94
641.241	11526.94
641.594	11511.58
641.947	11650.78
642.301	11517.45
642.654	11464.8
643.007	11538.69
643.36	11519.71
643.713	11552.93
644.066	11531.91
644.419	11452.59
644.771	11351.13
645.124	11304.8
645.477	11304.35
645.83	11186.61
646.182	11142.09
646.535	11081.08
646.888	11107.07
647.24	11100.29
647.593	11093.06
647.945	11089.89
648.298	11037.69
648.65	11022.32
649.002	11051.25
649.355	11099.16
649.707	11110
650.059	11164.01
650.411	11285.82
650.763	11259.38
651.115	11389.09
651.467	11395.87
651.819	11324.01
652.171	11400.17
652.523	11293.5
652.875	11291.69
653.227	11231.36
653.578	11381.86
653.93	11352.03
654.282	11257.57
654.633	11274.29
654.985	11308.87
655.337	11262.77
655.688	11327.17
656.039	11346.38
656.391	11303.45
656.742	11273.62
657.094	11274.29
657.445	11399.94
657.796	11368.98
658.147	11320.39
658.498	11333.73
658.849	11357.91
659.2	11326.95
659.551	11336.67
659.902	11374.4
660.253	11298.02
660.604	11424.12
660.955	11199.04
661.306	11331.47
661.656	11309.77
662.007	11375.53
662.358	11425.7
662.708	11359.94
663.059	11302.54
663.409	11339.38
663.76	11368.75
664.11	11400.84
664.461	11441.75
664.811	11395.19
665.161	11334.63
665.511	11450.56
665.862	11437
666.212	11392.03
666.562	11362.2
666.912	11364.01
667.262	11394.29
667.612	11338.7
667.962	11425.7
668.312	11368.98
668.662	11395.42
669.011	11436.55
669.361	11472.25
669.711	11401.52
670.06	11289.89
670.41	11363.78
670.76	11387.96
671.109	11443.33
671.459	11365.37
671.808	11284.92
672.157	11332.37
672.507	11288.98
672.856	11245.14
673.205	11284.46
673.554	11303.9
673.904	11216.89
674.253	11263.22
674.602	11233.39
674.951	11062.32
675.3	11088.99
675.649	11239.27
675.998	11189.32
676.346	11171.92
676.695	11193.84
677.044	11203.56
677.393	11169.66
677.741	11154.3
678.09	11183
678.438	11129.21
678.787	11102.32
679.135	11118.14
679.484	11015.77
679.832	11090.12
680.181	10935.77
680.529	11007.63
680.877	11036.11
681.225	11005.83
681.573	11059.84
681.922	10969.67
682.27	10888.32
682.618	10978.71
682.966	10898.03
683.314	10949.33
683.661	10853.06
684.009	10820.75
684.357	10869.11
684.705	10799.05
685.053	10775.78
685.4	10881.76
685.748	10792.27
686.095	10735.33
686.443	10722.44
686.79	10696.91
687.138	10656.91
687.485	10715.21
687.832	10634.54
688.18	10644.25
688.527	10580.75
688.874	10460.3
689.221	10481.32
689.568	10409.23
689.915	10444.03
690.262	10471.38
690.609	10433.86
690.956	10352.28
691.303	10350.02
691.65	10326.52
691.997	10306.41
692.344	10214.21
692.69	10222.34
693.037	10202.23
693.383	10086.53
693.73	10104.38
694.077	10045.63
694.423	10085.62
694.769	10047.43
695.116	9951.84
695.462	10038.17
695.808	9973.09
696.155	9896.48
696.501	9897.83
696.847	9883.37
697.193	9738.74
697.539	9805.41
697.885	9691.06
698.231	9650.16
698.577	9627.78
698.923	9649.25
699.269	9573.77
699.614	9475.7
699.96	9488.8
700.306	9507.79
700.651	9454.45
700.997	9331.07
701.342	9375.13
701.688	9385.3
702.033	9305.08
702.379	9277.96
702.724	9256.49
703.069	9310.96
703.415	9256.04
703.76	9176.95
704.105	9136.72
704.45	9120.45
704.795	9103.96
705.14	9094.69
705.485	9048.14
705.83	8994.13
706.175	9051.53
706.52	9011.98
706.865	8931.76
707.209	8903.96
707.554	8895.6
707.899	8915.49
708.243	8917.29
708.588	8860.8
708.932	8716.4
709.277	8709.39
709.621	8765.21
709.966	8700.35
710.31	8736.51
710.654	8562.05
710.998	8663.52
711.342	8644.31
711.687	8546
712.031	8579.22
712.375	8517.08
712.719	8581.48
713.063	8553.91
713.407	8597.3
713.75	8479.57
714.094	8478.89
714.438	8465.33
714.782	8474.14
715.125	8444.76
715.469	8449.96
715.812	8414.48
716.156	8324.77
716.499	8368.38
716.843	8383.97
717.186	8320.47
717.53	8352.11
717.873	8335.16
718.216	8304.65
718.559	8258.1
718.902	8266.92
719.246	8244.54
719.589	8256.75
719.932	8236.41
720.275	8228.72
720.617	8149.86
720.96	8142.85
721.303	8201.15
721.646	8202.74
721.989	8148.95
722.331	8124.55
722.674	8074.15
723.016	8131.78
723.359	8153.47
723.701	8186.69
724.044	8080.03
724.386	8116.64
724.729	8101.27
725.071	8099.24
725.413	8096.52
725.755	8101.04
726.097	8126.81
726.439	8025.57
726.782	7984.89
727.124	8127.26
727.465	8044.32
727.807	8081.61
728.149	8064.21
728.491	7974.95
728.833	8030.54
729.175	8019.24
729.516	8012.68
729.858	8000.93
730.199	8008.62
730.541	7966.81
730.882	7974.49
731.224	8046.36
731.565	7954.83
731.906	8008.62
732.248	8020.59
732.589	7990.54
732.93	7930.43
733.271	7925.46
733.612	8024.21
733.953	8004.78
734.294	7927.49
734.635	7956.87
734.976	7946.25
735.317	7909.41
735.658	7945.79
735.999	7901.95
736.339	7938.34
736.68	7986.47
737.021	7963.42
737.361	7948.05
737.702	7943.53
738.042	7994.15
738.383	7949.41
738.723	8021.72
739.063	8020.37
739.404	8007.71
739.744	7974.49
740.084	8057.66
740.424	8075.73
740.764	7993.25
741.104	8083.19
741.444	8026.24
741.784	8061.95
742.124	8103.76
742.464	8071.44
742.804	8080.25
743.143	8073.7
743.483	8125.9
743.823	8117.77
744.162	8131.78
744.502	8190.99
744.841	8222.85
745.181	8299.46
745.52	8276.41
745.86	8289.51
746.199	8313.92
746.538	8351.88
746.877	8478.89
747.216	8469.17
747.556	8466.91
747.895	8503.52
748.234	8619.22
748.573	8629.17
748.911	8716.4
749.25	8779.9
749.589	8783.29
749.928	8878.88
750.267	8933.79
750.605	8974.47
750.944	9021.02
751.283	9081.81
751.621	9170.17
751.96	9226.44
752.298	9388.02
752.636	9451.07
752.975	9549.59
753.313	9578.75
753.651	9717.27
753.989	9779.64
754.327	9874.56
754.666	9968.34
755.004	10121.1
755.342	10188.9
755.679	10332.85
756.017	10421.44
756.355	10580.98
756.693	10714.99
757.031	10835.89
757.368	10866.85
757.706	11059.38
758.044	11232.71
758.381	11310.23
758.719	11555.64
759.056	11692.81
759.394	11775.3
759.731	11909.98
760.068	12112.01
