Data from hue_20_FLMS001491_33.txt Node
Date: Mon Feb 06 15:33:58 GMT 2017
User: dcchb
Spectrometer: FLMS00149
Trigger mode: 0
Integration Time (sec): 2.000000E-2
Scans to average: 10
Electric dark correction enabled: true
Nonlinearity correction enabled: false
Boxcar width: 0
XAxis mode: Wavelengths
Number of Pixels in Spectrum: 2048
>>>>>Begin Spectral Data<<<<<
341.393	-10.88
341.776	-10.88
342.16	-10.88
342.543	-50.2
342.927	-51.78
343.31	-73.7
343.693	-67.15
344.077	-69.4
344.46	-65.79
344.843	-53.59
345.226	-48.84
345.61	-32.8
345.993	-23.08
346.376	17.82
346.759	2.68
347.142	23.93
347.525	31.16
347.908	77.26
348.291	79.74
348.674	101.44
349.057	100.31
349.44	110.93
349.823	146.18
350.206	168.55
350.588	184.6
350.971	192.96
351.354	204.03
351.737	254.88
352.119	251.49
352.502	237.25
352.884	263.24
353.267	283.35
353.65	278.16
354.032	326.74
354.414	315.22
354.797	315.22
355.179	304.37
355.562	312.73
355.944	328.32
356.326	333.97
356.709	332.84
357.091	329.68
357.473	348.89
357.855	329.91
358.238	342.56
358.62	345.27
359.002	322.22
359.384	335.1
359.766	337.82
360.148	335.1
360.53	348.66
360.912	354.09
361.294	347.76
361.676	333.75
362.057	334.65
362.439	329.23
362.821	309.79
363.203	322.22
363.584	318.38
363.966	316.57
364.348	324.48
364.729	331.49
365.111	315.67
365.493	314.54
365.874	314.54
366.256	310.7
366.637	317.93
367.019	315.44
367.4	314.54
367.781	309.79
368.163	331.94
368.544	306.63
368.925	304.6
369.306	300.08
369.688	311.83
370.069	293.75
370.45	316.8
370.831	310.47
371.212	289.68
371.593	307.53
371.974	328.55
372.355	298.72
372.736	316.35
373.117	318.16
373.498	302.34
373.879	322.68
374.26	297.59
374.641	314.54
375.021	317.03
375.402	311.83
375.783	307.99
376.163	341.66
376.544	311.6
376.925	334.2
377.305	314.77
377.686	312.05
378.066	318.83
378.447	329
378.827	313.18
379.208	329.45
379.588	310.02
379.968	331.94
380.349	320.42
380.729	336.69
381.109	316.57
381.489	329
381.87	324.93
382.25	329.91
382.63	333.3
383.01	334.43
383.39	356.8
383.77	340.08
384.15	314.31
384.53	338.27
384.91	317.93
385.29	330.81
385.67	351.37
386.049	348.44
386.429	347.08
386.809	344.6
387.189	336.46
387.568	329.68
387.948	381.43
388.328	346.86
388.707	366.97
389.087	356.57
389.466	377.81
389.846	350.7
390.225	366.52
390.605	373.97
390.984	358.15
391.363	365.16
391.743	340.53
392.122	369.23
392.501	352.28
392.881	364.26
393.26	351.6
393.639	360.87
394.018	369.23
394.397	364.48
394.776	361.54
395.155	362
395.534	357.7
395.913	345.95
396.292	370.81
396.671	352.5
397.05	369.45
397.429	363.35
397.808	350.47
398.186	372.39
398.565	377.36
398.944	373.52
399.323	374.43
399.701	392.28
400.08	377.81
400.458	389.79
400.837	391.15
401.215	405.16
401.594	393.63
401.972	378.27
402.351	388.21
402.729	387.98
403.107	389.79
403.486	389.11
403.864	404.48
404.242	390.7
404.62	385.27
404.999	401.54
405.377	394.09
405.755	406.51
406.133	406.06
406.511	394.31
406.889	393.63
407.267	411.26
407.645	420.53
408.023	428.89
408.401	422.33
408.779	387.76
409.156	437.25
409.534	412.39
409.912	416.91
410.29	429.11
410.667	421.43
411.045	446.29
411.422	433.18
411.8	420.3
412.178	423.69
412.555	449.68
412.933	460.3
413.31	454.88
413.687	447.19
414.065	431.15
414.442	446.06
414.819	455.33
415.197	455.33
415.574	445.84
415.951	464.14
416.328	472.73
416.705	448.1
417.082	471.15
417.46	441.32
417.837	471.82
418.214	464.37
418.591	475.44
418.967	471.37
419.344	483.12
419.721	484.48
420.098	463.01
420.475	488.09
420.852	502.78
421.228	477.02
421.605	479.51
421.982	503.69
422.358	488.32
422.735	501.43
423.111	475.44
423.488	484.25
423.864	511.37
424.241	494.65
424.617	511.37
424.994	505.27
425.37	507.76
425.746	502.78
426.123	505.95
426.499	522.44
426.875	515.44
427.251	504.37
427.627	531.71
428.003	526.51
428.379	533.52
428.756	540.97
429.132	559.28
429.507	565.38
429.883	569.45
430.259	564.02
430.635	564.93
431.011	571.48
431.387	583.23
431.763	565.83
432.138	581.65
432.514	561.09
432.89	591.14
433.265	584.59
433.641	585.72
434.016	595.66
434.392	610.35
434.767	621.2
435.143	630.01
435.518	600.86
435.894	614.42
436.269	618.03
436.644	623.91
437.02	630.24
437.395	646.51
437.77	613.97
438.145	626.4
438.52	651.93
438.895	632.72
439.271	651.48
439.646	668.2
440.021	658.49
440.395	660.07
440.77	652.16
441.145	653.97
441.52	674.53
441.895	683.57
442.27	710.91
442.645	676.56
443.019	695.32
443.394	686.96
443.769	703.23
444.143	699.61
444.518	704.36
444.892	695.09
445.267	700.97
445.641	710.01
446.016	718.14
446.39	715.21
446.764	698.26
447.139	711.59
447.513	716.56
447.887	717.69
448.262	723.57
448.636	733.51
449.01	733.74
449.384	738.94
449.758	752.04
450.132	759.5
450.506	783.68
450.88	755.88
451.254	770.57
451.628	749.33
452.002	745.71
452.376	731.93
452.75	768.99
453.123	796.33
453.497	797.69
453.871	820.97
454.244	807.63
454.618	791.59
454.992	825.71
455.365	828.2
455.739	849.67
456.112	847.41
456.486	834.98
456.859	843.57
457.232	852.15
457.606	865.03
457.979	860.97
458.352	875.43
458.725	896.22
459.099	894.64
459.472	928.99
459.845	897.58
460.218	923.56
460.591	926.73
460.964	939.83
461.337	955.43
461.71	977.8
462.083	948.2
462.456	968.53
462.829	959.72
463.201	1013.96
463.574	1003.56
463.947	1017.12
464.32	1019.61
464.692	1053.05
465.065	1021.64
465.438	1027.06
465.81	1050.57
466.183	1072.71
466.555	1102.99
466.928	1087.85
467.3	1090.79
467.672	1101.19
468.045	1112.26
468.417	1137.12
468.789	1158.36
469.161	1179.83
469.534	1196.55
469.906	1215.31
470.278	1227.28
470.65	1213.95
471.022	1268.64
471.394	1290.11
471.766	1276.55
472.138	1291.24
472.51	1306.38
472.882	1331.24
473.253	1358.13
473.625	1383.21
473.997	1417.11
474.369	1396.55
474.74	1424.57
475.112	1442.87
475.484	1478.8
475.855	1481.97
476.227	1514.06
476.598	1553.6
476.97	1572.59
477.341	1567.61
477.713	1640.83
478.084	1646.93
478.455	1661.4
478.827	1720.38
479.198	1745.46
479.569	1778.91
479.94	1832.01
480.311	1841.28
480.682	1856.65
481.053	1877.89
481.424	1941.16
481.795	1945.23
482.166	1982.74
482.537	2037.88
482.908	2071.56
483.279	2092.12
483.65	2104.32
484.021	2149.52
484.391	2189.52
484.762	2199.01
485.133	2250.99
485.503	2287.6
485.874	2332.57
486.244	2372.11
486.615	2447.14
486.985	2430.19
487.356	2508.38
487.726	2502.96
488.097	2555.84
488.467	2587.02
488.837	2621.82
489.207	2663.18
489.578	2713.12
489.948	2709.96
490.318	2784.98
490.688	2794.47
491.058	2853.91
491.428	2892.55
491.798	2938.65
492.168	3022.04
492.538	2988.14
492.908	3030.17
493.278	3073.56
493.648	3099.1
494.017	3142.71
494.387	3163.28
494.757	3176.84
495.126	3210.28
495.496	3252.09
495.866	3254.8
496.235	3301.13
496.605	3336.83
496.974	3335.93
497.344	3375.48
497.713	3424.06
498.082	3457.51
498.452	3479.43
498.821	3540.22
499.19	3555.36
499.559	3541.57
499.928	3573.21
500.298	3611.18
500.667	3629.03
501.036	3606.88
501.405	3711.96
501.774	3692.76
502.143	3729.59
502.512	3704.96
502.88	3790.15
503.249	3765.07
503.618	3795.35
503.987	3789.48
504.356	3827.67
504.724	3848.23
505.093	3834.67
505.462	3898.85
505.83	3902.69
506.199	3947.44
506.567	3991.28
506.936	4026.53
507.304	4015.91
507.672	4063.82
508.041	4079.86
508.409	4052.07
508.777	4117.15
509.145	4102.24
509.514	4127.32
509.882	4168.9
510.25	4151.05
510.618	4213.42
510.986	4193.99
511.354	4201.67
511.722	4279.63
512.09	4280.31
512.458	4250.03
512.826	4338.84
513.193	4311.72
513.561	4360.31
513.929	4374.32
514.297	4353.53
514.664	4396.92
515.032	4370.93
515.4	4418.16
515.767	4400.53
516.135	4477.14
516.502	4475.79
516.869	4480.31
517.237	4471.49
517.604	4493.64
517.972	4579.06
518.339	4558.04
518.706	4596.69
519.073	4579.06
519.44	4591.04
519.808	4630.13
520.175	4634.43
520.542	4671.49
520.909	4685.05
521.276	4696.12
521.643	4737.93
522.009	4753.52
522.376	4749.45
522.743	4764.59
523.11	4823.12
523.477	4878.94
523.843	4798.94
524.21	4869
524.577	4924.36
524.943	4894.08
525.31	4975.89
525.676	5036
526.043	4977.24
526.409	5071.7
526.776	5146.96
527.142	5148.76
527.508	5131.14
527.874	5180.85
528.241	5161.64
528.607	5245.94
528.973	5239.38
529.339	5248.87
529.705	5239.16
530.071	5348.76
530.437	5320.51
530.803	5368.87
531.169	5419.94
531.535	5385.82
531.901	5395.99
532.267	5422.88
532.632	5524.12
532.998	5489.32
533.364	5535.42
533.73	5495.87
534.095	5561.86
534.461	5576.32
534.826	5640.28
535.192	5577.9
535.557	5666.04
535.923	5646.38
536.288	5684.12
536.653	5738.58
537.019	5700.39
537.384	5783.32
537.749	5761.18
538.114	5792.81
538.479	5817.45
538.845	5860.16
539.21	5821.97
539.575	5840.5
539.94	5894.96
540.305	5969.76
540.67	5941.96
541.034	5959.82
541.399	5993.49
541.764	6053.82
542.129	6060.6
542.494	6040.72
542.858	6094.05
543.223	6147.83
543.587	6116.65
543.952	6104.9
544.316	6181.5
544.681	6183.54
545.045	6182.18
545.41	6282.52
545.774	6283.2
546.138	6306.02
546.503	6306.02
546.867	6327.04
547.231	6387.83
547.595	6437.32
547.959	6419.24
548.324	6463.53
548.688	6430.76
549.052	6480.93
549.416	6519.8
549.779	6506.69
550.143	6537.2
550.507	6597.99
550.871	6584.21
551.235	6556.18
551.599	6652
551.962	6674.6
552.326	6710.53
552.689	6695.84
553.053	6636.18
553.417	6729.06
553.78	6802.28
554.143	6721.15
554.507	6802.5
554.87	6779.45
555.234	6929.51
555.597	6846.57
555.96	6844.54
556.323	6886.34
556.686	6879.56
557.05	6951.43
557.413	6936.96
557.776	7000.92
558.139	7001.6
558.502	7025.32
558.865	7082.05
559.228	7128.37
559.59	7148.94
559.953	7136.51
560.316	7200.46
560.679	7200.69
561.041	7243.17
561.404	7307.35
561.767	7287.69
562.129	7281.14
562.492	7323.85
562.854	7354.13
563.217	7393.22
563.579	7349.16
563.941	7403.17
564.304	7428.25
564.666	7490.4
565.028	7435.48
565.39	7499.89
565.753	7594.12
566.115	7548.7
566.477	7596.38
566.839	7628.02
567.201	7658.3
567.563	7626.66
567.925	7748.69
568.287	7746.89
568.648	7775.81
569.01	7806.77
569.372	7850.39
569.734	7771.29
570.095	7902.14
570.457	7959.31
570.819	7997.05
571.18	7991.63
571.542	8048.57
571.903	8102.58
572.265	8105.75
572.626	8135.13
572.987	8223.26
573.349	8252.18
573.71	8226.42
574.071	8306.87
574.432	8325.4
574.794	8442.24
575.155	8447.89
575.516	8439.07
575.877	8522.69
576.238	8627.54
576.599	8669.12
576.96	8700.08
577.32	8786.63
577.681	8808.33
578.042	8913.64
578.403	8977.81
578.763	9034.54
579.124	9083.57
579.485	9249.22
579.845	9303.46
580.206	9391.59
580.566	9450.34
580.927	9594.75
581.287	9742.54
581.648	9787.29
582.008	9931.91
582.368	10034.96
582.728	10108.86
583.089	10227.05
583.449	10428.4
583.809	10492.35
584.169	10694.15
584.529	10853.47
584.889	11082.39
585.249	11146.35
585.609	11246.23
585.969	11522.61
586.329	11651.19
586.688	11908.13
587.048	12130.73
587.408	12266.54
587.768	12526.2
588.127	12642.13
588.487	12836.7
588.846	13095.9
589.206	13234.2
589.565	13490.46
589.925	13777.24
590.284	13928.65
590.643	14246.15
591.003	14528.86
591.362	14831.45
591.721	15050.65
592.08	15273.92
592.44	15573.12
592.799	15862.38
593.158	16079.32
593.517	16337.62
593.876	16674.34
594.235	16866.87
594.593	17117.04
594.952	17462.79
595.311	17677.47
595.67	18011.93
596.029	18401.52
596.387	18691.68
596.746	19035.63
597.104	19081.05
597.463	19515.62
597.822	19838.77
598.18	20038.99
598.538	20333
598.897	20715.36
599.255	20743.16
599.613	21484.15
599.972	21517.37
600.33	21885.5
600.688	22036.45
601.046	22429.66
601.404	22690.67
601.762	23014.73
602.12	23382.63
602.478	23558.45
602.836	23858.55
603.194	23894.26
603.552	24309.39
603.91	24556.61
604.268	24840
604.625	25056.49
604.983	25465.74
605.341	25610.6
605.698	25940.98
606.056	26260.3
606.413	26467.75
606.771	26768.31
607.128	27002.2
607.485	27088.98
607.843	27368.97
608.2	27816.87
608.557	28059.35
608.914	28150.87
609.272	28503.4
609.629	28673.34
609.986	29022.26
610.343	29048.25
610.7	29388.58
611.057	29563.04
611.414	29777.95
611.771	30034.21
612.127	30339.74
612.484	30341.77
612.841	30850.46
613.198	30756.23
613.554	31032.38
613.911	31393.95
614.267	31465.59
614.624	31601.63
614.98	31830.32
615.337	32055.4
615.693	32222.4
616.05	32276.86
616.406	32716.85
616.762	32559.57
617.118	32851.09
617.475	32920.91
617.831	33255.14
618.187	33424.4
618.543	33543.72
618.899	33613.33
619.255	34032.75
619.611	34024.61
619.967	34241.56
620.323	34350.03
620.678	34283.36
621.034	34385.28
621.39	34492.62
621.746	34521.78
622.101	34983.68
622.457	34888.32
622.812	35084.02
623.168	35262.32
623.523	35371.47
623.879	35375.31
624.234	35348.42
624.589	35578.25
624.945	35676.1
625.3	35803.1
625.655	35718.35
626.01	35855.07
626.365	35923.55
626.72	36094.16
627.075	36066.37
627.43	36215.97
627.785	36064.56
628.14	36369.64
628.495	36319.24
628.85	36470.43
629.205	36340.94
629.559	36672.68
629.914	36702.28
630.269	36638.33
630.623	36603.3
630.978	36722.85
631.332	36942.28
631.687	36911.77
632.041	36888.72
632.396	36895.5
632.75	36803.75
633.104	36918.32
633.459	36674.71
633.813	36818.44
634.167	36919
634.521	36936.18
634.875	36917.65
635.229	36926.91
635.583	36824.54
635.937	36949.06
636.291	36747.71
636.645	36858.66
636.999	36787.48
637.352	37025.44
637.706	36813.92
638.06	36976.63
638.413	36928.94
638.767	36930.3
639.121	37010.3
639.474	36787.03
639.828	36867.7
640.181	36940.24
640.534	36887.59
640.888	36837.2
641.241	36835.84
641.594	36773.02
641.947	36991.77
642.301	36766.69
642.654	36822.28
643.007	36793.35
643.36	36840.58
643.713	36836.29
644.066	36957.42
644.419	36721.04
644.771	36519.46
645.124	36219.36
645.477	36222.3
645.83	35971.23
646.182	35859.59
646.535	35783.21
646.888	35814.85
647.24	35674.06
647.593	35774.17
647.945	35878.35
648.298	35756.55
648.65	35664.34
649.002	35572.82
649.355	35690.11
649.707	35684.91
650.059	35789.31
650.411	36118.8
650.763	36363.31
651.115	36576.41
651.467	36527.37
651.819	36484.89
652.171	36538.9
652.523	36392.69
652.875	36553.13
653.227	36204.9
653.578	36591.55
653.93	36465.45
654.282	36335.06
654.633	36254.84
654.985	36278.11
655.337	36496.19
655.688	36319.24
656.039	36357.66
656.391	36182.52
656.742	36164.44
657.094	36206.48
657.445	36361.28
657.796	36187.04
658.147	36305.68
658.498	36163.54
658.849	36307.49
659.2	36266.14
659.551	36008.06
659.902	36277.89
660.253	36093.49
660.604	36271.56
660.955	36036.09
661.306	36232.24
661.656	36039.25
662.007	36215.06
662.358	36229.53
662.708	36086.93
663.059	36179.59
663.409	35888.07
663.76	36080.38
664.11	36123.77
664.461	36113.15
664.811	36179.13
665.161	36167.83
665.511	36014.84
665.862	36025.92
666.212	36092.36
666.562	36179.59
666.912	36022.3
667.262	35837.67
667.612	36050.32
667.962	36126.48
668.312	35983.21
668.662	36214.61
669.011	36008.97
669.361	36083.09
669.711	36093.03
670.06	35940.72
670.41	35923.32
670.76	35906.6
671.109	36094.16
671.459	35999.25
671.808	35803.55
672.157	35991.34
672.507	35799.93
672.856	35826.6
673.205	35797.22
673.554	35979.59
673.904	35737.79
674.253	35986.14
674.602	35807.39
674.951	35336.22
675.3	35231.59
675.649	35801.29
675.998	35843.1
676.346	35643.1
676.695	35771.23
677.044	35485.59
677.393	35731.91
677.741	35713.83
678.09	35466.84
678.438	35486.72
678.787	35487.63
679.135	35505.93
679.484	35310.68
679.832	35465.48
680.181	35270
680.529	35482.43
680.877	35305.03
681.225	35236.79
681.573	35509.77
681.922	35288.08
682.27	35051.71
682.618	35046.06
682.966	34908.66
683.314	35014.42
683.661	34929.9
684.009	34829.11
684.357	34805.16
684.705	34709.57
685.053	34740.53
685.4	34646.74
685.748	34486.52
686.095	34566.52
686.443	34394.32
686.79	34414.66
687.138	34463.02
687.485	34455.56
687.832	34330.37
688.18	34353.87
688.527	34160.88
688.874	34225.29
689.221	34038.62
689.568	34058.51
689.915	33944.62
690.262	33981.45
690.609	33976.71
690.956	33690.16
691.303	33736.49
691.65	33625.75
691.997	33511.86
692.344	33252.2
692.69	33306.21
693.037	33360.22
693.383	33055.15
693.73	33273.22
694.077	33050.18
694.423	33079.78
694.769	32860.58
695.116	32794.82
695.462	32789.84
695.808	32702.16
696.155	32795.04
696.501	32503.3
696.847	32507.82
697.193	32271.44
697.539	32380.14
697.885	32158
698.231	32083.65
698.577	32088.17
698.923	31961.62
699.269	31923.43
699.614	31717.33
699.96	31580.84
700.306	31673.72
700.651	31573.6
700.997	31407.96
701.342	31231.24
701.688	31298.58
702.033	31160.96
702.379	31310.33
702.724	31011.13
703.069	31116.67
703.415	30854.98
703.76	30791.7
704.105	30928.88
704.45	30820.86
704.795	30585.16
705.14	30530.02
705.485	30395.56
705.83	30381.77
706.175	30438.49
706.52	30331.15
706.865	30138.61
707.209	30121.89
707.554	30116.47
707.899	30147.65
708.243	29956.25
708.588	29846.19
708.932	29638.06
709.277	29802.8
709.621	29806.87
709.966	29582.92
710.31	29616.37
710.654	29373.21
710.998	29512.19
711.342	29350.84
711.687	29276.26
712.031	29372.53
712.375	29038.76
712.719	29217.06
713.063	29164.4
713.407	29063.16
713.75	28932.77
714.094	28991.07
714.438	28804.64
714.782	29057.06
715.125	28755.37
715.469	28765.77
715.812	28582.05
716.156	28499.56
716.499	28496.62
716.843	28648.48
717.186	28311.54
717.53	28448.94
717.873	28487.58
718.216	28424.76
718.559	28214.15
718.902	28032.46
719.246	28137.76
719.589	28040.36
719.932	27966.02
720.275	27858.22
720.617	27868.39
720.96	27835.62
721.303	27879.46
721.646	27766.25
721.989	27713.14
722.331	27758.79
722.674	27703.88
723.016	27604.67
723.359	27608.29
723.701	27623.2
724.044	27371.23
724.386	27314.51
724.729	27439.7
725.071	27321.51
725.413	27347.5
725.755	27340.5
726.097	27280.38
726.439	27068.19
726.782	27115.19
727.124	27208.97
727.465	26975.53
727.807	26999.26
728.149	27031.8
728.491	26939.15
728.833	26976.44
729.175	26802.43
729.516	26693.96
729.858	26675.43
730.199	26735.99
730.541	26764.92
730.882	26609.44
731.224	26760.17
731.565	26520.63
731.906	26505.49
732.248	26538.48
732.589	26370.35
732.93	26352.73
733.271	26371.48
733.612	26368.09
733.953	26404.25
734.294	26286.06
734.635	26150.24
734.976	26295.33
735.317	26021.66
735.658	26256
735.999	26086.29
736.339	26038.38
736.68	26165.39
737.021	26052.85
737.361	25955
737.702	26017.37
738.042	26025.95
738.383	25799.97
738.723	25919.06
739.063	25844.94
739.404	25829.35
739.744	25731.95
740.084	25689.92
740.424	25646.3
740.764	25625.74
741.104	25809.46
741.444	25569.47
741.784	25395.91
742.124	25515.23
742.464	25504.84
742.804	25351.62
743.143	25227.33
743.483	25356.82
743.823	25238.18
744.162	25285.86
744.502	25241.34
744.841	25074.34
745.181	25309.36
745.52	25140.33
745.86	25143.27
746.199	25016.04
746.538	25032.31
746.877	25073.66
747.216	25106.66
747.556	24842.26
747.895	24917.28
748.234	24992.31
748.573	24758.42
748.911	24807.91
749.25	24818.53
749.589	24610.85
749.928	24665.09
750.267	24694.01
750.605	24609.04
750.944	24619.66
751.283	24520
751.621	24574.92
751.96	24390.06
752.298	24404.08
752.636	24322.04
752.975	24291.99
753.313	24255.83
753.651	24334.25
753.989	24253.35
754.327	24238.43
754.666	24002.28
755.004	24150.52
755.342	24075.72
755.679	24045.89
756.017	23935.84
756.355	23978.1
756.693	23776.75
757.031	23835.05
757.368	23754.83
757.706	23693.59
758.044	23578.56
758.381	23662.4
758.719	23524.32
759.056	23598.22
759.394	23503.08
759.731	23366.36
760.068	23314.39
760.405	23268.96
760.743	23150.1
761.08	23202.98
