Data from hue_190_FLMS001491_00051.txt Node
Date: Tue Feb 07 16:45:28 GMT 2017
User: dcchb
Spectrometer: FLMS00149
Trigger mode: 0
Integration Time (sec): 2.000000E-2
Scans to average: 10
Electric dark correction enabled: true
Nonlinearity correction enabled: false
Boxcar width: 0
XAxis mode: Wavelengths
Number of Pixels in Spectrum: 2048
>>>>>Begin Spectral Data<<<<<
341.393	-13.28
341.776	-13.28
342.16	-13.28
342.543	-59.15
342.927	-78.13
343.31	-67.96
343.693	-57.8
344.077	-75.87
344.46	-60.51
344.843	-48.53
345.226	-30
345.61	-39.72
345.993	-27.29
346.376	-6.05
346.759	0.28
347.142	22.43
347.525	32.82
347.908	67.63
348.291	70.79
348.674	112.6
349.057	107.17
349.44	129.77
349.823	137.68
350.206	160.05
350.588	182.88
350.971	218.81
351.354	220.84
351.737	255.42
352.119	246.6
352.502	252.03
352.884	250.45
353.267	272.14
353.65	307.85
354.032	294.96
354.414	305.81
354.797	301.74
355.179	336.32
355.562	320.73
355.944	322.99
356.326	346.94
356.709	343.32
357.091	347.62
357.473	334.06
357.855	355.3
358.238	320.5
358.62	346.04
359.002	336.32
359.384	347.62
359.766	326.83
360.148	361.18
360.53	333.16
360.912	343.78
361.294	328.41
361.676	332.25
362.057	347.62
362.439	326.38
362.821	339.48
363.203	323.21
363.584	337.67
363.966	321.63
364.348	342.87
364.729	323.21
365.111	308.52
365.493	316.43
365.874	325.92
366.256	307.85
366.637	316.66
367.019	301.97
367.4	293.16
367.781	303.55
368.163	314.62
368.544	306.26
368.925	308.07
369.306	316.88
369.688	320.05
370.069	298.13
370.45	311.46
370.831	319.14
371.212	330.67
371.593	325.25
371.974	309.43
372.355	322.76
372.736	307.39
373.117	304.46
373.498	300.39
373.879	309.65
374.26	319.37
374.641	315.98
375.021	295.19
375.402	315.75
375.783	320.05
376.163	311.23
376.544	306.72
376.925	327.51
377.305	326.6
377.686	336.09
378.066	327.73
378.447	337.9
378.827	329.77
379.208	332.93
379.588	321.63
379.968	337.67
380.349	320.95
380.729	315.98
381.109	334.06
381.489	333.83
381.87	340.39
382.25	340.61
382.63	345.13
383.01	351.23
383.39	347.84
383.77	349.2
384.15	336.09
384.53	327.73
384.91	347.84
385.29	359.37
385.67	360.95
386.049	367.73
386.429	353.95
386.809	358.69
387.189	352.82
387.568	349.43
387.948	332.48
388.328	338.58
388.707	371.12
389.087	349.43
389.466	377.22
389.846	372.02
390.225	379.03
390.605	360.27
390.984	374.51
391.363	351.91
391.743	367.28
392.122	366.37
392.501	372.02
392.881	374.28
393.26	369.09
393.639	378.35
394.018	382.87
394.397	380.39
394.776	380.84
395.155	396.2
395.534	383.55
395.913	402.53
396.292	376.77
396.671	396.88
397.05	403.44
397.429	407.73
397.808	395.07
398.186	388.07
398.565	407.28
398.944	380.61
399.323	402.31
399.701	390.33
400.08	411.8
400.458	402.98
400.837	407.28
401.215	450.21
401.594	397.56
401.972	410.22
402.351	410.22
402.729	423.77
403.107	426.26
403.486	414.96
403.864	436.88
404.242	442.3
404.62	425.13
404.999	442.08
405.377	467.61
405.755	443.89
406.133	467.16
406.511	458.58
406.889	451.34
407.267	489.31
407.645	475.52
408.023	480.04
408.401	482.08
408.779	489.08
409.156	510.78
409.534	497.44
409.912	491.57
410.29	516.2
410.667	514.39
411.045	521.4
411.422	537.9
411.8	530.21
412.178	556.2
412.555	557.78
412.933	578.57
413.31	586.26
413.687	582.87
414.065	600.72
414.442	611.11
414.819	605.46
415.197	618.8
415.574	617.22
415.951	634.62
416.328	655.41
416.705	637.55
417.082	636.65
417.46	671.45
417.837	662.86
418.214	692.02
418.591	707.61
418.967	704.67
419.344	680.04
419.721	718.46
420.098	700.83
420.475	730.66
420.852	702.64
421.228	761.39
421.605	767.95
421.982	795.06
422.358	778.57
422.735	793.03
423.111	823.31
423.488	828.74
423.864	849.75
424.241	852.46
424.617	868.51
424.994	887.94
425.37	899.92
425.746	897.66
426.123	922.74
426.499	942.4
426.875	952.57
427.251	950.54
427.627	948.73
428.003	948.96
428.379	994.38
428.756	983.31
429.132	1005.91
429.507	1049.29
429.883	1043.19
430.259	1055.85
430.635	1061.95
431.011	1045.45
431.387	1112.8
431.763	1138.33
432.138	1104.21
432.514	1135.39
432.89	1157.77
433.265	1166.58
433.641	1193.47
434.016	1214.49
434.392	1219.23
434.767	1247.26
435.143	1281.38
435.518	1315.73
435.894	1313.69
436.269	1326.35
436.644	1375.16
437.02	1384.43
437.395	1405.44
437.77	1432.34
438.145	1430.08
438.52	1482.96
438.895	1498.1
439.271	1503.97
439.646	1534.71
440.021	1564.08
440.395	1584.87
440.77	1563.63
441.145	1603.4
441.52	1643.18
441.895	1650.63
442.27	1671.88
442.645	1670.07
443.019	1753.46
443.394	1748.03
443.769	1746.45
444.143	1774.25
444.518	1821.93
444.892	1796.62
445.267	1785.32
445.641	1805.88
446.016	1849.5
446.39	1839.78
446.764	1862.61
447.139	1869.84
447.513	1895.6
447.887	1871.19
448.262	1958.65
448.636	1917.07
449.01	1941.02
449.384	1994.35
449.758	1979.44
450.132	2040.23
450.506	2050.17
450.88	2075.48
451.254	2084.07
451.628	2070.06
452.002	2113.22
452.376	2093.79
452.75	2158.64
453.123	2153.9
453.497	2234.57
453.871	2245.42
454.244	2262.82
454.618	2312.31
454.992	2322.71
455.365	2312.99
455.739	2352.09
456.112	2416.94
456.486	2403.16
456.859	2429.82
457.232	2512.53
457.606	2491.97
457.979	2516.37
458.352	2536.49
458.725	2612.42
459.099	2592.08
459.472	2671.4
459.845	2716.14
460.218	2689.25
460.591	2763.37
460.964	2772.64
461.337	2821.9
461.71	2832.98
462.083	2922.24
462.456	2939.87
462.829	2952.07
463.201	2986.87
463.574	2983.25
463.947	3087.21
464.32	3143.48
464.692	3195
465.065	3183.93
465.438	3220.31
465.81	3278.61
466.183	3289.91
466.555	3357.48
466.928	3406.52
467.3	3391.61
467.672	3435.9
468.045	3584.6
468.417	3553.18
468.789	3605.84
469.161	3655.78
469.534	3706.63
469.906	3780.07
470.278	3796.34
470.65	3849.22
471.022	3966.51
471.394	3975.77
471.766	4050.35
472.138	4085.15
472.51	4183.45
472.882	4236.33
473.253	4323.33
473.625	4382.54
473.997	4416.89
474.369	4487.17
474.74	4503.89
475.112	4627.96
475.484	4739.14
475.855	4783.21
476.227	4831.34
476.598	5043.99
476.97	5054.16
477.341	5147.94
477.713	5205.34
478.084	5252.35
478.455	5436.07
478.827	5516.3
479.198	5624.32
479.569	5600.59
479.94	5808.49
480.311	5812.79
480.682	5933.91
481.053	6151.76
481.424	6207.58
481.795	6314.01
482.166	6362.83
482.537	6414.8
482.908	6563.95
483.279	6626.1
483.65	6837.84
484.021	6903.6
484.391	6967.33
484.762	7058.85
485.133	7127.55
485.503	7186.31
485.874	7380.88
486.244	7435.34
486.615	7579.97
486.985	7701.32
487.356	7836.91
487.726	7850.47
488.097	8058.6
488.467	8088.21
488.837	8263.34
489.207	8310.8
489.578	8424.69
489.948	8539.72
490.318	8681.64
490.688	8710.79
491.058	8755.31
491.428	8988.29
491.798	9043.66
492.168	9203.43
492.538	9179.25
492.908	9237.1
493.278	9375.63
493.648	9397.32
494.017	9492.24
494.387	9591.44
494.757	9731.55
495.126	9832.79
495.496	9780.59
495.866	9895.39
496.235	9944.2
496.605	10076.85
496.974	10066.68
497.344	10170.86
497.713	10250.63
498.082	10288.15
498.452	10343.74
498.821	10383.29
499.19	10389.61
499.559	10485.66
499.928	10534.92
500.298	10569.27
500.667	10638.87
501.036	10683.39
501.405	10725.42
501.774	10698.08
502.143	10810.17
502.512	10789.38
502.88	10896.04
503.249	10831.41
503.618	10981.46
503.987	10958.41
504.356	11000.45
504.724	10954.8
505.093	11049.94
505.462	11070.05
505.83	11164.51
506.199	11182.36
506.567	11367.44
506.936	11247.67
507.304	11392.3
507.672	11410.6
508.041	11383.71
508.409	11479.53
508.777	11493.77
509.145	11565.4
509.514	11560.43
509.882	11549.81
510.25	11536.48
510.618	11643.59
510.986	11641.11
511.354	11659.18
511.722	11791.61
512.09	11777.15
512.458	11618.96
512.826	11825.06
513.193	11845.62
513.561	11843.59
513.929	11859.86
514.297	11921.32
514.664	11889.24
515.032	11920.87
515.4	11934.21
515.767	11998.39
516.135	11969.23
516.502	11826.41
516.869	11999.97
517.237	12120.64
517.604	11927.2
517.972	12050.14
518.339	12080.87
518.706	12027.99
519.073	12018.95
519.44	12105.95
519.808	12132.62
520.175	12104.82
520.542	12215.1
520.909	12171.71
521.276	12171.94
521.643	12135.56
522.009	12271.15
522.376	12230.7
522.743	12270.69
523.11	12253.07
523.477	12322.44
523.843	12351.82
524.21	12432.5
524.577	12338.26
524.943	12391.6
525.31	12267.98
525.676	12441.54
526.043	12325.83
526.409	12351.14
526.776	12360.18
527.142	12329
527.508	12351.37
527.874	12441.31
528.241	12448.32
528.607	12318.38
528.973	12415.1
529.339	12296.23
529.705	12347.98
530.071	12316.34
530.437	12341.65
530.803	12311.37
531.169	12287.42
531.535	12225.95
531.901	12172.84
532.267	12206.97
532.632	12228.66
532.998	12314.99
533.364	12107.99
533.73	12064.37
534.095	12125.39
534.461	12078.16
534.826	12076.35
535.192	12011.72
535.557	12070.7
535.923	11903.47
536.288	11914.55
536.653	11841.78
537.019	11816.47
537.384	11770.14
537.749	11735.34
538.114	11710.03
538.479	11656.25
538.845	11667.77
539.21	11503.71
539.575	11480.66
539.94	11496.7
540.305	11478.4
540.67	11460.32
541.034	11318.18
541.399	11329.7
541.764	11227.33
542.129	11298.74
542.494	11255.13
542.858	11196.6
543.223	11085.41
543.587	11055.13
543.952	10999.99
544.316	10947.79
544.681	10924.06
545.045	10914.57
545.41	10908.7
545.774	10788.93
546.138	10765.88
546.503	10678.42
546.867	10636.61
547.231	10657.86
547.595	10553.45
547.959	10556.16
548.324	10503.06
548.688	10419.9
549.052	10354.36
549.416	10336.28
549.779	10280.46
550.143	10245.44
550.507	10230.07
550.871	10167.25
551.235	10174.93
551.599	10053.58
551.962	9986.91
552.326	10108.72
552.689	10062.84
553.053	9816.07
553.417	9909.4
553.78	9917.31
554.143	9827.37
554.507	9835.28
554.87	9730.65
555.234	9745.56
555.597	9700.59
555.96	9604.1
556.323	9663.08
556.686	9592.57
557.05	9586.25
557.413	9468.06
557.776	9497.66
558.139	9554.38
558.502	9459.02
558.865	9444.78
559.228	9503.31
559.59	9443.42
559.953	9403.43
560.316	9421.28
560.679	9386.48
561.041	9445.01
561.404	9408.85
561.767	9423.31
562.129	9350.55
562.492	9370.88
562.854	9313.03
563.217	9275.97
563.579	9287.72
563.941	9298.12
564.304	9282.52
564.666	9328.4
565.028	9282.07
565.39	9247.27
565.753	9261.51
566.115	9346.7
566.477	9331.11
566.839	9242.98
567.201	9273.26
567.563	9253.6
567.925	9321.85
568.287	9254.95
568.648	9232.13
569.01	9258.8
569.372	9287.95
569.734	9179.48
570.095	9256.08
570.457	9225.35
570.819	9188.74
571.18	9207.72
571.542	9213.15
571.903	9264.67
572.265	9302.86
572.626	9240.27
572.987	9212.92
573.349	9177.89
573.71	9276.42
574.071	9275.52
574.432	9251.79
574.794	9322.52
575.155	9263.09
575.516	9208.4
575.877	9198.91
576.238	9249.08
576.599	9216.09
576.96	9217.44
577.32	9239.81
577.681	9223.32
578.042	9196.88
578.403	9196.2
578.763	9249.53
579.124	9267.84
579.485	9293.6
579.845	9281.39
580.206	9205.69
580.566	9211.34
580.927	9170.44
581.287	9209.76
581.648	9168.4
582.008	9232.36
582.368	9216.09
582.728	9208.63
583.089	9108.07
583.449	9119.14
583.809	9112.59
584.169	9134.96
584.529	9107.39
584.889	9157.56
585.249	9149.19
585.609	9082.53
585.969	9037.11
586.329	9083.66
586.688	9111.46
587.048	9113.72
587.408	9014.96
587.768	9069.65
588.127	9042.08
588.487	9022.87
588.846	9108.07
589.206	8974.06
589.565	8950.1
589.925	9014.73
590.284	8920.73
590.643	9000.27
591.003	8958.24
591.362	8955.75
591.721	8924.57
592.08	8992.36
592.44	8966.83
592.799	8963.44
593.158	8953.49
593.517	8904
593.876	8858.58
594.235	8916.21
594.593	8811.8
594.952	8908.3
595.311	8882.76
595.67	8853.16
596.029	8836.43
596.387	8865.36
596.746	8898.58
597.104	8760.05
597.463	8833.95
597.822	8813.84
598.18	8844.34
598.538	8802.76
598.897	8850.67
599.255	8709.43
599.613	8882.99
599.972	8750.56
600.33	8812.93
600.688	8810.45
601.046	8860.61
601.404	8801.86
601.762	8781.97
602.12	8855.87
602.478	8823.1
602.836	8810.45
603.194	8685.25
603.552	8812.48
603.91	8798.24
604.268	8835.53
604.625	8692.26
604.983	8789.2
605.341	8760.5
605.698	8809.32
606.056	8791.24
606.413	8790.11
606.771	8787.17
607.128	8785.81
607.485	8734.74
607.843	8817.9
608.2	8758.92
608.557	8779.94
608.914	8785.81
609.272	8905.59
609.629	8746.72
609.986	8924.57
610.343	8838.47
610.7	8872.82
611.057	8868.07
611.414	8846.83
611.771	8826.27
612.127	8880.73
612.484	8859.71
612.841	8789.66
613.198	8840.28
613.554	8903.55
613.911	8885.25
614.267	8846.38
614.624	8946.94
614.98	8911.69
615.337	8950.33
615.693	8922.53
616.05	8871.24
616.406	8927.05
616.762	8849.32
617.118	8878.02
617.475	8897.9
617.831	8924.34
618.187	8943.1
618.543	8905.81
618.899	9012.02
619.255	8871.69
619.611	8870.56
619.967	8930.67
620.323	8920.05
620.678	8956.88
621.034	8919.6
621.39	8951.01
621.746	8907.84
622.101	9002.76
622.457	8930.22
622.812	8904.23
623.168	8947.39
623.523	8965.92
623.879	8973.83
624.234	8900.16
624.589	8906.26
624.945	8945.58
625.3	8935.41
625.655	8950.56
626.01	8900.84
626.365	8909.2
626.72	8913.49
627.075	8918.92
627.43	8933.38
627.785	8851.58
628.14	8887.28
628.495	8892.25
628.85	8909.65
629.205	8899.26
629.559	8870.33
629.914	8864.68
630.269	8904.46
630.623	8828.52
630.978	8865.36
631.332	8888.64
631.687	8804.12
632.041	8854.96
632.396	8852.93
632.75	8771.35
633.104	8861.52
633.459	8754.4
633.813	8744.91
634.167	8752.14
634.521	8722.76
634.875	8778.36
635.229	8730.22
635.583	8704.69
635.937	8701.52
636.291	8650
636.645	8663.78
636.999	8719.38
637.352	8633.95
637.706	8614.52
638.06	8681.41
638.413	8611.81
638.767	8651.13
639.121	8636.89
639.474	8550.57
639.828	8605.71
640.181	8652.71
640.534	8628.08
640.888	8583.79
641.241	8489.55
641.594	8545.82
641.947	8552.37
642.301	8537.91
642.654	8534.3
643.007	8579.27
643.36	8499.04
643.713	8518.93
644.066	8592.82
644.419	8471.25
644.771	8448.2
645.124	8387.63
645.477	8420.85
645.83	8306.96
646.182	8294.75
646.535	8287.52
646.888	8262.89
647.24	8298.14
647.593	8253.85
647.945	8272.61
648.298	8190.58
648.65	8173.85
649.002	8178.15
649.355	8213.85
649.707	8254.3
650.059	8287.52
650.411	8402.55
650.763	8414.75
651.115	8467.86
651.467	8425.82
651.819	8415.88
652.171	8421.08
652.523	8380.85
652.875	8401.87
653.227	8310.8
653.578	8415.2
653.93	8396.67
654.282	8372.49
654.633	8398.93
654.985	8379.5
655.337	8396.22
655.688	8383.56
656.039	8458.82
656.391	8386.5
656.742	8368.42
657.094	8454.52
657.445	8426.28
657.796	8426.28
658.147	8405.26
658.498	8394.19
658.849	8399.61
659.2	8378.14
659.551	8397.12
659.902	8386.28
660.253	8398.48
660.604	8419.95
660.955	8465.14
661.306	8425.82
661.656	8432.83
662.007	8427.41
662.358	8392.38
662.708	8492.26
663.059	8439.61
663.409	8395.99
663.76	8511.47
664.11	8492.04
664.461	8419.27
664.811	8491.58
665.161	8445.26
665.511	8459.27
665.862	8440.74
666.212	8534.75
666.562	8457.01
666.912	8488.65
667.262	8466.27
667.612	8461.3
667.962	8535.65
668.312	8489.78
668.662	8485.71
669.011	8453.62
669.361	8519.61
669.711	8517.8
670.06	8425.37
670.41	8479.38
670.76	8494.97
671.109	8486.84
671.459	8492.94
671.808	8442.55
672.157	8443.22
672.507	8388.31
672.856	8403.9
673.205	8382.66
673.554	8420.63
673.904	8391.93
674.253	8428.08
674.602	8393.28
674.951	8269.22
675.3	8188.77
675.649	8363.45
675.998	8357.12
676.346	8343.11
676.695	8385.37
677.044	8268.54
677.393	8355.32
677.741	8308.09
678.09	8332.72
678.438	8278.26
678.787	8309.22
679.135	8276.22
679.484	8216.56
679.832	8247.52
680.181	8207.3
680.529	8202.33
680.877	8196.68
681.225	8173.85
681.573	8226.73
681.922	8083.01
682.27	8118.71
682.618	8098.37
682.966	8040.07
683.314	8106.74
683.661	8066.74
684.009	7989.9
684.357	8040.07
684.705	8022.67
685.053	7965.27
685.4	8037.13
685.748	7938.15
686.095	7956.01
686.443	7959.17
686.79	7878.04
687.138	7959.62
687.485	7881.43
687.832	7843.92
688.18	7941.09
688.527	7821.77
688.874	7822.45
689.221	7775.45
689.568	7749.91
689.915	7753.75
690.262	7763.69
690.609	7676.46
690.956	7664.94
691.303	7658.84
691.65	7635.79
691.997	7579.97
692.344	7541.55
692.69	7574.09
693.037	7642.34
693.383	7489.35
693.73	7542.91
694.077	7451.61
694.423	7370.03
694.769	7354.21
695.116	7403.03
695.462	7363.48
695.808	7290.03
696.155	7287.77
696.501	7301.56
696.847	7233.31
697.193	7165.29
697.539	7197.38
697.885	7125.52
698.231	7100.89
698.577	7137.04
698.923	7130.94
699.269	7065.86
699.614	6997.61
699.96	7006.43
700.306	7012.3
700.651	6955.13
700.997	6958.97
701.342	6907.67
701.688	6823.61
702.033	6899.54
702.379	6838.29
702.724	6892.53
703.069	6859.54
703.415	6719.2
703.76	6770.27
704.105	6767.56
704.45	6779.09
704.795	6679.88
705.14	6634.01
705.485	6631.29
705.83	6598.75
706.175	6591.07
706.52	6545.2
706.865	6569.83
707.209	6546.33
707.554	6512.88
707.899	6508.81
708.243	6498.64
708.588	6489.15
708.932	6376.84
709.277	6414.13
709.621	6429.27
709.966	6345.65
710.31	6325.77
710.654	6341.13
710.998	6303.62
711.342	6358.31
711.687	6332.09
712.031	6296.84
712.375	6279.89
712.719	6277.86
713.063	6281.7
713.407	6291.42
713.75	6145.21
714.094	6210.97
714.438	6173.68
714.782	6206.67
715.125	6177.07
715.469	6144.3
715.812	6135.94
716.156	6140.91
716.499	6078.77
716.843	6177.75
717.186	6060.46
717.53	6169.61
717.873	6153.57
718.216	6134.81
718.559	6109.05
718.902	6047.58
719.246	6068.37
719.589	6064.3
719.932	6027.92
720.275	6022.27
720.617	6049.61
720.96	5986.34
721.303	6024.3
721.646	5994.93
721.989	5937.53
722.331	6000.58
722.674	5971.2
723.016	6028.15
723.359	5982.72
723.701	6057.98
724.044	5976.17
724.386	5934.82
724.729	5984.31
725.071	5975.27
725.413	5949.73
725.755	5950.63
726.097	5909.73
726.439	5908.15
726.782	5900.24
727.124	5910.18
727.465	5899.11
727.807	5872.22
728.149	5939.79
728.491	5903.4
728.833	5948.37
729.175	5879.9
729.516	5904.31
729.858	5905.44
730.199	5928.04
730.541	5863.86
730.882	5900.92
731.224	5899.79
731.565	5844.65
731.906	5925.55
732.248	5967.58
732.589	5874.48
732.93	5897.98
733.271	5951.99
733.612	5888.94
733.953	5948.6
734.294	5914.48
734.635	5907.47
734.976	5946.79
735.317	5892.56
735.658	5920.35
735.999	5896.85
736.339	5945.21
736.68	5944.31
737.021	5983.85
737.361	5922.84
737.702	5914.03
738.042	5924.42
738.383	5945.89
738.723	5967.81
739.063	5970.52
739.404	5999.45
739.744	5990.63
740.084	5959.45
740.424	6001.93
740.764	6057.3
741.104	6063.85
741.444	6050.74
741.784	6067.92
742.124	6021.82
742.464	6100.01
742.804	6076.73
743.143	6118.31
743.483	6191.98
743.823	6098.88
744.162	6161.93
744.502	6149.05
744.841	6200.57
745.181	6275.82
745.52	6275.6
745.86	6300.23
746.199	6365.31
746.538	6394.24
746.877	6465.42
747.216	6458.64
747.556	6496.16
747.895	6539.55
748.234	6608.24
748.573	6672.65
748.911	6711.52
749.25	6775.92
749.589	6815.02
749.928	6925.3
750.267	6963.94
750.605	6996.03
750.944	7094.11
751.283	7140.89
751.621	7311.05
751.96	7265.18
752.298	7425.62
752.636	7496.58
752.975	7597.37
753.313	7645.51
753.651	7803.02
753.989	7974.54
754.327	8060.86
754.666	8108.77
755.004	8225.38
755.342	8379.27
755.679	8489.1
756.017	8600.96
756.355	8779.49
756.693	8861.07
757.031	9022.42
757.368	9210.89
757.706	9347.83
758.044	9504.89
758.381	9654.04
758.719	9825.33
759.056	9963.41
759.394	10074.37
759.731	10239.56
760.068	10359.56
760.405	10594.81
760.743	10739.66
761.08	10924.29
761.417	11110.27
761.754	11237.5
762.091	11426.65
762.428	11624.84
762.765	11725.85
763.102	12025.95
763.438	12104.37
763.775	12338.26
764.112	12527.86
764.449	12723.34
764.785	12794.3
765.122	13001.97
765.458	13154.96
