Data from hue_90_FLMS001491_68.txt Node
Date: Mon Feb 06 15:25:29 GMT 2017
User: dcchb
Spectrometer: FLMS00149
Trigger mode: 0
Integration Time (sec): 2.000000E-2
Scans to average: 10
Electric dark correction enabled: true
Nonlinearity correction enabled: false
Boxcar width: 0
XAxis mode: Wavelengths
Number of Pixels in Spectrum: 2048
>>>>>Begin Spectral Data<<<<<
341.393	-15.3
341.776	-15.3
342.16	-15.3
342.543	-55.07
342.927	-74.28
343.31	-62.07
343.693	-69.76
344.077	-62.3
344.46	-56.65
344.843	-51.45
345.226	-51.68
345.61	-3.77
345.993	-33.37
346.376	14.99
346.759	1.88
347.142	19.28
347.525	23.35
347.908	67.19
348.291	59.73
348.674	89.11
349.057	115.55
349.44	132.95
349.823	154.19
350.206	170.46
350.588	184.92
350.971	221.08
351.354	221.53
351.737	244.81
352.119	242.55
352.502	271.93
352.884	268.09
353.267	294.53
353.65	286.84
354.032	301.53
354.414	306.5
354.797	313.06
355.179	323.9
355.562	327.07
355.944	326.62
356.326	340.63
356.709	316.22
357.091	331.59
357.473	351.7
357.855	335.43
358.238	343.56
358.62	329.33
359.002	335.88
359.384	330.46
359.766	328.65
360.148	347.41
360.53	334.75
360.912	327.97
361.294	340.63
361.676	328.2
362.057	338.59
362.439	329.1
362.821	322.55
363.203	317.35
363.584	341.98
363.966	317.58
364.348	314.19
364.729	311.47
365.111	329.1
365.493	313.73
365.874	314.41
366.256	324.81
366.637	311.25
367.019	328.42
367.4	315.54
367.781	294.3
368.163	336.11
368.544	304.92
368.925	291.36
369.306	327.07
369.688	323.23
370.069	307.63
370.45	312.6
370.831	301.76
371.212	313.96
371.593	307.41
371.974	326.16
372.355	318.71
372.736	320.06
373.117	311.7
373.498	314.41
373.879	295.2
374.26	313.96
374.641	336.11
375.021	318.03
375.402	340.85
375.783	324.81
376.163	327.97
376.544	342.21
376.925	320.74
377.305	324.81
377.686	319.61
378.066	340.63
378.447	343.56
378.827	333.17
379.208	342.89
379.588	335.43
379.968	334.75
380.349	333.17
380.729	332.94
381.109	335.43
381.489	338.14
381.87	334.3
382.25	344.47
382.63	331.81
383.01	337.24
383.39	360.51
383.77	355.09
384.15	348.54
384.53	361.19
384.91	351.7
385.29	354.41
385.67	334.98
386.049	343.11
386.429	355.77
386.809	350.57
387.189	351.7
387.568	362.55
387.948	347.18
388.328	361.42
388.707	374.52
389.087	360.51
389.466	358.71
389.846	357.58
390.225	394.18
390.605	379.27
390.984	399.61
391.363	370.46
391.743	374.98
392.122	384.47
392.501	385.6
392.881	390.34
393.26	353.73
393.639	369.33
394.018	379.27
394.397	391.02
394.776	360.74
395.155	406.16
395.534	381.98
395.913	384.69
396.292	397.12
396.671	400.74
397.05	405.71
397.429	397.12
397.808	405.48
398.186	390.79
398.565	411.59
398.944	403.45
399.323	402.32
399.701	409.78
400.08	390.79
400.458	405.71
400.837	398.93
401.215	396.44
401.594	402.77
401.972	418.14
402.351	420.62
402.729	409.33
403.107	428.99
403.486	426.95
403.864	425.37
404.242	416.33
404.62	422.66
404.999	439.16
405.377	446.39
405.755	419.95
406.133	418.82
406.511	425.37
406.889	446.16
407.267	430.57
407.645	446.84
408.023	434.41
408.401	466.95
408.779	457.69
409.156	471.47
409.534	456.78
409.912	454.97
410.29	456.33
410.667	481.19
411.045	468.98
411.422	479.61
411.8	480.96
412.178	496.55
412.555	471.92
412.933	467.63
413.31	506.95
413.687	504.69
414.065	495.42
414.442	487.74
414.819	510.11
415.197	508.53
415.574	502.2
415.951	504.69
416.328	513.96
416.705	530
417.082	519.38
417.46	520.73
417.837	525.93
418.214	515.76
418.591	554.86
418.967	537.46
419.344	523.9
419.721	561.19
420.098	547.63
420.475	546.04
420.852	559.6
421.228	558.02
421.605	553.28
421.982	560.28
422.358	556.21
422.735	588.76
423.111	579.04
423.488	586.72
423.864	593.5
424.241	599.83
424.617	590.34
424.994	601.86
425.37	579.26
425.746	614.29
426.123	599.38
426.499	590.79
426.875	605.48
427.251	627.17
427.627	622.43
428.003	642.31
428.379	617.68
428.756	636.44
429.132	629.88
429.507	661.3
429.883	678.02
430.259	650.67
430.635	670.34
431.011	672.82
431.387	674.63
431.763	686.38
432.138	681.41
432.514	673.05
432.89	687.96
433.265	697.23
433.641	713.5
434.016	720.05
434.392	749.66
434.767	728.87
435.143	725.7
435.518	742.42
435.894	753.05
436.269	733.38
436.644	752.14
437.02	748.07
437.395	767.28
437.77	786.72
438.145	767.96
438.52	780.62
438.895	790.56
439.271	794.4
439.646	839.37
440.021	816.55
440.395	816.77
440.77	814.74
441.145	845.92
441.52	833.04
441.895	821.52
442.27	820.84
442.645	852.48
443.019	837.56
443.394	863.1
443.769	857.45
444.143	842.76
444.518	876.88
444.892	874.85
445.267	879.14
445.641	890.44
446.016	895.64
446.39	904.91
446.764	896.54
447.139	892.93
447.513	915.53
447.887	897.67
448.262	920.95
448.636	932.7
449.01	930.44
449.384	936.09
449.758	963.21
450.132	968.18
450.506	943.1
450.88	966.82
451.254	967.05
451.628	1002.3
452.002	998.46
452.376	1014.96
452.75	999.59
453.123	1030.78
453.497	1038.01
453.871	1047.27
454.244	1062.64
454.618	1069.87
454.992	1083.66
455.365	1067.61
455.739	1076.43
456.112	1094.96
456.486	1091.57
456.859	1148.51
457.232	1158.23
457.606	1153.71
457.979	1160.49
458.352	1180.83
458.725	1197.55
459.099	1214.5
459.472	1230.55
459.845	1222.64
460.218	1243.88
460.591	1276.87
460.964	1271
461.337	1314.61
461.71	1318.45
462.083	1322.3
462.456	1377.44
462.829	1350.77
463.201	1374.27
463.574	1360.03
463.947	1411.78
464.32	1460.37
464.692	1447.26
465.065	1499.01
465.438	1473.03
465.81	1489.97
466.183	1540.6
466.555	1582.85
466.928	1572.46
467.3	1555.06
467.672	1616.75
468.045	1654.49
468.417	1690.42
468.789	1683.87
469.161	1657.43
469.534	1751.66
469.906	1776.3
470.278	1808.16
470.65	1799.8
471.022	1866.46
471.394	1903.3
471.766	1912.11
472.138	2005.89
472.51	2016.51
472.882	2065.1
473.253	2105.78
473.625	2128.38
473.997	2223.06
474.369	2228.26
474.74	2261.71
475.112	2334.7
475.484	2386.45
475.855	2410.85
476.227	2466.22
476.598	2548.48
476.97	2625.31
477.341	2661.02
477.713	2754.57
478.084	2792.09
478.455	2900.11
478.827	2950.73
479.198	3084.06
479.569	3089.93
479.94	3216.03
480.311	3300.55
480.682	3395.91
481.053	3476.82
481.424	3566.98
481.795	3628.68
482.166	3759.29
482.537	3843.59
482.908	3978.27
483.279	4050.59
483.65	4156.8
484.021	4309.11
484.391	4418.03
484.762	4483.34
485.133	4629.78
485.503	4682.89
485.874	4869.55
486.244	4948.64
486.615	5075.19
486.985	5255.98
487.356	5385.69
487.726	5467.5
488.097	5698.45
488.467	5711.11
488.837	5909.52
489.207	6082.62
489.578	6180.47
489.948	6298.21
490.318	6470.41
490.688	6569.84
491.058	6755.37
491.428	6944.75
491.798	7016.38
492.168	7279.43
492.538	7415.47
492.908	7485.75
493.278	7681
493.648	7744.5
494.017	7947.66
494.387	8033.98
494.757	8169.8
495.126	8360.98
495.496	8433.75
495.866	8586.51
496.235	8738.82
496.605	8905.15
496.974	8959.84
497.344	9100.4
497.713	9253.84
498.082	9359.82
498.452	9547.39
498.821	9654.73
499.19	9672.36
499.559	9878.91
499.928	9986.25
500.298	10134.27
500.667	10277.09
501.036	10276.18
501.405	10455.61
501.774	10529.06
502.143	10694.03
502.512	10741.48
502.88	10880.69
503.249	10921.14
503.618	10998.43
503.987	11106.22
504.356	11225.54
504.724	11379.21
505.093	11409.94
505.462	11464.63
505.83	11665.07
506.199	11700.55
506.567	11853.77
506.936	11958.17
507.304	12016.25
507.672	12094.89
508.041	12094.44
508.409	12239.3
508.777	12288.11
509.145	12461.44
509.514	12398.39
509.882	12484.49
510.25	12567.2
510.618	12661.21
510.986	12712.96
511.354	12862.78
511.722	12984.36
512.09	13049.22
512.458	12992.5
512.826	13102.32
513.193	13161.31
513.561	13209.21
513.929	13336.44
514.297	13383.22
514.664	13413.05
515.032	13438.14
515.4	13484.24
515.767	13572.82
516.135	13607.17
516.502	13564.69
516.869	13764.91
517.237	13782.76
517.604	13683.78
517.972	13876.99
518.339	13967.16
518.706	13952.47
519.073	13882.87
519.44	14017.78
519.808	14121.28
520.175	14010.1
520.542	14200.38
520.909	14221.17
521.276	14194.05
521.643	14333.48
522.009	14326.47
522.376	14358.56
522.743	14458.9
523.11	14505
523.477	14489.41
523.843	14577.99
524.21	14754.48
524.577	14755.84
524.943	14776.63
525.31	14799
525.676	14886.23
526.043	14889.62
526.409	14928.49
526.776	14977.08
527.142	14967.36
527.508	15013.46
527.874	15116.74
528.241	15029.96
528.607	15093.46
528.973	15020.24
529.339	15046
529.705	15094.14
530.071	15126.9
530.437	15175.72
530.803	15235.15
531.169	15244.87
531.535	15149.73
531.901	15159.22
532.267	15140.92
532.632	15162.84
532.998	15100.46
533.364	15198.99
533.73	15133.91
534.095	15157.64
534.461	15185.89
534.826	15219.11
535.192	15094.81
535.557	15221.37
535.923	15107.92
536.288	15128.94
536.653	15155.83
537.019	15020.92
537.384	15097.75
537.749	15104.53
538.114	15125.55
538.479	15015.27
538.845	14956.51
539.21	14895.5
539.575	14890.75
539.94	14919
540.305	14997.19
540.67	14844.43
541.034	14822.28
541.399	14900.24
541.764	14844.88
542.129	14796.74
542.494	14815.95
542.858	14654.83
543.223	14645.56
543.587	14696.41
543.952	14551.1
544.316	14617.31
544.681	14472.01
545.045	14566.69
545.41	14599.01
545.774	14526.02
546.138	14539.12
546.503	14423.87
546.867	14369.18
547.231	14403.76
547.595	14291.45
547.959	14288.96
548.324	14228.85
548.688	14183.88
549.052	14201.28
549.416	14164.9
549.779	14113.15
550.143	14045.58
550.507	14190.66
550.871	14097.1
551.235	14042.41
551.599	14127.83
551.962	14051.45
552.326	14014.84
552.689	14026.59
553.053	13916.31
553.417	13868.86
553.78	14068.18
554.143	13813.94
554.507	13893.72
554.87	13920.61
555.234	13907.28
555.597	13827.96
555.96	13824.57
556.323	13844.23
556.686	13672.93
557.05	13777.79
557.413	13824.11
557.776	13718.81
558.139	13837.22
558.502	13727.17
558.865	13666.83
559.228	13824.34
559.59	13699.6
559.953	13658.47
560.316	13872.25
560.679	13716.77
561.041	13689.2
561.404	13841.51
561.767	13817.11
562.129	13713.38
562.492	13780.05
562.854	13750.9
563.217	13636.55
563.579	13732.82
563.941	13770.78
564.304	13857.11
564.666	13822.53
565.028	13824.11
565.39	13834.96
565.753	13795.64
566.115	13810.1
566.477	13792.02
566.839	13923.32
567.201	13898.69
567.563	13841.51
567.925	13989.08
568.287	13887.16
568.648	13959.93
569.01	13989.31
569.372	14006.03
569.734	14000.15
570.095	14016.65
570.457	14027.72
570.819	14038.8
571.18	14011
571.542	14066.82
571.903	14095.07
572.265	14087.38
572.626	14127.38
572.987	14005.13
573.349	14086.03
573.71	14162.18
574.071	14150.21
574.432	14107.27
574.794	14215.06
575.155	14146.14
575.516	14096.2
575.877	14221.39
576.238	14214.16
576.599	14161.96
576.96	14235.85
577.32	14100.04
577.681	14242.41
578.042	14230.88
578.403	14237.89
578.763	14216.42
579.124	14231.33
579.485	14260.71
579.845	14260.26
580.206	14239.24
580.566	14249.19
580.927	14255.06
581.287	14240.6
581.648	14191.34
582.008	14224.78
582.368	14232.46
582.728	14262.75
583.089	14246.93
583.449	14165.8
583.809	14133.03
584.169	14148.17
584.529	14134.16
584.889	14207.61
585.249	14164.9
585.609	14072.02
585.969	14218.45
586.329	14157.89
586.688	14056.42
587.048	14085.12
587.408	14097.1
587.768	14109.53
588.127	14049.64
588.487	14041.51
588.846	14076.76
589.206	14043.09
589.565	13972.58
589.925	14077.89
590.284	14009.19
590.643	13948.63
591.003	14092.81
591.362	14075.41
591.721	13996.09
592.08	14074.95
592.44	13991.57
592.799	13994.73
593.158	13985.24
593.517	14012.58
593.876	14020.94
594.235	13937.11
594.593	13912.25
594.952	13940.04
595.311	13875.19
595.67	13929.42
596.029	14013.04
596.387	14045.8
596.746	13980.04
597.104	13895.98
597.463	13917.22
597.822	14008.97
598.18	13888.52
598.538	13807.17
598.897	13938.24
599.255	13777.56
599.613	13966.26
599.972	13908.18
600.33	13891.91
600.688	13836.54
601.046	13850.78
601.404	13955.18
601.762	13863.21
602.12	14006.26
602.478	13969.42
602.836	14005.58
603.194	13827.96
603.552	13866.82
603.91	13768.97
604.268	13787.96
604.625	13808.97
604.983	13827.05
605.341	13807.39
605.698	13914.28
606.056	13870.21
606.413	13820.05
606.771	13990.89
607.128	13945.69
607.485	13826.15
607.843	13779.82
608.2	13866.82
608.557	13915.64
608.914	13897.11
609.272	13932.81
609.629	13907.95
609.986	14051.68
610.343	13937.11
610.7	13978.91
611.057	13979.14
611.414	14004.22
611.771	14061.4
612.127	14008.06
612.484	14056.2
612.841	14035.18
613.198	14032.24
613.554	14105.01
613.911	14106.14
614.267	14074.28
614.624	14147.72
614.98	14044.45
615.337	14186.59
615.693	14148.85
616.05	14097.1
616.406	14215.29
616.762	14119.7
617.118	14119.93
617.475	14185.91
617.831	14119.47
618.187	14138.68
618.543	14238.34
618.899	14309.52
619.255	14256.64
619.611	14169.87
619.967	14359.47
620.323	14313.37
620.678	14210.32
621.034	14176.2
621.39	14175.07
621.746	14297.55
622.101	14303.88
622.457	14239.47
622.812	14281.05
623.168	14188.4
623.523	14325.34
623.879	14292.35
624.234	14188.85
624.589	14283.31
624.945	14311.33
625.3	14286.25
625.655	14234.5
626.01	14269.3
626.365	14264.1
626.72	14310.43
627.075	14270.43
627.43	14181.17
627.785	14161.28
628.14	14246.7
628.495	14233.59
628.85	14227.27
629.205	14132.13
629.559	14277.21
629.914	14157.21
630.269	14101.62
630.623	14083.09
630.978	14057.78
631.332	14088.74
631.687	14164.67
632.041	14111.79
632.396	14072.02
632.75	14130.77
633.104	14099.81
633.459	14058.91
633.813	13959.03
634.167	13990.21
634.521	13943.66
634.875	14021.62
635.229	14003.09
635.583	13959.93
635.937	13891.91
636.291	13904.34
636.645	13942.3
636.999	13923.09
637.352	13895.07
637.706	13799.93
638.06	13906.82
638.413	13822.31
638.767	13853.27
639.121	13778.92
639.474	13732.36
639.828	13753.16
640.181	13759.26
640.534	13752.03
640.888	13688.07
641.241	13669.77
641.594	13698.69
641.947	13704.8
642.301	13686.94
642.654	13682.65
643.007	13706.15
643.36	13723.55
643.713	13649.43
644.066	13714.29
644.419	13593.84
644.771	13415.31
645.124	13421.86
645.477	13360.17
645.83	13347.52
646.182	13217.35
646.535	13152.72
646.888	13201.98
647.24	13168.54
647.593	13200.85
647.945	13153.85
648.298	13115.88
648.65	13016.68
649.002	13125.6
649.355	13208.31
649.707	13137.35
650.059	13213.28
650.411	13283.11
650.763	13394.07
651.115	13488.53
651.467	13412.37
651.819	13482.2
652.171	13473.16
652.523	13427.97
652.875	13360.17
653.227	13390.45
653.578	13484.46
653.93	13472.03
654.282	13481.3
654.633	13404.92
654.985	13437.01
655.337	13411.92
655.688	13384.8
656.039	13491.92
656.391	13399.72
656.742	13430
657.094	13390.68
657.445	13456.44
657.796	13419.83
658.147	13411.47
658.498	13461.41
658.849	13435.65
659.2	13510.22
659.551	13482.2
659.902	13470
660.253	13451.69
660.604	13458.7
660.955	13399.94
661.306	13515.65
661.656	13481.98
662.007	13414.41
662.358	13466.84
662.708	13496.44
663.059	13486.5
663.409	13438.14
663.76	13487.4
664.11	13498.92
664.461	13538.25
664.811	13606.94
665.161	13511.81
665.511	13539.83
665.862	13457.34
666.212	13509.32
666.562	13567.17
666.912	13494.63
667.262	13554.52
667.612	13519.72
667.962	13569.21
668.312	13602.88
668.662	13646.27
669.011	13486.95
669.361	13511.81
669.711	13491.69
670.06	13443.33
670.41	13472.71
670.76	13434.97
671.109	13524.46
671.459	13488.53
671.808	13391.13
672.157	13486.04
672.507	13423.22
672.856	13467.51
673.205	13421.41
673.554	13426.16
673.904	13397.46
674.253	13434.52
674.602	13446.72
674.951	13273.39
675.3	13147.75
675.649	13309.55
675.998	13327.63
676.346	13295.99
676.695	13376.44
677.044	13269.1
677.393	13324.92
677.741	13363.56
678.09	13251.93
678.438	13251.93
678.787	13315.65
679.135	13145.49
679.484	13187.52
679.832	13208.31
680.181	13095.09
680.529	13254.41
680.877	13122.44
681.225	13126.28
681.573	13092.61
681.922	13101.2
682.27	13028.65
682.618	13002.44
682.966	12934.19
683.314	13002.89
683.661	12995.44
684.009	12873.86
684.357	12881.99
684.705	12804.93
685.053	12906.85
685.4	12751.6
685.748	12727.87
686.095	12766.06
686.443	12670.47
686.79	12652.62
687.138	12738.94
687.485	12631.83
687.832	12674.77
688.18	12615.78
688.527	12597.71
688.874	12515.9
689.221	12517.26
689.568	12466.64
689.915	12455.79
690.262	12366.07
690.609	12318.16
690.956	12256.92
691.303	12254.89
691.65	12295.57
691.997	12145.97
692.344	12185.74
692.69	12150.26
693.037	12107.1
693.383	11982.81
693.73	12050.15
694.077	11975.12
694.423	11950.72
694.769	11929.7
695.116	11756.82
695.462	11817.61
695.808	11741.91
696.155	11745.52
696.501	11641.57
696.847	11681.57
697.193	11573.1
697.539	11591.63
697.885	11534
698.231	11425.98
698.577	11450.17
698.923	11382.37
699.269	11389.6
699.614	11360.45
699.96	11269.38
700.306	11290.85
700.651	11197.06
700.997	11189.83
701.342	11129.95
701.688	11109.83
702.033	11073.68
702.379	10972.21
702.724	10962.95
703.069	11020.57
703.415	10763.4
703.76	10849.5
704.105	10819.9
704.45	10773.35
704.795	10721.37
705.14	10666.23
705.485	10635.5
705.83	10559.57
706.175	10595.95
706.52	10588.49
706.865	10596.63
707.209	10496.29
707.554	10549.4
707.899	10558.21
708.243	10404.54
708.588	10398.89
708.932	10338.78
709.277	10339.23
709.621	10284.55
709.966	10288.61
710.31	10297.65
710.654	10212.46
710.998	10223.53
711.342	10195.51
711.687	10291.33
712.031	10167.03
712.375	10123.87
712.719	10144.44
713.063	10039.13
713.407	10129.52
713.75	10047.04
714.094	10073.48
714.438	9982.18
714.782	10007.27
715.125	9957.1
715.469	9955.52
715.812	9817.67
716.156	9795.52
716.499	9867.61
716.843	9912.35
717.186	9829.87
717.53	9843.88
717.873	9859.25
718.216	9821.06
718.559	9713.71
718.902	9745.35
719.246	9737.44
719.589	9696.09
719.932	9707.61
720.275	9626.94
720.617	9660.83
720.96	9657.9
721.303	9635.3
721.646	9627.84
721.989	9564.56
722.331	9616.99
722.674	9591.46
723.016	9556.88
723.359	9559.37
723.701	9610.89
724.044	9492.93
724.386	9488.86
724.729	9551.01
725.071	9463.55
725.413	9533.61
725.755	9466.71
726.097	9422.2
726.439	9444.79
726.782	9479.14
727.124	9431.24
727.465	9441.4
727.807	9523.66
728.149	9476.88
728.491	9425.36
728.833	9404.8
729.175	9403.21
729.516	9407.96
729.858	9387.62
730.199	9430.11
730.541	9403.67
730.882	9414.29
731.224	9459.71
731.565	9312.14
731.906	9346.72
732.248	9451.35
732.589	9372.03
732.93	9369.32
733.271	9267.4
733.612	9276.89
733.953	9401.18
734.294	9343.33
734.635	9325.02
734.976	9285.93
735.317	9310.33
735.658	9363.44
735.999	9313.5
736.339	9385.13
736.68	9418.58
737.021	9363.21
737.361	9358.92
737.702	9477.56
738.042	9445.47
738.383	9420.39
738.723	9432.82
739.063	9390.78
739.404	9452.25
739.744	9456.77
740.084	9421.97
740.424	9461.52
740.764	9495.87
741.104	9507.39
741.444	9415.19
741.784	9490.44
742.124	9545.81
742.464	9556.43
742.804	9553.27
743.143	9524.34
743.483	9638.24
743.823	9580.61
744.162	9643.21
744.502	9679.36
744.841	9627.84
745.181	9758.23
745.52	9799.13
745.86	9862.41
746.199	9876.87
746.538	9864.22
746.877	9984.21
747.216	9957.77
747.556	10012.91
747.895	10062.86
748.234	10133.82
748.573	10076.19
748.911	10215.62
749.25	10293.59
749.589	10299.91
749.928	10371.55
750.267	10499.23
750.605	10529.74
750.944	10525.9
751.283	10687.47
751.621	10769.05
751.96	10889.28
752.298	10971.76
752.636	11005.66
752.975	11164.07
753.313	11184.86
753.651	11364.07
753.989	11555.02
754.327	11661.91
754.666	11649.93
755.004	11884.05
755.342	12084.27
755.679	12125.63
756.017	12263.25
756.355	12437.71
756.693	12488.1
757.031	12741.43
757.368	12854.87
757.706	12912.27
758.044	13133.51
758.381	13213.96
