Data from hue_230_FLMS001491_00082.txt Node
Date: Tue Feb 07 16:37:51 GMT 2017
User: dcchb
Spectrometer: FLMS00149
Trigger mode: 0
Integration Time (sec): 2.000000E-2
Scans to average: 10
Electric dark correction enabled: true
Nonlinearity correction enabled: false
Boxcar width: 0
XAxis mode: Wavelengths
Number of Pixels in Spectrum: 2048
>>>>>Begin Spectral Data<<<<<
341.393	-12.16
341.776	-12.16
342.16	-12.16
342.543	-63.46
342.927	-94.19
343.31	-66.4
343.693	-68.88
344.077	-71.37
344.46	-56.68
344.843	-65.27
345.226	-45.15
345.61	-23.46
345.993	-16
346.376	-7.64
346.759	17.22
347.142	29.87
347.525	53.6
347.908	51.79
348.291	72.13
348.674	87.72
349.057	108.51
349.44	130.21
349.823	157.78
350.206	159.81
350.588	188.96
350.971	220.6
351.354	200.04
351.737	221.96
352.119	246.59
352.502	261.73
352.884	292.46
353.267	295.85
353.65	275.06
354.032	280.71
354.414	299.47
354.797	305.8
355.179	312.12
355.562	303.76
355.944	317.77
356.326	327.27
356.709	339.92
357.091	301.05
357.473	338.56
357.855	329.07
358.238	337.43
358.62	347.15
359.002	330.2
359.384	336.53
359.766	334.27
360.148	329.75
360.53	329.53
360.912	336.76
361.294	322.52
361.676	322.52
362.057	344.89
362.439	327.49
362.821	319.36
363.203	325.68
363.584	312.35
363.966	309.64
364.348	322.75
364.729	348.51
365.111	331.11
365.493	322.97
365.874	293.14
366.256	319.36
366.637	326.36
367.019	317.55
367.4	317.77
367.781	302.63
368.163	305.12
368.544	328.4
368.925	319.58
369.306	307.83
369.688	285.01
370.069	331.33
370.45	300.37
370.831	306.25
371.212	293.59
371.593	299.24
371.974	313.25
372.355	330.88
372.736	298.34
373.117	296.31
373.498	316.87
373.879	290.66
374.26	291.11
374.641	285.46
375.021	300.6
375.402	314.84
375.783	332.24
376.163	306.02
376.544	315.51
376.925	319.58
377.305	314.16
377.686	336.53
378.066	313.48
378.447	316.19
378.827	312.8
379.208	305.8
379.588	340.82
379.968	330.43
380.349	320.03
380.729	325.91
381.109	319.81
381.489	322.29
381.87	324.33
382.25	318
382.63	335.4
383.01	323.2
383.39	318
383.77	336.3
384.15	356.19
384.53	348.28
384.91	348.06
385.29	343.31
385.67	343.76
386.049	350.32
386.429	337.21
386.809	343.08
387.189	330.43
387.568	347.83
387.948	339.02
388.328	349.64
388.707	343.08
389.087	354.16
389.466	336.3
389.846	346.93
390.225	359.81
390.605	360.94
390.984	341.05
391.363	342.63
391.743	381.73
392.122	361.84
392.501	378.11
392.881	373.14
393.26	360.94
393.639	362.97
394.018	352.35
394.397	383.99
394.776	384.67
395.155	378.79
395.534	375.4
395.913	364.33
396.292	384.89
396.671	372.01
397.05	376.08
397.429	380.15
397.808	384.21
398.186	400.94
398.565	394.61
398.944	394.61
399.323	389.41
399.701	396.19
400.08	384.44
400.458	402.07
400.837	410.43
401.215	409.3
401.594	418.34
401.972	391.44
402.351	398.9
402.729	415.17
403.107	435.06
403.486	405.46
403.864	416.53
404.242	417.43
404.62	419.92
404.999	444.78
405.377	426.02
405.755	446.13
406.133	433.7
406.511	429.18
406.889	452.69
407.267	449.97
407.645	452.91
408.023	481.39
408.401	464.66
408.779	490.2
409.156	479.13
409.534	464.44
409.912	479.8
410.29	486.58
410.667	479.8
411.045	496.07
411.422	466.92
411.8	496.75
412.178	520.48
412.555	504.21
412.933	529.97
413.31	527.03
413.687	518.67
414.065	540.82
414.442	556.86
414.819	550.76
415.197	577.65
415.574	588.73
415.951	574.94
416.328	599.35
416.705	592.12
417.082	597.54
417.46	597.77
417.837	600.25
418.214	611.33
418.591	594.38
418.967	598.67
419.344	636.18
419.721	659.46
420.098	645
420.475	657.88
420.852	662.17
421.228	667.14
421.605	668.95
421.982	709.85
422.358	689.97
422.735	689.52
423.111	696.3
423.488	707.82
423.864	738.1
424.241	728.61
424.617	744.2
424.994	775.16
425.37	770.42
425.746	789.17
426.123	804.77
426.499	799.57
426.875	800.93
427.251	826.69
427.627	826.01
428.003	848.61
428.379	848.83
428.756	853.58
429.132	892
429.507	869.85
429.883	870.08
430.259	883.18
430.635	881.38
431.011	904.43
431.387	922.73
431.763	942.84
432.138	964.08
432.514	965.89
432.89	988.04
433.265	990.07
433.641	1043.18
434.016	1033.69
434.392	1032.78
434.767	1037.76
435.143	1079.11
435.518	1093.8
435.894	1094.25
436.269	1115.95
436.644	1150.52
437.02	1125.21
437.395	1160.92
437.77	1170.63
438.145	1201.82
438.52	1221.25
438.895	1239.33
439.271	1216.51
439.646	1255.15
440.021	1270.29
440.395	1283.4
440.77	1293.12
441.145	1313.68
441.52	1308.03
441.895	1348.48
442.27	1365.2
442.645	1324.75
443.019	1360.23
443.394	1384.86
443.769	1407.24
444.143	1387.35
444.518	1442.72
444.892	1437.29
445.267	1459.89
445.641	1458.54
446.016	1444.52
446.39	1507.8
446.764	1496.95
447.139	1481.81
447.513	1508.7
447.887	1505.77
448.262	1538.53
448.636	1510.74
449.01	1547.35
449.384	1573.11
449.758	1545.31
450.132	1586.44
450.506	1609.72
450.88	1606.1
451.254	1577.18
451.628	1612.66
452.002	1635.71
452.376	1648.13
452.75	1649.04
453.123	1692.65
453.497	1697.62
453.871	1719.09
454.244	1767.91
454.618	1741.24
454.992	1765.19
455.365	1790.28
455.739	1825.31
456.112	1861.24
456.486	1835.02
456.859	1839.99
457.232	1910.27
457.606	1860.78
457.979	1896.94
458.352	1931.29
458.725	1955.92
459.099	1976.94
459.472	2004.51
459.845	2028.92
460.218	2065.07
460.591	2069.37
460.964	2065.52
461.337	2085.64
461.71	2118.4
462.083	2158.4
462.456	2141.91
462.829	2181.68
463.201	2210.38
463.574	2197.95
463.947	2200.89
464.32	2299.19
464.692	2288.12
465.065	2297.38
465.438	2314.11
465.81	2402.47
466.183	2401.11
466.555	2428.91
466.928	2427.55
467.3	2450.83
467.672	2486.53
468.045	2544.61
468.417	2550.71
468.789	2545.51
469.161	2592.29
469.534	2617.37
469.906	2645.85
470.278	2691.05
470.65	2710.03
471.022	2755.45
471.394	2826.41
471.766	2841.32
472.138	2846.07
472.51	2879.06
472.882	2895.79
473.253	2975.78
473.625	3006.29
473.997	3053.75
474.369	3036.35
474.74	3117.47
475.112	3150.24
475.484	3230.92
475.855	3213.52
476.227	3279.73
476.598	3363.34
476.97	3369.9
477.341	3416.9
477.713	3500.52
478.084	3499.84
478.455	3554.3
478.827	3575.77
479.198	3732.83
479.569	3687.63
479.94	3758.14
480.311	3824.57
480.682	3886.49
481.053	3936.21
481.424	3980.73
481.795	4032.03
482.166	4048.75
482.537	4138.46
482.908	4211.68
483.279	4227.73
483.65	4280.61
484.021	4324.9
484.391	4409.87
484.762	4445.35
485.133	4472.92
485.503	4507.04
485.874	4586.59
486.244	4617.32
486.615	4679.92
486.985	4736.64
487.356	4840.59
487.726	4823.64
488.097	4938.22
488.467	4941.61
488.837	4988.16
489.207	5096.18
489.578	5138.89
489.948	5153.13
490.318	5222.28
490.688	5240.36
491.058	5301.6
491.428	5372.78
491.798	5430.41
492.168	5497.3
492.538	5544.98
492.908	5580.01
493.278	5629.27
493.648	5551.76
494.017	5655.03
494.387	5778.87
494.757	5765.31
495.126	5851.87
495.496	5833.34
495.866	5862.26
496.235	5910.17
496.605	5942.03
496.974	5977.51
497.344	6008.92
497.713	6030.17
498.082	6072.43
498.452	6085.53
498.821	6142.71
499.19	6129.6
499.559	6210.27
499.928	6242.59
500.298	6274.45
500.667	6264.96
501.036	6260.44
501.405	6355.81
501.774	6329.59
502.143	6391.06
502.512	6372.53
502.88	6414.34
503.249	6373.21
503.618	6434.22
503.987	6496.59
504.356	6466.09
504.724	6533.2
505.093	6558.74
505.462	6491.17
505.83	6613.88
506.199	6608.91
506.567	6695.46
506.936	6669.92
507.304	6676.93
507.672	6678.06
508.041	6739.98
508.409	6768.23
508.777	6775.23
509.145	6831.5
509.514	6786.08
509.882	6818.62
510.25	6843.03
510.618	6831.28
510.986	6821.56
511.354	6892.97
511.722	6947.66
512.09	7005.73
512.458	6968.9
512.826	6989.46
513.193	7022.23
513.561	6943.59
513.929	6975.68
514.297	7020.65
514.664	7094.77
515.032	7092.51
515.4	7083.25
515.767	7101.32
516.135	7133.64
516.502	7041.89
516.869	7177.48
517.237	7177.25
517.604	7162.79
517.972	7110.14
518.339	7182.23
518.706	7205.5
519.073	7205.28
519.44	7181.32
519.808	7294.31
520.175	7206.18
520.542	7290.47
520.909	7316.46
521.276	7245.05
521.643	7319.4
522.009	7317.82
522.376	7282.56
522.743	7316.46
523.11	7344.48
523.477	7424.48
523.843	7452.05
524.21	7393.52
524.577	7447.08
524.943	7501.77
525.31	7497.25
525.676	7551.03
526.043	7483.91
526.409	7529.11
526.776	7593.06
527.142	7517.58
527.508	7571.59
527.874	7585.38
528.241	7605.49
528.607	7639.16
528.973	7673.74
529.339	7521.88
529.705	7564.82
530.071	7622.67
530.437	7628.09
530.803	7627.41
531.169	7681.87
531.535	7658.82
531.901	7624.93
532.267	7591.26
532.632	7569.33
532.998	7633.51
533.364	7673.06
533.73	7597.81
534.095	7585.38
534.461	7575.44
534.826	7620.41
535.192	7589.45
535.557	7586.51
535.923	7613.18
536.288	7584.48
536.653	7675.32
537.019	7490.47
537.384	7562.1
537.749	7546.51
538.114	7572.5
538.479	7517.36
538.845	7474.65
539.21	7527.75
539.575	7496.57
539.94	7470.58
540.305	7421.32
540.67	7442.78
541.034	7458.15
541.399	7468.55
541.764	7460.41
542.129	7425.84
542.494	7425.16
542.858	7436.01
543.223	7404.37
543.587	7349
543.952	7365.95
544.316	7353.75
544.681	7373.41
545.045	7349
545.41	7311.04
545.774	7332.96
546.138	7290.25
546.503	7277.37
546.867	7309.91
547.231	7285.5
547.595	7269.68
547.959	7276.01
548.324	7193.53
548.688	7232.62
549.052	7216.58
549.416	7198.5
549.779	7225.84
550.143	7195.79
550.507	7190.14
550.871	7205.95
551.235	7157.82
551.599	7170.02
551.962	7161.21
552.326	7167.99
552.689	7156.24
553.053	7095.45
553.417	7090.03
553.78	7077.82
554.143	7079.86
554.507	7118.5
554.87	7142.68
555.234	7176.35
555.597	7065.39
555.96	7133.64
556.323	7094.09
556.686	7145.84
557.05	7125.73
557.413	7109.23
557.776	7104.26
558.139	7113.75
558.502	7093.64
558.865	7062.68
559.228	7121.89
559.59	7118.05
559.953	7101.55
560.316	7164.6
560.679	7127.09
561.041	7165.96
561.404	7151.04
561.767	7221.55
562.129	7095
562.492	7159.85
562.854	7164.6
563.217	7131.61
563.579	7166.86
563.941	7121.89
564.304	7199.63
564.666	7210.02
565.028	7263.13
565.39	7206.63
565.753	7302.68
566.115	7261.77
566.477	7323.24
566.839	7294.99
567.201	7358.72
567.563	7261.09
567.925	7402.11
568.287	7346.29
568.648	7337.93
569.01	7374.31
569.372	7425.16
569.734	7365.5
570.095	7418.38
570.457	7454.76
570.819	7451.37
571.18	7405.27
571.542	7392.39
571.903	7502.22
572.265	7479.62
572.626	7552.39
572.987	7528.43
573.349	7522.56
573.71	7591.03
574.071	7557.58
574.432	7631.71
574.794	7624.47
575.155	7584.93
575.516	7538.83
575.877	7648.43
576.238	7685.26
576.599	7689.56
576.96	7673.06
577.32	7662.67
577.681	7693.17
578.042	7734.98
578.403	7714.19
578.763	7781.31
579.124	7681.42
579.485	7767.75
579.845	7831.25
580.206	7856.56
580.566	7819.27
580.927	7815.66
581.287	7830.12
581.648	7849.33
582.008	7885.94
582.368	7863.79
582.728	7904.24
583.089	7888.2
583.449	7928.87
583.809	7897.91
584.169	7970.23
584.529	7914.86
584.889	8003.9
585.249	7960.29
585.609	7917.35
585.969	8043.9
586.329	7999.61
586.688	8024.92
587.048	7994.41
587.408	8024.69
587.768	8017.01
588.127	8021.07
588.487	8056.1
588.846	8088.42
589.206	8041.41
589.565	8046.38
589.925	8077.57
590.284	8116.44
590.643	8121.86
591.003	8085.48
591.362	8120.28
591.721	8084.58
592.08	8162.54
592.44	8176.78
592.799	8115.08
593.158	8153.27
593.517	8140.85
593.876	8163.9
594.235	8158.25
594.593	8091.36
594.952	8157.12
595.311	8182.43
595.67	8185.14
596.029	8267.17
596.387	8222.65
596.746	8260.84
597.104	8207.51
597.463	8151.69
597.822	8198.02
598.18	8207.06
598.538	8200.73
598.897	8305.81
599.255	8246.61
599.613	8346.04
599.972	8231.24
600.33	8256.32
600.688	8209.54
601.046	8247.96
601.404	8306.72
601.762	8260.39
602.12	8281.63
602.478	8306.72
602.836	8316.43
603.194	8313.5
603.552	8344.23
603.91	8304
604.268	8343.1
604.625	8322.99
604.983	8295.64
605.341	8299.26
605.698	8314.63
606.056	8346.72
606.413	8353.27
606.771	8365.92
607.128	8354.62
607.485	8347.85
607.843	8357.56
608.2	8373.16
608.557	8410.44
608.914	8405.02
609.272	8435.07
609.629	8450.44
609.986	8447.73
610.343	8451.12
610.7	8428.97
611.057	8450.44
611.414	8456.54
611.771	8465.81
612.127	8436.88
612.484	8470.55
612.841	8520.04
613.198	8452.02
613.554	8468.07
613.911	8522.98
614.267	8574.28
614.624	8496.09
614.98	8543.09
615.337	8558.69
615.693	8594.62
616.05	8533.83
616.406	8644.33
616.762	8588.52
617.118	8582.64
617.475	8583.32
617.831	8558.91
618.187	8591.45
618.543	8588.74
618.899	8675.75
619.255	8629.19
619.611	8626.26
619.967	8637.33
620.323	8672.58
620.678	8683.88
621.034	8595.97
621.39	8613.15
621.746	8627.61
622.101	8708.51
622.457	8628.29
622.812	8694.5
623.168	8628.97
623.523	8605.24
623.879	8718.01
624.234	8635.75
624.589	8706.71
624.945	8694.28
625.3	8654.5
625.655	8656.09
626.01	8638.46
626.365	8633.26
626.72	8677.78
627.075	8623.54
627.43	8641.4
627.785	8597.56
628.14	8627.84
628.495	8671.45
628.85	8651.11
629.205	8624.9
629.559	8605.01
629.914	8577.22
630.269	8587.39
630.623	8604.79
630.978	8535.64
631.332	8595.3
631.687	8530.67
632.041	8553.26
632.396	8562.08
632.75	8463.55
633.104	8510.55
633.459	8503.55
633.813	8542.64
634.167	8523.89
634.521	8457.45
634.875	8445.24
635.229	8450.67
635.583	8472.59
635.937	8411.57
636.291	8431.46
636.645	8384.91
636.999	8437.33
637.352	8394.17
637.706	8345.13
638.06	8442.98
638.413	8442.76
638.767	8351.24
639.121	8454.06
639.474	8330.9
639.828	8381.97
640.181	8312.14
640.534	8330.22
640.888	8346.94
641.241	8284.12
641.594	8303.33
641.947	8299.94
642.301	8327.28
642.654	8279.6
643.007	8284.34
643.36	8287.28
643.713	8286.83
644.066	8314.85
644.419	8227.85
644.771	8198.92
645.124	8182.88
645.477	8131.58
645.83	8042.77
646.182	8057.68
646.535	8012.04
646.888	8017.91
647.24	7979.04
647.593	8038.02
647.945	8001.87
648.298	8006.61
648.65	7964.13
649.002	7928.2
649.355	7946.5
649.707	7934.07
650.059	8011.13
650.411	8064.46
650.763	8058.59
651.115	8185.59
651.467	8124.35
651.819	8146.72
652.171	8180.17
652.523	8115.54
652.875	8118.47
653.227	8068.76
653.578	8142.2
653.93	8094.97
654.282	8138.13
654.633	8088.19
654.985	8121.18
655.337	8099.72
655.688	8121.86
656.039	8119.38
656.391	8089.77
656.742	8087.74
657.094	8147.4
657.445	8108.76
657.796	8132.71
658.147	8073.28
658.498	8127.29
658.849	8125.25
659.2	8092.94
659.551	8112.6
659.902	8163.67
660.253	8123.67
660.604	8184.23
660.955	8039.15
661.306	8116.67
661.656	8094.52
662.007	8139.04
662.358	8144.91
662.708	8148.3
663.059	8107.17
663.409	8005.71
663.76	8210.22
664.11	8204.8
664.461	8185.14
664.811	8160.96
665.161	8103.56
665.511	8081.19
665.862	8137.46
666.212	8127.06
666.562	8144.01
666.912	8094.74
667.262	8141.75
667.612	8106.27
667.962	8155.99
668.312	8191.47
668.662	8185.14
669.011	8188.75
669.361	8140.39
669.711	8075.08
670.06	8110.11
670.41	8090
670.76	8077.12
671.109	8139.26
671.459	8111.24
671.808	8110.34
672.157	8114.41
672.507	8083.67
672.856	8067.4
673.205	8102.2
673.554	8027.63
673.904	8054.75
674.253	8069.66
674.602	8031.47
674.951	7930.68
675.3	7923
675.649	8015.2
675.998	8065.59
676.346	8017.01
676.695	8046.84
677.044	8010.91
677.393	7978.14
677.741	8002.32
678.09	8002.09
678.438	7931.59
678.787	7999.38
679.135	7989.21
679.484	7955.09
679.832	7912.83
680.181	7831.02
680.529	7884.35
680.877	7832.83
681.225	7849.55
681.573	7869.44
681.922	7831.02
682.27	7832.6
682.618	7799.16
682.966	7824.92
683.314	7784.47
683.661	7801.87
684.009	7719.84
684.357	7710.35
684.705	7689.56
685.053	7689.11
685.4	7701.99
685.748	7621.08
686.095	7617.24
686.443	7636.45
686.79	7650.01
687.138	7627.64
687.485	7611.14
687.832	7579.73
688.18	7547.87
688.527	7480.75
688.874	7576.11
689.221	7506.51
689.568	7454.08
689.915	7477.36
690.262	7400.98
690.609	7479.17
690.956	7387.42
691.303	7379.51
691.65	7334.09
691.997	7311.26
692.344	7262.22
692.69	7243.47
693.037	7316.46
693.383	7244.15
693.73	7224.94
694.077	7258.38
694.423	7215.45
694.769	7140.87
695.116	7144.49
695.462	7135.67
695.808	7100.42
696.155	7084.15
696.501	7019.29
696.847	7110.36
697.193	7024.72
697.539	7037.6
697.885	6986.98
698.231	6967.54
698.577	6935.68
698.923	6897.94
699.269	6890.93
699.614	6861.33
699.96	6804.84
700.306	6835.57
700.651	6781.78
700.997	6765.29
701.342	6715.12
701.688	6681.45
702.033	6729.81
702.379	6647.33
702.724	6651.39
703.069	6619.53
703.415	6564.39
703.76	6592.41
704.105	6598.74
704.45	6537.95
704.795	6555.8
705.14	6494.33
705.485	6507.67
705.83	6454.11
706.175	6516.03
706.52	6414.56
706.865	6387.67
707.209	6395.81
707.554	6423.15
707.899	6388.12
708.243	6367.11
708.588	6335.69
708.932	6326.2
709.277	6234.68
709.621	6301.35
709.966	6288.01
710.31	6308.58
710.654	6242.36
710.998	6205.98
711.342	6170.28
711.687	6192.65
712.031	6171.63
712.375	6166.43
712.719	6161.01
713.063	6186.32
713.407	6162.82
713.75	6149.26
714.094	6119.43
714.438	6087.79
714.782	6088.7
715.125	6047.57
715.469	6052.99
715.812	6032.43
716.156	6050.96
716.499	6043.05
716.843	6041.24
717.186	5940.45
717.53	5998.98
717.873	5987.68
718.216	5994.91
718.559	5942.94
718.902	5890.73
719.246	5924.63
719.589	5867.68
719.932	5879.66
720.275	5905.65
720.617	5946.55
720.96	5903.39
721.303	5902.49
721.646	5895.25
721.989	5876.27
722.331	5931.41
722.674	5806.67
723.016	5897.51
723.359	5877.4
723.701	5867.91
724.044	5844.18
724.386	5819.55
724.729	5866.55
725.071	5829.04
725.413	5828.14
725.755	5858.87
726.097	5824.75
726.439	5778.42
726.782	5767.12
727.124	5802.38
727.465	5778.87
727.807	5778.65
728.149	5782.94
728.491	5762.15
728.833	5787.69
729.175	5787.91
729.516	5819.32
729.858	5756.05
730.199	5783.62
730.541	5763.28
730.882	5735.03
731.224	5764.41
731.565	5733
731.906	5760.57
732.248	5774.13
732.589	5738.65
732.93	5747.91
733.271	5703.62
733.612	5748.59
733.953	5774.13
734.294	5752.43
734.635	5719.21
734.976	5718.99
735.317	5702.94
735.658	5792.21
735.999	5718.08
736.339	5761.02
736.68	5742.94
737.021	5774.35
737.361	5751.98
737.702	5788.36
738.042	5742.94
738.383	5758.99
738.723	5744.07
739.063	5765.54
739.404	5743.62
739.744	5735.03
740.084	5751.76
740.424	5784.07
740.764	5790.85
741.104	5838.31
741.444	5811.19
741.784	5832.88
742.124	5826.56
742.464	5881.24
742.804	5887.8
743.143	5885.54
743.483	5902.49
743.823	5909.94
744.162	5932.77
744.502	5871.98
744.841	5915.59
745.181	6003.5
745.52	6017.06
745.86	6025.65
746.199	6015.93
746.538	6120.33
746.877	6113.1
747.216	6123.95
747.556	6144.97
747.895	6184.74
748.234	6209.6
748.573	6249.37
748.911	6292.98
749.25	6340.89
749.589	6255.92
749.928	6369.37
750.267	6446.88
750.605	6478.06
750.944	6508.12
751.283	6494.56
751.621	6670.15
751.96	6667.89
752.298	6755.57
752.636	6815.68
752.975	6826.3
753.313	6951.27
753.651	7021.33
753.989	7029.46
754.327	7118.05
754.666	7142.23
755.004	7271.72
755.342	7410.47
755.679	7496.34
756.017	7557.58
756.355	7689.78
756.693	7760.29
757.031	7827.63
757.368	7915.99
757.706	8050.9
758.044	8130.45
758.381	8225.14
758.719	8379.03
759.056	8457
759.394	8585.13
759.731	8596.88
760.068	8809.53
760.405	8891.56
760.743	8955.51
761.08	9110.09
761.417	9263.53
761.754	9300.36
762.091	9442.51
762.428	9596.4
762.765	9635.72
763.102	9802.72
763.438	9769.73
763.775	9990.51
764.112	10132.43
764.449	10213.56
764.785	10247.46
765.122	10389.6
765.458	10530.61
765.795	10606.54
766.131	10730.83
766.467	10899.19
766.804	10853.54
767.14	11062.12
767.476	11080.65
767.812	11209.47
768.148	11338.95
768.485	11362.68
768.821	11460.31
769.157	11516.35
