Data from hue_340_FLMS001491_52.txt Node
Date: Mon Feb 06 15:43:17 GMT 2017
User: dcchb
Spectrometer: FLMS00149
Trigger mode: 0
Integration Time (sec): 2.000000E-2
Scans to average: 10
Electric dark correction enabled: true
Nonlinearity correction enabled: false
Boxcar width: 0
XAxis mode: Wavelengths
Number of Pixels in Spectrum: 2048
>>>>>Begin Spectral Data<<<<<
341.393	-37.05
341.776	-37.05
342.16	-37.05
342.543	-52.41
342.927	-76.82
343.31	-61.23
343.693	-67.33
344.077	-51.28
344.46	-41.11
344.843	-41.57
345.226	-50.61
345.61	-28.23
345.993	-9.25
346.376	-11.29
346.759	-0.66
347.142	27.58
347.525	27.58
347.908	62.84
348.291	65.1
348.674	71.42
349.057	108.03
349.44	131.31
349.823	134.02
350.206	162.95
350.588	188.48
350.971	204.3
351.354	200.69
351.737	224.64
352.119	248.6
352.502	251.98
352.884	274.58
353.267	266.67
353.65	274.13
354.032	258.76
354.414	292.66
354.797	307.35
355.179	321.81
355.562	336.95
355.944	331.3
356.326	337.86
356.709	338.08
357.091	311.87
357.473	334.92
357.855	333.79
358.238	342.83
358.62	333.79
359.002	343.73
359.384	333.79
359.766	335.6
360.148	315.49
360.53	327.69
360.912	338.31
361.294	331.98
361.676	320.46
362.057	341.7
362.439	326.33
362.821	307.12
363.203	328.37
363.584	326.56
363.966	338.54
364.348	313.68
364.729	333.34
365.111	318.88
365.493	319.1
365.874	327.01
366.256	302.15
366.637	316.62
367.019	300.8
367.4	288.37
367.781	305.99
368.163	315.49
368.544	293.57
368.925	303.51
369.306	306.45
369.688	292.66
370.069	293.34
370.45	326.11
370.831	292.21
371.212	298.09
371.593	282.72
371.974	311.19
372.355	313.45
372.736	312.1
373.117	305.54
373.498	315.71
373.879	320.01
374.26	306.9
374.641	295.6
375.021	316.62
375.402	297.86
375.783	300.35
376.163	327.46
376.544	334.24
376.925	319.33
377.305	345.09
377.686	315.49
378.066	334.02
378.447	308.03
378.827	313.9
379.208	326.79
379.588	314.36
379.968	343.06
380.349	315.03
380.729	320.01
381.109	337.18
381.489	326.11
381.87	331.3
382.25	324.75
382.63	336.28
383.01	339.21
383.39	356.84
383.77	330.4
384.15	330.63
384.53	336.28
384.91	321.14
385.29	329.05
385.67	338.54
386.049	357.29
386.429	345.99
386.809	345.77
387.189	336.95
387.568	362.94
387.948	338.99
388.328	318.88
388.707	351.19
389.087	336.5
389.466	367.91
389.846	348.71
390.225	350.29
390.605	339.67
390.984	364.07
391.363	340.12
391.743	358.87
392.122	345.32
392.501	373.34
392.881	367.69
393.26	336.5
393.639	355.49
394.018	366.56
394.397	353.9
394.776	377.63
395.155	363.85
395.534	370.17
395.913	354.13
396.292	362.49
396.671	365.65
397.05	380.57
397.429	369.95
397.808	360.91
398.186	375.82
398.565	388.48
398.944	371.3
399.323	385.09
399.701	359.55
400.08	361.36
400.458	361.36
400.837	374.47
401.215	378.54
401.594	380.34
401.972	378.99
402.351	386.22
402.729	389.38
403.107	390.51
403.486	414.01
403.864	408.59
404.242	420.79
404.62	387.35
404.999	404.98
405.377	408.36
405.755	410.62
406.133	387.12
406.511	412.43
406.889	415.37
407.267	406.78
407.645	407.01
408.023	413.11
408.401	418.08
408.779	417.4
409.156	419.44
409.534	439.32
409.912	439.32
410.29	439.32
410.667	452.88
411.045	459.66
411.422	462.15
411.8	481.13
412.178	470.28
412.555	467.35
412.933	463.28
413.31	456.5
413.687	480.23
414.065	466.22
414.442	491.53
414.819	473.22
415.197	488.36
415.574	484.3
415.951	510.74
416.328	499.44
416.705	502.15
417.082	531.07
417.46	512.54
417.837	527.91
418.214	534.01
418.591	529.27
418.967	541.92
419.344	530.17
419.721	551.19
420.098	512.32
420.475	539.89
420.852	538.08
421.228	540.34
421.605	551.64
421.982	567
422.358	563.39
422.735	550.28
423.111	589.15
423.488	578.08
423.864	594.35
424.241	588.02
424.617	569.26
424.994	614.91
425.37	596.61
425.746	599.77
426.123	620.11
426.499	627.57
426.875	642.26
427.251	625.08
427.627	625.76
428.003	654.69
428.379	651.52
428.756	656.49
429.132	686.1
429.507	667.57
429.883	663.5
430.259	689.71
430.635	652.65
431.011	680.22
431.387	709.15
431.763	700.33
432.138	710.28
432.514	715.25
432.89	725.64
433.265	690.84
433.641	744.85
434.016	728.81
434.392	756.83
434.767	736.04
435.143	752.54
435.518	767.9
435.894	782.82
436.269	795.7
436.644	788.02
437.02	795.47
437.395	781.69
437.77	769.94
438.145	801.57
438.52	804.96
438.895	818.98
439.271	815.81
439.646	829.82
440.021	862.14
440.395	843.16
440.77	824.17
441.145	834.34
441.52	862.36
441.895	871.63
442.27	869.6
442.645	883.61
443.019	868.47
443.394	849.03
443.769	882.48
444.143	861.23
444.518	891.06
444.892	905.08
445.267	909.37
445.641	898.52
446.016	903.95
446.39	891.06
446.764	918.63
447.139	897.84
447.513	909.14
447.887	919.31
448.262	933.1
448.636	923.15
449.01	934.45
449.384	919.54
449.758	924.06
450.132	926.09
450.506	944.17
450.88	938.75
451.254	943.27
451.628	959.31
452.002	959.31
452.376	963.6
452.75	988.46
453.123	970.38
453.497	992.76
453.871	989.59
454.244	993.66
454.618	1022.59
454.992	1006.77
455.365	1035.24
455.739	1057.16
456.112	1042.02
456.486	1050.38
456.859	1085.18
457.232	1074.56
457.606	1089.25
457.979	1100.1
458.352	1097.16
458.725	1126.99
459.099	1127.89
459.472	1133.54
459.845	1138.29
460.218	1136.48
460.591	1109.14
460.964	1143.26
461.337	1178.51
461.71	1178.06
462.083	1213.77
462.456	1188.01
462.829	1204.5
463.201	1240.21
463.574	1203.6
463.947	1235.91
464.32	1248.79
464.692	1263.03
465.065	1257.38
465.438	1274.1
465.81	1294.9
466.183	1321.56
466.555	1325.18
466.928	1311.39
467.3	1346.65
467.672	1360.2
468.045	1374.44
468.417	1398.4
468.789	1358.62
469.161	1404.27
469.534	1422.35
469.906	1430.26
470.278	1453.08
470.65	1462.12
471.022	1501.22
471.394	1518.84
471.766	1510.71
472.138	1555.91
472.51	1584.61
472.882	1570.37
473.253	1565.4
473.625	1600.88
473.997	1622.8
474.369	1644.72
474.74	1665.51
475.112	1713.64
475.484	1718.16
475.855	1741.66
476.227	1740.31
476.598	1785.05
476.97	1772.4
477.341	1836.35
477.713	1874.32
478.084	1872.28
478.455	1929.91
478.827	1897.37
479.198	1975.56
479.569	1997.93
479.94	2001.54
480.311	2020.75
480.682	2077.02
481.053	2107.53
481.424	2118.38
481.795	2146.85
482.166	2205.15
482.537	2207.19
482.908	2251.25
483.279	2283.34
483.65	2301.65
484.021	2359.95
484.391	2392.27
484.762	2399.95
485.133	2423.91
485.503	2433.17
485.874	2510.46
486.244	2543.68
486.615	2551.36
486.985	2610.57
487.356	2642.88
487.726	2634.75
488.097	2676.78
488.467	2708.19
488.837	2774.18
489.207	2814.18
489.578	2882.2
489.948	2856.66
490.318	2878.13
490.688	2896.89
491.058	2945.93
491.428	2954.96
491.798	2997.9
492.168	3053.72
492.538	3071.12
492.908	3135.98
493.278	3146.82
493.648	3161.74
494.017	3201.06
494.387	3223.43
494.757	3243.09
495.126	3264.34
495.496	3271.57
495.866	3305.92
496.235	3370.1
496.605	3382.75
496.974	3361.51
497.344	3400.15
497.713	3429.98
498.082	3433.82
498.452	3455.52
498.821	3452.8
499.19	3522.86
499.559	3505.46
499.928	3560.37
500.298	3568.51
500.667	3561.95
501.036	3591.56
501.405	3636.08
501.774	3643.99
502.143	3643.31
502.512	3623.65
502.88	3674.95
503.249	3678.56
503.618	3718.56
503.987	3730.09
504.356	3726.92
504.724	3784.77
505.093	3803.3
505.462	3776.86
505.83	3812.57
506.199	3835.85
506.567	3873.58
506.936	3853.7
507.304	3932.57
507.672	3891.21
508.041	3956.07
508.409	3930.76
508.777	3933.47
509.145	3973.24
509.514	3984.77
509.882	4016.86
510.25	4010.08
510.618	4040.36
510.986	4057.08
511.354	4081.26
511.722	4103.86
512.09	4112.45
512.458	4088.49
512.826	4120.36
513.193	4102.51
513.561	4125.78
513.929	4185.44
514.297	4167.14
514.664	4216.4
515.032	4236.29
515.4	4217.76
515.767	4266.12
516.135	4273.57
516.502	4205.1
516.869	4317.41
517.237	4261.15
517.604	4294.36
517.972	4374.36
518.339	4371.2
518.706	4330.75
519.073	4394.47
519.44	4368.94
519.808	4461.14
520.175	4430.86
520.542	4466.79
520.909	4477.41
521.276	4490.74
521.643	4524.41
522.009	4531.42
522.376	4547.24
522.743	4551.53
523.11	4596.28
523.477	4587.46
523.843	4589.27
524.21	4659.55
524.577	4696.39
524.943	4705.2
525.31	4689.83
525.676	4719.21
526.043	4788.14
526.409	4744.97
526.776	4868.36
527.142	4823.16
527.508	4866.78
527.874	4904.07
528.241	4936.16
528.607	4918.53
528.973	5006.89
529.339	4926.21
529.705	5024.29
530.071	5047.79
530.437	5023.61
530.803	5048.47
531.169	5107
531.535	5037.17
531.901	5154.45
532.267	5099.54
532.632	5130.73
532.998	5186.54
533.364	5198.97
533.73	5242.14
534.095	5226.32
534.461	5255.92
534.826	5302.02
535.192	5341.57
535.557	5409.82
535.923	5386.54
536.288	5309.71
536.653	5435.58
537.019	5409.82
537.384	5426.31
537.749	5495.01
538.114	5496.14
538.479	5453.66
538.845	5521.45
539.21	5525.29
539.575	5562.35
539.94	5573.43
540.305	5632.63
540.67	5629.24
541.034	5644.16
541.399	5707.89
541.764	5671.96
542.129	5701.11
542.494	5711.95
542.858	5734.78
543.223	5791.5
543.587	5805.74
543.952	5800.99
544.316	5863.59
544.681	5859.75
545.045	5901.55
545.41	5919.41
545.774	5977.03
546.138	5883.25
546.503	5944.04
546.867	5986.52
547.231	5975.22
547.595	6049.8
547.959	6041.44
548.324	6061.55
548.688	6136.35
549.052	6084.6
549.416	6127.08
549.779	6189.91
550.143	6106.97
550.507	6213.18
550.871	6220.87
551.235	6209.12
551.599	6280.3
551.962	6311.03
552.326	6263.58
552.689	6325.05
553.053	6288.89
553.417	6341.32
553.78	6410.92
554.143	6375.67
554.507	6430.35
554.87	6425.61
555.234	6507.64
555.597	6504.7
555.96	6490.46
556.323	6552.16
556.686	6504.02
557.05	6603.46
557.413	6590.58
557.776	6585.83
558.139	6618.37
558.502	6658.14
558.865	6657.24
559.228	6704.47
559.59	6683
559.953	6720.52
560.316	6748.99
560.679	6754.19
561.041	6850
561.404	6830.12
561.767	6865.37
562.129	6819.27
562.492	6950.79
562.854	6910.79
563.217	6938.59
563.579	6933.39
563.941	6950.11
564.304	6957.35
564.666	7017.46
565.028	7050.68
565.39	7064.69
565.753	7122.99
566.115	7077.79
566.477	7125.93
566.839	7127.06
567.201	7187.4
567.563	7170.9
567.925	7252.7
568.287	7260.16
568.648	7264.23
569.01	7302.2
569.372	7379.03
569.734	7407.73
570.095	7418.58
570.457	7487.73
570.819	7487.05
571.18	7529.76
571.542	7562.98
571.903	7569.08
572.265	7613.6
572.626	7682.98
572.987	7713.03
573.349	7797.1
573.71	7726.59
574.071	7873.71
574.432	7837.77
574.794	7991.67
575.155	7939.92
575.516	8002.74
575.877	8063.08
576.238	8130.42
576.599	8175.84
576.96	8275.73
577.32	8284.54
577.681	8398.21
578.042	8469.17
578.403	8515.72
578.763	8589.84
579.124	8642.05
579.485	8765.21
579.845	8890.85
580.206	9021.92
580.566	9038.65
580.927	9187.8
581.287	9270.73
581.648	9345.08
582.008	9537.16
582.368	9667.56
582.728	9770.83
583.089	9889.25
583.449	9987.55
583.809	10229.8
584.169	10329.01
584.529	10475.67
584.889	10743.91
585.249	10866.62
585.609	10985.04
585.969	11311.81
586.329	11368.08
586.688	11608.75
587.048	11737.78
587.408	11893.49
587.768	12220.71
588.127	12410.76
588.487	12654.6
588.846	12872.9
589.206	13088.71
589.565	13302.26
589.925	13577.96
590.284	13761.91
590.643	14018.63
591.003	14261.79
591.362	14635.56
591.721	14783.58
592.08	15038.26
592.44	15416.56
592.799	15622.88
593.158	15823.1
593.517	16084.56
593.876	16319.36
594.235	16637.54
594.593	16899.46
594.952	17218.77
595.311	17360.69
595.67	17732.88
596.029	18057.84
596.387	18336.26
596.746	18743.02
597.104	18801.78
597.463	19099.17
597.822	19400.18
598.18	19597.01
598.538	19891.02
598.897	20340.72
599.255	20461.85
599.613	20956.07
599.972	20991.55
600.33	21401.03
600.688	21589.05
601.046	21955.37
601.404	22270.61
601.762	22535.47
602.12	22842.8
602.478	23084.15
602.836	23418.61
603.194	23464.26
603.552	23763.46
603.91	24072.38
604.268	24198.93
604.625	24509.65
604.983	24859.93
605.341	24950.77
605.698	25250.88
606.056	25463.98
606.413	25697.42
606.771	25983.06
607.128	26213.34
607.485	26204.3
607.843	26572.87
608.2	26761.8
608.557	27168.79
608.914	27392.97
609.272	27545.05
609.629	27815.33
609.986	28068.65
610.343	28096.45
610.7	28433.16
611.057	28466.16
611.414	28816.43
611.771	28893.04
612.127	29183.2
612.484	29325.8
612.841	29545.68
613.198	29640.59
613.554	29820.7
613.911	30121.03
614.267	30217.98
614.624	30375.71
614.98	30674.91
615.337	30898.41
615.693	30891.86
616.05	30928.24
616.406	31402.58
616.762	31200.32
617.118	31424.27
617.475	31647.32
617.831	31785.85
618.187	31987.42
618.543	32102.22
618.899	32331.59
619.255	32332.72
619.611	32500.63
619.967	32742.88
620.323	32788.3
620.678	32931.13
621.034	33023.78
621.39	32981.29
621.746	33016.1
622.101	33539.7
622.457	33336.09
622.812	33498.57
623.168	33654.04
623.523	33762.29
623.879	33840.71
624.234	33778.34
624.589	33915.28
624.945	34006.13
625.3	34131.77
625.655	34158.89
626.01	34224.65
626.365	34385.78
626.72	34351.88
627.075	34354.82
627.43	34452.67
627.785	34576.28
628.14	34656.73
628.495	34581.93
628.85	34607.69
629.205	34750.74
629.559	34850.62
629.914	34850.4
630.269	34823.05
630.623	34923.62
630.978	34856.95
631.332	34925.2
631.687	35124.06
632.041	34974.01
632.396	35114.35
632.75	35062.14
633.104	35077.51
633.459	34992.09
633.813	34997.74
634.167	34942.37
634.521	35054.01
634.875	35139.88
635.229	35062.6
635.583	35009.04
635.937	34914.35
636.291	35055.36
636.645	35074.57
636.999	35025.08
637.352	35147.79
637.706	34969.94
638.06	35135.36
638.413	35007.68
638.767	35043.84
639.121	35195.02
639.474	34768.14
639.828	35028.25
640.181	35039.77
640.534	35052.2
640.888	34931.98
641.241	34876.61
641.594	35058.3
641.947	35175.59
642.301	34950.51
642.654	35010.39
643.007	35007.91
643.36	34904.63
643.713	34934.24
644.066	35080.67
644.419	34898.98
644.771	34642.72
645.124	34282.28
645.477	34179.68
645.83	34099.91
646.182	34018.1
646.535	33804.1
646.888	34088.16
647.24	33775.4
647.593	33986.24
647.945	33836.64
648.298	33798.67
648.65	33779.92
649.002	33686.81
649.355	33791.89
649.707	33899.69
650.059	33974.94
650.411	34314.14
650.763	34460.12
651.115	34690.85
651.467	34696.28
651.819	34449.28
652.171	34631.19
652.523	34494.47
652.875	34411.09
653.227	34289.06
653.578	34678.88
653.93	34567.92
654.282	34327.25
654.633	34330.41
654.985	34459.22
655.337	34462.38
655.688	34498.77
656.039	34566.56
656.391	34309.39
656.742	34382.61
657.094	34338.09
657.445	34420.8
657.796	34354.59
658.147	34357.75
658.498	34148.27
658.849	34513
659.2	34318.89
659.551	34194.37
659.902	34480.46
660.253	34355.95
660.604	34417.41
660.955	34197.08
661.306	34250.41
661.656	34174.48
662.007	34255.16
662.358	34239.57
662.708	34214.48
663.059	34227.81
663.409	34074.37
663.76	34253.8
664.11	34119.57
664.461	34172.67
664.811	34234.37
665.161	34192.34
665.511	34188.04
665.862	34028.27
666.212	34311.43
666.562	34345.1
666.912	34132.9
667.262	34172.22
667.612	34151.43
667.962	34215.16
668.312	34000.7
668.662	34291.09
669.011	34117.76
669.361	34209.51
669.711	34068.04
670.06	34025.79
670.41	34071.66
670.76	33924.32
671.109	34121.38
671.459	34039.8
671.808	34056.75
672.157	34059.91
672.507	33779.01
672.856	33842.29
673.205	33819.69
673.554	34058.78
673.904	33779.24
674.253	34112.34
674.602	33919.8
674.951	33459.47
675.3	33442.98
675.649	33787.15
675.998	33805.9
676.346	33797.54
676.695	33959.12
677.044	33620.83
677.393	33774.72
677.741	33786.47
678.09	33713.03
678.438	33696.3
678.787	33676.64
679.135	33691.11
679.484	33500.15
679.832	33576.53
680.181	33401.62
680.529	33546.93
680.877	33347.61
681.225	33306.71
681.573	33544.22
681.922	33353.94
682.27	33294.73
682.618	33258.57
682.966	33233.94
683.314	33270.33
683.661	33181.74
684.009	32960.28
684.357	32925.02
684.705	32854.97
685.053	32973.84
685.4	32929.32
685.748	32684.8
686.095	32669.66
686.443	32596.67
686.79	32662.43
687.138	32527.07
687.485	32634.41
687.832	32502.44
688.18	32599.61
688.527	32374.98
688.874	32335.89
689.221	32281.65
689.568	32123.01
689.915	32073.97
690.262	32047.53
690.609	32028.78
690.956	31949.46
691.303	31900.19
691.65	31803.25
691.997	31626.75
692.344	31543.59
692.69	31463.59
693.037	31541.56
693.383	31432.18
693.73	31534.55
694.077	31299.08
694.423	31313.32
694.769	31134.79
695.116	31081.46
695.462	31051.85
695.808	30844.17
696.155	30995.81
696.501	30755.14
696.847	30760.56
697.193	30457.29
697.539	30592.88
697.885	30372.55
698.231	30304.98
698.577	30356.96
698.923	30368.93
699.269	30185.44
699.614	30104.08
699.96	30133.01
700.306	30032.44
700.651	29896.86
700.997	29759.91
701.342	29721.72
701.688	29696.63
702.033	29646.24
702.379	29654.15
702.724	29398.34
703.069	29487.37
703.415	29168.51
703.76	29288.51
704.105	29172.81
704.45	29134.62
704.795	28954.06
705.14	28819.14
705.485	28860.95
705.83	28709.77
706.175	28788.86
706.52	28666.83
706.865	28587.96
707.209	28544.12
707.554	28434.97
707.899	28525.14
708.243	28390.45
708.588	28393.17
708.932	28098.48
709.277	27997.92
709.621	28116.56
709.966	27870.69
710.31	28021.88
710.654	27770.36
710.998	27962.89
711.342	27905.27
711.687	27678.83
712.031	27612.85
712.375	27583.47
712.719	27610.36
713.063	27552.06
713.407	27681.77
713.75	27444.26
714.094	27477.48
714.438	27351.39
714.782	27357.26
715.125	27158.62
715.469	27314.55
715.812	27051.96
716.156	26992.98
716.499	26907.33
716.843	26964.05
717.186	26879.76
717.53	26911.4
717.873	26872.53
718.216	26764.96
718.559	26690.39
718.902	26523.16
719.246	26635.92
719.589	26656.26
719.932	26372.2
720.275	26478.19
720.617	26323.62
720.96	26348.47
721.303	26285.65
721.646	26350.06
721.989	26160.23
722.331	26252.21
722.674	26080.91
723.016	26037.97
723.359	26253.56
723.701	25984.64
724.044	25888.6
724.386	25792.56
724.729	25891.08
725.071	25976.28
725.413	25895.15
725.755	25867.36
726.097	25790.52
726.439	25701.94
726.782	25769.96
727.124	25669.17
727.465	25666.68
727.807	25511.66
728.149	25491.77
728.491	25268.28
728.833	25440.25
729.175	25329.29
729.516	25331.55
729.858	25256.3
730.199	25280.93
730.541	25237.54
730.882	25185.79
731.224	25252.68
731.565	25073.03
731.906	25024.44
732.248	25061.05
732.589	24945.8
732.93	24977.44
733.271	24943.77
733.612	24987.38
733.953	24965.01
734.294	24838.46
734.635	24755.75
734.976	24856.76
735.317	24602.53
735.658	24629.65
735.999	24610.21
736.339	24596.43
736.68	24587.16
737.021	24652.02
737.361	24540.39
737.702	24679.59
738.042	24443.21
738.383	24530.89
738.723	24448.41
739.063	24357.79
739.404	24430.11
739.744	24319.37
740.084	24338.13
740.424	24327.51
740.764	24222.43
741.104	24304.46
741.444	24152.37
741.784	24015.2
742.124	24141.53
742.464	24037.57
742.804	23954.64
743.143	23888.65
743.483	24024.47
743.823	23807.98
744.162	23937.92
744.502	23944.92
744.841	23797.35
745.181	23736.57
745.52	23706.96
745.86	23752.16
746.199	23690.01
746.538	23669.9
746.877	23732.27
747.216	23633.97
747.556	23561.65
747.895	23592.61
748.234	23416.57
748.573	23534.99
748.911	23470.36
749.25	23437.82
749.589	23306.75
749.928	23317.37
750.267	23370.25
750.605	23290.93
750.944	23291.61
751.283	23123.25
751.621	23206.64
751.96	23105.4
752.298	23017.94
752.636	23048.67
752.975	22920.77
753.313	22839.64
753.651	22860.88
753.989	22841
754.327	22846.87
754.666	22557.61
755.004	22663.6
755.342	22630.83
755.679	22542.7
756.017	22506.54
756.355	22547.9
756.693	22401.23
757.031	22567.1
757.368	22363.04
757.706	22226.55
758.044	22273.78
758.381	22200.11
758.719	22071.07
759.056	22096.83
759.394	22039.66
759.731	21988.14
760.068	21975.71
760.405	21779.1
