Data from hue_40_FLMS001491_97.txt Node
Date: Mon Feb 06 15:08:51 GMT 2017
User: dcchb
Spectrometer: FLMS00149
Trigger mode: 0
Integration Time (sec): 2.000000E-2
Scans to average: 10
Electric dark correction enabled: true
Nonlinearity correction enabled: false
Boxcar width: 0
XAxis mode: Wavelengths
Number of Pixels in Spectrum: 2048
>>>>>Begin Spectral Data<<<<<
341.393	-6.55
341.776	-6.55
342.16	-6.55
342.543	-67.12
342.927	-89.94
343.31	-70.05
343.693	-59.66
344.077	-69.6
344.46	-58.76
344.843	-75.03
345.226	-31.86
345.61	-26.67
345.993	-15.82
346.376	-3.62
346.759	-2.03
347.142	18.53
347.525	50.39
347.908	61.92
348.291	83.16
348.674	100.56
349.057	98.53
349.44	137.85
349.823	137.85
350.206	166.32
350.588	184.18
350.971	197.96
351.354	223.5
351.737	230.05
352.119	268.69
352.502	245.42
352.884	287.45
353.267	272.08
353.65	290.39
354.032	302.36
354.414	294.68
354.797	324.74
355.179	322.03
355.562	328.13
355.944	338.3
356.326	332.87
356.709	339.43
357.091	345.3
357.473	349.82
357.855	343.49
358.238	335.58
358.62	320.9
359.002	342.36
359.384	357.96
359.766	337.84
360.148	348.69
360.53	359.54
360.912	349.14
361.294	327.68
361.676	344.62
362.057	338.75
362.439	348.47
362.821	317.73
363.203	329.03
363.584	321.12
363.966	344.85
364.348	340.33
364.729	307.34
365.111	318.18
365.493	311.18
365.874	307.56
366.256	346.21
366.637	334.23
367.019	305.08
367.4	319.31
367.781	311.18
368.163	303.95
368.544	329.03
368.925	298.07
369.306	336.26
369.688	332.87
370.069	311.86
370.45	297.85
370.831	330.39
371.212	325.19
371.593	307.11
371.974	326.09
372.355	318.18
372.736	346.21
373.117	332.42
373.498	316.83
373.879	321.12
374.26	319.31
374.641	312.31
375.021	328.13
375.402	318.41
375.783	336.94
376.163	316.38
376.544	328.35
376.925	329.26
377.305	336.71
377.686	330.61
378.066	318.41
378.447	317.51
378.827	334.45
379.208	328.8
379.588	339.2
379.968	352.31
380.349	327.45
380.729	329.71
381.109	364.06
381.489	358.41
381.87	348.47
382.25	332.42
382.63	363.38
383.01	341.23
383.39	345.53
383.77	335.81
384.15	349.6
384.53	341.69
384.91	337.17
385.29	333.55
385.67	359.76
386.049	348.01
386.429	370.61
386.809	358.63
387.189	361.35
387.568	352.99
387.948	354.79
388.328	367.67
388.707	348.92
389.087	371.97
389.466	370.16
389.846	365.41
390.225	365.41
390.605	370.61
390.984	384.62
391.363	372.87
391.743	380.1
392.122	384.17
392.501	367.67
392.881	383.49
393.26	381.91
393.639	384.85
394.018	379.65
394.397	399.99
394.776	377.39
395.155	381.23
395.534	380.33
395.913	395.47
396.292	420.55
396.671	410.38
397.05	412.64
397.429	402.25
397.808	403.38
398.186	392.53
398.565	416.94
398.944	409.93
399.323	413.77
399.701	402.02
400.08	394.57
400.458	418.52
400.837	410.16
401.215	424.17
401.594	409.48
401.972	415.81
402.351	420.1
402.729	421.23
403.107	424.17
403.486	425.98
403.864	416.49
404.242	436.6
404.62	418.07
404.999	451.29
405.377	432.08
405.755	420.55
406.133	433.21
406.511	418.29
406.889	447.67
407.267	433.21
407.645	433.89
408.023	451.97
408.401	438.86
408.779	445.86
409.156	461
409.534	444.96
409.912	462.81
410.29	456.71
410.667	474.56
411.045	479.54
411.422	497.39
411.8	456.03
412.178	468.91
412.555	494.68
412.933	488.8
413.31	503.04
413.687	481.34
414.065	503.72
414.442	512.08
414.819	519.08
415.197	528.8
415.574	502.13
415.951	522.25
416.328	529.03
416.705	534.9
417.082	516.37
417.46	555.01
417.837	523.15
418.214	507.78
418.591	518.18
418.967	535.35
419.344	550.04
419.721	554.56
420.098	543.26
420.475	548.91
420.852	539.65
421.228	554.34
421.605	562.92
421.982	567.44
422.358	561.79
422.735	571.28
423.111	581.91
423.488	604.05
423.864	592.07
424.241	570.38
424.617	570.61
424.994	583.71
425.37	593.43
425.746	599.08
426.123	593.43
426.499	614.22
426.875	602.7
427.251	623.71
427.627	608.57
428.003	623.03
428.379	632.98
428.756	636.59
429.132	652.19
429.507	640.66
429.883	627.78
430.259	669.59
430.635	632.07
431.011	659.64
431.387	684.73
431.763	682.69
432.138	682.92
432.514	683.6
432.89	686.54
433.265	733.31
433.641	698.74
434.016	738.51
434.392	715.24
434.767	736.25
435.143	753.88
435.518	739.42
435.894	757.72
436.269	765.18
436.644	766.31
437.02	765.63
437.395	754.1
437.77	800.88
438.145	759.08
438.52	792.07
438.895	796.36
439.271	801.11
439.646	804.27
440.021	820.77
440.395	812.41
440.77	802.46
441.145	806.98
441.52	833.65
441.895	816.93
442.27	825.74
442.645	849.24
443.019	863.25
443.394	854.67
443.769	837.27
444.143	854.89
444.518	860.99
444.892	876.59
445.267	860.77
445.641	871.16
446.016	860.77
446.39	853.99
446.764	886.3
447.139	881.33
447.513	899.41
447.887	897.15
448.262	922.91
448.636	912.52
449.01	895.8
449.384	926.76
449.758	908.9
450.132	970.37
450.506	962.46
450.88	963.82
451.254	949.81
451.628	983.93
452.002	983.25
452.376	983.25
452.75	1016.92
453.123	981.22
453.497	1032.74
453.871	1039.75
454.244	1024.61
454.618	1016.47
454.992	1056.47
455.365	1039.75
455.739	1087.66
456.112	1084.27
456.486	1092.4
456.859	1093.3
457.232	1129.46
457.606	1106.64
457.979	1119.52
458.352	1150.7
458.725	1141.66
459.099	1164.94
459.472	1181.66
459.845	1173.53
460.218	1212.17
460.591	1216.24
460.964	1237.48
461.337	1249.91
461.71	1259.85
462.083	1287.88
462.456	1275.9
462.829	1284.49
463.201	1331.49
463.574	1310.02
463.947	1332.17
464.32	1377.36
464.692	1391.38
465.065	1394.54
465.438	1392.05
465.81	1405.84
466.183	1437.25
466.555	1440.41
466.928	1495.78
467.3	1491.71
467.672	1534.2
468.045	1531.94
468.417	1553.63
468.789	1560.86
469.161	1599.28
469.534	1626.4
469.906	1628.21
470.278	1667.07
470.65	1708.66
471.022	1750.69
471.394	1767.86
471.766	1762.89
472.138	1804.47
472.51	1860.06
472.882	1886.96
473.253	1937.12
473.625	1949.1
473.997	1995.43
474.369	2004.69
474.74	2027.52
475.112	2090.79
475.484	2138.47
475.855	2175.08
476.227	2220.05
476.598	2253.05
476.97	2301.41
477.341	2371.92
477.713	2417.56
478.084	2428.86
478.455	2531.01
478.827	2627.28
479.198	2676.99
479.569	2677.9
479.94	2754.73
480.311	2846.48
480.682	2945.91
481.053	2986.81
481.424	3095.74
481.795	3163.31
482.166	3216.19
482.537	3269.74
482.908	3368.27
483.279	3457.08
483.65	3484.65
484.021	3634.48
484.391	3709.28
484.762	3781.82
485.133	3900.24
485.503	3956.05
485.874	4046
486.244	4135.48
486.615	4226.33
486.985	4327.12
487.356	4469.94
487.726	4537.28
488.097	4662.48
488.467	4736.6
488.837	4830.61
489.207	4937.95
489.578	5045.97
489.948	5189.02
490.318	5270.14
490.688	5326.41
491.058	5481.21
491.428	5602.11
491.798	5724.37
492.168	5863.8
492.538	5937.92
492.908	6052.95
493.278	6138.14
493.648	6202.77
494.017	6358.02
494.387	6415.42
494.757	6548.98
495.126	6710.33
495.496	6770.9
495.866	6813.83
496.235	6933.6
496.605	7093.15
496.974	7117.55
497.344	7313.93
497.713	7338.79
498.082	7456.08
498.452	7583.08
498.821	7630.76
499.19	7741.04
499.559	7843.64
499.928	7911.43
500.298	8026.68
500.667	8146.68
501.036	8151.2
501.405	8320.69
501.774	8306.67
502.143	8491.53
502.512	8565.88
502.88	8692.65
503.249	8664.86
503.618	8847.45
503.987	8862.14
504.356	8937.62
504.724	9034.79
505.093	9062.81
505.462	9196.82
505.83	9207.67
506.199	9348.91
506.567	9447.21
506.936	9517.94
507.304	9613.53
507.672	9677.26
508.041	9719.97
508.409	9866.86
508.777	9948.44
509.145	10051.94
509.514	10008.55
509.882	10192.73
510.25	10110.92
510.618	10281.09
510.986	10335.55
511.354	10534.64
511.722	10563.34
512.09	10640.62
512.458	10595.2
512.826	10794.97
513.193	10815.08
513.561	10818.47
513.929	10973.04
514.297	11061.86
514.664	11105.7
515.032	11102.76
515.4	11271.34
515.767	11312.7
516.135	11446.48
516.502	11318.8
516.869	11575.29
517.237	11618.9
517.604	11561.5
517.972	11842.17
518.339	11805.57
518.706	11826.13
519.073	11850.08
519.44	11966.01
519.808	12168.95
520.175	12042.62
520.542	12274.93
520.909	12309.96
521.276	12241.49
521.643	12457.53
522.009	12555.6
522.376	12593.12
522.743	12699.55
523.11	12846.22
523.477	12865.42
523.843	12970.05
524.21	13011.86
524.577	13177.51
524.943	13271.06
525.31	13266.32
525.676	13434.68
526.043	13536.14
526.409	13539.08
526.776	13706.53
527.142	13732.29
527.508	13916.92
527.874	13967.32
528.241	13972.97
528.607	14057.26
528.973	14201.21
529.339	14233.75
529.705	14248.66
530.071	14449.11
530.437	14430.81
530.803	14619.95
531.169	14634.19
531.535	14652.5
531.901	14739.73
532.267	14798.48
532.632	14958.93
532.998	14953.73
533.364	14963.22
533.73	15041.41
534.095	15153.73
534.461	15295.64
534.826	15377.9
535.192	15381.29
535.557	15532.25
535.923	15488.86
536.288	15608.86
536.653	15588.06
537.019	15659.02
537.384	15788.51
537.749	15806.82
538.114	15740.38
538.479	15872.58
538.845	15930.65
539.21	15915.29
539.575	16048.62
539.94	16099.92
540.305	16277.76
540.67	16216.07
541.034	16248.84
541.399	16361.83
541.764	16441.38
542.129	16527.25
542.494	16614.48
542.858	16661.03
543.223	16597.76
543.587	16694.48
543.952	16845.88
544.316	16935.37
544.681	16917.75
545.045	17014.92
545.41	17100.34
545.774	17167.46
546.138	17190.96
546.503	17239.32
546.867	17228.93
547.231	17343.72
547.595	17462.82
547.959	17409.49
548.324	17440.45
548.688	17618.29
549.052	17612.87
549.416	17697.61
549.779	17732.64
550.143	17714.79
550.507	17940.32
550.871	17957.95
551.235	17946.19
551.599	18073.2
551.962	18106.19
552.326	18243.14
552.689	18336.24
553.053	18281.55
553.417	18381.89
553.78	18630.24
554.143	18487.42
554.507	18685.84
554.87	18576.23
555.234	18783.69
555.597	18640.64
555.96	18724.25
556.323	18845.15
556.686	18855.1
557.05	19012.38
557.413	19054.87
557.776	19067.07
558.139	19241.3
558.502	19326.5
558.865	19345.25
559.228	19472.48
559.59	19561.97
559.953	19442.65
560.316	19714.74
560.679	19743.21
561.041	19782.98
561.404	19956.99
561.767	20061.17
562.129	19973.94
562.492	20212.58
562.854	20154.27
563.217	20231.56
563.579	20267.94
563.941	20335.06
564.304	20496.64
564.666	20546.58
565.028	20707.03
565.39	20729.85
565.753	20833.35
566.115	20888.72
566.477	20963.52
566.839	20980.01
567.201	21082.16
567.563	21176.39
567.925	21282.83
568.287	21261.81
568.648	21418.65
569.01	21513.11
569.372	21657.74
569.734	21561.69
570.095	21852.31
570.457	21816.6
570.819	21935.69
571.18	21943.83
571.542	22180.89
571.903	22234.9
572.265	22286.65
572.626	22328.68
572.987	22433.76
573.349	22451.39
573.71	22651.83
574.071	22795.78
574.432	22749.68
574.794	22965.5
575.155	22990.58
575.516	22999.62
575.877	23176.34
576.238	23333.4
576.599	23474.64
576.96	23468.99
577.32	23636.44
577.681	23775.42
578.042	23946.26
578.403	24057.9
578.763	24137.9
579.124	24234.17
579.485	24473.93
579.845	24690.42
580.206	24775.62
580.566	24814.71
580.927	25010.87
581.287	25246.12
581.648	25272.1
582.008	25502.61
582.368	25616.95
582.728	25728.59
583.089	25879.55
583.449	26049.94
583.809	26463.71
584.169	26542.8
584.529	26693.99
584.889	27041.77
585.249	26982.12
585.609	27081.55
585.969	27490.8
586.329	27604.47
586.688	27797.69
587.048	27993.39
587.408	28120.16
587.768	28377.78
588.127	28426.82
588.487	28641.51
588.846	29128.73
589.206	29060.48
589.565	29360.58
589.925	29615.94
590.284	29687.13
590.643	29958.53
591.003	30252.31
591.362	30467
591.721	30642.13
592.08	30949.02
592.44	31103.81
592.799	31357.82
593.158	31466.29
593.517	31723.23
593.876	31995.77
594.235	32050.68
594.593	32371.8
594.952	32528.86
595.311	32630.55
595.67	32863.99
596.029	33289.07
596.387	33489.06
596.746	33635.95
597.104	33597.76
597.463	33883.4
597.822	34206.56
598.18	34161.14
598.538	34364.29
598.897	34686.09
599.255	34564.29
599.613	35156.82
599.972	35251.28
600.33	35392.52
600.688	35420.76
601.046	35771.49
601.404	35968.09
601.762	35952.73
602.12	36409.44
602.478	36390.91
602.836	36580.06
603.194	36499.83
603.552	36891.69
603.91	36858.69
604.268	37252.13
604.625	37171.9
604.983	37448.96
605.341	37437.89
605.698	37687.82
606.056	37904.77
606.413	38006.23
606.771	38175.72
607.128	38295.49
607.485	38238.77
607.843	38457.97
608.2	38735.03
608.557	38844.18
608.914	38918.3
609.272	39188.35
609.629	39503.59
609.986	39596.47
610.343	39325.29
610.7	39755.79
611.057	39845.28
611.414	39890.48
611.771	39927.31
612.127	40252.73
612.484	40167.53
612.841	40399.84
613.198	40439.61
613.554	40309.67
613.911	40715.09
614.267	40810
614.624	40719.16
614.98	40931.13
615.337	41249.76
615.693	41165.25
616.05	41264.23
616.406	41498.34
616.762	41418.8
617.118	41469.64
617.475	41661.28
617.831	41802.52
618.187	41876.41
618.543	41771.56
618.899	42237.31
619.255	42197.53
619.611	42182.62
619.967	42191.66
620.323	42341.94
620.678	42399.56
621.034	42226.01
621.39	42316.85
621.746	42401.37
622.101	42804.52
622.457	42650.18
622.812	42740.12
623.168	42988.7
623.523	42862.6
623.879	43046.1
624.234	42774.02
624.589	42987.8
624.945	43105.53
625.3	43024.63
625.655	43068.25
626.01	43067.79
626.365	43377.84
626.72	43232.76
627.075	43181.46
627.43	43184.63
627.785	43184.4
628.14	43386.2
628.495	43362.48
628.85	43390.95
629.205	43197.28
629.559	43429.37
629.914	43389.59
630.269	43395.7
630.623	43322.48
630.978	43215.81
631.332	43389.14
631.687	43626.42
632.041	43371.51
632.396	43499.42
632.75	43325.64
633.104	43546.65
633.459	43235.47
633.813	43331.06
634.167	43327.9
634.521	43301.01
634.875	43397.5
635.229	43397.95
635.583	43163.61
635.937	43283.83
636.291	43143.5
636.645	43280.67
636.999	43116.15
637.352	43325.87
637.706	43040.22
638.06	43169.49
638.413	43082.48
638.767	42953.22
639.121	43091.97
639.474	42817.18
639.828	42893.11
640.181	42890.17
640.534	42967.23
640.888	42931.53
641.241	42792.1
641.594	42850.85
641.947	42935.82
642.301	42852.66
642.654	42857.18
643.007	42667.8
643.36	42809.72
643.713	42701.48
644.066	42815.15
644.419	42571.99
644.771	42505.1
645.124	42066.01
645.477	41971.78
645.83	41619.24
646.182	41491.56
646.535	41470.77
646.888	41677.77
647.24	41266.71
647.593	41574.5
647.945	41340.61
648.298	41297.45
648.65	41203.44
649.002	41128.41
649.355	41346.03
649.707	41277.78
650.059	41479.59
650.411	41829.41
650.763	41923.42
651.115	42346.46
651.467	42198.44
651.819	42157.08
652.171	42054.49
652.523	42046.58
652.875	42042.51
653.227	41841.61
653.578	42082.06
653.93	42020.14
654.282	41907.37
654.633	41707.6
654.985	41811.56
655.337	41749.64
655.688	41880.48
656.039	42001.61
656.391	41584.9
656.742	41732.91
657.094	41728.39
657.445	41939.91
657.796	41744.44
658.147	41843.65
658.498	41752.8
658.849	41863.31
659.2	41795.29
659.551	41687.94
659.902	41651.79
660.253	41628.74
660.604	41666.02
660.955	41535.18
661.306	41634.39
661.656	41456.31
662.007	41578.34
662.358	41543.09
662.708	41537.66
663.059	41617.89
663.409	41234.85
663.76	41723.87
664.11	41579.7
664.461	41440.04
664.811	41678.68
665.161	41567.95
665.511	41362.3
665.862	41433.49
666.212	41660.83
666.562	41546.93
666.912	41577.21
667.262	41464.9
667.612	41423.09
667.962	41480.72
668.312	41447.72
668.662	41594.39
669.011	41459.93
669.361	41451.57
669.711	41240.72
670.06	41264.45
670.41	41256.32
670.76	41093.83
671.109	41299.71
671.459	41275.3
671.808	41215.41
672.157	41266.71
672.507	41030.33
672.856	41089.54
673.205	41130.22
673.554	41228.97
673.904	40988.07
674.253	41330.21
674.602	41249.54
674.951	40560.06
675.3	40407.07
675.649	41015.64
675.998	41009.54
676.346	41066.49
676.695	41079.6
677.044	40921.64
677.393	40898.59
677.741	40918.02
678.09	40700.4
678.438	40746.95
678.787	40863.11
679.135	40797.12
679.484	40497.01
679.832	40709.89
680.181	40391.25
680.529	40610.68
680.877	40469.44
681.225	40464.7
681.573	40584.02
681.922	40335.44
682.27	40211.15
682.618	40277.36
682.966	40095.89
683.314	40287.08
683.661	40181.77
684.009	39967.31
684.357	39845.96
684.705	39868.1
685.053	39930.02
685.4	39948.55
685.748	39712.63
686.095	39633.53
686.443	39471.73
686.79	39553.76
687.138	39556.02
687.485	39622.91
687.832	39312.86
688.18	39521.45
688.527	39208.01
688.874	39184.73
689.221	39175.02
689.568	39002.59
689.915	38868.13
690.262	38942.93
690.609	38810.28
690.956	38668.81
691.303	38613
691.65	38495.94
691.997	38483.51
692.344	38257.53
692.69	38303.4
693.037	38307.24
693.383	37886.01
693.73	38079.9
694.077	37887.82
694.423	37969.4
694.769	37733.47
695.116	37696.41
695.462	37635.17
695.808	37463.2
696.155	37669.52
696.501	37248.96
696.847	37374.61
697.193	36908.18
697.539	37133.71
697.885	36791.57
698.231	36738.7
698.577	36701.41
698.923	36769.65
699.269	36602.65
699.614	36262.55
699.96	36260.97
700.306	36294.19
700.651	36121.99
700.997	36103.01
701.342	36016
701.688	35950.69
702.033	35843.35
702.379	35839.28
702.724	35691.04
703.069	35821.21
703.415	35313.87
703.76	35327.21
704.105	35377.83
704.45	35310.26
704.795	35122.47
705.14	34892.19
705.485	35016.93
705.83	34799.08
706.175	34762.25
706.52	34773.55
706.865	34560.45
707.209	34713.66
707.554	34449.04
707.899	34632.08
708.243	34344.86
708.588	34294.01
708.932	34049.05
709.277	34157.29
709.621	34081.59
709.966	33851.31
710.31	33970.86
710.654	33721.6
710.998	33775.61
711.342	33840.47
711.687	33727.47
712.031	33454.04
712.375	33459.01
712.719	33606.12
713.063	33412
713.407	33445.22
713.75	33260.82
714.094	33278.45
714.438	33202.29
714.782	33051.11
715.125	32895.41
715.469	33093.59
715.812	32792.81
716.156	32606.6
716.499	32833.49
716.843	32661.74
717.186	32298.81
717.53	32589.65
717.873	32589.65
718.216	32541.29
718.559	32496.09
718.902	32233.5
719.246	32253.16
719.589	32132.26
719.932	32038.03
720.275	32000.29
720.617	32087.74
720.96	31915.32
721.303	31979.27
721.646	31958.71
721.989	31761.2
722.331	31707.19
722.674	31741.31
723.016	31712.84
723.359	31593.52
723.701	31620.86
724.044	31528.44
724.386	31384.03
724.729	31495.67
725.071	31365.73
725.413	31420.42
725.755	31338.16
726.097	31129.58
726.439	31093.42
726.782	30939.98
727.124	31099.3
727.465	30986.08
727.807	30971.16
728.149	30883.03
728.491	30804.84
728.833	30736.59
729.175	30738.85
729.516	30575.92
729.858	30636.93
730.199	30733.66
730.541	30651.85
730.882	30641.68
731.224	30630.38
731.565	30378.86
731.906	30377.73
732.248	30432.19
732.589	30245.53
732.93	30187
733.271	30323.04
733.612	30252.99
733.953	30187
734.294	30023.62
734.635	29958.08
734.976	30110.62
735.317	29968.93
735.658	30013.45
735.999	29875.82
736.339	29808.48
736.68	29868.14
737.021	29857.07
737.361	29627.02
737.702	29865.66
738.042	29641.71
738.383	29556.51
738.723	29631.54
739.063	29498.43
739.404	29635.83
739.744	29421.83
740.084	29370.08
740.424	29290.98
740.764	29324.2
741.104	29339.57
741.444	29179.35
741.784	29114.49
742.124	29099.57
742.464	29082.17
742.804	29085.79
743.143	28911.1
743.483	29112.68
743.823	28868.85
744.162	28834.27
744.502	28917.43
744.841	28914.72
745.181	28904.32
745.52	28639.47
745.86	28699.36
746.199	28764.44
746.538	28594.05
746.877	28632.24
747.216	28649.19
747.556	28545.69
747.895	28471.57
748.234	28426.37
748.573	28455.07
748.911	28417.78
749.25	28369.42
749.589	28200.39
749.928	28231.12
750.267	28234.96
750.605	28210.78
750.944	28006.72
751.283	27950
751.621	27954.97
751.96	27831.13
752.298	27886.05
752.636	27818.93
752.975	27679.27
753.313	27555.66
753.651	27686.73
753.989	27584.13
754.327	27526.28
754.666	27445.61
755.004	27486.73
755.342	27459.84
755.679	27328.55
756.017	27266.85
756.355	27271.6
756.693	27226.4
