Data from hue_110_FLMS001491_00061.txt Node
Date: Tue Feb 07 17:01:39 GMT 2017
User: dcchb
Spectrometer: FLMS00149
Trigger mode: 0
Integration Time (sec): 2.000000E-2
Scans to average: 10
Electric dark correction enabled: true
Nonlinearity correction enabled: false
Boxcar width: 0
XAxis mode: Wavelengths
Number of Pixels in Spectrum: 2048
>>>>>Begin Spectral Data<<<<<
341.393	-12.02
341.776	-12.02
342.16	-12.02
342.543	-62.41
342.927	-73.03
343.31	-64.67
343.693	-80.04
344.077	-58.57
344.46	-52.7
344.843	-54.5
345.226	-36.43
345.61	-24.45
345.993	-23.32
346.376	-2.98
346.759	15.1
347.142	21.43
347.525	42.67
347.908	63.68
348.291	93.74
348.674	84.93
349.057	76.11
349.44	147.52
349.823	157.02
350.206	155.66
350.588	181.42
350.971	206.28
351.354	211.48
351.737	236.79
352.119	245.83
352.502	256.67
352.884	265.49
353.267	289.44
353.65	286.05
354.032	312.94
354.414	314.98
354.797	327.63
355.179	333.28
355.562	314.98
355.944	327.18
356.326	325.15
356.709	347.07
357.091	331.47
357.473	340.51
357.855	326.28
358.238	332.83
358.62	341.19
359.002	340.29
359.384	338.48
359.766	346.39
360.148	329.67
360.53	329.21
360.912	330.8
361.294	326.05
361.676	332.83
362.057	343
362.439	332.15
362.821	336.45
363.203	325.82
363.584	333.96
363.966	338.48
364.348	310.01
364.729	324.92
365.111	322.66
365.493	292.61
365.874	320.85
366.256	309.1
366.637	305.94
367.019	317.92
367.4	324.92
367.781	312.04
368.163	325.15
368.544	295.32
368.925	303
369.306	316.11
369.688	300.97
370.069	307.29
370.45	321.76
370.831	321.08
371.212	324.92
371.593	333.96
371.974	291.48
372.355	313.4
372.736	315.88
373.117	311.36
373.498	323.56
373.879	313.85
374.26	319.95
374.641	309.1
375.021	310.23
375.402	325.15
375.783	324.02
376.163	321.98
376.544	327.63
376.925	316.11
377.305	343.45
377.686	341.64
378.066	327.86
378.447	313.4
378.827	321.08
379.208	337.8
379.588	339.84
379.968	336.22
380.349	347.29
380.729	319.72
381.109	322.21
381.489	335.32
381.87	330.12
382.25	335.99
382.63	358.37
383.01	334.86
383.39	343.45
383.77	337.8
384.15	324.47
384.53	353.39
384.91	349.55
385.29	346.39
385.67	361.3
386.049	366.5
386.429	360.63
386.809	356.33
387.189	365.82
387.568	361.08
387.948	375.77
388.328	372.15
388.707	365.15
389.087	367.18
389.466	365.6
389.846	375.77
390.225	370.12
390.605	375.77
390.984	370.57
391.363	376.67
391.743	374.86
392.122	379.38
392.501	382.32
392.881	389.1
393.26	380.51
393.639	377.57
394.018	380.74
394.397	380.74
394.776	371.7
395.155	392.26
395.534	404.24
395.913	375.99
396.292	390
396.671	390.46
397.05	412.15
397.429	392.26
397.808	400.63
398.186	381.64
398.565	400.63
398.944	400.17
399.323	394.75
399.701	425.03
400.08	410.34
400.458	414.64
400.837	411.92
401.215	428.65
401.594	412.38
401.972	402.88
402.351	413.28
402.729	435.88
403.107	431.58
403.486	428.65
403.864	434.75
404.242	451.25
404.62	442.88
404.999	439.95
405.377	431.58
405.755	413.51
406.133	453.96
406.511	446.73
406.889	442.66
407.267	450.12
407.645	452.83
408.023	455.54
408.401	442.66
408.779	464.58
409.156	459.61
409.534	477.91
409.912	482.66
410.29	468.19
410.667	487.63
411.045	476.78
411.422	501.41
411.8	468.65
412.178	485.14
412.555	502.32
412.933	515.88
413.31	501.41
413.687	493.73
414.065	509.32
414.442	522.88
414.819	500.51
415.197	493.73
415.574	506.84
415.951	539.83
416.328	523.56
416.705	505.48
417.082	523.33
417.46	522.88
417.837	547.74
418.214	537.8
418.591	543.22
418.967	538.47
419.344	542.77
419.721	557.46
420.098	588.87
420.475	568.3
420.852	556.78
421.228	561.52
421.605	575.76
421.982	545.93
422.358	573.28
422.735	567.4
423.111	570.79
423.488	581.41
423.864	578.25
424.241	608.3
424.617	617.34
424.994	604.69
425.37	604.46
425.746	603.56
426.123	608.98
426.499	600.62
426.875	616.89
427.251	611.24
427.627	615.53
428.003	641.52
428.379	666.83
428.756	651.01
429.132	654.63
429.507	655.08
429.883	696.21
430.259	667.06
430.635	675.19
431.011	688.08
431.387	677
431.763	721.29
432.138	688.3
432.514	710
432.89	693.05
433.265	749.54
433.641	743.67
434.016	719.26
434.392	753.16
434.767	755.87
435.143	740.05
435.518	775.08
435.894	748.41
436.269	764.01
436.644	785.02
437.02	782.54
437.395	795.87
437.77	810.78
438.145	800.84
438.52	798.81
438.895	817.79
439.271	793.16
439.646	821.63
440.021	838.35
440.395	845.81
440.77	844.68
441.145	831.35
441.52	863.44
441.895	874.74
442.27	865.02
442.645	877.22
443.019	886.26
443.394	905.24
443.769	924.45
444.143	904.57
444.518	916.54
444.892	922.87
445.267	923.55
445.641	915.87
446.016	941.4
446.39	925.36
446.764	939.82
447.139	935.75
447.513	949.09
447.887	947.96
448.262	963.77
448.636	956.99
449.01	975.3
449.384	1000.84
449.758	970.78
450.132	1009.42
450.506	1011.68
450.88	1008.97
451.254	1030.66
451.628	1038.57
452.002	1047.39
452.376	1043.32
452.75	1061.17
453.123	1078.57
453.497	1067.05
453.871	1090.32
454.244	1101.4
454.618	1124
454.992	1116.31
455.365	1107.95
455.739	1147.27
456.112	1138.46
456.486	1175.07
456.859	1180.27
457.232	1218.23
457.606	1187.27
457.979	1227.72
458.352	1254.84
458.725	1255.97
459.099	1274.73
459.472	1288.96
459.845	1315.4
460.218	1312.92
460.591	1346.36
460.964	1350.88
461.337	1372.12
461.71	1369.19
462.083	1403.99
462.456	1422.52
462.829	1429.07
463.201	1469.07
463.574	1458.22
463.947	1525.57
464.32	1515.4
464.692	1518.34
465.065	1522.63
465.438	1563.08
465.81	1622.06
466.183	1609.41
466.555	1649.18
466.928	1693.02
467.3	1665
467.672	1714.49
468.045	1751.55
468.417	1755.17
468.789	1812.34
469.161	1824.32
469.534	1844.43
469.906	1888.95
470.278	1926.01
470.65	1958.1
471.022	1974.37
471.394	2036.06
471.766	2042.39
472.138	2113.12
472.51	2145.66
472.882	2195.61
473.253	2221.59
473.625	2283.06
473.997	2342.72
474.369	2356.05
474.74	2386.56
475.112	2492.1
475.484	2529.16
475.855	2596.27
476.227	2646.89
476.598	2734.12
476.97	2799.66
477.341	2838.75
477.713	2954.68
478.084	2975.92
478.455	3084.17
478.827	3116.03
479.198	3237.39
479.569	3297.72
479.94	3404.39
480.311	3507.21
480.682	3574.78
481.053	3656.81
481.424	3782.46
481.795	3860.65
482.166	3990.14
482.537	4073.75
482.908	4271.03
483.279	4312.84
483.65	4393.06
484.021	4524.13
484.391	4611.14
484.762	4782.88
485.133	4882.09
485.503	5000.28
485.874	5078.24
486.244	5267.62
486.615	5405.47
486.985	5500.83
487.356	5685.91
487.726	5766.36
488.097	5958.22
488.467	6062.62
488.837	6167.03
489.207	6352.11
489.578	6513.23
489.948	6609.28
490.318	6837.97
490.688	6894.92
491.058	7091.75
491.428	7235.47
491.798	7355.47
492.168	7605.18
492.538	7701.9
492.908	7848.56
493.278	8044.04
493.648	8140.31
494.017	8345.73
494.387	8480.19
494.757	8570.81
495.126	8700.75
495.496	8844.7
495.866	8891.7
496.235	9141.41
496.605	9246.49
496.974	9405.13
497.344	9514.06
497.713	9604.68
498.082	9782.07
498.452	9946.36
498.821	10002.63
499.19	10078.11
499.559	10338.89
499.928	10404.66
500.298	10440.36
500.667	10641.49
501.036	10645.1
501.405	10783.85
501.774	10912.67
502.143	10969.61
502.512	11101.13
502.88	11180
503.249	11354.01
503.618	11383.84
503.987	11441.46
504.356	11525.98
504.724	11689.14
505.093	11770.04
505.462	11794.22
505.83	11990.38
506.199	11981.56
506.567	12171.16
506.936	12242.57
507.304	12386.98
507.672	12404.38
508.041	12490.7
508.409	12548.1
508.777	12735.22
509.145	12838.04
509.514	12767.08
509.882	12887.3
510.25	12882.78
510.618	12999.84
510.986	13092.27
511.354	13221.08
511.722	13311.02
512.09	13377.01
512.458	13381.98
512.826	13560.05
513.193	13499.26
513.561	13565.48
513.929	13594.4
514.297	13767.73
514.664	13783.55
515.032	13820.16
515.4	13902.87
515.767	13979.7
516.135	14067.38
516.502	13875.52
516.869	14186.25
517.237	14171.56
517.604	14167.04
517.972	14350.09
518.339	14374.27
518.706	14414.49
519.073	14374.95
519.44	14441.39
519.808	14601.38
520.175	14441.16
520.542	14677.99
520.909	14710.08
521.276	14725.22
521.643	14785.11
522.009	14878.66
522.376	14875.5
522.743	14919.57
523.11	15030.75
523.477	15145.32
523.843	15129.5
524.21	15234.36
524.577	15272.1
524.943	15242.04
525.31	15371.53
525.676	15388.03
526.043	15454.24
526.409	15484.07
526.776	15523.84
527.142	15628.47
527.508	15543.28
527.874	15643.16
528.241	15665.31
528.607	15586.21
528.973	15809.94
529.339	15745.31
529.705	15840.9
530.071	15926.77
530.437	15839.77
530.803	15846.55
531.169	15875.02
531.535	15800.22
531.901	15815.36
532.267	15885.87
532.632	15971.29
532.998	15853.55
533.364	15958.63
533.73	15936.94
534.095	16100.1
534.461	15922.7
534.826	16015.58
535.192	16023.72
535.557	16056.48
535.923	15953.44
536.288	15952.76
536.653	15902.36
537.019	15946.66
537.384	15872.53
537.749	15891.74
538.114	15821.24
538.479	15867.56
538.845	15842.03
539.21	15724.52
539.575	15775.14
539.94	15766.77
540.305	15786.21
540.67	15734.91
541.034	15678.87
541.399	15684.97
541.764	15647.46
542.129	15694.69
542.494	15599.77
542.858	15649.72
543.223	15613.11
543.587	15593.22
543.952	15511.64
544.316	15618.08
544.681	15501.02
545.045	15484.75
545.41	15463.28
545.774	15416.73
546.138	15388.25
546.503	15434.13
546.867	15385.77
547.231	15376.73
547.595	15403.17
547.959	15376.95
548.324	15270.74
548.688	15264.64
549.052	15334.02
549.416	15284.08
549.779	15205.21
550.143	15137.64
550.507	15143.29
550.871	15149.39
551.235	15090.41
551.599	15179.9
551.962	15151.88
552.326	15082.05
552.689	15053.12
553.053	15000.02
553.417	14964.31
553.78	15144.19
554.143	15028.04
554.507	14946.23
554.87	14992.33
555.234	15054.7
555.597	14926.34
555.96	14882.5
556.323	14998.66
556.686	14879.79
557.05	14918.44
557.413	15004.99
557.776	14921.37
558.139	14964.31
558.502	14907.36
558.865	14845.44
559.228	15001.82
559.59	15058.54
559.953	14968.38
560.316	15070.07
560.679	15025.78
561.041	15069.84
561.404	14993.69
561.767	15058.32
562.129	14979.45
562.492	15235.72
562.854	15048.15
563.217	15007.02
563.579	15051.31
563.941	15181.93
564.304	15124.98
564.666	15054.48
565.028	15113.91
565.39	15058.54
565.753	15206.34
566.115	15207.92
566.477	15196.85
566.839	15171.99
567.201	15265.09
567.563	15282.95
567.925	15302.15
568.287	15368.14
568.648	15305.54
569.01	15456.5
569.372	15430.51
569.734	15354.13
570.095	15367.24
570.457	15450.17
570.819	15433.9
571.18	15399.33
571.542	15509.15
571.903	15378.99
572.265	15510.96
572.626	15486.1
572.987	15543.28
573.349	15587.8
573.71	15471.19
574.071	15541.24
574.432	15604.97
574.794	15630.28
575.155	15612.43
575.516	15552.32
575.877	15676.38
576.238	15614.46
576.599	15661.47
576.96	15722.71
577.32	15586.89
577.681	15718.19
578.042	15749.37
578.403	15695.14
578.763	15699.21
579.124	15758.64
579.485	15787.34
579.845	15720.9
580.206	15835.02
580.566	15700.79
580.927	15713.67
581.287	15798.86
581.648	15663.27
582.008	15821.69
582.368	15701.24
582.728	15746.89
583.089	15706.89
583.449	15621.02
583.809	15693.1
584.169	15680.68
584.529	15583.95
584.889	15837.06
585.249	15748.7
585.609	15623.28
585.969	15687.68
586.329	15616.04
586.688	15659.66
587.048	15607.91
587.408	15553.9
587.768	15528.59
588.127	15555.25
588.487	15453.34
588.846	15653.78
589.206	15505.09
589.565	15512.77
589.925	15661.01
590.284	15571.53
590.643	15523.17
591.003	15558.87
591.362	15631.86
591.721	15543.05
592.08	15568.81
592.44	15555.71
592.799	15504.86
593.158	15556.38
593.517	15470.74
593.876	15544.18
594.235	15432.09
594.593	15449.27
594.952	15470.96
595.311	15400.46
595.67	15386.22
596.029	15451.08
596.387	15507.12
596.746	15573.79
597.104	15396.16
597.463	15443.39
597.822	15453.11
598.18	15393.9
598.538	15445.88
598.897	15342.83
599.255	15320.01
599.613	15530.4
599.972	15417.41
600.33	15396.39
600.688	15393.68
601.046	15381.02
601.404	15435.03
601.762	15403.39
602.12	15425.54
602.478	15475.48
602.836	15446.78
603.194	15384.41
603.552	15367.01
603.91	15404.75
604.268	15394.81
604.625	15324.75
604.983	15457.4
605.341	15446.78
605.698	15554.35
606.056	15481.13
606.413	15389.61
606.771	15463.96
607.128	15445.2
607.485	15464.86
607.843	15407.46
608.2	15544.41
608.557	15448.36
608.914	15459.66
609.272	15541.92
609.629	15465.09
609.986	15555.03
610.343	15489.49
610.7	15605.87
611.057	15502.37
611.414	15535.82
611.771	15648.36
612.127	15573.33
612.484	15608.36
612.841	15604.75
613.198	15573.79
613.554	15602.26
613.911	15695.59
614.267	15674.8
614.624	15675.03
614.98	15733.56
615.337	15812.65
615.693	15758.64
616.05	15789.15
616.406	15830.73
616.762	15782.37
617.118	15733.56
617.475	15836.38
617.831	15849.94
618.187	15791.18
618.543	15924.28
618.899	15964.06
619.255	15922.02
619.611	15818.3
619.967	15980.1
620.323	15875.47
620.678	15862.82
621.034	15755.48
621.39	15847.45
621.746	15820.11
622.101	15958.18
622.457	15808.81
622.812	15905.53
623.168	15920.89
623.523	15905.53
623.879	15883.38
624.234	15814.23
624.589	15947.33
624.945	15843.16
625.3	15863.72
625.655	15831.18
626.01	15878.64
626.365	15827.56
626.72	15766.55
627.075	15882.7
627.43	15825.76
627.785	15807.68
628.14	15816.94
628.495	15870.5
628.85	15835.93
629.205	15906.88
629.559	15931.97
629.914	15743.05
630.269	15840.22
630.623	15751.86
630.978	15752.09
631.332	15810.62
631.687	15809.26
632.041	15685.87
632.396	15720.9
632.75	15682.26
633.104	15733.56
633.459	15595.03
633.813	15568.59
634.167	15612.2
634.521	15509.15
634.875	15623.5
635.229	15552.09
635.583	15584.63
635.937	15545.54
636.291	15561.13
636.645	15469.61
636.999	15414.69
637.352	15448.14
637.706	15341.7
638.06	15478.65
638.413	15418.54
638.767	15407.01
639.121	15402.72
639.474	15379.44
639.828	15413.11
640.181	15394.13
640.534	15381.7
640.888	15345.77
641.241	15274.81
641.594	15239.1
641.947	15368.82
642.301	15291.76
642.654	15292.44
643.007	15228.94
643.36	15312.1
643.713	15152.78
644.066	15266.45
644.419	15215.6
644.771	15118.88
645.124	14925.21
645.477	14823.07
645.83	14837.31
646.182	14744.65
646.535	14706.24
646.888	14721.38
647.24	14677.31
647.593	14856.74
647.945	14712.34
648.298	14608.84
648.65	14662.62
649.002	14642.74
649.355	14669.18
649.707	14743.07
650.059	14772.22
650.411	14930.19
650.763	14858.1
651.115	15110.07
651.467	15069.84
651.819	14919.34
652.171	14981.94
652.523	14926.12
652.875	14993.91
653.227	14920.02
653.578	15009.73
653.93	15014.03
654.282	14927.25
654.633	14910.53
654.985	15002.95
655.337	14962.73
655.688	14927.47
656.039	15088.15
656.391	14929.96
656.742	14869.62
657.094	14971.99
657.445	15044.99
657.796	14992.33
658.147	15005.44
658.498	15010.41
658.849	15021.26
659.2	15067.58
659.551	14967.47
659.902	15072.33
660.253	15016.51
660.604	14997.98
660.955	14903.52
661.306	15024.65
661.656	14971.09
662.007	15000.24
662.358	15018.55
662.708	15001.37
663.059	14942.16
663.409	14947.59
663.76	15033.91
664.11	14945.78
664.461	15018.77
664.811	15217.18
665.161	15029.39
665.511	15073.69
665.862	15042.27
666.212	15089.96
666.562	15028.72
666.912	15057.41
667.262	15030.97
667.612	14998.43
667.962	15081.59
668.312	14986.91
668.662	15114.81
669.011	15033.23
669.361	15066.91
669.711	15073.91
670.06	15031.65
670.41	15032.78
670.76	14996.85
671.109	15061.71
671.459	14980.35
671.808	14998.43
672.157	15005.44
672.507	14950.75
672.856	14875.5
673.205	14968.83
673.554	14894.93
673.904	14920.24
674.253	15037.53
674.602	14903.75
674.951	14717.08
675.3	14643.64
675.649	14912.79
675.998	14826.01
676.346	14864.43
676.695	14845.67
677.044	14790.08
677.393	14756.86
677.741	14852.67
678.09	14702.17
678.438	14758.67
678.787	14743.75
679.135	14643.19
679.484	14647.03
679.832	14677.76
680.181	14552.12
680.529	14593.47
680.877	14584.43
681.225	14509.63
681.573	14599.35
681.922	14551.44
682.27	14533.13
682.618	14458.11
682.966	14453.59
683.314	14485.45
683.661	14419.47
684.009	14373.14
684.357	14434.61
684.705	14253.82
685.053	14318.68
685.4	14218.11
685.748	14225.35
686.095	14241.39
686.443	14139.7
686.79	14154.84
687.138	14147.38
687.485	14130.66
687.832	14007.5
688.18	14036.88
688.527	13997.56
688.874	13911.91
689.221	13856.32
689.568	13857.67
689.915	13807.05
690.262	13784.68
690.609	13828.97
690.956	13748.07
691.303	13617.45
691.65	13633.95
691.997	13640.5
692.344	13506.27
692.69	13483.67
693.037	13423.33
693.383	13243.45
693.73	13395.76
694.077	13316.9
694.423	13311.7
694.769	13194.64
695.116	13274.18
695.462	13193.74
695.808	13201.19
696.155	13128.43
696.501	13016.34
696.847	12967.53
697.193	12877.59
697.539	12918.94
697.885	12809.79
698.231	12782.67
698.577	12740.64
698.923	12790.58
699.269	12728.89
699.614	12568.67
699.96	12599.4
700.306	12494.32
700.651	12469.91
700.997	12457.26
701.342	12444.6
701.688	12464.04
702.033	12331.84
702.379	12288.45
702.724	12243.03
703.069	12216.13
703.415	12131.84
703.76	12184.27
704.105	12115.57
704.45	12172.74
704.795	12010.94
705.14	11945.63
705.485	11929.14
705.83	11851.85
706.175	11886.42
706.52	11825.86
706.865	11719.88
707.209	11690.72
707.554	11673.77
707.899	11711.74
708.243	11608.92
708.588	11615.7
708.932	11539.54
709.277	11528.24
709.621	11499.09
709.966	11393.33
710.31	11427
710.654	11339.32
710.998	11353.11
711.342	11370.05
711.687	11334.57
712.031	11252.32
712.375	11233.33
712.719	11256.16
713.063	11187.46
713.407	11268.81
713.75	11186.56
714.094	11202.15
714.438	11090.74
714.782	11117.86
715.125	11108.59
715.469	11080.34
715.812	11034.7
716.156	11061.59
716.499	10994.92
716.843	11036.28
717.186	10953.34
717.53	10987.01
717.873	10999.89
718.216	10952.21
718.559	10901.37
718.902	10858.43
719.246	10996.96
719.589	10854.36
719.932	10799
720.275	10897.07
720.617	10790.41
720.96	10803.06
721.303	10795.61
721.646	10730.75
721.989	10770.3
722.331	10768.94
722.674	10713.8
723.016	10722.84
723.359	10716.96
723.701	10649.62
724.044	10653.69
724.386	10610.07
724.729	10618.66
725.071	10649.85
725.413	10615.5
725.755	10629.51
726.097	10501.6
726.439	10530.75
726.782	10543.41
727.124	10550.64
727.465	10490.3
727.807	10448.04
728.149	10463.64
728.491	10443.52
728.833	10542.73
729.175	10406.92
729.516	10446.01
729.858	10484.65
730.199	10556.29
730.541	10445.78
730.882	10544.31
731.224	10460.7
731.565	10454.37
731.906	10378.22
732.248	10528.27
732.589	10447.37
732.93	10356.3
733.271	10357.65
733.612	10428.16
733.953	10449.63
734.294	10382.28
734.635	10379.12
734.976	10476.74
735.317	10367.59
735.658	10403.53
735.999	10451.43
736.339	10403.53
736.68	10419.34
737.021	10408.95
737.361	10435.16
737.702	10510.64
738.042	10425.22
738.383	10390.64
738.723	10490.3
739.063	10467.93
739.404	10520.13
739.744	10413.92
740.084	10459.57
740.424	10562.17
740.764	10463.64
741.104	10567.59
741.444	10482.62
741.784	10545.44
742.124	10598.32
742.464	10532.11
742.804	10521.04
743.143	10635.61
743.483	10599.45
743.823	10662.5
744.162	10678.09
744.502	10712.9
744.841	10674.03
745.181	10752.67
745.52	10790.63
745.86	10783.63
746.199	10848.03
746.538	10903.4
746.877	11013.23
747.216	11060.91
747.556	11101.36
747.895	11079.89
748.234	11124.18
748.573	11143.17
748.911	11242.15
749.25	11295.03
749.589	11338.87
749.928	11394.69
750.267	11602.36
750.605	11566.89
750.944	11637.62
751.283	11609.6
751.621	11778.18
751.96	11895.24
752.298	11938.85
752.636	12121.67
752.975	12210.26
753.313	12261.56
753.651	12452.06
753.989	12426.07
754.327	12558.27
754.666	12697.48
755.004	12791.94
755.342	12960.75
755.679	13116.9
