Data from hue_60_FLMS001491_63.txt Node
Date: Mon Feb 06 15:17:43 GMT 2017
User: dcchb
Spectrometer: FLMS00149
Trigger mode: 0
Integration Time (sec): 2.000000E-2
Scans to average: 10
Electric dark correction enabled: true
Nonlinearity correction enabled: false
Boxcar width: 0
XAxis mode: Wavelengths
Number of Pixels in Spectrum: 2048
>>>>>Begin Spectral Data<<<<<
341.393	-14.05
341.776	-14.05
342.16	-14.05
342.543	-59.25
342.927	-55.18
343.31	-65.58
343.693	-57.67
344.077	-46.82
344.46	-66.48
344.843	-62.87
345.226	-40.72
345.61	-26.03
345.993	-18.12
346.376	-6.6
346.759	6.51
347.142	14.87
347.525	60.97
347.908	51.03
348.291	64.14
348.674	69.79
349.057	123.57
349.44	123.57
349.823	149.78
350.206	153.85
350.588	192.95
350.971	207.86
351.354	226.62
351.737	240.4
352.119	275.43
352.502	267.3
352.884	279.27
353.267	278.14
353.65	294.87
354.032	303.45
354.414	306.39
354.797	302.55
355.179	329.89
355.562	353.39
355.944	335.99
356.326	308.88
356.709	337.12
357.091	325.15
357.473	339.61
357.855	343.23
358.238	351.13
358.62	329.89
359.002	340.51
359.384	341.42
359.766	355.65
360.148	352.04
360.53	334.19
360.912	335.32
361.294	322.66
361.676	302.77
362.057	340.29
362.439	343.23
362.821	346.84
363.203	320.4
363.584	318.37
363.966	346.16
364.348	336.22
364.729	341.87
365.111	319.95
365.493	310.91
365.874	316.33
366.256	316.56
366.637	321.08
367.019	316.56
367.4	316.79
367.781	323.79
368.163	322.21
368.544	329.21
368.925	319.05
369.306	321.31
369.688	322.66
370.069	315.66
370.45	319.5
370.831	332.83
371.212	322.89
371.593	310.91
371.974	313.17
372.355	318.37
372.736	314.53
373.117	315.88
373.498	320.85
373.879	315.43
374.26	306.16
374.641	301.64
375.021	324.24
375.402	312.49
375.783	349.1
376.163	322.21
376.544	328.76
376.925	330.12
377.305	318.82
377.686	316.79
378.066	321.53
378.447	326.5
378.827	319.95
379.208	342.77
379.588	318.59
379.968	331.7
380.349	336.45
380.729	325.82
381.109	342.1
381.489	313.62
381.87	349.55
382.25	340.74
382.63	341.42
383.01	342.77
383.39	340.51
383.77	314.53
384.15	333.51
384.53	345.94
384.91	351.59
385.29	337.12
385.67	340.06
386.049	361.3
386.429	344.81
386.809	363.34
387.189	368.76
387.568	357.46
387.948	373.06
388.328	339.38
388.707	348.88
389.087	374.19
389.466	353.39
389.846	376.67
390.225	341.87
390.605	363.34
390.984	375.77
391.363	372.83
391.743	360.85
392.122	366.28
392.501	368.99
392.881	350.68
393.26	349.33
393.639	363.79
394.018	372.38
394.397	366.73
394.776	361.08
395.155	367.63
395.534	380.74
395.913	380.06
396.292	382.55
396.671	361.53
397.05	352.04
397.429	373.51
397.808	357.46
398.186	377.12
398.565	365.82
398.944	382.32
399.323	387.29
399.701	393.39
400.08	388.87
400.458	399.5
400.837	401.98
401.215	387.97
401.594	397.01
401.972	369.44
402.351	392.72
402.729	376.22
403.107	373.28
403.486	406.95
403.864	390.91
404.242	430.68
404.62	424.81
404.999	392.49
405.377	396.33
405.755	404.47
406.133	418.93
406.511	410.57
406.889	419.83
407.267	405.82
407.645	405.6
408.023	426.61
408.401	403.79
408.779	433.39
409.156	418.48
409.534	439.27
409.912	438.14
410.29	426.16
410.667	428.19
411.045	440.62
411.422	425.03
411.8	436.78
412.178	482.43
412.555	459.61
412.933	448.53
413.31	467.52
413.687	460.51
414.065	464.13
414.442	447.18
414.819	471.13
415.197	468.19
415.574	467.29
415.951	452.38
416.328	470
416.705	484.24
417.082	463.9
417.46	478.59
417.837	479.27
418.214	492.83
418.591	486.27
418.967	514.97
419.344	466.61
419.721	487.4
420.098	495.31
420.475	497.35
420.852	510
421.228	520.62
421.605	504.8
421.982	511.13
422.358	502.77
422.735	517.91
423.111	511.36
423.488	541.86
423.864	535.76
424.241	532.15
424.617	522.43
424.994	539.83
425.37	529.44
425.746	528.76
426.123	552.26
426.499	526.05
426.875	553.16
427.251	543.67
427.627	547.29
428.003	561.07
428.379	572.82
428.756	568.08
429.132	582.99
429.507	562.2
429.883	584.58
430.259	606.27
430.635	580.96
431.011	595.65
431.387	612.6
431.763	586.38
432.138	599.94
432.514	609.66
432.89	618.7
433.265	604.24
433.641	595.65
434.016	605.59
434.392	625.25
434.767	636.55
435.143	623.22
435.518	651.69
435.894	645.82
436.269	655.99
436.644	646.04
437.02	667.51
437.395	675.87
437.77	669.09
438.145	675.42
438.52	674.06
438.895	686.72
439.271	684.91
439.646	701.41
440.021	698.7
440.395	720.16
440.77	712.48
441.145	712.03
441.52	726.04
441.895	730.79
442.27	723.1
442.645	728.3
443.019	745.02
443.394	695.98
443.769	717
444.143	745.93
444.518	760.84
444.892	733.72
445.267	733.95
445.641	762.42
446.016	730.33
446.39	756.77
446.764	744.34
447.139	763.78
447.513	758.36
447.887	747.73
448.262	771.24
448.636	788.64
449.01	779.37
449.384	774.85
449.758	782.76
450.132	808.3
450.506	801.52
450.88	833.83
451.254	821.86
451.628	817.56
452.002	822.53
452.376	819.82
452.75	837.22
453.123	866.38
453.497	856.21
453.871	866.6
454.244	884.23
454.618	875.64
454.992	909.31
455.365	909.31
455.739	896.88
456.112	904.11
456.486	923.1
456.859	938.24
457.232	915.64
457.606	930.1
457.979	946.37
458.352	960.84
458.725	969.42
459.099	980.27
459.472	999.71
459.845	1011.23
460.218	1013.72
460.591	1003.55
460.964	1052.36
461.337	1053.04
461.71	1069.53
462.083	1069.76
462.456	1060.04
462.829	1107.27
463.201	1085.35
463.574	1112.02
463.947	1119.93
464.32	1142.75
464.692	1150.89
465.065	1173.49
465.438	1170.32
465.81	1221.39
466.183	1228.85
466.555	1254.61
466.928	1286.25
467.3	1267.27
467.672	1285.8
468.045	1323.54
468.417	1293.03
468.789	1371.45
469.161	1341.39
469.534	1394.72
469.906	1404.67
470.278	1432.01
470.65	1478.56
471.022	1483.53
471.394	1507.94
471.766	1561.5
472.138	1588.62
472.51	1593.59
472.882	1630.2
473.253	1681.95
473.625	1705.68
473.997	1735.51
474.369	1774.6
474.74	1797.2
475.112	1851.43
475.484	1928.04
475.855	1942.51
476.227	1985.67
476.598	2050.53
476.97	2081.48
477.341	2150.64
477.713	2229.96
478.084	2247.81
478.455	2330.07
478.827	2411.87
479.198	2482.83
479.569	2512.43
479.94	2606.22
480.311	2650.96
480.682	2753.11
481.053	2814.35
481.424	2919.88
481.795	2976.15
482.166	3043.04
482.537	3159.2
482.908	3289.59
483.279	3316.25
483.65	3462.24
484.021	3546.31
484.391	3603.93
484.762	3742.23
485.133	3816.58
485.503	3922.57
485.874	4075.78
486.244	4168.89
486.615	4312.16
486.985	4414.98
487.356	4545.37
487.726	4701.98
488.097	4832.37
488.467	4886.16
488.837	5049.99
489.207	5172.48
489.578	5342.19
489.948	5442.3
490.318	5585.8
490.688	5758.68
491.058	5854.04
491.428	6060.14
491.798	6168.61
492.168	6404.31
492.538	6463.74
492.908	6623.74
493.278	6795.71
493.648	6914.58
494.017	7060.56
494.387	7237.51
494.757	7343.95
495.126	7510.95
495.496	7661.23
495.866	7800.2
496.235	7945.29
496.605	8109.12
496.974	8251.04
497.344	8475.44
497.713	8516.8
498.082	8658.71
498.452	8855.54
498.821	9047.63
499.19	9122.88
499.559	9274.06
499.928	9481.29
500.298	9599.93
500.667	9742.53
501.036	9834.73
501.405	10031.78
501.774	10079.92
502.143	10293.25
502.512	10390.42
502.88	10550.64
503.249	10688.72
503.618	10788.6
503.987	10952.66
504.356	11098.87
504.724	11218.19
505.093	11360.79
505.462	11441.46
505.83	11623.15
506.199	11780.89
506.567	11914.67
506.936	11956.48
507.304	12287.09
507.672	12373.87
508.041	12493.87
508.409	12535.45
508.777	12720.75
509.145	12904.03
509.514	12930.01
509.882	13071.48
510.25	13242.77
510.618	13362.54
510.986	13458.36
511.354	13655.19
511.722	13820.61
512.09	14009.31
512.458	13957.33
512.826	14166.14
513.193	14305.12
513.561	14358
513.929	14555.06
514.297	14699.91
514.664	14897.65
515.032	14955.72
515.4	15124.53
515.767	15192.78
516.135	15359.55
516.502	15310.52
516.869	15661.24
517.237	15799.99
517.604	15740.56
517.972	15978.29
518.339	16020.55
518.706	16105.75
519.073	16311.85
519.44	16409.7
519.808	16613.08
520.175	16613.76
520.542	16802.91
520.909	16976.91
521.276	17042.9
521.643	17220.52
522.009	17389.56
522.376	17465.04
522.743	17719.72
523.11	17804.46
523.477	17891.24
523.843	18102.08
524.21	18303.88
524.577	18478.79
524.943	18661.84
525.31	18702.06
525.676	18806.92
526.043	19038.78
526.409	19048.5
526.776	19403.74
527.142	19409.62
527.508	19560.12
527.874	19697.29
528.241	19817.74
528.607	19891.86
528.973	20120.56
529.339	20121.69
529.705	20288.69
530.071	20515.12
530.437	20533.2
530.803	20687.55
531.169	20808
531.535	20812.07
531.901	20915.57
532.267	21153.3
532.632	21203.92
532.998	21274.2
533.364	21453.4
533.73	21475.55
534.095	21576.34
534.461	21652.04
534.826	21958.48
535.192	21971.13
535.557	22105.59
535.923	22068.3
536.288	22236.66
536.653	22322.53
537.019	22304.23
537.384	22514.85
537.749	22626.26
538.114	22605.92
538.479	22585.8
538.845	22856.98
539.21	22675.52
539.575	22823.31
539.94	22982.18
540.305	23021.73
540.67	23111.67
541.034	23158.44
541.399	23292.9
541.764	23334.94
542.129	23408.38
542.494	23481.15
542.858	23593.24
543.223	23610.41
543.587	23730.63
543.952	23707.36
544.316	23834.13
544.681	23912.1
545.045	24078.42
545.41	24127.01
545.774	24233.44
546.138	24197.51
546.503	24230.73
546.867	24292.43
547.231	24516.83
547.595	24469.6
547.959	24672.76
548.324	24699.42
548.688	24771.28
549.052	24821.45
549.416	24827.78
549.779	25032.52
550.143	25124.27
550.507	25243.36
550.871	25273.19
551.235	25305.96
551.599	25394.09
551.962	25497.82
552.326	25562.68
552.689	25747.3
553.053	25653.52
553.417	25688.77
553.78	26116.33
554.143	25949.78
554.507	26088.99
554.87	26122.89
555.234	26448.75
555.597	26364.69
555.96	26431.58
556.323	26612.14
556.686	26609.2
557.05	26832.7
557.413	26840.83
557.776	26911.34
558.139	27070.88
558.502	27222.07
558.865	27291.22
559.228	27441.95
559.59	27670.87
559.953	27568.95
560.316	27866.34
560.679	27864.31
561.041	28045.55
561.404	28115.38
561.767	28241.25
562.129	28339.33
562.492	28684.63
562.854	28638.07
563.217	28582.26
563.579	28810.95
563.941	28951.51
564.304	29129.81
564.666	29267.89
565.028	29429.01
565.39	29454.55
565.753	29595.34
566.115	29721.21
566.477	29777.48
566.839	29871.49
567.201	30069.22
567.563	30097.7
567.925	30272.38
568.287	30396.45
568.648	30326.39
569.01	30599.61
569.372	30748.08
569.734	30753.95
570.095	30844.34
570.457	30982.42
570.819	30964.12
571.18	31143.32
571.542	31305.58
571.903	31367.49
572.265	31378.79
572.626	31469.41
572.987	31631.89
573.349	31711.89
573.71	31926.12
574.071	31871.44
574.432	31947.82
574.794	32297.87
575.155	32199.79
575.516	32165.67
575.877	32289.73
576.238	32306.9
576.599	32596.16
576.96	32517.07
577.32	32548.71
577.681	32754.35
578.042	32787.57
578.403	32856.72
578.763	32903.95
579.124	32871.18
579.485	33060.78
579.845	33066.88
580.206	33001.12
580.566	33190.72
580.927	33226.65
581.287	33270.95
581.648	33117.05
582.008	33347.78
582.368	33275.01
582.728	33414.45
583.089	33384.16
583.449	33379.42
583.809	33426.42
584.169	33656.93
584.529	33310.49
584.889	33700.77
585.249	33462.58
585.609	33435.01
585.969	33655.8
586.329	33559.98
586.688	33544.84
587.048	33571.05
587.408	33643.14
587.768	33513.43
588.127	33584.39
588.487	33615.57
588.846	33859.18
589.206	33588.23
589.565	33654.67
589.925	33776.7
590.284	33704.38
590.643	33874.77
591.003	33916.58
591.362	34089
591.721	33800.42
592.08	33967.2
592.44	33992.06
592.799	34028.44
593.158	33870.71
593.517	33929.69
593.876	34054.88
594.235	33910.25
594.593	34070.02
594.952	34068.89
595.311	33992.28
595.67	34199.51
596.029	34359.51
596.387	34291.94
596.746	34491.25
597.104	34293.52
597.463	34235.22
597.822	34380.75
598.18	34344.37
598.538	34288.32
598.897	34509.11
599.255	34168.55
599.613	34822.77
599.972	34649.44
600.33	34799.27
600.688	34536.22
601.046	34673.62
601.404	34645.37
601.762	34709.78
602.12	34937.57
602.478	34910.9
602.836	34931.47
603.194	34826.39
603.552	34916.78
603.91	34900.28
604.268	34976.67
604.625	34977.79
604.983	34967.17
605.341	34972.82
605.698	35128.3
606.056	35295.07
606.413	35277
606.771	35466.14
607.128	35304.34
607.485	35317.67
607.843	35366.49
608.2	35613.26
608.557	35622.98
608.914	35581.17
609.272	35796.76
609.629	35783.42
609.986	35855.74
610.343	35722.18
610.7	36008.28
611.057	35988.16
611.414	36054.6
611.771	36123.75
612.127	36196.75
612.484	36256.63
612.841	36400.36
613.198	36260.93
613.554	36434.25
613.911	36587.7
614.267	36368.72
614.624	36404.2
614.98	36583.63
615.337	36748.37
615.693	36678.09
616.05	36655.49
616.406	37018.87
616.762	36824.3
617.118	36827.46
617.475	36749.73
617.831	37053.22
618.187	37056.16
618.543	37109.72
618.899	37281.69
619.255	37238.53
619.611	37265.64
619.967	37434.68
620.323	37455.7
620.678	37332.76
621.034	37237.85
621.39	37435.36
621.746	37235.36
622.101	37827.89
622.457	37352.87
622.812	37521.68
623.168	37649.14
623.523	37656.82
623.879	37639.19
624.234	37440.56
624.589	37714.45
624.945	37683.71
625.3	37837.38
625.655	37763.26
626.01	37819.53
626.365	37868.11
626.72	37689.59
627.075	37869.92
627.43	37748.12
627.785	37911.05
628.14	37935.91
628.495	37888.9
628.85	37869.92
629.205	37655.46
629.559	38043.48
629.914	37939.07
630.269	37984.72
630.623	37844.61
630.978	37862.69
631.332	37902.92
631.687	37926.64
632.041	37809.36
632.396	37873.54
632.75	37627.22
633.104	37826.31
633.459	37721.9
633.813	37708.12
634.167	37751.73
634.521	37629.25
634.875	37738.85
635.229	37705.86
635.583	37689.81
635.937	37510.38
636.291	37554.9
636.645	37697.95
636.999	37406.21
637.352	37555.58
637.706	37377.51
638.06	37546.77
638.413	37387.45
638.767	37316.04
639.121	37345.42
639.474	37065.88
639.828	37255.93
640.181	37297.06
640.534	37281.92
640.888	37153.56
641.241	36970.96
641.594	37200.79
641.947	37111.3
642.301	36998.76
642.654	37037.18
643.007	37140.9
643.36	37076.04
643.713	37008.93
644.066	37175.48
644.419	36973
644.771	36594.02
645.124	36410.07
645.477	36355.61
645.83	36105.22
646.182	35964.66
646.535	35886.92
646.888	35969.41
647.24	35664.78
647.593	35983.19
647.945	35743.2
648.298	35751.79
648.65	35705.91
649.002	35549.53
649.355	35654.84
649.707	35670.66
650.059	35776.87
650.411	36212.79
650.763	36200.81
651.115	36600.58
651.467	36324.65
651.819	36490.52
652.171	36412.11
652.523	36304.54
652.875	36423.63
653.227	36105.22
653.578	36457.53
653.93	36395.16
654.282	36226.8
654.633	36109.97
654.985	36307.48
655.337	36257.08
655.688	36224.77
656.039	36315.16
656.391	36109.52
656.742	36078.78
657.094	36098.22
657.445	36209.18
657.796	36260.7
658.147	36142.06
658.498	36061.38
658.849	36149.74
659.2	36084.21
659.551	36096.18
659.902	36037.43
660.253	35996.98
660.604	36061.83
660.955	35963.76
661.306	36011.89
661.656	35920.82
662.007	35929.41
662.358	35941.16
662.708	36013.93
663.059	35844.44
663.409	35729.64
663.76	35884.66
664.11	35975.73
664.461	35986.81
664.811	35923.08
665.161	35869.07
665.511	35773.25
665.862	35839.02
666.212	35861.61
666.562	35846.47
666.912	35850.77
667.262	35733.26
667.612	35854.16
667.962	35916.3
668.312	35732.35
668.662	35983.64
669.011	35866.59
669.361	35755.85
669.711	35621.17
670.06	35663.43
670.41	35677.66
670.76	35569.19
671.109	35781.62
671.459	35663.2
671.808	35639.02
672.157	35760.37
672.507	35425.47
672.856	35523.54
673.205	35497.1
673.554	35616.65
673.904	35450.1
674.253	35695.29
674.602	35472.47
674.951	35010.56
675.3	34862.77
675.649	35502.75
675.998	35302.08
676.346	35347.05
676.695	35479.7
677.044	35279.93
677.393	35323.77
677.741	35336.2
678.09	35260.95
678.438	35155.19
678.787	35368.29
679.135	35310.22
679.484	35133.72
679.832	35112.71
680.181	34907.51
680.529	34950.68
680.877	34946.16
681.225	34818.03
681.573	35153.16
681.922	34964.24
682.27	34783.68
682.618	34746.84
682.966	34684.24
683.314	34617.35
683.661	34775.54
684.009	34431.37
684.357	34462.33
684.705	34396.79
685.053	34472.05
685.4	34256.91
685.748	34245.84
686.095	34183.01
686.443	34120.19
686.79	33971.95
687.138	34069.8
687.485	34063.47
687.832	33877.03
688.18	33897.37
688.527	33646.76
688.874	33849.01
689.221	33788
689.568	33644.72
689.915	33585.97
690.262	33503.71
690.609	33522.92
690.956	33388.01
691.303	33325.41
691.65	33174.45
691.997	33267.33
692.344	33007.9
692.69	33066.66
693.037	33035.7
693.383	32768.36
693.73	32997.28
694.077	32574.69
694.423	32664.41
694.769	32487.92
695.116	32407.92
695.462	32473.68
695.808	32419.67
696.155	32427.58
696.501	32091.32
696.847	32180.35
697.193	31994.82
697.539	32013.58
697.885	31783.53
698.231	31654.04
698.577	31777.65
698.923	31676.19
699.269	31566.13
699.614	31391.22
699.96	31391.9
700.306	31334.05
700.651	31181.74
700.997	31076.65
701.342	31074.17
701.688	30984
702.033	30905.36
702.379	30891.8
702.724	30794.18
703.069	30808.19
703.415	30446.16
703.76	30451.36
704.105	30480.96
704.45	30346.96
704.795	30222.67
705.14	30186.28
705.485	30071.03
705.83	29976.12
706.175	30047.53
706.52	29909.91
706.865	29824.48
707.209	29711.72
707.554	29701.32
707.899	29805.5
708.243	29517.15
708.588	29468.34
708.932	29362.8
709.277	29344.5
709.621	29348.79
709.966	29210.26
710.31	29302.24
710.654	28936.6
710.998	29150.83
711.342	29111.28
711.687	28960.55
712.031	28936.82
712.375	28806.43
712.719	28810.05
713.063	28749.26
713.407	28852.76
713.75	28622.93
714.094	28568.92
714.438	28622.26
714.782	28666.32
715.125	28495.25
715.469	28450.73
715.812	28345.2
716.156	28232.66
716.499	28123.74
716.843	28193.11
717.186	28134.59
717.53	28174.36
717.873	28237.63
718.216	28142.49
718.559	27915.38
718.902	27716.07
719.246	27827.02
719.589	27732.34
719.932	27566.46
720.275	27666.57
720.617	27560.81
720.96	27561.94
721.303	27549.52
721.646	27479.91
721.989	27280.6
722.331	27514.71
722.674	27302.74
723.016	27305.23
723.359	27313.36
723.701	27259.81
724.044	27077.44
724.386	26888.52
724.729	27216.87
725.071	26970.55
725.413	26994.28
725.755	27046.7
726.097	26806.94
726.439	26727.39
726.782	26718.35
727.124	26735.53
727.465	26654.62
727.807	26709.76
728.149	26616.88
728.491	26543.89
728.833	26509.09
729.175	26523.1
729.516	26465.48
729.858	26443.56
730.199	26388.87
730.541	26335.31
730.882	26237.23
731.224	26435.42
731.565	26169.21
731.906	26204.92
732.248	26227.97
732.589	26088.99
732.93	25976.68
733.271	26028.43
733.612	26026.84
733.953	25992.27
734.294	25800.18
734.635	25781.88
734.976	25924.25
735.317	25697.36
735.658	25780.3
735.999	25785.04
736.339	25684.25
736.68	25820.07
737.021	25537.14
737.361	25506.63
737.702	25609.23
738.042	25563.58
738.383	25491.49
738.723	25459.18
739.063	25376.69
739.404	25368.56
739.744	25305.96
740.084	25313.87
740.424	25402.23
740.764	25269.58
741.104	25300.76
741.444	25135.34
741.784	25172.18
742.124	25164.49
742.464	24963.6
742.804	25016.02
743.143	25013.76
743.483	24984.61
743.823	24805.18
744.162	24863.48
744.502	24968.11
744.841	24783.94
745.181	24844.28
745.52	24744.39
745.86	24806.76
746.199	24627.11
746.538	24538.75
746.877	24708.91
747.216	24705.75
747.556	24590.05
747.895	24585.3
748.234	24399.54
748.573	24490.16
748.911	24412.65
749.25	24315.93
749.589	24255.37
749.928	24289.94
750.267	24345.31
750.605	24292.43
750.944	24033.45
751.283	24089.04
751.621	24103.96
751.96	23871.19
752.298	23867.35
752.636	23956.16
752.975	23896.73
753.313	23703.06
753.651	23958.42
753.989	23725.89
754.327	23549.39
754.666	23537.87
755.004	23530.86
755.342	23649.28
755.679	23528.15
756.017	23374.71
756.355	23406.35
