Data from hue_260_FLMS001491_00098.txt Node
Date: Tue Feb 07 15:59:54 GMT 2017
User: dcchb
Spectrometer: FLMS00149
Trigger mode: 0
Integration Time (sec): 2.000000E-2
Scans to average: 10
Electric dark correction enabled: true
Nonlinearity correction enabled: false
Boxcar width: 0
XAxis mode: Wavelengths
Number of Pixels in Spectrum: 2048
>>>>>Begin Spectral Data<<<<<
341.393	-8.38
341.776	-8.38
342.16	-8.38
342.543	-53.8
342.927	-71.42
343.31	-70.52
343.693	-69.39
344.077	-66.23
344.46	-37.08
344.843	-39.34
345.226	-51.76
345.61	-33.01
345.993	-19.9
346.376	-27.36
346.759	-2.5
347.142	38.63
347.525	34.11
347.908	44.5
348.291	76.37
348.674	103.94
349.057	119.53
349.44	143.71
349.823	167.89
350.206	155.24
350.588	171.51
350.971	186.2
351.354	219.87
351.737	232.52
352.119	230.04
352.502	246.31
352.884	271.84
353.267	268.91
353.65	289.02
354.032	290.37
354.414	277.27
354.797	279.07
355.179	308.68
355.562	313.65
355.944	308.45
356.326	310.71
356.709	309.58
357.091	310.03
357.473	339.64
357.855	343.25
358.238	349.81
358.62	326.98
359.002	355.23
359.384	319.98
359.766	308
360.148	312.07
360.53	320.66
360.912	332.18
361.294	331.95
361.676	326.53
362.057	314.1
362.439	328.34
362.821	319.53
363.203	317.94
363.584	320.43
363.966	309.13
364.348	322.92
364.729	307.32
365.111	304.38
365.493	311.84
365.874	297.61
366.256	306.42
366.637	304.38
367.019	322.01
367.4	293.31
367.781	307.1
368.163	297.61
368.544	303.25
368.925	297.38
369.306	298.28
369.688	320.2
370.069	317.04
370.45	304.84
370.831	315.68
371.212	303.71
371.593	320.43
371.974	301.9
372.355	322.92
372.736	301.67
373.117	316.14
373.498	304.16
373.879	291.05
374.26	308.23
374.641	320.43
375.021	313.65
375.402	300.77
375.783	325.18
376.163	306.64
376.544	312.52
376.925	315.23
377.305	325.85
377.686	317.27
378.066	314.55
378.447	332.63
378.827	344.38
379.208	339.19
379.588	310.94
379.968	323.59
380.349	331.28
380.729	329.92
381.109	311.84
381.489	331.28
381.87	320.43
382.25	322.69
382.63	342.58
383.01	320.66
383.39	314.78
383.77	327.66
384.15	331.73
384.53	343.48
384.91	339.64
385.29	346.42
385.67	343.93
386.049	357.49
386.429	337.15
386.809	329.24
387.189	337.83
387.568	370.15
387.948	360.88
388.328	356.81
388.707	358.39
389.087	343.71
389.466	369.02
389.846	370.37
390.225	363.59
390.605	354.1
390.984	361.78
391.363	366.08
391.743	370.15
392.122	358.62
392.501	368.34
392.881	382.35
393.26	366.08
393.639	366.08
394.018	383.03
394.397	390.94
394.776	379.18
395.155	377.38
395.534	377.38
395.913	377.15
396.292	416.02
396.671	391.16
397.05	385.74
397.429	397.49
397.808	398.85
398.186	386.87
398.565	402.91
398.944	426.42
399.323	381.22
399.701	400.43
400.08	385.51
400.458	406.98
400.837	404.27
401.215	416.92
401.594	413.53
401.972	402.91
402.351	423.93
402.729	396.59
403.107	428.22
403.486	423.03
403.864	425.51
404.242	422.57
404.62	436.13
404.999	423.93
405.377	441.33
405.755	439.52
406.133	455.79
406.511	450.14
406.889	465.28
407.267	477.49
407.645	475.91
408.023	475.45
408.401	464.15
408.779	499.63
409.156	496.7
409.534	497.6
409.912	484.94
410.29	502.35
410.667	506.19
411.045	512.97
411.422	529.01
411.8	530.37
412.178	530.82
412.555	555.45
412.933	542.57
413.31	546.86
413.687	550.48
414.065	558.16
414.442	585.73
414.819	577.6
415.197	579.18
415.574	583.7
415.951	620.76
416.328	620.08
416.705	620.08
417.082	609.69
417.46	630.25
417.837	646.52
418.214	625.51
418.591	646.3
418.967	645.17
419.344	662.79
419.721	670.02
420.098	661.21
420.475	688.78
420.852	685.62
421.228	696.24
421.605	722.23
421.982	712.96
422.358	730.81
422.735	742.79
423.111	765.84
423.488	767.42
423.864	770.14
424.241	789.12
424.617	809
424.994	785.05
425.37	812.62
425.746	815.78
426.123	834.77
426.499	863.92
426.875	853.75
427.251	886.52
427.627	906.18
428.003	886.29
428.379	895.33
428.756	900.3
429.132	914.76
429.507	929.23
429.883	942.56
430.259	953.63
430.635	980.75
431.011	956.8
431.387	1005.84
431.763	1032.5
432.138	997.93
432.514	1000.19
432.89	1046.51
433.265	1040.64
433.641	1113.85
434.016	1107.08
434.392	1090.35
434.767	1137.13
435.143	1172.16
435.518	1173.29
435.894	1170.58
436.269	1197.47
436.644	1237.47
437.02	1242.21
437.395	1208.77
437.77	1242.67
438.145	1274.53
438.52	1284.25
438.895	1295.09
439.271	1342.78
439.646	1356.33
440.021	1324.7
440.395	1368.31
440.77	1371.7
441.145	1398.59
441.52	1397.92
441.895	1425.49
442.27	1474.52
442.645	1412.6
443.019	1424.13
443.394	1471.81
443.769	1481.08
444.143	1472.26
444.518	1536.44
444.892	1533.28
445.267	1542.54
445.641	1548.19
446.016	1526.73
446.39	1564.69
446.764	1604.69
447.139	1576.22
447.513	1600.62
447.887	1614.41
448.262	1621.19
448.636	1636.55
449.01	1626.38
449.384	1668.64
449.758	1651.47
450.132	1671.13
450.506	1690.11
450.88	1699.83
451.254	1709.09
451.628	1719.04
452.002	1755.42
452.376	1739.15
452.75	1765.59
453.123	1791.58
453.497	1788.41
453.871	1817.11
454.244	1858.47
454.618	1855.53
454.992	1876.77
455.365	1889.2
455.739	1928.97
456.112	1925.81
456.486	1944.34
456.859	1981.4
457.232	1989.99
457.606	1988.86
457.979	2044.45
458.352	2061.63
458.725	2093.04
459.099	2095.98
459.472	2129.42
459.845	2140.27
460.218	2183.21
460.591	2195.18
460.964	2190.44
461.337	2234.73
461.71	2253.26
462.083	2274.5
462.456	2313.37
462.829	2309.08
463.201	2339.59
463.574	2345.91
463.947	2406.25
464.32	2429.75
464.692	2450.32
465.065	2457.1
465.438	2481.95
465.81	2520.15
466.183	2538.68
466.555	2598.79
466.928	2625
467.3	2640.59
467.672	2608.96
468.045	2704.55
468.417	2679.01
468.789	2703.19
469.161	2771.66
469.534	2788.84
469.906	2839.69
470.278	2877.42
470.65	2890.98
471.022	2932.34
471.394	3017.53
471.766	3005.33
472.138	2970.08
472.51	3119
472.882	3124.65
473.253	3174.59
473.625	3189.51
473.997	3246.91
474.369	3253.23
474.74	3324.64
475.112	3362.84
475.484	3398.77
475.855	3449.84
476.227	3488.93
476.598	3582.49
476.97	3618.87
477.341	3652.77
477.713	3727.12
478.084	3737.51
478.455	3801.24
478.827	3826.1
479.198	3875.82
479.569	3950.84
479.94	4015.47
480.311	4041.01
480.682	4103.38
481.053	4197.62
481.424	4242.59
481.795	4278.97
482.166	4305.41
482.537	4366.65
482.908	4447.1
483.279	4480.32
483.65	4601.67
484.021	4630.15
484.391	4674.44
484.762	4684.16
485.133	4717.38
485.503	4827.88
485.874	4884.6
486.244	4884.83
486.615	5007.76
486.985	5078.95
487.356	5143.58
487.726	5184.26
488.097	5257.02
488.467	5257.7
488.837	5358.94
489.207	5380.41
489.578	5522.33
489.948	5488.2
490.318	5615.66
490.688	5594.87
491.058	5686.39
491.428	5686.39
491.798	5808.87
492.168	5867.63
492.538	5900.85
492.908	5920.73
493.278	5981.98
493.648	6027.4
494.017	6053.61
494.387	6125.93
494.757	6140.62
495.126	6170.45
495.496	6213.61
495.866	6252.93
496.235	6271.23
496.605	6333.38
496.974	6426.94
497.344	6437.1
497.713	6484.79
498.082	6551
498.452	6525.46
498.821	6576.08
499.19	6524.11
499.559	6632.13
499.928	6626.7
500.298	6715.52
500.667	6728.4
501.036	6688.17
501.405	6792.35
501.774	6753.93
502.143	6805.46
502.512	6816.08
502.88	6883.87
503.249	6894.27
503.618	6919.35
503.987	6917.32
504.356	6971.78
504.724	6952.35
505.093	6971.78
505.462	7063.53
505.83	7101.95
506.199	7152.34
506.567	7206.12
506.936	7164.32
507.304	7215.62
507.672	7226.69
508.041	7196.41
508.409	7277.08
508.777	7346.46
509.145	7295.84
509.514	7332.45
509.882	7325.89
510.25	7333.13
510.618	7370.64
510.986	7372.45
511.354	7427.14
511.722	7483.63
512.09	7548.49
512.458	7539.67
512.826	7529.51
513.193	7480.92
513.561	7596.4
513.929	7564.76
514.297	7654.93
514.664	7702.83
515.032	7661.03
515.4	7681.37
515.767	7648.15
516.135	7710.74
516.502	7617.64
516.869	7775.37
517.237	7766.79
517.604	7753
517.972	7773.34
518.339	7789.16
518.706	7825.77
519.073	7832.77
519.44	7787.13
519.808	7858.08
520.175	7823.06
520.542	7929.49
520.909	7936.5
521.276	7899.89
521.643	7940.12
522.009	7993.22
522.376	8039.32
522.743	7965.43
523.11	8069.6
523.477	8146.66
523.843	8112.09
524.21	8127.46
524.577	8194.35
524.943	8185.53
525.31	8147.79
525.676	8188.25
526.043	8261.92
526.409	8302.14
526.776	8326.32
527.142	8303.04
527.508	8320.67
527.874	8355.02
528.241	8276.83
528.607	8307.34
528.973	8407
529.339	8303.72
529.705	8388.92
530.071	8433.66
530.437	8404.74
530.803	8446.09
531.169	8484.06
531.535	8423.72
531.901	8482.02
532.267	8438.86
532.632	8448.13
532.998	8424.62
533.364	8416.71
533.73	8457.16
534.095	8484.06
534.461	8481.12
534.826	8396.6
535.192	8472.76
535.557	8513.89
535.923	8563.38
536.288	8518.41
536.653	8504.17
537.019	8464.62
537.384	8462.59
537.749	8448.58
538.114	8476.37
538.479	8451.29
538.845	8504.17
539.21	8404.28
539.575	8441.57
539.94	8430.05
540.305	8417.17
540.67	8456.94
541.034	8433.44
541.399	8461.46
541.764	8407.22
542.129	8436.37
542.494	8397.05
542.858	8441.12
543.223	8404.51
543.587	8429.14
543.952	8367.45
544.316	8464.62
544.681	8381.23
545.045	8387.56
545.41	8402.93
545.774	8371.97
546.138	8334
546.503	8378.3
546.867	8347.56
547.231	8355.47
547.595	8366.32
547.959	8350.27
548.324	8298.07
548.688	8289.26
549.052	8348.69
549.416	8323.61
549.779	8290.62
550.143	8356.38
550.507	8370.39
550.871	8338.52
551.235	8284.06
551.599	8248.13
551.962	8309.15
552.326	8294.23
552.689	8286.1
553.053	8237.06
553.417	8249.26
553.78	8305.76
554.143	8281.8
554.507	8295.36
554.87	8314.57
555.234	8334.23
555.597	8239.32
555.96	8298.75
556.323	8365.64
556.686	8287.23
557.05	8385.75
557.413	8280.45
557.776	8290.16
558.139	8306.43
558.502	8317.06
558.865	8275.25
559.228	8343.95
559.59	8321.57
559.953	8357.51
560.316	8390.73
560.679	8407.67
561.041	8425.98
561.404	8449.03
561.767	8458.07
562.129	8409.48
562.492	8459.2
562.854	8426.43
563.217	8440.67
563.579	8472.76
563.941	8549.59
564.304	8512.76
564.666	8510.72
565.028	8508.69
565.39	8559.31
565.753	8583.26
566.115	8552.53
566.477	8574
566.839	8615.13
567.201	8628.69
567.563	8639.53
567.925	8723.6
568.287	8641.57
568.648	8734.67
569.01	8821.9
569.372	8797.27
569.734	8736.93
570.095	8762.69
570.457	8842.69
570.819	8809.02
571.18	8896.25
571.542	8937.83
571.903	8893.76
572.265	8880.2
572.626	8893.54
572.987	8974.21
573.349	9019.18
573.71	9000.88
574.071	8973.99
574.432	9051.05
574.794	9070.93
575.155	9068.22
575.516	9076.13
575.877	9124.49
576.238	9141.89
576.599	9177.6
576.96	9215.56
577.32	9173.98
577.681	9214.43
578.042	9253.3
578.403	9247.65
578.763	9204.26
579.124	9353.86
579.485	9356.58
579.845	9417.14
580.206	9300.98
580.566	9303.47
580.927	9315.67
581.287	9460.08
581.648	9386.86
582.008	9414.43
582.368	9425.27
582.728	9521.77
583.089	9450.58
583.449	9474.09
583.809	9488.1
584.169	9598.15
584.529	9443.35
584.889	9558.15
585.249	9547.98
585.609	9622.33
585.969	9630.02
586.329	9566.97
586.688	9634.99
587.048	9587.08
587.408	9654.65
587.768	9636.57
588.127	9610.81
588.487	9590.69
588.846	9763.8
589.206	9678.6
589.565	9695.55
589.925	9738.03
590.284	9793.4
590.643	9702.33
591.003	9781.65
591.362	9884.25
591.721	9814.42
592.08	9755.66
592.44	9973.28
592.799	9882.44
593.158	9828.65
593.517	9845.83
593.876	9867.07
594.235	9853.51
594.593	9870.23
594.952	9905.04
595.311	9896
595.67	9926.05
596.029	9943.68
596.387	9999.72
596.746	10019.16
597.104	9991.36
597.463	9965.15
597.822	10053.73
598.18	9954.3
598.538	9959.27
598.897	9988.42
599.255	9921.31
599.613	10031.59
599.972	10076.56
600.33	10066.84
600.688	10040.4
601.046	10048.54
601.404	10000.85
601.762	10065.03
602.12	10127.86
602.478	10136.89
602.836	10119.72
603.194	10024.36
603.552	10100.51
603.91	10081.98
604.268	10100.96
604.625	10014.41
604.983	10069.33
605.341	10060.29
605.698	10108.65
606.056	10182.54
606.413	10152.26
606.771	10139.38
607.128	10182.09
607.485	10104.35
607.843	10136.44
608.2	10194.29
608.557	10286.27
608.914	10198.81
609.272	10278.36
609.629	10213.5
609.986	10302.99
610.343	10277
610.7	10263.9
611.057	10280.62
611.414	10249.66
611.771	10280.85
612.127	10348.19
612.484	10340.96
612.841	10323.56
613.198	10277
613.554	10377.57
613.911	10381.18
614.267	10304.8
614.624	10371.92
614.98	10418.47
615.337	10371.92
615.693	10371.69
616.05	10360.17
616.406	10404.23
616.762	10434.74
617.118	10438.81
617.475	10450.56
617.831	10443.55
618.187	10521.52
618.543	10506.83
618.899	10539.37
619.255	10590.89
619.611	10495.98
619.967	10561.97
620.323	10553.61
620.678	10536.66
621.034	10510.9
621.39	10517
621.746	10408.75
622.101	10617.11
622.457	10486.49
622.812	10491.01
623.168	10563.78
623.523	10523.55
623.879	10590.22
624.234	10495.53
624.589	10637.9
624.945	10534.62
625.3	10518.58
625.655	10511.8
626.01	10483.55
626.365	10624.34
626.72	10575.75
627.075	10475.19
627.43	10554.96
627.785	10455.53
628.14	10490.56
628.495	10499.37
628.85	10539.14
629.205	10427.51
629.559	10517
629.914	10478.13
630.269	10445.81
630.623	10511.12
630.978	10441.07
631.332	10447.85
631.687	10435.87
632.041	10467.73
632.396	10368.75
632.75	10432.03
633.104	10352.93
633.459	10329.88
633.813	10394.06
634.167	10339.38
634.521	10285.37
634.875	10345.48
635.229	10284.46
635.583	10263.44
635.937	10267.06
636.291	10189.32
636.645	10239.49
636.999	10262.77
637.352	10194.29
637.706	10237.68
638.06	10258.25
638.413	10215.99
638.767	10165.82
639.121	10123.11
639.474	10078.82
639.828	10162.66
640.181	10091.7
640.534	10061.19
640.888	10071.81
641.241	10034.75
641.594	10010.34
641.947	10130.57
642.301	10069.78
642.654	10110
643.007	10057.57
643.36	10079.72
643.713	10070.23
644.066	10040.4
644.419	10004.47
644.771	10011.02
645.124	9832.72
645.477	9769.9
645.83	9764.02
646.182	9770.35
646.535	9763.57
646.888	9741.42
647.24	9699.62
647.593	9687.19
647.945	9710.92
648.298	9689
648.65	9710.69
649.002	9636.12
649.355	9611.94
649.707	9682.67
650.059	9669.79
650.411	9822.1
650.763	9828.88
651.115	9910.01
651.467	9883.34
651.819	9926.73
652.171	9815.32
652.523	9863.91
652.875	9861.42
653.227	9793.85
653.578	9905.26
653.93	9878.82
654.282	9882.44
654.633	9849.44
654.985	9821.2
655.337	9848.09
655.688	9940.52
656.039	9871.36
656.391	9786.62
656.742	9861.42
657.094	9927.86
657.445	9878.37
657.796	9814.87
658.147	9911.82
658.498	9917.47
658.849	9844.25
659.2	9912.04
659.551	9798.6
659.902	9906.17
660.253	9846.73
660.604	9880.4
660.955	9888.54
661.306	9847.86
661.656	9885.38
662.007	9841.31
662.358	9888.09
662.708	9887.18
663.059	9830.46
663.409	9832.95
663.76	9860.29
664.11	9873.85
664.461	9890.57
664.811	9932.61
665.161	9868.88
665.511	9884.7
665.862	9824.81
666.212	9827.98
666.562	9875.21
666.912	9897.58
667.262	9815.55
667.612	9863
667.962	9853.74
668.312	9843.57
668.662	9953.85
669.011	9914.3
669.361	9891.93
669.711	9890.35
670.06	9903.68
670.41	9830.46
670.76	9868.88
671.109	9839.5
671.459	9845.15
671.808	9827.75
672.157	9805.38
672.507	9722.89
672.856	9794.3
673.205	9777.13
673.554	9800.41
673.904	9763.8
674.253	9789.33
674.602	9769.9
674.951	9587.53
675.3	9571.03
675.649	9710.24
675.998	9793.85
676.346	9736.9
676.695	9745.04
677.044	9681.31
677.393	9743.01
677.741	9676.57
678.09	9665.04
678.438	9728.54
678.787	9668.66
679.135	9655.33
679.484	9567.87
679.832	9624.14
680.181	9639.05
680.529	9575.1
680.877	9553.63
681.225	9553.18
681.573	9560.86
681.922	9574.2
682.27	9393.64
682.618	9493.3
682.966	9547.98
683.314	9551.6
683.661	9481.32
684.009	9409.23
684.357	9417.82
684.705	9355.45
685.053	9273.41
685.4	9357.03
685.748	9260.99
686.095	9293.98
686.443	9288.33
686.79	9315.45
687.138	9291.94
687.485	9198.84
687.832	9225.28
688.18	9187.77
688.527	9171.04
688.874	9209.91
689.221	9177.6
689.568	9132.85
689.915	9066.19
690.262	9037.04
690.609	9062.57
690.956	8982.35
691.303	9039.3
691.65	8921.11
691.997	8928.34
692.344	8879.75
692.69	8871.62
693.037	8817.83
693.383	8825.74
693.73	8685.86
694.077	8762.92
694.423	8716.59
694.769	8681.34
695.116	8667.1
695.462	8671.4
695.808	8574.68
696.155	8616.71
696.501	8517.05
696.847	8553.43
697.193	8490.61
697.539	8466.43
697.885	8411.74
698.231	8456.71
698.577	8395.7
698.923	8418.07
699.269	8309.6
699.614	8256.94
699.96	8223.72
700.306	8275.47
700.651	8234.8
700.997	8145.76
701.342	8163.16
701.688	8133.11
702.033	8208.13
702.379	8136.95
702.724	8063.28
703.069	8094.91
703.415	8018.08
703.76	7941.92
704.105	7955.03
704.45	7937.18
704.795	7913.22
705.14	7878.87
705.485	7897.63
705.83	7825.54
706.175	7840.68
706.52	7742.38
706.865	7746.22
707.209	7722.04
707.554	7681.37
707.899	7730.4
708.243	7676.39
708.588	7675.72
708.932	7561.82
709.277	7643.4
709.621	7634.81
709.966	7568.37
710.31	7593.46
710.654	7494.93
710.998	7495.16
711.342	7480.92
711.687	7474.59
712.031	7437.3
712.375	7426.68
712.719	7436.63
713.063	7404.08
713.407	7461.71
713.75	7422.16
714.094	7343.52
714.438	7377.42
714.782	7364.76
715.125	7323.86
715.469	7261.94
715.812	7285.44
716.156	7287.03
716.499	7236.63
716.843	7285.44
717.186	7237.76
717.53	7266.69
717.873	7304.2
718.216	7182.17
718.559	7196.41
718.902	7156.18
719.246	7101.49
719.589	7138.1
719.932	7058.56
720.275	7123.19
720.617	7098.1
720.96	7097.2
721.303	7053.13
721.646	7084.32
721.989	7035.28
722.331	7086.58
722.674	7064.66
723.016	7078.22
723.359	7058.33
723.701	7083.19
724.044	7052.23
724.386	6974.94
724.729	7008.84
725.071	7025.34
725.413	6995.96
725.755	6935.17
726.097	6974.72
726.439	6963.42
726.782	6973.36
727.124	7025.56
727.465	6929.3
727.807	6971.78
728.149	6912.35
728.491	6935.85
728.833	6948.73
729.175	6863.99
729.516	6927.49
729.858	6884.1
730.199	6892.01
730.541	6919.35
730.882	6882.52
731.224	6960.03
731.565	6870.31
731.906	6891.1
732.248	6896.53
732.589	6911.44
732.93	6909.18
733.271	6853.36
733.612	6851.56
733.953	6925.68
734.294	6901.5
734.635	6874.38
734.976	6909.63
735.317	6879.8
735.658	6873.48
735.999	6885.23
736.339	6858.34
736.68	6842.97
737.021	6876.64
737.361	6842.07
737.702	6941.5
738.042	6903.08
738.383	6853.14
738.723	6888.84
739.063	6894.27
739.404	6902.63
739.744	6910.54
740.084	6852.46
740.424	6932.46
740.764	6943.08
741.104	6995.06
741.444	6899.69
741.784	6921.84
742.124	6975.17
742.464	6958
742.804	7002.06
743.143	6991.67
743.483	7002.97
743.823	7001.84
744.162	7109.4
744.502	7027.37
744.841	7064.43
745.181	7099.23
745.52	7102.62
745.86	7141.49
746.199	7122.96
746.538	7198.89
746.877	7246.8
747.216	7265.56
747.556	7276.63
747.895	7323.41
748.234	7318.44
748.573	7367.93
748.911	7440.69
749.25	7433.24
749.589	7455.38
749.928	7553.46
750.267	7639.11
750.605	7664.42
750.944	7700.57
751.283	7789.16
751.621	7828.03
751.96	7821.02
752.298	7993
752.636	8084.29
752.975	8104.18
753.313	8151.18
753.651	8277.73
753.989	8323.61
754.327	8383.72
754.666	8458.07
755.004	8534.68
755.342	8682.7
755.679	8736.25
756.017	8807.21
756.355	8989.58
756.693	9060.31
757.031	9232.74
757.368	9234.55
757.706	9363.81
758.044	9504.82
758.381	9616
758.719	9756.79
759.056	9862.55
759.394	9965.37
759.731	10057.35
760.068	10175.31
760.405	10251.47
760.743	10446.49
761.08	10616.88
761.417	10626.6
761.754	10762.19
762.091	10893.03
762.428	11037.66
762.765	11128.28
763.102	11375.51
763.438	11396.97
763.775	11533.92
764.112	11646.91
764.449	11816.17
764.785	11961.48
765.122	12020.46
765.458	12088.93
765.795	12196.5
766.131	12380.23
766.467	12525.31
766.804	12525.98
767.14	12566.66
