Data from hue_24_FLMS001491_00018.txt Node
Date: Tue Feb 07 17:11:52 GMT 2017
User: dcchb
Spectrometer: FLMS00149
Trigger mode: 0
Integration Time (sec): 2.000000E-2
Scans to average: 10
Electric dark correction enabled: true
Nonlinearity correction enabled: false
Boxcar width: 0
XAxis mode: Wavelengths
Number of Pixels in Spectrum: 2048
>>>>>Begin Spectral Data<<<<<
341.393	-21.36
341.776	-21.36
342.16	-21.36
342.543	-55.7
342.927	-65.87
343.31	-70.39
343.693	-64.29
344.077	-69.49
344.46	-72.2
344.843	-63.61
345.226	-51.86
345.61	-48.25
345.993	-4.41
346.376	8.93
346.759	19.32
347.142	33.56
347.525	47.34
347.908	70.17
348.291	67.68
348.674	93.9
349.057	103.61
349.44	125.53
349.823	160.79
350.206	173.22
350.588	205.98
350.971	226.77
351.354	253.67
351.737	245.53
352.119	248.47
352.502	262.93
352.884	283.72
353.267	290.27
353.65	301.35
354.032	294.12
354.414	326.66
354.797	340.44
355.179	337.28
355.562	323.49
355.944	327.56
356.326	346.32
356.709	354.91
357.091	345.19
357.473	347
357.855	359.2
358.238	341.12
358.62	329.37
359.002	328.47
359.384	347.9
359.766	344.28
360.148	332.76
360.53	355.58
360.912	370.72
361.294	344.06
361.676	354
362.057	333.89
362.439	342.93
362.821	339.09
363.203	331.86
363.584	332.31
363.966	340.67
364.348	336.83
364.729	329.82
365.111	338.18
365.493	325.3
365.874	320.56
366.256	330.5
366.637	313.1
367.019	321.69
367.4	322.14
367.781	329.37
368.163	340.67
368.544	325.08
368.925	326.66
369.306	332.76
369.688	339.31
370.069	319.65
370.45	306.09
370.831	313.33
371.212	331.18
371.593	311.07
371.974	354
372.355	330.95
372.736	361.46
373.117	338.64
373.498	349.03
373.879	326.88
374.26	335.47
374.641	333.89
375.021	324.85
375.402	325.08
375.783	340.44
376.163	362.82
376.544	343.83
376.925	339.54
377.305	319.43
377.686	357.17
378.066	346.77
378.447	357.62
378.827	351.97
379.208	338.64
379.588	336.38
379.968	344.28
380.349	356.49
380.729	351.29
381.109	355.81
381.489	363.27
381.87	350.16
382.25	348.58
382.63	375.92
383.01	351.74
383.39	337.73
383.77	348.35
384.15	352.65
384.53	362.82
384.91	360.33
385.29	361.46
385.67	367.33
386.049	370.72
386.429	380.89
386.809	381.57
387.189	360.33
387.568	375.92
387.948	358.3
388.328	369.59
388.707	382.48
389.087	356.94
389.466	396.49
389.846	365.98
390.225	394.68
390.605	382.7
390.984	361.01
391.363	379.76
391.743	388.13
392.122	366.88
392.501	401.23
392.881	406.43
393.26	389.71
393.639	391.52
394.018	388.58
394.397	418.41
394.776	401.68
395.155	415.02
395.534	377.28
395.913	387.22
396.292	399.2
396.671	409.14
397.05	422.25
397.429	415.7
397.808	412.76
398.186	414.11
398.565	414.57
398.944	405.98
399.323	394
399.701	424.28
400.08	417.96
400.458	428.8
400.837	421.8
401.215	429.03
401.594	410.95
401.972	435.36
402.351	429.93
402.729	435.36
403.107	426.32
403.486	439.42
403.864	445.53
404.242	444.17
404.62	449.59
404.999	435.36
405.377	445.3
405.755	450.72
406.133	461.34
406.511	450.95
406.889	462.47
407.267	468.12
407.645	445.75
408.023	468.35
408.401	434
408.779	459.99
409.156	484.62
409.534	464.73
409.912	487.33
410.29	478.52
410.667	484.39
411.045	486.65
411.422	494.79
411.8	475.81
412.178	510.38
412.555	508.12
412.933	499.99
413.31	508.57
413.687	501.79
414.065	523.04
414.442	508.57
414.819	516.71
415.197	515.58
415.574	525.07
415.951	521.68
416.328	546.77
416.705	537.95
417.082	564.17
417.46	538.18
417.837	549.48
418.214	537.95
418.591	548.35
418.967	558.29
419.344	558.74
419.721	597.84
420.098	565.3
420.475	569.59
420.852	569.59
421.228	572.75
421.605	572.08
421.982	580.21
422.358	566.65
422.735	584.73
423.111	585.18
423.488	597.16
423.864	594.9
424.241	599.19
424.617	614.11
424.994	619.76
425.37	598.74
425.746	616.37
426.123	629.25
426.499	621.34
426.875	644.16
427.251	636.93
427.627	635.8
428.003	623.83
428.379	640.1
428.756	631.73
429.132	666.76
429.507	679.87
429.883	665.86
430.259	674.9
430.635	691.62
431.011	701.79
431.387	689.13
431.763	709.7
432.138	705.63
432.514	710.83
432.89	726.42
433.265	713.09
433.641	728.91
434.016	743.37
434.392	744.27
434.767	773.2
435.143	748.12
435.518	770.04
435.894	753.31
436.269	779.98
436.644	801.67
437.02	779.08
437.395	772.75
437.77	789.47
438.145	805.06
438.52	822.01
438.895	815.23
439.271	806.42
439.646	838.06
440.021	819.75
440.395	824.5
440.77	843.71
441.145	836.93
441.52	844.38
441.895	848.68
442.27	876.47
442.645	884.84
443.019	872.18
443.394	875.12
443.769	886.19
444.143	883.93
444.518	916.7
444.892	879.86
445.267	901.11
445.641	912.86
446.016	900.2
446.39	921.67
446.764	951.27
447.139	906.98
447.513	934.55
447.887	955.12
448.262	937.72
448.636	953.53
449.01	952.4
449.384	935.91
449.758	948.56
450.132	964.38
450.506	988.56
450.88	998.5
451.254	982.46
451.628	1001.89
452.002	1019.52
452.376	1004.15
452.75	1022.68
453.123	1021.78
453.497	1066.07
453.871	1041.89
454.244	1060.2
454.618	1078.05
454.992	1082.8
455.365	1078.28
455.739	1116.92
456.112	1135.9
456.486	1120.76
456.859	1135.22
457.232	1139.74
457.606	1140.2
457.979	1145.17
458.352	1168.44
458.725	1173.42
459.099	1200.99
459.472	1208.89
459.845	1231.72
460.218	1233.53
460.591	1265.39
460.964	1242.34
461.337	1283.92
461.71	1302.45
462.083	1324.82
462.456	1311.04
462.829	1330.25
463.201	1335.22
463.574	1347.2
463.947	1376.12
464.32	1389.91
464.692	1389.68
465.065	1403.01
465.438	1437.82
465.81	1464.26
466.183	1482.79
466.555	1487.98
466.928	1506.97
467.3	1518.72
467.672	1524.14
468.045	1570.92
468.417	1573.63
468.789	1606.62
469.161	1626.74
469.534	1647.98
469.906	1690.24
470.278	1692.27
470.65	1703.8
471.022	1715.77
471.394	1750.35
471.766	1780.18
472.138	1807.98
472.51	1836.67
472.882	1847.52
473.253	1883
473.625	1909.44
473.997	1927.52
474.369	1965.26
474.74	1974.52
475.112	2044.35
475.484	2075.99
475.855	2106.05
476.227	2137.46
476.598	2215.2
476.97	2242.31
477.341	2263.56
477.713	2272.14
478.084	2303.56
478.455	2355.53
478.827	2418.13
479.198	2470.1
479.569	2494.96
479.94	2576.99
480.311	2566.15
480.682	2654.73
481.053	2671.46
481.424	2727.95
481.795	2804.33
482.166	2814.73
482.537	2900.6
482.908	2910.54
483.279	2963.65
483.65	3037.1
484.021	3130.2
484.391	3148.28
484.762	3184.44
485.133	3214.49
485.503	3281.16
485.874	3380.59
486.244	3386.24
486.615	3453.13
486.985	3527.48
487.356	3611.77
487.726	3610.41
488.097	3715.72
488.467	3713.46
488.837	3814.7
489.207	3843.85
489.578	3911.2
489.948	3969.05
490.318	4007.01
490.688	4045.43
491.058	4154.35
491.428	4177.18
491.798	4245.2
492.168	4287.23
492.538	4354.35
492.908	4380.79
493.278	4418.08
493.648	4486.1
494.017	4568.81
494.387	4591.86
494.757	4612.87
495.126	4712.08
495.496	4732.42
495.866	4764.51
496.235	4816.26
496.605	4841.34
496.974	4859.87
497.344	4938.29
497.713	4977.16
498.082	5018.29
498.452	5072.3
498.821	5079.98
499.19	5158.62
499.559	5162.01
499.928	5228.68
500.298	5241.33
500.667	5247.66
501.036	5299.63
501.405	5350.03
501.774	5374.89
502.143	5452.4
502.512	5429.57
502.88	5497.37
503.249	5490.82
503.618	5566.75
503.987	5609.91
504.356	5627.99
504.724	5641.77
505.093	5712.73
505.462	5675.22
505.83	5779.4
506.199	5799.28
506.567	5836.34
506.936	5850.81
507.304	5931.71
507.672	5922.67
508.041	5993.85
508.409	5992.05
508.777	6017.58
509.145	6087.86
509.514	6106.17
509.882	6145.94
510.25	6107.75
510.618	6183.23
510.986	6178.71
511.354	6225.26
511.722	6276.56
512.09	6320.62
512.458	6289.21
512.826	6412.83
513.193	6424.8
513.561	6390.45
513.929	6526.04
514.297	6518.36
514.664	6517.91
515.032	6538.92
515.4	6566.04
515.767	6659.15
516.135	6681.07
516.502	6579.38
516.869	6704.8
517.237	6735.98
517.604	6728.98
517.972	6851.23
518.339	6860.27
518.706	6789.09
519.073	6864.57
519.44	6886.94
519.808	7002.41
520.175	6971.46
520.542	7009.65
520.909	7006.93
521.276	7027.27
521.643	7111.56
522.009	7160.15
522.376	7148.17
522.743	7221.39
523.11	7222.52
523.477	7339.13
523.843	7328.28
524.21	7453.48
524.577	7467.04
524.943	7493.02
525.31	7509.52
525.676	7549.07
526.043	7630.87
526.409	7657.54
526.776	7784.99
527.142	7738.67
527.508	7773.24
527.874	7744.32
528.241	7837.2
528.607	7890.53
528.973	7993.8
529.339	7999.45
529.705	8065.89
530.071	8072.9
530.437	8121.93
530.803	8196.73
531.169	8237.41
531.535	8276.05
531.901	8248.94
532.267	8259.1
532.632	8384.75
532.998	8372.77
533.364	8425.43
533.73	8492.55
534.095	8473.34
534.461	8574.8
534.826	8609.38
535.192	8595.59
535.557	8722.82
535.923	8668.13
536.288	8768.47
536.653	8798.07
537.019	8728.25
537.384	8835.36
537.749	8776.61
538.114	8846.21
538.479	8921.69
538.845	9001.46
539.21	8899.99
539.575	8937.05
539.94	9008.24
540.305	9087.56
540.67	9065.64
541.034	9129.59
541.399	9207.33
541.764	9184.05
542.129	9251.4
542.494	9268.57
542.858	9309.25
543.223	9364.39
543.587	9372.97
543.952	9380.88
544.316	9405.06
544.681	9487.77
545.045	9516.47
545.41	9508.79
545.774	9531.61
546.138	9577.94
546.503	9621.78
546.867	9647.77
547.231	9751.95
547.595	9729.35
547.959	9830.59
548.324	9805.28
548.688	9837.59
549.052	9869.68
549.416	9826.97
549.779	9923.24
550.143	9938.38
550.507	10020.19
550.871	10071.49
551.235	10015.89
551.599	10125.27
551.962	10097.93
552.326	10143.8
552.689	10177.7
553.053	10188.09
553.417	10180.64
553.78	10408.2
554.143	10317.36
554.507	10416.34
554.87	10428.99
555.234	10476.45
555.597	10392.38
555.96	10513.28
556.323	10564.13
556.686	10526.39
557.05	10612.72
557.413	10625.6
557.776	10785.37
558.139	10727.74
558.502	10785.82
558.865	10719.61
559.228	10850
559.59	10938.58
559.953	10887.96
560.316	10978.58
560.679	10901.3
561.041	11037.11
561.404	10993.72
561.767	11132.7
562.129	11071.69
562.492	11222.87
562.854	11197.78
563.217	11196.43
563.579	11293.15
563.941	11325.46
564.304	11416.99
564.666	11444.33
565.028	11434.61
565.39	11547.61
565.753	11493.37
566.115	11627.38
566.477	11644.1
566.839	11709.64
567.201	11738.56
567.563	11666.92
567.925	11871.44
568.287	11781.05
568.648	11911.66
569.01	11940.36
569.372	12055.84
569.734	12000.48
570.095	12072.11
570.457	12151.43
570.819	12173.13
571.18	12172.67
571.542	12233.92
571.903	12287.7
572.265	12376.51
572.626	12373.12
572.987	12390.3
573.349	12581.7
573.71	12546.22
574.071	12638.42
574.432	12637.52
574.794	12809.72
575.155	12821.24
575.516	12802.94
575.877	12926.55
576.238	12953.22
576.599	13145.08
576.96	13152.31
577.32	13275.92
577.681	13342.14
578.042	13352.08
578.403	13536.93
578.763	13638.4
579.124	13721.79
579.485	13795
579.845	14006.98
580.206	14041.1
580.566	14159.97
580.927	14226.86
581.287	14453.74
581.648	14530.13
582.008	14750.23
582.368	14873.85
582.728	14958.14
583.089	15219.15
583.449	15261.41
583.809	15451.46
584.169	15619.82
584.529	15821.84
584.889	16079.69
585.249	16113.36
585.609	16302.74
585.969	16615.04
586.329	16773.01
586.688	17113.79
587.048	17257.29
587.408	17456.15
587.768	17654.34
588.127	17978.85
588.487	18173.19
588.846	18532.96
589.206	18709.9
589.565	18979.73
589.925	19312.37
590.284	19473.95
590.643	19766.15
591.003	19991.9
591.362	20423.98
591.721	20695.16
592.08	20913.91
592.44	21253.11
592.799	21482.71
593.158	21813.1
593.517	22043.15
593.876	22387.77
594.235	22640.87
594.593	22974.42
594.952	23293.29
595.311	23518.14
595.67	23989.31
596.029	24402.64
596.387	24618.67
596.746	25012.56
597.104	25155.16
597.463	25442.16
597.822	25892.31
598.18	26008.47
598.538	26404.62
598.897	26731.16
599.255	26899.52
599.613	27528.43
599.972	27621.31
600.33	27995.76
600.688	28205.47
601.046	28656.08
601.404	28996.64
601.762	29215.62
602.12	29650.86
602.478	29979.44
602.836	30193.22
603.194	30324.51
603.552	30781.68
603.91	30797.04
604.268	31355.9
604.625	31324.26
604.983	31722.89
605.341	31950.23
605.698	32393.84
606.056	32666.15
606.413	32732.81
606.771	33248.28
607.128	33549.06
607.485	33539.12
607.843	33865.89
608.2	34223.39
608.557	34447.79
608.914	34644.17
609.272	35001.23
609.629	35263.59
609.986	35586.3
610.343	35660.64
610.7	36196
611.057	36199.39
611.414	36623.56
611.771	36697.68
612.127	37007.73
612.484	36997.11
612.841	37308.06
613.198	37412.24
613.554	37673.7
613.911	37989.4
614.267	38150.07
614.624	38164.99
614.98	38435.71
615.337	38718.87
615.693	38818.98
616.05	39091.29
616.406	39379.42
616.762	39225.07
617.118	39399.53
617.475	39686.98
617.831	39891.95
618.187	40179.17
618.543	40288.55
618.899	40591.14
619.255	40687.4
619.611	40688.53
619.967	40960.39
620.323	41034.06
620.678	41125.36
621.034	41284.68
621.39	41276.09
621.746	41236.09
622.101	41874.27
622.457	41603.76
622.812	41816.87
623.168	41919.91
623.523	42187.7
623.879	42303.63
624.234	42067.26
624.589	42280.58
624.945	42437.64
625.3	42516.51
625.655	42464.53
626.01	42682.15
626.365	42765.77
626.72	42763.96
627.075	42888.02
627.43	42828.14
627.785	42826.78
628.14	43044.63
628.495	43103.16
628.85	43184.97
629.205	43082.82
629.559	43325.75
629.914	43139.77
630.269	43196.94
630.623	43201.01
630.978	43230.84
631.332	43466.31
631.687	43559.87
632.041	43410.27
632.396	43546.99
632.75	43417.28
633.104	43394.9
633.459	43383.61
633.813	43476.71
634.167	43404.17
634.521	43711.96
634.875	43537.05
635.229	43498.86
635.583	43494.79
635.937	43588.12
636.291	43374.79
636.645	43626.54
636.999	43357.17
637.352	43679.87
637.706	43375.92
638.06	43710.6
638.413	43576.59
638.767	43358.52
639.121	43666.08
639.474	43385.41
639.828	43313.55
640.181	43467.44
640.534	43507.22
640.888	43510.16
641.241	43338.63
641.594	43296.15
641.947	43478.74
642.301	43413.21
642.654	43344.51
643.007	43486.88
643.36	43375.7
643.713	43334.34
644.066	43547.89
644.419	43245.08
644.771	42996.72
645.124	42829.5
645.477	42686
645.83	42539.79
646.182	42375.5
646.535	42229.96
646.888	42418.43
647.24	42195.39
647.593	42252.11
647.945	42172.56
648.298	42099.35
648.65	42086.92
649.002	41858.22
649.355	42139.8
649.707	42050.98
650.059	42371.65
650.411	42704.75
650.763	42740.91
651.115	43097.06
651.467	43142.03
651.819	43035.14
652.171	42887.35
652.523	42841.25
652.875	42924.18
653.227	42724.64
653.578	43082.14
653.93	43050.73
654.282	42844.86
654.633	42744.75
654.985	42819.33
655.337	42883.73
655.688	43015.71
656.039	43069.26
656.391	42759.67
656.742	42845.09
657.094	42731.19
657.445	42940.45
657.796	42836.73
658.147	42749.95
658.498	42670.18
658.849	42788.82
659.2	42841.47
659.551	42642.38
659.902	42704.3
660.253	42723.96
660.604	42813.45
660.955	42585.43
661.306	42699.78
661.656	42602.16
662.007	42633.79
662.358	42656.62
662.708	42731.87
663.059	42686.67
663.409	42397.64
663.76	42711.53
664.11	42686.9
664.461	42652.1
664.811	42757.63
665.161	42618.88
665.511	42561.25
665.862	42634.92
666.212	42637.41
666.562	42669.95
666.912	42667.47
667.262	42566.23
667.612	42585.43
667.962	42727.35
668.312	42565.77
668.662	42793.79
669.011	42491.2
669.361	42371.88
669.711	42496.85
670.06	42437.87
670.41	42382.95
670.76	42336.85
671.109	42470.63
671.459	42488.71
671.808	42356.97
672.157	42510.86
672.507	42180.02
672.856	42292.79
673.205	42209.4
673.554	42447.36
673.904	42231.54
674.253	42482.61
674.602	42308.83
674.951	41679.02
675.3	41611.45
675.649	42274.26
675.998	42258.66
676.346	41997.43
676.695	42421.14
677.044	42013.7
677.393	42151.1
677.741	42159.23
678.09	42160.36
678.438	42085.11
678.787	42088.05
679.135	42095.05
679.484	41762.63
679.832	41945
680.181	41788.17
680.529	41968.95
680.877	41612.35
681.225	41641.5
681.573	41903.19
681.922	41622.97
682.27	41479.25
682.618	41515.41
682.966	41416.43
683.314	41448.06
683.661	41349.53
684.009	41209.65
684.357	41100.28
684.705	41049.66
685.053	41091.69
685.4	40952.71
685.748	40828.42
686.095	40840.4
686.443	40692.38
686.79	40797.23
687.138	40783.22
687.485	40725.37
687.832	40630.23
688.18	40679.27
688.527	40516.34
688.874	40473.17
689.221	40321.76
689.568	40346.17
689.915	40180.53
690.262	40044.48
690.609	40038.16
690.956	39969.91
691.303	39855.11
691.65	39568.79
691.997	39709.35
692.344	39481.11
692.69	39570.37
693.037	39437.27
693.383	39064.85
693.73	39241.34
694.077	39058.75
694.423	38911.41
694.769	38879.09
695.116	38843.61
695.462	38838.41
695.808	38795.7
696.155	38759.32
696.501	38564.52
696.847	38556.16
697.193	38255.38
697.539	38424.87
697.885	38079.11
698.231	38139.68
698.577	38058.55
698.923	38033.24
699.269	37883.86
699.614	37748.27
699.96	37664.21
700.306	37683.19
700.651	37337.66
700.997	37459.69
701.342	37307.83
701.688	37180.15
702.033	37175.18
702.379	37148.06
702.724	36945.81
703.069	37086.14
703.415	36614.29
703.76	36682.54
704.105	36744.23
704.45	36614.97
704.795	36304.92
705.14	36342.89
705.485	36381.53
705.83	36301.31
706.175	36188.09
706.52	35982.9
706.865	35969.56
707.209	35897.02
707.554	35741.09
707.899	35717.37
708.243	35478.05
708.588	35549.46
708.932	35378.17
709.277	35232.18
709.621	35342.91
709.966	35127.78
710.31	35257.94
710.654	34803.04
710.998	35000.1
711.342	34864.73
711.687	34803.72
712.031	34669.48
712.375	34586.77
712.719	34654.8
713.063	34631.52
713.407	34729.37
713.75	34448.02
714.094	34468.59
714.438	34238.99
714.782	34327.57
715.125	34103.4
715.469	34179.33
715.812	34091.19
716.156	33847.13
716.499	33965.32
716.843	33952.89
717.186	33718.32
717.53	34047.35
717.873	34035.15
718.216	33689.62
718.559	33693.24
718.902	33557.87
719.246	33577.08
719.589	33368.28
719.932	33320.59
720.275	33285.11
720.617	33180.94
720.96	33048.28
721.303	33288.28
721.646	33196.53
721.989	33001.51
722.331	33108.85
722.674	32792.7
723.016	32903.43
723.359	32806.71
723.701	32818.91
724.044	32718.35
724.386	32444.68
724.729	32745.69
725.071	32571.91
725.413	32644
725.755	32492.37
726.097	32303.9
726.439	32218.25
726.782	32070.46
727.124	32467.73
727.465	32162.21
727.807	32221.86
728.149	32075.65
728.491	32046.73
728.833	32084.02
729.175	31944.13
729.516	31925.15
729.858	31844.93
730.199	32043.11
730.541	31842.21
730.882	31778.26
731.224	31830.01
731.565	31607.87
731.906	31601.77
732.248	31688.55
732.589	31438.16
732.93	31322.91
733.271	31425.73
733.612	31434.99
733.953	31497.36
734.294	31356.12
734.635	31303.24
734.976	31232.06
735.317	31082.46
735.658	31083.14
735.999	31025.29
736.339	31044.04
736.68	31104.15
737.021	30960.88
737.361	30876.82
737.702	31097.83
738.042	30980.09
738.383	30900.09
738.723	30969.24
739.063	30717.95
739.404	30740.1
739.744	30757.95
740.084	30533.1
740.424	30712.3
740.764	30612.64
741.104	30582.13
741.444	30512.53
741.784	30270.73
742.124	30470.27
742.464	30465.53
742.804	30374.46
743.143	30118.87
743.483	30293.1
743.823	30140.11
744.162	30107.34
744.502	30160.68
744.841	30008.14
745.181	30049.72
745.52	30007.01
745.86	29949.16
746.199	29908.48
746.538	29938.99
746.877	29875.71
747.216	29843.85
747.556	29780.35
747.895	29891.76
748.234	29748.03
748.573	29682.04
748.911	29515.04
749.25	29517.53
749.589	29381.49
749.928	29455.38
750.267	29533.8
750.605	29445.21
750.944	29396.4
751.283	29343.07
751.621	29337.19
751.96	29168.84
752.298	29095.62
752.636	29127.03
752.975	29077.54
753.313	29037.09
753.651	29059.69
753.989	28908.28
754.327	28821.95
754.666	28692.47
755.004	28737.66
755.342	28713.93
755.679	28729.98
756.017	28594.62
756.355	28644.78
756.693	28540.61
757.031	28539.25
757.368	28403.66
757.706	28452.47
758.044	28152.37
758.381	28315.3
758.719	28169.99
