Data from hue_36_FLMS001491_00021.txt Node
Date: Tue Feb 07 17:29:34 GMT 2017
User: dcchb
Spectrometer: FLMS00149
Trigger mode: 0
Integration Time (sec): 2.000000E-2
Scans to average: 10
Electric dark correction enabled: true
Nonlinearity correction enabled: false
Boxcar width: 0
XAxis mode: Wavelengths
Number of Pixels in Spectrum: 2048
>>>>>Begin Spectral Data<<<<<
341.393	-5.54
341.776	-5.54
342.16	-5.54
342.543	-64.52
342.927	-72.88
343.31	-61.58
343.693	-75.14
344.077	-64.29
344.46	-58.42
344.843	-64.74
345.226	-48.7
345.61	-26.1
345.993	-20.45
346.376	-16.61
346.759	17.51
347.142	36.27
347.525	34.24
347.908	61.81
348.291	94.8
348.674	101.13
349.057	90.28
349.44	133.89
349.823	160.11
350.206	169.15
350.588	188.13
350.971	228.58
351.354	226.32
351.737	231.97
352.119	262.93
352.502	274.91
352.884	278.07
353.267	287.11
353.65	310.84
354.032	307.22
354.414	310.61
354.797	321.46
355.179	318.97
355.562	316.71
355.944	319.43
356.326	328.69
356.709	324.4
357.091	349.48
357.473	321.01
357.855	344.28
358.238	358.3
358.62	351.52
359.002	339.99
359.384	356.49
359.766	356.94
360.148	367.56
360.53	355.36
360.912	350.16
361.294	340.44
361.676	340.22
362.057	328.47
362.439	349.26
362.821	344.06
363.203	319.88
363.584	316.04
363.966	329.82
364.348	317.17
364.729	332.08
365.111	327.34
365.493	336.6
365.874	325.08
366.256	302.03
366.637	311.29
367.019	295.92
367.4	308.13
367.781	319.2
368.163	316.49
368.544	302.48
368.925	322.59
369.306	306.09
369.688	325.08
370.069	317.62
370.45	327.79
370.831	318.07
371.212	312.65
371.593	333.21
371.974	322.59
372.355	311.74
372.736	344.96
373.117	310.39
373.498	322.59
373.879	327.34
374.26	313.1
374.641	300.22
375.021	320.1
375.402	349.26
375.783	313.55
376.163	318.52
376.544	327.11
376.925	334.34
377.305	318.07
377.686	320.56
378.066	324.17
378.447	325.98
378.827	325.53
379.208	343.83
379.588	326.88
379.968	351.29
380.349	346.32
380.729	326.43
381.109	346.77
381.489	351.74
381.87	335.02
382.25	337.73
382.63	339.09
383.01	344.28
383.39	354.91
383.77	331.86
384.15	338.86
384.53	328.01
384.91	350.84
385.29	335.02
385.67	330.95
386.049	339.77
386.429	334.79
386.809	360.56
387.189	339.99
387.568	355.13
387.948	375.7
388.328	351.74
388.707	364.62
389.087	346.77
389.466	355.36
389.846	346.77
390.225	355.81
390.605	361.69
390.984	353.55
391.363	377.73
391.743	362.59
392.122	361.23
392.501	386.54
392.881	366.88
393.26	377.05
393.639	372.76
394.018	382.25
394.397	366.88
394.776	359.2
395.155	358.3
395.534	377.28
395.913	387.9
396.292	372.31
396.671	386.54
397.05	378.41
397.429	391.06
397.808	368.92
398.186	392.65
398.565	391.06
398.944	392.87
399.323	380.22
399.701	385.87
400.08	391.52
400.458	403.27
400.837	389.48
401.215	393.55
401.594	387.9
401.972	404.4
402.351	384.74
402.729	394
403.107	399.65
403.486	401.46
403.864	408.69
404.242	412.53
404.62	405.07
404.999	409.37
405.377	419.54
405.755	402.59
406.133	422.7
406.511	410.27
406.889	415.02
407.267	425.86
407.645	410.72
408.023	422.47
408.401	425.41
408.779	442.14
409.156	454.79
409.534	431.51
409.912	426.77
410.29	441.23
410.667	425.19
411.045	434.68
411.422	448.69
411.8	450.27
412.178	470.38
412.555	455.47
412.933	472.87
413.31	459.99
413.687	487.11
414.065	456.82
414.442	452.76
414.819	458.63
415.197	488.46
415.574	502.25
415.951	483.72
416.328	485.75
416.705	482.36
417.082	485.3
417.46	497.05
417.837	502.47
418.214	495.47
418.591	499.53
418.967	476.03
419.344	502.47
419.721	492.08
420.098	497.5
420.475	512.19
420.852	493.21
421.228	528.01
421.605	520.78
421.982	498.63
422.358	544.05
422.735	533.43
423.111	525.3
423.488	537.05
423.864	524.62
424.241	543.6
424.617	545.18
424.994	551.06
425.37	537.27
425.746	547.9
426.123	559.42
426.499	559.87
426.875	563.94
427.251	572.53
427.627	581.57
428.003	585.18
428.379	580.21
428.756	563.94
429.132	586.99
429.507	592.41
429.883	568.69
430.259	590.38
430.635	593.32
431.011	610.72
431.387	613.88
431.763	615.46
432.138	626.31
432.514	633.09
432.89	623.83
433.265	639.42
433.641	638.29
434.016	636.48
434.392	646.65
434.767	634.67
435.143	653.43
435.518	692.52
435.894	653.66
436.269	666.31
436.644	675.35
437.02	678.51
437.395	677.16
437.77	684.84
438.145	685.52
438.52	698.63
438.895	695.69
439.271	692.98
439.646	704.73
440.021	722.81
440.395	722.58
440.77	712.64
441.145	714.44
441.52	739.98
441.895	739.75
442.27	724.16
442.645	735.46
443.019	758.06
443.394	764.61
443.769	761.9
444.143	735.91
444.518	753.77
444.892	754.44
445.267	778.85
445.641	770.71
446.016	772.52
446.39	803.93
446.764	807.1
447.139	789.7
447.513	784.5
447.887	784.95
448.262	783.37
448.636	789.47
449.01	837.38
449.384	830.15
449.758	799.87
450.132	819.07
450.506	811.17
450.88	838.06
451.254	831.96
451.628	831.5
452.002	862.24
452.376	827.21
452.75	876.02
453.123	871.73
453.497	853.88
453.871	896.13
454.244	883.25
454.618	908.79
454.992	917.38
455.365	904.04
455.739	937.94
456.112	958.73
456.486	954.21
456.859	946.98
457.232	967.32
457.606	953.08
457.979	949.24
458.352	995.12
458.725	980.43
459.099	996.92
459.472	1033.53
459.845	1010.26
460.218	1055.23
460.591	1035.34
460.964	1066.53
461.337	1088.45
461.71	1062.23
462.083	1092.29
462.456	1100.42
462.829	1109.01
463.201	1125.06
463.574	1130.48
463.947	1137.94
464.32	1151.95
464.692	1163.47
465.065	1172.51
465.438	1195.56
465.81	1229.69
466.183	1212.28
466.555	1291.15
466.928	1279.85
467.3	1285.73
467.672	1314.43
468.045	1332.96
468.417	1332.96
468.789	1353.75
469.161	1358.95
469.534	1381.09
469.906	1417.7
470.278	1438.72
470.65	1477.81
471.022	1473.29
471.394	1517.59
471.766	1507.64
472.138	1548.55
472.51	1578.15
472.882	1621.77
473.253	1634.19
473.625	1669
473.997	1721.88
474.369	1732.95
474.74	1748.09
475.112	1851.36
475.484	1835.32
475.855	1877.35
476.227	1880.06
476.598	1961.87
476.97	2034.86
477.341	2051.81
477.713	2102.88
478.084	2111.47
478.455	2181.52
478.827	2248.19
479.198	2331.8
479.569	2308.53
479.94	2377.45
480.311	2465.81
480.682	2539.26
481.053	2612.25
481.424	2651.57
481.795	2704.67
482.166	2807.95
482.537	2847.27
482.908	2962.29
483.279	3000.03
483.65	3058.79
484.021	3206.36
484.391	3225.11
484.762	3291.78
485.133	3342.62
485.503	3476.18
485.874	3557.08
486.244	3612.9
486.615	3737.87
486.985	3826.68
487.356	3940.12
487.726	4004.08
488.097	4081.36
488.467	4155.26
488.837	4274.58
489.207	4378.98
489.578	4492.2
489.948	4548.24
490.318	4642.7
490.688	4762.47
491.058	4821.68
491.428	4948.23
491.798	5024.16
492.168	5185.97
492.538	5237.94
492.908	5334.44
493.278	5409.91
493.648	5509.8
494.017	5618.95
494.387	5728.32
494.757	5795.21
495.126	5887.19
495.496	5931.71
495.866	6095.32
496.235	6156.11
496.605	6241.76
496.974	6385.71
497.344	6400.62
497.713	6552.48
498.082	6613.5
498.452	6754.96
498.821	6779.6
499.19	6849.2
499.559	6912.02
499.928	6983.43
500.298	7036.31
500.667	7194.05
501.036	7195.63
501.405	7311.79
501.774	7383.65
502.143	7491.67
502.512	7518.33
502.88	7633.13
503.249	7559.91
503.618	7780.25
503.987	7807.37
504.356	7933.46
504.724	7986.34
505.093	8039.45
505.462	8159.9
505.83	8162.84
506.199	8289.16
506.567	8402.6
506.936	8391.98
507.304	8474.24
507.672	8575.93
508.041	8591.53
508.409	8677.85
508.777	8759.2
509.145	8850.73
509.514	8861.12
509.882	9011.18
510.25	9005.98
510.618	9086.88
510.986	9081.91
511.354	9186.31
511.722	9259.3
512.09	9319.87
512.458	9395.8
512.826	9465.17
513.193	9563.93
513.561	9605.74
513.929	9687.32
514.297	9762.79
514.664	9753.08
515.032	9861.1
515.4	9916.91
515.767	9875.33
516.135	10006.4
516.502	9958.95
516.869	10165.04
517.237	10195.33
517.604	10148.77
517.972	10279.84
518.339	10370.69
518.706	10341.31
519.073	10403.23
519.44	10449.56
519.808	10540.17
520.175	10607.97
520.542	10725.48
520.909	10800.06
521.276	10716.67
521.643	10880.5
522.009	10946.94
522.376	11057.45
522.743	11066.04
523.11	11200.5
523.477	11232.36
523.843	11305.8
524.21	11436.42
524.577	11472.35
524.943	11572.24
525.31	11641.39
525.676	11694.27
526.043	11772.01
526.409	11790.99
526.776	11915.73
527.142	12006.58
527.508	12059.23
527.874	12188.72
528.241	12271.43
528.607	12221.94
528.973	12370.86
529.339	12362.5
529.705	12458.09
530.071	12630.74
530.437	12656.96
530.803	12698.76
531.169	12711.19
531.535	12721.13
531.901	12857.85
532.267	12864.86
532.632	12984.18
532.998	13001.13
533.364	13115.93
533.73	13160.9
534.095	13211.97
534.461	13304.17
534.826	13335.36
535.192	13329.93
535.557	13432.3
535.923	13418.52
536.288	13589.81
536.653	13686.08
537.019	13619.64
537.384	13618.96
537.749	13724.27
538.114	13798.17
538.479	13872.06
538.845	13915
539.21	13917.49
539.575	13998.39
539.94	14041.33
540.305	14091.04
540.67	14142.11
541.034	14153.87
541.399	14314.99
541.764	14258.27
542.129	14397.7
542.494	14416.68
542.858	14444.03
543.223	14545.27
543.587	14597.92
543.952	14617.58
544.316	14659.16
544.681	14743.91
545.045	14834.98
545.41	14854.64
545.774	14950.45
546.138	14897.35
546.503	14972.37
546.867	14964.69
547.231	15175.31
547.595	15112.71
547.959	15215.76
548.324	15305.93
548.688	15309.99
549.052	15379.14
549.416	15419.59
549.779	15477.22
550.143	15476.99
550.507	15559.48
550.871	15540.95
551.235	15645.13
551.599	15744.33
551.962	15681.06
552.326	15850.09
552.689	15923.76
553.053	15861.39
553.417	15866.59
553.78	16053.48
554.143	16149.74
554.507	16146.36
554.87	16181.16
555.234	16213.02
555.597	16272.91
555.96	16332.56
556.323	16392
556.686	16467.25
557.05	16550.41
557.413	16604.2
557.776	16506.35
558.139	16705.44
558.502	16746.57
558.865	16890.52
559.228	16992.66
559.59	16976.39
559.953	16976.84
560.316	17215.25
560.679	17135.48
561.041	17309.94
561.404	17268.13
561.767	17453.21
562.129	17304.06
562.492	17534.57
562.854	17473.33
563.217	17571.63
563.579	17553.1
563.941	17712.64
564.304	17742.02
564.666	17858.17
565.028	17902.02
565.39	17987.66
565.753	17979.08
566.115	18039.41
566.477	18207.54
566.839	18225.17
567.201	18354.66
567.563	18335.22
567.925	18446.63
568.287	18559.85
568.648	18539.74
569.01	18706.06
569.372	18811.82
569.734	18751.26
570.095	18892.27
570.457	18972.04
570.819	18948.09
571.18	19101.53
571.542	19162.55
571.903	19201.64
572.265	19381.75
572.626	19368.19
572.987	19425.14
573.349	19569.54
573.71	19499.49
574.071	19716.2
574.432	19803.66
574.794	20055.4
575.155	20065.35
575.516	20022.41
575.877	20231.45
576.238	20277.09
576.599	20430.54
576.96	20480.48
577.32	20541.27
577.681	20761.15
578.042	20899.9
578.403	20937.64
578.763	21031.2
579.124	21237.97
579.485	21361.13
579.845	21570.62
580.206	21536.72
580.566	21678.64
580.927	21899.88
581.287	22084.73
581.648	22140.32
582.008	22440.65
582.368	22537.83
582.728	22779.63
583.089	22799.29
583.449	22971.71
583.809	23198.83
584.169	23315.43
584.529	23463.45
584.889	23892.37
585.249	23927.39
585.609	23984.79
585.969	24412.58
586.329	24442.41
586.688	24729.63
587.048	24893.92
587.408	25039.45
587.768	25227.7
588.127	25479.22
588.487	25635.37
588.846	25989.26
589.206	26112.65
589.565	26248.24
589.925	26650.03
590.284	26709.69
590.643	26905.39
591.003	27267.42
591.362	27535.66
591.721	27690.01
592.08	27965.03
592.44	28095.19
592.799	28409.08
593.158	28590.1
593.517	28782.41
593.876	28982.85
594.235	29184.66
594.593	29468.26
594.952	29641.37
595.311	29724.08
595.67	30024.18
596.029	30332.87
596.387	30649.48
596.746	30809.25
597.104	30849.7
597.463	31086.75
597.822	31380.53
598.18	31402.23
598.538	31618.26
598.897	32022.32
599.255	31911.82
599.613	32615.75
599.972	32499.37
600.33	32792.02
600.688	32879.7
601.046	33039.7
601.404	33342.29
601.762	33567.37
602.12	33644.2
602.478	33976.85
602.836	34153.79
603.194	34142.27
603.552	34356.72
603.91	34365.76
604.268	34690.05
604.625	34759.43
604.983	35083.26
605.341	35024.95
605.698	35298.17
606.056	35529.35
606.413	35591.95
606.771	35872.62
607.128	35953.29
607.485	35955.78
607.843	36031.03
608.2	36429.66
608.557	36568.19
608.914	36453.17
609.272	36764.57
609.629	36993.26
609.986	37268.51
610.343	36949.65
610.7	37530.65
611.057	37481.61
611.414	37545.11
611.771	37650.65
612.127	37957.08
612.484	38072.78
612.841	38153.46
613.198	38158.21
613.554	38204.76
613.911	38478.65
614.267	38585.99
614.624	38619.66
614.98	38714.12
615.337	39089.71
615.693	39141
616.05	39078.86
616.406	39473.43
616.762	39294.45
617.118	39462.13
617.475	39464.16
617.831	39665.51
618.187	39797.71
618.543	39895.56
618.899	40096.46
619.255	40103.69
619.611	40111.83
619.967	40369.67
620.323	40454.87
620.678	40358.6
621.034	40138.72
621.39	40409.45
621.746	40500.07
622.101	40848.53
622.457	40546.39
622.812	40761.53
623.168	40866.61
623.523	40930.79
623.879	41096.89
624.234	40876.78
624.589	41084.91
624.945	41055.76
625.3	41206.49
625.655	41185.02
626.01	41356.99
626.365	41343.88
626.72	41284.68
627.075	41418.23
627.43	41386.37
627.785	41254.4
628.14	41462.98
628.495	41632.92
628.85	41380.27
629.205	41378.69
629.559	41543.43
629.914	41441.06
630.269	41571.45
630.623	41517.44
630.978	41378.46
631.332	41549.98
631.687	41710.2
632.041	41422.53
632.396	41625.69
632.75	41461.17
633.104	41635.85
633.459	41358.8
633.813	41438.8
634.167	41329.65
634.521	41531
634.875	41557.66
635.229	41580.94
635.583	41480.15
635.937	41458.46
636.291	41377.78
636.645	41463.2
636.999	41478.57
637.352	41495.52
637.706	41280.16
638.06	41451.9
638.413	41386.37
638.767	41317.67
639.121	41366.03
639.474	41186.15
639.828	41373.71
640.181	41341.17
640.534	41354.51
640.888	41155.19
641.241	40887.85
641.594	41161.74
641.947	41319.93
642.301	41116.77
642.654	41123.1
643.007	41161.52
643.36	41148.18
643.713	41043.78
644.066	41180.27
644.419	40924.01
644.771	40778.48
645.124	40429.11
645.477	40276.57
645.83	40067.76
646.182	39945.5
646.535	39808.33
646.888	39829.12
647.24	39732.85
647.593	40030.7
647.945	39811.95
648.298	39737.15
648.65	39572.63
649.002	39439.98
649.355	39803.13
649.707	39638.62
650.059	39842
650.411	40383.91
650.763	40256
651.115	40682.66
651.467	40572.83
651.819	40684.92
652.171	40389.11
652.523	40367.41
652.875	40415.77
653.227	40394.76
653.578	40561.08
653.93	40334.42
654.282	40309.56
654.633	40298.26
654.985	40219.85
655.337	40185.27
655.688	40305.49
656.039	40435.43
656.391	40122.67
656.742	40240.86
657.094	40206.97
657.445	40308.66
657.796	40218.94
658.147	40120.19
658.498	40112.05
658.849	40235.89
659.2	40118.38
659.551	40194.31
659.902	40240.18
660.253	40175.1
660.604	40225.72
660.955	39898.05
661.306	40165.61
661.656	40048.33
662.007	40037.25
662.358	40058.95
662.708	40084.26
663.059	40102.11
663.409	39727.43
663.76	40173.52
664.11	40006.07
664.461	40090.36
664.811	40094.65
665.161	39942.34
665.511	39944.15
665.862	39878.84
666.212	40131.94
666.562	40049.91
666.912	39833.19
667.262	39787.09
667.612	39993.86
667.962	39841.1
668.312	39841.55
668.662	40191.15
669.011	39875.22
669.361	39969.91
669.711	39992.28
670.06	39872.51
670.41	39764.72
670.76	39738.96
671.109	39854.21
671.459	39825.28
671.808	39791.84
672.157	39726.98
672.507	39655.79
672.856	39693.53
673.205	39669.8
673.554	39685.17
673.904	39502.58
674.253	39837.71
674.602	39707.09
674.951	39153.89
675.3	38978.07
675.649	39535.57
675.998	39365.18
676.346	39489.02
676.695	39654.89
677.044	39350.04
677.393	39410.15
677.741	39657.38
678.09	39415.12
678.438	39387.78
678.787	39428.45
679.135	39524.05
679.484	39194.56
679.832	39401.34
680.181	39034.57
680.529	39279.31
680.877	39099.88
681.225	39058.52
681.573	39237.27
681.922	38962.03
682.27	38938.98
682.618	39035.24
682.966	38820.34
683.314	38807
683.661	38780.34
684.009	38562.04
684.357	38561.36
684.705	38467.12
685.053	38489.72
685.4	38353.68
685.748	38254.47
686.095	38239.33
686.443	38220.35
686.79	38105.33
687.138	38256.06
687.485	38020.36
687.832	38019.45
688.18	37952.34
688.527	37889.74
688.874	37953.47
689.221	37768.61
689.568	37614.94
689.915	37523.42
690.262	37705.34
690.609	37610.65
690.956	37451.78
691.303	37446.36
691.65	37163.66
691.997	37189.87
692.344	36924.34
692.69	37058.12
693.037	37048.4
693.383	36681.41
693.73	36878.69
694.077	36603.9
694.423	36652.26
694.769	36481.87
695.116	36515.54
695.462	36409.1
695.808	36219.27
696.155	36347.63
696.501	36146.96
696.847	36136.79
697.193	35757.36
697.539	35962.33
697.885	35655.67
698.231	35582.23
698.577	35613.87
698.923	35628.1
699.269	35396.7
699.614	35264.04
699.96	35073.54
700.306	35156.93
700.651	35079.42
700.997	35018.18
701.342	34800.55
701.688	34660.22
702.033	34723.95
702.379	34707.45
702.724	34561.69
703.069	34639.65
703.415	34315.59
703.76	34322.15
704.105	34345.42
704.45	34266.1
704.795	33966.23
705.14	33845.32
705.485	33862.95
705.83	33830.86
706.175	33820.24
706.52	33637.65
706.865	33551.55
707.209	33555.84
707.554	33428.39
707.899	33510.42
708.243	33252.35
708.588	33232.01
708.932	33015.52
709.277	33088.73
709.621	32995.4
709.966	32925.35
710.31	32915.41
710.654	32586.15
710.998	32775.75
711.342	32758.12
711.687	32592.25
712.031	32400.84
712.375	32468.19
712.719	32487.62
713.063	32463.44
713.407	32439.71
713.75	32060.06
714.094	32300.51
714.438	32007.86
714.782	32000.63
715.125	31956.33
715.469	31899.84
715.812	31864.36
716.156	31674.99
716.499	31730.8
716.843	31796.34
717.186	31538.49
717.53	31644.25
717.873	31681.31
718.216	31536.68
718.559	31422.11
718.902	31226.41
719.246	31251.95
719.589	31149.8
719.932	31041.78
720.275	31107.32
720.617	31210.82
720.96	30952.97
721.303	31007.66
721.646	30898.96
721.989	30669.36
722.331	30843.37
722.674	30751.17
723.016	30724.28
723.359	30729.02
723.701	30845.18
724.044	30550.27
724.386	30418.07
724.729	30538.07
725.071	30494.9
725.413	30409.48
725.755	30310.73
726.097	30184.4
726.439	30079.55
726.782	30104.63
727.124	30220.56
727.465	30001.81
727.807	29955.03
728.149	29999.78
728.491	29868.93
728.833	29928.59
729.175	29740.35
729.516	29824.64
729.858	29775.83
730.199	29743.96
730.541	29593.69
730.882	29510.75
731.224	29736.28
731.565	29494.03
731.906	29429.85
732.248	29605.44
732.589	29257.42
732.93	29165.45
733.271	29356.63
733.612	29290.19
733.953	29309.62
734.294	29196.18
734.635	29070.08
734.976	29100.36
735.317	29021.72
735.658	29070.31
735.999	29002.74
736.339	28972.23
736.68	28952.12
737.021	28894.72
737.361	28713.03
737.702	28876.19
738.042	28810.2
738.383	28734.05
738.723	28802.52
739.063	28603.43
739.404	28654.73
739.744	28615.18
740.084	28541.06
740.424	28534.05
740.764	28412.7
741.104	28477.78
741.444	28346.94
741.784	28340.61
742.124	28498.8
742.464	28324.34
742.804	28332.02
743.143	28260.39
743.483	28100.17
743.823	27992.82
744.162	27967.97
744.502	27989.89
744.841	27845.48
745.181	27988.53
745.52	27801.87
745.86	27834.64
746.199	27697.01
746.538	27860.4
746.877	27712.6
747.216	27723.9
747.556	27756.67
747.895	27631.02
748.234	27668.99
748.573	27477.36
748.911	27586.28
749.25	27359.17
749.589	27304.48
749.928	27358.49
750.267	27434.42
750.605	27311.26
750.944	27249.57
751.283	27187.87
751.621	27203.92
751.96	27058.38
752.298	27074.66
752.636	27090.7
752.975	26999.63
753.313	26806.64
753.651	26967.54
753.989	26691.16
754.327	26678.28
754.666	26603.93
755.004	26566.87
755.342	26715.12
755.679	26607.1
756.017	26445.07
756.355	26491.62
756.693	26305.18
757.031	26297.95
