Data from hue_110_FLMS001491_00053.txt Node
Date: Tue Feb 07 17:01:31 GMT 2017
User: dcchb
Spectrometer: FLMS00149
Trigger mode: 0
Integration Time (sec): 2.000000E-2
Scans to average: 10
Electric dark correction enabled: true
Nonlinearity correction enabled: false
Boxcar width: 0
XAxis mode: Wavelengths
Number of Pixels in Spectrum: 2048
>>>>>Begin Spectral Data<<<<<
341.393	-14.75
341.776	-14.75
342.16	-14.75
342.543	-63.56
342.927	-66.95
343.31	-64.46
343.693	-68.08
344.077	-69.66
344.46	-46.38
344.843	-35.08
345.226	-59.94
345.61	-15.88
345.993	-8.42
346.376	8.08
346.759	16.44
347.142	23.9
347.525	20.96
347.908	47.17
348.291	62.54
348.674	86.04
349.057	102.77
349.44	114.74
349.823	125.14
350.206	166.72
350.588	172.37
350.971	218.47
351.354	215.53
351.737	239.71
352.119	225.7
352.502	260.95
352.884	270.9
353.267	260.5
353.65	281.52
354.032	296.43
354.414	295.75
354.797	295.53
355.179	290.56
355.562	292.37
355.944	306.38
356.326	321.52
356.709	311.35
357.091	317.45
357.473	351.8
357.855	346.15
358.238	330.33
358.62	345.25
359.002	315.42
359.384	323.1
359.766	334.17
360.148	335.08
360.53	344.12
360.912	327.17
361.294	321.52
361.676	313.38
362.057	346.15
362.439	337.11
362.821	317
363.203	312.03
363.584	319.26
363.966	294.17
364.348	317.45
364.729	323.55
365.111	312.48
365.493	310.9
365.874	324.68
366.256	290.78
366.637	295.98
367.019	317.68
367.4	309.77
367.781	296.66
368.163	314.51
368.544	308.64
368.925	299.6
369.306	304.12
369.688	299.37
370.069	304.34
370.45	303.89
370.831	315.42
371.212	305.7
371.593	290.56
371.974	284.23
372.355	315.42
372.736	313.83
373.117	295.53
373.498	316.32
373.879	319.03
374.26	305.47
374.641	298.92
375.021	312.93
375.402	298.24
375.783	335.98
376.163	338.01
376.544	331.46
376.925	313.16
377.305	312.7
377.686	319.71
378.066	297.79
378.447	312.25
378.827	341.63
379.208	311.8
379.588	325.13
379.968	318.58
380.349	331.01
380.729	332.59
381.109	319.03
381.489	343.66
381.87	325.58
382.25	351.12
382.63	322.42
383.01	344.79
383.39	327.17
383.77	336.43
384.15	327.84
384.53	346.15
384.91	336.21
385.29	333.95
385.67	344.12
386.049	347.28
386.429	317.9
386.809	359.48
387.189	355.64
387.568	344.57
387.948	354.28
388.328	345.02
388.707	364.23
389.087	351.57
389.466	354.06
389.846	352.7
390.225	348.41
390.605	356.77
390.984	338.69
391.363	344.79
391.743	351.35
392.122	341.86
392.501	376.43
392.881	358.58
393.26	346.15
393.639	343.89
394.018	375.07
394.397	383.66
394.776	372.36
395.155	373.49
395.534	357
395.913	366.71
396.292	374.62
396.671	382.31
397.05	363.32
397.429	374.4
397.808	355.87
398.186	379.14
398.565	383.44
398.944	388.41
399.323	399.71
399.701	395.64
400.08	403.77
400.458	372.59
400.837	399.71
401.215	392.48
401.594	389.09
401.972	408.29
402.351	387.73
402.729	399.71
403.107	408.29
403.486	413.49
403.864	399.71
404.242	406.26
404.62	415.75
404.999	385.7
405.377	414.85
405.755	421.18
406.133	398.13
406.511	417.33
406.889	425.02
407.267	401.51
407.645	426.6
408.023	432.25
408.401	430.44
408.779	444
409.156	436.32
409.534	436.32
409.912	432.47
410.29	425.02
410.667	426.6
411.045	436.54
411.422	457.11
411.8	444.9
412.178	464.79
412.555	465.47
412.933	445.81
413.31	451.23
413.687	466.15
414.065	462.53
414.442	457.78
414.819	469.54
415.197	482.19
415.574	484.45
415.951	474.06
416.328	473.83
416.705	488.74
417.082	484.45
417.46	501.4
417.837	490.55
418.214	474.06
418.591	519.48
418.967	484
419.344	486.48
419.721	497.78
420.098	503.89
420.475	511.57
420.852	497.56
421.228	514.05
421.605	507.73
421.982	509.76
422.358	526.71
422.735	530.1
423.111	544.56
423.488	531
423.864	529.42
424.241	558.35
424.617	546.82
424.994	538.23
425.37	530.78
425.746	542.08
426.123	550.21
426.499	562.87
426.875	547.05
427.251	559.48
427.627	554.96
428.003	594.96
428.379	600.83
428.756	587.95
429.132	591.11
429.507	585.69
429.883	615.52
430.259	601.28
430.635	600.83
431.011	603.32
431.387	625.24
431.763	634.96
432.138	634.5
432.514	625.01
432.89	645.12
433.265	631.34
433.641	658.23
434.016	651.68
434.392	651.68
434.767	650.1
435.143	675.41
435.518	662.07
435.894	688.74
436.269	699.81
436.644	679.7
437.02	703.43
437.395	683.77
437.77	689.19
438.145	697.1
438.52	735.74
438.895	737.55
439.271	731.9
439.646	725.57
440.021	749.75
440.395	716.08
440.77	750.66
441.145	760.6
441.52	739.13
441.895	766.03
442.27	761.51
442.645	756.76
443.019	785.23
443.394	756.53
443.769	783.43
444.143	756.99
444.518	797.44
444.892	791.11
445.267	810.32
445.641	807.15
446.016	820.03
446.39	818.23
446.764	828.17
447.139	817.78
447.513	828.62
447.887	837.44
448.262	836.76
448.636	843.99
449.01	851.45
449.384	839.92
449.758	861.16
450.132	850.32
450.506	858.9
450.88	881.05
451.254	865.01
451.628	876.08
452.002	889.19
452.376	911.11
452.75	918.34
453.123	903.65
453.497	926.25
453.871	913.37
454.244	971.9
454.618	968.05
454.992	975.29
455.365	970.09
455.739	991.33
456.112	1000.14
456.486	1018.9
456.859	1024.78
457.232	1008.5
457.606	1011.22
457.979	1018.45
458.352	1041.27
458.725	1067.71
459.099	1072.23
459.472	1081.05
459.845	1088.95
460.218	1107.03
460.591	1133.7
460.964	1091.44
461.337	1150.42
461.71	1176.86
462.083	1185.68
462.456	1192.91
462.829	1194.49
463.201	1195.17
463.574	1219.57
463.947	1249.63
464.32	1274.71
464.692	1261.61
465.065	1280.14
465.438	1327.37
465.81	1326.24
466.183	1326.69
466.555	1371.66
466.928	1409.4
467.3	1406.23
467.672	1419.79
468.045	1478.1
468.417	1485.78
468.789	1508.6
469.161	1503.63
469.534	1522.39
469.906	1575.95
470.278	1585.89
470.65	1608.26
471.022	1630.41
471.394	1676.96
471.766	1719.9
472.138	1750.18
472.51	1770.97
472.882	1798.99
473.253	1843.51
473.625	1874.7
473.997	1907.92
474.369	1940.46
474.74	1992.89
475.112	2063.84
475.484	2104.97
475.855	2155.37
476.227	2170.06
476.598	2248.25
476.97	2331.18
477.341	2350.62
477.713	2410.95
478.084	2450.27
478.455	2542.48
478.827	2597.16
479.198	2701.79
479.569	2690.04
479.94	2843.48
480.311	2904.95
480.682	2984.5
481.053	3059.07
481.424	3179.97
481.795	3202.57
482.166	3329.35
482.537	3377.93
482.908	3479.17
483.279	3555.33
483.65	3699.96
484.021	3804.59
484.391	3930.91
484.762	3988.31
485.133	4032.61
485.503	4164.81
485.874	4268.98
486.244	4399.38
486.615	4532.71
486.985	4654.06
487.356	4810.66
487.726	4892.47
488.097	5034.16
488.467	5156.42
488.837	5247.72
489.207	5400.25
489.578	5546.92
489.948	5647.25
490.318	5767.7
490.688	5869.39
491.058	6059.67
491.428	6150.52
491.798	6296.28
492.168	6507.12
492.538	6526.55
492.908	6676.6
493.278	6856.26
493.648	6878.86
494.017	7052.19
494.387	7209.25
494.757	7312.52
495.126	7425.96
495.496	7512.74
495.866	7614.43
496.235	7768.55
496.605	7876.57
496.974	8048.77
497.344	8199.28
497.713	8267.07
498.082	8365.15
498.452	8535.09
498.821	8688.08
499.19	8634.74
499.559	8823.44
499.928	8904.12
500.298	9093.72
500.667	9145.24
501.036	9174.84
501.405	9337.55
501.774	9411.67
502.143	9541.16
502.512	9567.38
502.88	9637.2
503.249	9799.69
503.618	9833.81
503.987	9919
504.356	9978.21
504.724	10055.95
505.093	10077.64
505.462	10136.85
505.83	10249.39
506.199	10405.77
506.567	10521.93
506.936	10561.93
507.304	10719.66
507.672	10713.56
508.041	10782.26
508.409	10885.08
508.777	10989.71
509.145	11072.87
509.514	11080.78
509.882	11086.21
510.25	11159.88
510.618	11184.73
510.986	11288.91
511.354	11367.55
511.722	11408.01
512.09	11579.75
512.458	11484.16
512.826	11641.22
513.193	11605.29
513.561	11639.19
513.929	11743.59
514.297	11800.09
514.664	11869.69
515.032	11935.45
515.4	12022.68
515.767	12053.64
516.135	12046.18
516.502	11904.49
516.869	12159.4
517.237	12128.21
517.604	12094.31
517.972	12248.21
518.339	12273.52
518.706	12231.71
519.073	12322.78
519.44	12340.86
519.808	12464.47
520.175	12345.83
520.542	12543.57
520.909	12519.61
521.276	12573.17
521.643	12583.34
522.009	12658.59
522.376	12656.56
522.743	12755.99
523.11	12724.13
523.477	12805.93
523.843	12846.84
524.21	12972.03
524.577	13044.57
524.943	12961.64
525.31	13017
525.676	13119.37
526.043	13153.95
526.409	13155.3
526.776	13167.73
527.142	13131.58
527.508	13271.68
527.874	13213.38
528.241	13212.03
528.607	13152.59
528.973	13291.12
529.339	13197.56
529.705	13355.3
530.071	13230.78
530.437	13363.66
530.803	13356.2
531.169	13346.26
531.535	13253.38
531.901	13271.23
532.267	13298.58
532.632	13294.28
532.998	13279.37
533.364	13339.25
533.73	13371.34
534.095	13329.31
534.461	13348.52
534.826	13275.3
535.192	13403.88
535.557	13402.98
535.923	13261.29
536.288	13284.34
536.653	13353.26
537.019	13196.66
537.384	13195.3
537.749	13158.92
538.114	13142.65
538.479	13086.61
538.845	13122.08
539.21	13061.29
539.575	12974.74
539.94	13010.45
540.305	13083.44
540.67	13030.56
541.034	12961.18
541.399	12991.47
541.764	12937.46
542.129	12871.92
542.494	12917.57
542.858	12873.73
543.223	12809.78
543.587	12837.57
543.952	12851.36
544.316	12781.98
544.681	12737.01
545.045	12753.73
545.41	12731.59
545.774	12660.18
546.138	12643.23
546.503	12665.37
546.867	12551.93
547.231	12620.85
547.595	12519.39
547.959	12544.47
548.324	12490.24
548.688	12412.27
549.052	12398.49
549.416	12310.58
549.779	12416.11
550.143	12264.93
550.507	12233.29
550.871	12335.66
551.235	12261.77
551.599	12257.93
551.962	12201.66
552.326	12222.9
552.689	12270.81
553.053	12139.51
553.417	12130.25
553.78	12186.52
554.143	12042.56
554.507	12168.21
554.87	12104.94
555.234	12216.57
555.597	11983.58
555.96	12029.46
556.323	12102.45
556.686	12079.85
557.05	12095.67
557.413	11945.39
557.776	12019.97
558.139	12091.83
558.502	11975.45
558.865	11912.62
559.228	12019.74
559.59	12077.82
559.953	12065.16
560.316	12106.07
560.679	11917.37
561.041	12044.37
561.404	12025.16
561.767	12071.94
562.129	11905.17
562.492	12069.46
562.854	12001.44
563.217	11981.78
563.579	11992.85
563.941	12106.07
564.304	12135.22
564.666	12091.6
565.028	12106.29
565.39	12135.22
565.753	12174.54
566.115	12093.18
566.477	12159.17
566.839	12198.49
567.201	12189
567.563	12156.01
567.925	12199.4
568.287	12145.39
568.648	12290.92
569.01	12251.6
569.372	12307.19
569.734	12217.7
570.095	12305.38
570.457	12293.18
570.819	12351.48
571.18	12256.34
571.542	12335.44
571.903	12284.82
572.265	12388.32
572.626	12395.1
572.987	12457.47
573.349	12413.85
573.71	12378.83
574.071	12444.59
574.432	12445.49
574.794	12410.24
575.155	12348.32
575.516	12462.21
575.877	12397.58
576.238	12476
576.599	12371.14
576.96	12397.81
577.32	12418.37
577.681	12494.76
578.042	12500.18
578.403	12452.72
578.763	12492.04
579.124	12505.38
579.485	12536.56
579.845	12560.52
580.206	12519.16
580.566	12436.9
580.927	12480.29
581.287	12580.86
581.648	12438.71
582.008	12494.98
582.368	12385.38
582.728	12506.73
583.089	12440.97
583.449	12465.83
583.809	12480.29
584.169	12425.38
584.529	12485.49
584.889	12556
585.249	12314.2
585.609	12419.5
585.969	12475.1
586.329	12405.27
586.688	12379.51
587.048	12418.6
587.408	12341.77
587.768	12267.19
588.127	12319.62
588.487	12345.38
588.846	12433.06
589.206	12281.65
589.565	12205.5
589.925	12372.05
590.284	12270.36
590.643	12293.41
591.003	12252.28
591.362	12384.02
591.721	12225.16
592.08	12250.47
592.44	12303.35
592.799	12254.99
593.158	12229.9
593.517	12273.75
593.876	12231.26
594.235	12225.61
594.593	12217.48
594.952	12232.62
595.311	12250.02
595.67	12211.6
596.029	12324.82
596.387	12298.6
596.746	12314.87
597.104	12241.66
597.463	12186.74
597.822	12248.89
598.18	12174.31
598.538	12215.67
598.897	12217.7
599.255	12119.85
599.613	12290.02
599.972	12221.32
600.33	12194.43
600.688	12107.42
601.046	12226.06
601.404	12240.07
601.762	12222.9
602.12	12261.32
602.478	12311.03
602.836	12196.01
603.194	12171.6
603.552	12235.78
603.91	12193.3
604.268	12245.95
604.625	12238.27
604.983	12218.15
605.341	12169.12
605.698	12178.38
606.056	12229.9
606.413	12202.79
606.771	12279.62
607.128	12254.99
607.485	12135.67
607.843	12162.11
608.2	12278.26
608.557	12234.88
608.914	12183.58
609.272	12262.45
609.629	12320.07
609.986	12299.06
610.343	12243.01
610.7	12363.01
611.057	12402.78
611.414	12322.78
611.771	12324.37
612.127	12347.64
612.484	12423.57
612.841	12374.99
613.198	12395.32
613.554	12334.99
613.911	12439.62
614.267	12375.21
614.624	12346.51
614.98	12365.72
615.337	12480.97
615.693	12407.98
616.05	12404.14
616.406	12497.69
616.762	12440.29
617.118	12386.74
617.475	12419.96
617.831	12448.88
618.187	12450.01
618.543	12490.69
618.899	12529.78
619.255	12450.24
619.611	12566.84
619.967	12539.5
620.323	12605.04
620.678	12579.27
621.034	12507.19
621.39	12516.9
621.746	12562.1
622.101	12633.28
622.457	12538.82
622.812	12565.04
623.168	12586.05
623.523	12609.1
623.879	12634.41
624.234	12577.01
624.589	12564.13
624.945	12563.23
625.3	12534.98
625.655	12552.16
626.01	12561.2
626.365	12522.55
626.72	12529.56
627.075	12496.79
627.43	12519.39
627.785	12498.15
628.14	12509.45
628.495	12535.66
628.85	12585.83
629.205	12450.92
629.559	12532.27
629.914	12487.07
630.269	12560.07
630.623	12433.97
630.978	12515.32
631.332	12479.62
631.687	12517.13
632.041	12501.08
632.396	12447.53
632.75	12434.87
633.104	12413.85
633.459	12437.58
633.813	12397.36
634.167	12371.14
634.521	12360.07
634.875	12399.62
635.229	12339.73
635.583	12267.19
635.937	12317.13
636.291	12211.37
636.645	12309.45
636.999	12236.01
637.352	12242.33
637.706	12212.96
638.06	12264.93
638.413	12236.91
638.767	12237.81
639.121	12126.4
639.474	12103.35
639.828	12158.27
640.181	12124.6
640.534	12154.43
640.888	12114.2
641.241	11987.2
641.594	12024.71
641.947	12025.84
642.301	12097.7
642.654	12069.46
643.007	12069.23
643.36	12024.03
643.713	11987.88
644.066	12108.33
644.419	11993.3
644.771	11873.53
645.124	11845.51
645.477	11750.59
645.83	11736.36
646.182	11745.85
646.535	11646.87
646.888	11686.42
647.24	11569.81
647.593	11657.72
647.945	11550.6
648.298	11584.5
648.65	11591.5
649.002	11580.43
649.355	11627.43
649.707	11636.25
650.059	11707.21
650.411	11811.84
650.763	11833.53
651.115	11968.67
651.467	11879.86
651.819	11845.51
652.171	11930.7
652.523	11948.78
652.875	11912.85
653.227	11732.29
653.578	11898.39
653.93	11862.68
654.282	11817.03
654.633	11881.66
654.985	11893.42
655.337	11852.97
655.688	11842.34
656.039	11821.55
656.391	11819.29
656.742	11859.29
657.094	11847.09
657.445	11997.59
657.796	11893.87
658.147	11857.48
658.498	11809.35
658.849	11957.14
659.2	11949.46
659.551	11918.27
659.902	11970.48
660.253	11933.64
660.604	11965.5
660.955	11868.78
661.306	11935
661.656	11880.54
662.007	12034.43
662.358	11847.99
662.708	11978.61
663.059	11936.35
663.409	11828.56
663.76	11917.6
664.11	12021.32
664.461	11934.54
664.811	11971.15
665.161	11913.75
665.511	11869.01
665.862	11879.18
666.212	11975.22
666.562	11982.68
666.912	12050.7
667.262	11952.4
667.612	11898.84
667.962	11891.83
668.312	11980.19
668.662	11963.24
669.011	11986.75
669.361	11915.34
669.711	11915.11
670.06	11877.6
670.41	11886.41
670.76	11819.52
671.109	11866.07
671.459	11900.42
671.808	11759.41
672.157	11887.54
672.507	11757.37
672.856	11768
673.205	11822.23
673.554	11846.41
673.904	11824.94
674.253	11921.89
674.602	11746.98
674.951	11688.22
675.3	11543.14
675.649	11738.84
675.998	11749.69
676.346	11781.33
676.695	11830.37
677.044	11700.43
677.393	11704.49
677.741	11806.64
678.09	11788.33
678.438	11737.49
678.787	11726.64
679.135	11656.36
679.484	11700.2
679.832	11667.89
680.181	11611.39
680.529	11630.6
680.877	11596.93
681.225	11549.24
681.573	11665.85
681.922	11491.62
682.27	11433.09
682.618	11518.28
682.966	11457.5
683.314	11544.27
683.661	11419.53
684.009	11409.59
684.357	11358.74
684.705	11389.7
685.053	11322.81
685.4	11295.92
685.748	11235.81
686.095	11264.51
686.443	11242.81
686.79	11270.38
687.138	11202.81
687.485	11196.26
687.832	11156.71
688.18	11201.68
688.527	11077.84
688.874	11049.6
689.221	11001.46
689.568	10982.93
689.915	11010.5
690.262	10932.09
690.609	10921.69
690.956	10896.15
691.303	10792.43
691.65	10855.93
691.997	10788.36
692.344	10733.9
692.69	10728.47
693.037	10721.7
693.383	10611.64
693.73	10633.56
694.077	10513.11
694.423	10559.67
694.769	10525.32
695.116	10469.95
695.462	10463.85
695.808	10427.24
696.155	10464.98
696.501	10347.47
696.847	10363.29
697.193	10221.37
697.539	10309.28
697.885	10207.13
698.231	10175.5
698.577	10187.92
698.923	10121.94
699.269	10035.84
699.614	10042.62
699.96	9975.73
700.306	9973.24
700.651	9874.94
700.997	9828.39
701.342	9858.89
701.688	9808.95
702.033	9754.04
702.379	9692.8
702.724	9765.56
703.069	9763.08
703.415	9646.47
703.76	9642.4
704.105	9634.94
704.45	9566.25
704.795	9552.01
705.14	9493.93
705.485	9513.37
705.83	9458.23
706.175	9475.85
706.52	9424.33
706.865	9423.65
707.209	9368.28
707.554	9323.09
707.899	9391.79
708.243	9298.46
708.588	9303.43
708.932	9256.42
709.277	9202.64
709.621	9199.25
709.966	9135.07
710.31	9128.97
710.654	9092.36
710.998	9095.3
711.342	9029.76
711.687	9032.47
712.031	9004.9
712.375	8983.44
712.719	8943.66
713.063	8984.79
713.407	8965.58
713.75	8872.7
714.094	8893.95
714.438	8808.75
714.782	8949.99
715.125	8879.94
715.469	8838.13
715.812	8853.04
716.156	8793.38
716.499	8768.07
716.843	8762.42
717.186	8764.91
717.53	8798.36
717.873	8817.11
718.216	8750
718.559	8694.18
718.902	8677.23
719.246	8756.78
719.589	8650.34
719.932	8577.35
720.275	8643.78
720.617	8582.77
720.96	8579.15
721.303	8622.32
721.646	8622.32
721.989	8534.63
722.331	8597.91
722.674	8550.45
723.016	8599.72
723.359	8490.12
723.701	8524.47
724.044	8494.41
724.386	8553.39
724.729	8607.85
725.071	8481.75
725.413	8488.08
725.755	8479.95
726.097	8502.32
726.439	8391.14
726.782	8419.84
727.124	8464.13
727.465	8428.87
727.807	8419.84
728.149	8425.03
728.491	8385.03
728.833	8414.19
729.175	8401.53
729.516	8413.28
729.858	8342.55
730.199	8412.6
730.541	8366.96
730.882	8424.58
731.224	8406.5
731.565	8389.1
731.906	8297.8
732.248	8357.24
732.589	8294.19
732.93	8341.42
733.271	8370.12
733.612	8370.8
733.953	8345.49
734.294	8361.98
734.635	8285.38
734.976	8463.9
735.317	8389.1
735.658	8405.6
735.999	8360.18
736.339	8437.24
736.68	8377.8
737.021	8402.89
737.361	8356.33
737.702	8435.43
738.042	8392.49
738.383	8349.55
738.723	8406.95
739.063	8417.58
739.404	8444.02
739.744	8392.27
740.084	8447.41
740.424	8495.99
740.764	8410.12
741.104	8486.05
741.444	8483.56
741.784	8467.29
742.124	8501.64
742.464	8516.1
742.804	8554.07
743.143	8513.39
743.483	8592.26
743.823	8565.59
744.162	8672.71
744.502	8666.38
744.841	8653.95
745.181	8680.39
745.52	8701.41
745.86	8742.54
746.199	8695.99
746.538	8805.59
746.877	8917.9
747.216	8853.04
747.556	8938.69
747.895	8966.26
748.234	9008.07
748.573	9067.73
748.911	9112.02
749.25	9196.09
749.589	9269.3
749.928	9276.76
750.267	9383.88
750.605	9456.64
750.944	9486.25
751.283	9560.37
751.621	9746.13
751.96	9755.39
752.298	9818.89
752.636	9950.19
752.975	9986.57
753.313	10074.48
753.651	10187.7
753.989	10281.26
754.327	10405.77
754.666	10454.81
755.004	10593.11
755.342	10697.74
755.679	10814.8
756.017	10955.14
756.355	11126.43
756.693	11183.6
757.031	11326.88
757.368	11446.42
757.706	11581.11
758.044	11698.62
758.381	11906.07
758.719	12058.38
759.056	12222
759.394	12361.65
759.731	12432.38
760.068	12589.89
