Data from hue_20_FLMS001491_12.txt Node
Date: Mon Feb 06 15:33:40 GMT 2017
User: dcchb
Spectrometer: FLMS00149
Trigger mode: 0
Integration Time (sec): 2.000000E-2
Scans to average: 10
Electric dark correction enabled: true
Nonlinearity correction enabled: false
Boxcar width: 0
XAxis mode: Wavelengths
Number of Pixels in Spectrum: 2048
>>>>>Begin Spectral Data<<<<<
341.393	-18.28
341.776	-18.28
342.16	-18.28
342.543	-73.87
342.927	-58.95
343.31	-74.77
343.693	-60.99
344.077	-62.12
344.46	-44.72
344.843	-49.24
345.226	-37.03
345.61	-31.84
345.993	-22.57
346.376	-4.49
346.759	-1.1
347.142	29.18
347.525	23.53
347.908	66.47
348.291	67.6
348.674	96.52
349.057	105.56
349.44	110.99
349.823	133.81
350.206	185.11
350.588	185.56
350.971	213.81
351.354	223.75
351.737	237.99
352.119	220.36
352.502	257.2
352.884	274.6
353.267	264.88
353.65	304.43
354.032	299
354.414	281.15
354.797	305.56
355.179	317.76
355.562	332
355.944	315.5
356.326	321.15
356.709	331.32
357.091	339.68
357.473	340.58
357.855	342.62
358.238	348.72
358.62	356.18
359.002	339
359.384	335.84
359.766	356.86
360.148	344.43
360.53	355.05
360.912	327.7
361.294	329.51
361.676	328.83
362.057	298.1
362.439	320.02
362.821	320.92
363.203	346.91
363.584	315.27
363.966	322.51
364.348	318.21
364.729	325.67
365.111	313.47
365.493	322.05
365.874	320.02
366.256	333.58
366.637	319.57
367.019	312.56
367.4	312.79
367.781	317.08
368.163	319.34
368.544	320.02
368.925	290.87
369.306	280.02
369.688	318.66
370.069	323.18
370.45	300.81
370.831	299.68
371.212	318.44
371.593	298.33
371.974	303.52
372.355	308.95
372.736	312.56
373.117	312.79
373.498	328.16
373.879	306.69
374.26	295.39
374.641	320.7
375.021	307.59
375.402	313.92
375.783	316.4
376.163	326.57
376.544	331.32
376.925	338.1
377.305	334.93
377.686	311.88
378.066	334.48
378.447	331.54
378.827	330.87
379.208	311.88
379.588	318.89
379.968	307.14
380.349	339.68
380.729	324.54
381.109	324.77
381.489	335.61
381.87	332.9
382.25	340.81
382.63	337.42
383.01	355.5
383.39	332.67
383.77	346.23
384.15	327.93
384.53	337.65
384.91	345.1
385.29	354.37
385.67	345.1
386.049	338.55
386.429	351.21
386.809	339.68
387.189	333.58
387.568	348.49
387.948	362.05
388.328	341.49
388.707	347.36
389.087	365.89
389.466	337.19
389.846	372
390.225	372.67
390.605	353.24
390.984	364.76
391.363	370.19
391.743	368.83
392.122	365.44
392.501	364.31
392.881	359.79
393.26	386.23
393.639	380.36
394.018	346.01
394.397	360.47
394.776	387.36
395.155	390.53
395.534	335.39
395.913	379.23
396.292	373.13
396.671	363.63
397.05	374.48
397.429	364.09
397.808	359.57
398.186	363.63
398.565	374.26
398.944	374.48
399.323	390.98
399.701	387.59
400.08	367.25
400.458	383.07
400.837	394.14
401.215	393.24
401.594	388.27
401.972	378.55
402.351	384.42
402.729	388.72
403.107	405.67
403.486	395.72
403.864	376.29
404.242	414.03
404.62	394.82
404.999	400.24
405.377	416.97
405.755	414.93
406.133	415.38
406.511	393.24
406.889	394.37
407.267	418.1
407.645	418.32
408.023	423.75
408.401	414.48
408.779	430.07
409.156	419.68
409.534	438.21
409.912	425.55
410.29	436.4
410.667	415.61
411.045	431.66
411.422	431.66
411.8	428.94
412.178	430.98
412.555	452.22
412.933	448.38
413.31	450.19
413.687	443.63
414.065	473.01
414.442	478.43
414.819	467.13
415.197	464.87
415.574	446.57
415.951	474.37
416.328	475.95
416.705	479.11
417.082	454.71
417.46	463.74
417.837	463.97
418.214	473.69
418.591	481.37
418.967	480.47
419.344	461.71
419.721	483.86
420.098	502.39
420.475	490.18
420.852	513.24
421.228	497.64
421.605	490.18
421.982	498.09
422.358	505.55
422.735	524.53
423.111	516.62
423.488	507.59
423.864	512.33
424.241	521.6
424.617	496.51
424.994	508.49
425.37	531.31
425.746	511.2
426.123	520.92
426.499	542.39
426.875	518.43
427.251	534.93
427.627	547.13
428.003	557.08
428.379	550.75
428.756	555.04
429.132	549.17
429.507	562.5
429.883	587.13
430.259	560.69
430.635	578.77
431.011	569.5
431.387	611.99
431.763	576.96
432.138	579.9
432.514	572.22
432.89	610.41
433.265	600.01
433.641	600.92
434.016	614.02
434.392	601.37
434.767	636.62
435.143	615.15
435.518	616.96
435.894	606.79
436.269	633.46
436.644	647.24
437.02	669.16
437.395	639.33
437.77	660.35
438.145	671.65
438.52	630.75
438.895	672.1
439.271	675.26
439.646	692.67
440.021	694.7
440.395	698.77
440.77	683.85
441.145	673.46
441.52	712.55
441.895	675.94
442.27	702.83
442.645	694.25
443.019	706.45
443.394	714.36
443.769	735.15
444.143	719.11
444.518	744.19
444.892	743.06
445.267	705.09
445.641	719.56
446.016	723.63
446.39	743.74
446.764	743.51
447.139	728.14
447.513	754.81
447.887	746.68
448.262	749.39
448.636	771.08
449.01	772.66
449.384	771.99
449.758	765.43
450.132	772.21
450.506	773.34
450.88	797.52
451.254	775.38
451.628	810.63
452.002	793
452.376	817.63
452.75	817.63
453.123	802.94
453.497	815.83
453.871	813.79
454.244	840.23
454.618	831.87
454.992	833.9
455.365	858.31
455.739	889.27
456.112	859.21
456.486	891.76
456.859	904.41
457.232	882.04
457.606	911.64
457.979	910.96
458.352	930.17
458.725	952.77
459.099	906.22
459.472	947.8
459.845	956.61
460.218	968.59
460.591	963.39
460.964	962.49
461.337	999.78
461.71	996.61
462.083	994.58
462.456	1015.82
462.829	1004.97
463.201	1016.72
463.574	1056.72
463.947	1046.33
464.32	1071.64
464.692	1102.37
465.065	1081.36
465.438	1080
465.81	1099.21
466.183	1121.13
466.555	1125.2
466.928	1151.64
467.3	1160.45
467.672	1163.84
468.045	1182.6
468.417	1207.23
468.789	1192.09
469.161	1221.69
469.534	1225.76
469.906	1260.33
470.278	1283.16
470.65	1271.63
471.022	1285.19
471.394	1310.73
471.766	1339.88
472.138	1360.67
472.51	1359.31
472.882	1407.45
473.253	1394.57
473.625	1438.86
473.997	1464.4
474.369	1480.22
474.74	1490.16
475.112	1557.95
475.484	1521.34
475.855	1590.27
476.227	1566.31
476.598	1618.74
476.97	1632.75
477.341	1670.72
477.713	1720.66
478.084	1720.21
478.455	1767.21
478.827	1751.17
479.198	1830.04
479.569	1835.46
479.94	1884.27
480.311	1926.76
480.682	1969.02
481.053	1958.62
481.424	2002.69
481.795	2056.92
482.166	2096.7
482.537	2120.42
482.908	2178.73
483.279	2220.99
483.65	2240.42
484.021	2271.83
484.391	2298.5
484.762	2328.78
485.133	2396.35
485.503	2418.95
485.874	2446.29
486.244	2484.26
486.615	2522.22
486.985	2594.54
487.356	2586.63
487.726	2663.46
488.097	2694.42
488.467	2740.3
488.837	2769.45
489.207	2830.46
489.578	2874.98
489.948	2908.65
490.318	2932.61
490.688	2950.69
491.058	3004.92
491.428	3038.59
491.798	3065.03
492.168	3093.73
492.538	3126.5
492.908	3184.8
493.278	3251.24
493.648	3207.85
494.017	3255.54
494.387	3309.55
494.757	3363.33
495.126	3413.72
495.496	3400.84
495.866	3423.44
496.235	3518.13
496.605	3555.64
496.974	3562.19
497.344	3610.78
497.713	3595.41
498.082	3625.24
498.452	3667.28
498.821	3686.48
499.19	3695.3
499.559	3744.34
499.928	3770.78
500.298	3786.37
500.667	3810.78
501.036	3825.46
501.405	3859.59
501.774	3873.82
502.143	3881.73
502.512	3917.67
502.88	3994.95
503.249	3942.98
503.618	3981.39
503.987	4056.87
504.356	4067.27
504.724	4083.76
505.093	4062.75
505.462	4116.53
505.83	4147.72
506.199	4150.2
506.567	4177.55
506.936	4206.7
507.304	4248.05
507.672	4226.58
508.041	4279.01
508.409	4252.8
508.777	4308.62
509.145	4344.32
509.514	4354.72
509.882	4391.55
510.25	4413.25
510.618	4366.24
510.986	4450.98
511.354	4403.75
511.722	4527.37
512.09	4488.05
512.458	4512
512.826	4537.99
513.193	4549.97
513.561	4592.9
513.929	4607.14
514.297	4646.46
514.664	4666.12
515.032	4678.55
515.4	4669.96
515.767	4703.86
516.135	4746.57
516.502	4707.48
516.869	4789.28
517.237	4815.95
517.604	4782.5
517.972	4781.6
518.339	4816.4
518.706	4812.78
519.073	4829.51
519.44	4821.6
519.808	4905.89
520.175	4930.52
520.542	4972.78
520.909	4954.25
521.276	4944.08
521.643	5062.95
522.009	5024.98
522.376	5090.29
522.743	5044.87
523.11	5111.31
523.477	5164.19
523.843	5171.64
524.21	5175.71
524.577	5264.97
524.943	5255.03
525.31	5259.32
525.676	5338.64
526.043	5332.32
526.409	5406.89
526.776	5433.56
527.142	5405.54
527.508	5453.67
527.874	5492.77
528.241	5508.36
528.607	5499.77
528.973	5577.73
529.339	5533.89
529.705	5601.46
530.071	5685.98
530.437	5675.59
530.803	5738.18
531.169	5710.16
531.535	5733.89
531.901	5722.14
532.267	5763.72
532.632	5805.53
532.998	5814.79
533.364	5920.32
533.73	5887.33
534.095	5951.96
534.461	5999.19
534.826	5974.56
535.192	6000.77
535.557	6078.74
535.923	6050.94
536.288	6068.8
536.653	6064.5
537.019	6116.03
537.384	6092.75
537.749	6140.88
538.114	6156.02
538.479	6198.51
538.845	6193.99
539.21	6178.17
539.575	6215.46
539.94	6258.62
540.305	6319.18
540.67	6288.9
541.034	6358.73
541.399	6344.49
541.764	6422.46
542.129	6425.4
542.494	6412.74
542.858	6501.55
543.223	6502.46
543.587	6535
543.952	6535.9
544.316	6622
544.681	6589.91
545.045	6643.92
545.41	6642.11
545.774	6695.45
546.138	6668.1
546.503	6732.51
546.867	6739.06
547.231	6825.61
547.595	6828.1
547.959	6789.45
548.324	6851.83
548.688	6851.15
549.052	6910.36
549.416	6906.97
549.779	6941.99
550.143	6940.64
550.507	7002.78
550.871	7027.19
551.235	7021.99
551.599	7110.12
551.962	7042.1
552.326	7086.62
552.689	7144.93
553.053	7084.59
553.417	7158.94
553.78	7202.78
554.143	7179.27
554.507	7197.58
554.87	7209.1
555.234	7279.61
555.597	7270.12
555.96	7341.53
556.323	7327.75
556.686	7362.55
557.05	7390.79
557.413	7408.2
557.776	7414.97
558.139	7486.39
558.502	7459.27
558.865	7542.2
559.228	7560.06
559.59	7610.45
559.953	7608.87
560.316	7654.52
560.679	7653.16
561.041	7650.45
561.404	7771.12
561.767	7766.6
562.129	7700.39
562.492	7846.38
562.854	7867.84
563.217	7839.37
563.579	7869.43
563.941	7922.98
564.304	7931.8
564.666	8042.98
565.028	8040.49
565.39	8066.71
565.753	8028.74
566.115	8063.32
566.477	8082.08
566.839	8104.9
567.201	8190.1
567.563	8147.38
567.925	8230.09
568.287	8199.13
568.648	8309.19
569.01	8256.99
569.372	8364.55
569.734	8357.77
570.095	8410.43
570.457	8449.3
570.819	8520.93
571.18	8496.75
571.542	8533.59
571.903	8576.53
572.265	8672.12
572.626	8656.52
572.987	8675.51
573.349	8758.44
573.71	8792.79
574.071	8859.23
574.432	8876.63
574.794	9000.7
575.155	8963.18
575.516	8964.09
575.877	9069.62
576.238	9164.99
576.599	9223.74
576.96	9268.26
577.32	9254.47
577.681	9465.32
578.042	9486.11
578.403	9603.17
578.763	9669.38
579.124	9721.81
579.485	9814.69
579.845	9861.01
580.206	9937.39
580.566	10013.78
580.927	10165.18
581.287	10309.81
581.648	10399.53
582.008	10524.27
582.368	10654.44
582.728	10670.03
583.089	10830.48
583.449	11024.15
583.809	11244.25
584.169	11349.56
584.529	11467.52
584.889	11734.18
585.249	11751.13
585.609	11918.13
585.969	12207.16
586.329	12283.77
586.688	12611
587.048	12739.35
587.408	12937.99
587.768	13096.63
588.127	13286.91
588.487	13636.05
588.846	13894.35
589.206	14050.28
589.565	14268.35
589.925	14580.21
590.284	14759.19
590.643	14987.43
591.003	15292.06
591.362	15571.6
591.721	15758.48
592.08	16011.58
592.44	16366.15
592.799	16673.94
593.158	16850.43
593.517	17177.88
593.876	17479.57
594.235	17751.2
594.593	18020.35
594.952	18265.08
595.311	18535.36
595.67	18798.4
596.029	19323.14
596.387	19562.23
596.746	19888.77
597.104	20008.09
597.463	20319.95
597.822	20770.33
598.18	20932.13
598.538	21178.68
598.897	21577.31
599.255	21733.02
599.613	22394.02
599.972	22436.05
600.33	22811.63
600.688	22995.36
601.046	23308.79
601.404	23715.56
601.762	23923.69
602.12	24270.58
602.478	24549.89
602.836	24908.3
603.194	24934.06
603.552	25363.66
603.91	25527.49
604.268	26022.39
604.625	26161.83
604.983	26624.64
605.341	26690.63
605.698	27006.1
606.056	27310.72
606.413	27692.86
606.771	27874.32
607.128	28136.24
607.485	28331.49
607.843	28463.91
608.2	28879.49
608.557	29169.66
608.914	29233.16
609.272	29550.89
609.629	29688.29
609.986	30122.17
610.343	30030.88
610.7	30580.24
611.057	30641.93
611.414	30891.65
611.771	31154.92
612.127	31419.32
612.484	31447.34
612.841	31822.69
613.198	31754
613.554	32077.38
613.911	32430.36
614.267	32576.57
614.624	32687.08
614.98	33014.08
615.337	33295.42
615.693	33388.75
616.05	33510.79
616.406	33872.81
616.762	33771.8
617.118	34014.73
617.475	34149.86
617.831	34290.2
618.187	34397.77
618.543	34586.92
618.899	34919.79
619.255	34920.47
619.611	34911.43
619.967	35441.81
620.323	35434.35
620.678	35510.73
621.034	35485.42
621.39	35675.47
621.746	35677.51
622.101	36203.37
622.457	36037.95
622.812	36187.78
623.168	36393.42
623.523	36379.86
623.879	36638.16
624.234	36477.49
624.589	36752.73
624.945	36840.19
625.3	36909.34
625.655	36922.9
626.01	36995.44
626.365	37080.18
626.72	37230.69
627.075	37374.64
627.43	37261.87
627.785	37332.83
628.14	37579.15
628.495	37594.97
628.85	37592.49
629.205	37509.78
629.559	37696.21
629.914	37702.31
630.269	37759.49
630.623	37726.95
630.978	37755.19
631.332	37888.07
631.687	38065.24
632.041	37887.39
632.396	37993.61
632.75	37845.36
633.104	38026.82
633.459	37978.46
633.813	37890.33
634.167	37848.52
634.521	37999.93
634.875	38105.69
635.229	38008.52
635.583	37769.88
635.937	37894.85
636.291	37950.22
636.645	37949.09
636.999	37994.28
637.352	38160.38
637.706	38031.57
638.06	38046.26
638.413	38058.69
638.767	37904.12
639.121	37949.99
639.474	37926.94
639.828	37908.86
640.181	38203.54
640.534	38094.62
640.888	37893.04
641.241	37840.16
641.594	37822.08
641.947	38115.86
642.301	37845.59
642.654	38095.52
643.007	38161.74
643.36	38001.29
643.713	37966.26
644.066	38250.77
644.419	37919.71
644.771	37701.64
645.124	37296.67
645.477	37346.16
645.83	37049.45
646.182	36925.61
646.535	36763.81
646.888	36873.18
647.24	36765.84
647.593	37105.72
647.945	36865.95
648.298	36965.84
648.65	36684.26
649.002	36649.01
649.355	36830.7
649.707	36795.44
650.059	36829.79
650.411	37414.19
650.763	37381.42
651.115	37625.03
651.467	37661.86
651.819	37651.02
652.171	37515.2
652.523	37550.45
652.875	37639.72
653.227	37448.99
653.578	37806.94
653.93	37654.63
654.282	37452.83
654.633	37379.84
654.985	37596.1
655.337	37417.58
655.688	37418.71
656.039	37553.17
656.391	37295.09
656.742	37401.98
657.094	37260.97
657.445	37417.35
657.796	37340.97
658.147	37391.14
658.498	37361.08
658.849	37303.23
659.2	37404.24
659.551	37286.51
659.902	37484.69
660.253	37374.64
660.604	37392.04
660.955	37374.19
661.306	37423
661.656	37166.51
662.007	37402.66
662.358	37353.62
662.708	37432.04
663.059	37224.81
663.409	37170.58
663.76	37415.54
664.11	37327.41
664.461	37334.64
664.811	37346.62
665.161	37413.96
665.511	37341.42
665.862	37344.58
666.212	37571.7
666.562	37448.76
666.912	37219.84
667.262	37253.29
667.612	37333.06
667.962	37351.14
668.312	37292.38
668.662	37398.59
669.011	37235.21
669.361	37214.87
669.711	37119.96
670.06	37225.04
670.41	37121.99
670.76	37191.14
671.109	37246.96
671.459	37289.67
671.808	37174.19
672.157	37306.17
672.507	37044.7
672.856	37088.09
673.205	37161.54
673.554	37185.72
673.904	37092.39
674.253	37257.13
674.602	37186.85
674.951	36609.01
675.3	36407.21
675.649	37150.01
675.998	37018.49
676.346	37076.12
676.695	37057.36
677.044	36871.6
677.393	36986.85
677.741	37121.99
678.09	36899.17
678.438	36937.14
678.787	36942.11
679.135	36910.7
679.484	36721.55
679.832	36894.43
680.181	36792.28
680.529	36750.93
680.877	36720.42
681.225	36687.88
681.573	36872.96
681.922	36665.5
682.27	36506.86
682.618	36624.83
682.966	36323.82
683.314	36580.54
683.661	36465.06
684.009	36257.61
684.357	36265.74
684.705	36116.59
685.053	36227.55
685.4	36104.84
685.748	36050.61
686.095	36097.16
686.443	35864.4
686.79	35859.65
687.138	36005.41
687.485	35885.41
687.832	35798.41
688.18	35740.11
688.527	35625.76
688.874	35570.17
689.221	35555.25
689.568	35476.84
689.915	35386.89
690.262	35308.93
690.609	35242.94
690.956	35314.35
691.303	35075.04
691.65	35037.53
691.997	35065.55
692.344	34811.77
692.69	34790.75
693.037	34877.3
693.383	34574.49
693.73	34771.77
694.077	34446.58
694.423	34519.12
694.769	34327.71
695.116	34284.55
695.462	34343.31
695.808	34116.19
696.155	34173.37
696.501	33992.81
696.847	33980.6
697.193	33656.32
697.539	33993.94
697.885	33579.26
698.231	33490.9
698.577	33566.83
698.923	33559.6
699.269	33303.33
699.614	33188.53
699.96	33117.58
700.306	33166.61
700.651	33136.11
700.997	32865.15
701.342	32896.34
701.688	32826.74
702.033	32667.42
702.379	32640.75
702.724	32607.76
703.069	32742.22
703.415	32240.08
703.76	32393.3
704.105	32401.21
704.45	32228.33
704.795	32019.98
705.14	32002.58
705.485	32024.04
705.83	31805.29
706.175	31915.57
706.52	31779.31
706.865	31745.63
707.209	31627.67
707.554	31562.14
707.899	31683.04
708.243	31412.08
708.588	31466.09
708.932	31290.05
709.277	31258.19
709.621	31183.16
709.966	31142.49
710.31	31096.39
710.654	30838.31
710.998	30977.07
711.342	30971.64
711.687	30760.12
712.031	30708.83
712.375	30542.95
712.719	30626.12
713.063	30545.67
713.407	30729.16
713.75	30406.23
714.094	30438.78
714.438	30302.51
714.782	30379.79
715.125	30250.76
715.469	30215.96
715.812	29973.03
716.156	29896.87
716.499	29938.9
716.843	29968.28
717.186	29820.71
717.53	30050.99
717.873	29853.25
718.216	29883.54
718.559	29683.32
718.902	29519.7
719.246	29568.06
719.589	29481.51
719.932	29382.98
720.275	29427.28
720.617	29377.33
720.96	29322.65
721.303	29335.98
721.646	29381.63
721.989	29123.33
722.331	29242.88
722.674	29118.36
723.016	29115.42
723.359	28951.13
723.701	29100.28
724.044	28898.7
724.386	28733.51
724.729	28846.05
725.071	28740.06
725.413	28796.33
725.755	28703.45
726.097	28643.57
726.439	28463.01
726.782	28533.97
727.124	28607.41
727.465	28338.94
727.807	28533.29
728.149	28358.38
728.491	28385.95
728.833	28386.17
729.175	28218.27
729.516	28317.48
729.858	28174.2
730.199	28138.27
730.541	28123.36
730.882	28108.44
731.224	28093.75
731.565	27762.24
731.906	28022.12
732.248	28025.73
732.589	27774.67
732.93	27691.5
733.271	27776.7
733.612	27851.73
733.953	27597.27
734.294	27683.37
734.635	27581.22
734.976	27566.99
735.317	27559.76
735.658	27452.41
735.999	27493.09
736.339	27403.38
736.68	27427.56
737.021	27293.1
737.361	27386.88
737.702	27408.57
738.042	27232.98
738.383	27151.18
738.723	27104.63
739.063	27070.05
739.404	27084.51
739.744	27013.78
740.084	26967.23
740.424	27089.26
740.764	26911.86
741.104	27015.59
741.444	26804.07
741.784	26633.23
742.124	26810.4
742.464	26812.43
742.804	26696.5
743.143	26614.47
743.483	26758.87
743.823	26557.97
744.162	26549.39
744.502	26614.7
744.841	26486.34
745.181	26662.38
745.52	26467.13
745.86	26503.06
746.199	26371.99
746.538	26232.78
746.877	26479.56
747.216	26380.35
747.556	26381.93
747.895	26340.35
748.234	26130.64
748.573	26139.91
748.911	26117.31
749.25	26163.63
749.589	25927.03
749.928	25977.88
750.267	26054.94
750.605	25944.88
750.944	25864.88
751.283	25774.94
751.621	25706.47
751.96	25617.89
752.298	25688.62
752.636	25648.17
752.975	25487.04
753.313	25483.65
753.651	25666.02
753.989	25461.28
754.327	25395.07
754.666	25322.53
755.004	25313.26
755.342	25375.18
755.679	25229.42
756.017	25076.66
756.355	25262.41
756.693	25116.2
757.031	25142.42
757.368	24948.3
757.706	24991.69
758.044	24861.07
758.381	24901.97
758.719	24791.92
759.056	24769.32
759.394	24634.63
759.731	24610.45
760.068	24461.76
760.405	24473.28
760.743	24422.66
