Data from hue_160_FLMS001491_00071.txt Node
Date: Tue Feb 07 16:51:39 GMT 2017
User: dcchb
Spectrometer: FLMS00149
Trigger mode: 0
Integration Time (sec): 2.000000E-2
Scans to average: 10
Electric dark correction enabled: true
Nonlinearity correction enabled: false
Boxcar width: 0
XAxis mode: Wavelengths
Number of Pixels in Spectrum: 2048
>>>>>Begin Spectral Data<<<<<
341.393	-11.17
341.776	-11.17
342.16	-11.17
342.543	-49.82
342.927	-58.18
343.31	-66.31
343.693	-73.32
344.077	-60.44
344.46	-66.31
344.843	-45.52
345.226	-33.09
345.61	-58.18
345.993	-22.02
346.376	-7.56
346.759	16.17
347.142	36.74
347.525	51.65
347.908	84.19
348.291	77.41
348.674	79.9
349.057	86.68
349.44	149.73
349.823	131.2
350.206	170.97
350.588	177.98
350.971	211.2
351.354	239.67
351.737	231.76
352.119	252.1
352.502	266.56
352.884	269.72
353.267	282.61
353.65	302.49
354.032	308.14
354.414	303.62
354.797	316.5
355.179	316.05
355.562	331.64
355.944	329.38
356.326	339.1
356.709	349.72
357.091	349.04
357.473	334.13
357.855	324.41
358.238	338.65
358.62	335.03
359.002	324.19
359.384	331.19
359.766	326.67
360.148	353.79
360.53	327.8
360.912	349.5
361.294	344.3
361.676	340.01
362.057	332.77
362.439	328.93
362.821	324.19
363.203	311.31
363.584	330.06
363.966	319.44
364.348	342.72
364.729	304.98
365.111	314.92
365.493	329.16
365.874	319.44
366.256	291.42
366.637	309.5
367.019	314.92
367.4	335.49
367.781	334.13
368.163	311.98
368.544	302.49
368.925	305.2
369.306	307.46
369.688	310.4
370.069	320.34
370.45	310.4
370.831	296.39
371.212	326.22
371.593	310.18
371.974	300.68
372.355	304.3
372.736	314.7
373.117	310.63
373.498	314.92
373.879	304.07
374.26	317.63
374.641	316.73
375.021	303.85
375.402	316.28
375.783	298.88
376.163	338.65
376.544	292.55
376.925	314.47
377.305	315.83
377.686	316.73
378.066	304.3
378.447	340.01
378.827	325.99
379.208	336.16
379.588	316.73
379.968	336.84
380.349	346.78
380.729	340.01
381.109	337.07
381.489	353.34
381.87	332.77
382.25	331.42
382.63	326.45
383.01	330.29
383.39	358.99
383.77	337.97
384.15	326.9
384.53	340.68
384.91	357.18
385.29	348.14
385.67	344.98
386.049	342.27
386.429	340.91
386.809	364.41
387.189	347.24
387.568	349.04
387.948	337.75
388.328	343.85
388.707	345.43
389.087	357.63
389.466	359.89
389.846	370.74
390.225	353.34
390.605	372.09
390.984	358.99
391.363	358.99
391.743	366.45
392.122	354.92
392.501	373
392.881	361.7
393.26	370.29
393.639	387.69
394.018	398.31
394.397	398.53
394.776	374.58
395.155	375.03
395.534	376.84
395.913	389.5
396.292	381.81
396.671	398.31
397.05	413
397.429	382.26
397.808	387.91
398.186	371.87
398.565	387.46
398.944	353.34
399.323	410.74
399.701	407.8
400.08	407.35
400.458	409.83
400.837	388.59
401.215	394.69
401.594	387.69
401.972	406.44
402.351	400.79
402.729	413.68
403.107	416.16
403.486	401.47
403.864	417.07
404.242	421.58
404.62	411.19
404.999	418.2
405.377	416.61
405.755	419.33
406.133	434.69
406.511	430.17
406.889	440.79
407.267	437.18
407.645	432.43
408.023	434.24
408.401	429.04
408.779	444.18
409.156	457.52
409.534	437.4
409.912	463.17
410.29	445.31
410.667	443.51
411.045	462.49
411.422	471.98
411.8	454.8
412.178	440.79
412.555	474.46
412.933	493.22
413.31	481.47
413.687	477.63
414.065	467.69
414.442	499.55
414.819	509.27
415.197	502.26
415.574	505.42
415.951	502.49
416.328	494.58
416.705	499.32
417.082	514.24
417.46	515.37
417.837	522.6
418.214	525.54
418.591	541.81
418.967	538.42
419.344	527.12
419.721	540.9
420.098	525.99
420.475	542.26
420.852	538.87
421.228	551.3
421.605	556.27
421.982	559.89
422.358	561.47
422.735	558.98
423.111	561.69
423.488	579.09
423.864	584.29
424.241	571.64
424.617	593.78
424.994	567.8
425.37	604.63
425.746	592.88
426.123	607.57
426.499	607.34
426.875	603.95
427.251	607.79
427.627	650.05
428.003	625.87
428.379	629.26
428.756	624.29
429.132	648.25
429.507	622.71
429.883	629.04
430.259	659.09
430.635	686.21
431.011	643.05
431.387	667
431.763	673.78
432.138	671.97
432.514	699.09
432.89	706.1
433.265	697.51
433.641	715.36
434.016	707.68
434.392	718.07
434.767	747.45
435.143	761.24
435.518	744.06
435.894	752.2
436.269	748.58
436.644	760.33
437.02	791.74
437.395	787.45
437.77	784.74
438.145	788.35
438.52	793.1
438.895	803.27
439.271	812.08
439.646	807.79
440.021	819.99
440.395	827.45
440.77	848.24
441.145	852.53
441.52	860.22
441.895	841.46
442.27	852.99
442.645	848.47
443.019	898.41
443.394	874.23
443.769	879.2
444.143	880.1
444.518	900.67
444.892	901.12
445.267	895.92
445.641	908.35
446.016	925.53
446.39	919.88
446.764	920.78
447.139	931.4
447.513	933.44
447.887	949.71
448.262	931.4
448.636	928.69
449.01	1012.08
449.384	993.32
449.758	977.28
450.132	998.74
450.506	1008.24
450.88	1032.64
451.254	1009.59
451.628	1025.86
452.002	1038.07
452.376	1043.26
452.75	1072.19
453.123	1072.64
453.497	1073.32
453.871	1078.74
454.244	1096.82
454.618	1102.25
454.992	1131.85
455.365	1126.2
455.739	1137.05
456.112	1144.28
456.486	1181.79
456.859	1167.55
457.232	1184.95
457.606	1213.43
457.979	1229.02
458.352	1252.07
458.725	1238.29
459.099	1257.04
459.472	1302.92
459.845	1315.57
460.218	1314.22
460.591	1326.19
460.964	1339.75
461.337	1350.15
461.71	1369.58
462.083	1423.82
462.456	1394.89
462.829	1429.92
463.201	1411.62
463.574	1466.53
463.947	1499.07
464.32	1517.83
464.692	1537.94
465.065	1561.22
465.438	1575
465.81	1579.07
466.183	1594.44
466.555	1627.65
466.928	1654.55
467.3	1666.75
467.672	1666.98
468.045	1735.9
468.417	1746.52
468.789	1769.57
469.161	1772.28
469.534	1844.15
469.906	1877.82
470.278	1908.1
470.65	1944.71
471.022	1960.3
471.394	2029.68
471.766	2029
472.138	2078.04
472.51	2145.83
472.882	2205.94
473.253	2231.93
473.625	2287.98
473.997	2307.19
474.369	2358.48
474.74	2400.52
475.112	2473.96
475.484	2541.3
475.855	2586.95
476.227	2582.88
476.598	2694.75
476.97	2709.89
477.341	2823.1
477.713	2936.77
478.084	2934.29
478.455	3006.6
478.827	3096.99
479.198	3208.18
479.569	3281.17
479.94	3418.34
480.311	3454.95
480.682	3516.19
481.053	3652.91
481.424	3737.88
481.795	3816.52
482.166	3901.72
482.537	3992.11
482.908	4115.5
483.279	4178.77
483.65	4320.01
484.021	4409.5
484.391	4506
484.762	4664.86
485.133	4735.14
485.503	4786.89
485.874	4983.5
486.244	5119.54
486.615	5244.96
486.985	5314.34
487.356	5468.23
487.726	5573.77
488.097	5788.22
488.467	5835.68
488.837	5995.68
489.207	6106.86
489.578	6277.7
489.948	6333.97
490.318	6511.14
490.688	6575.32
491.058	6757.01
491.428	6919.95
491.798	7041.75
492.168	7139.37
492.538	7283.78
492.908	7452.36
493.278	7624.33
493.648	7608.97
494.017	7786.82
494.387	7988.17
494.757	8058.22
495.126	8246.92
495.496	8278.78
495.866	8369.62
496.235	8563.07
496.605	8601.26
496.974	8699.11
497.344	8914.47
497.713	8990.85
498.082	9158.76
498.452	9208.92
498.821	9294.8
499.19	9385.87
499.559	9483.72
499.928	9545.86
500.298	9651.17
500.667	9803.49
501.036	9836.25
501.405	9936.81
501.774	10004.84
502.143	10106.75
502.512	10165.96
502.88	10276.24
503.249	10305.62
503.618	10470.13
503.987	10483.24
504.356	10588.78
504.724	10616.35
505.093	10696.12
505.462	10781.76
505.83	10801.88
506.199	10912.16
506.567	11075.99
506.936	10994.19
507.304	11120.74
507.672	11243.9
508.041	11292.03
508.409	11390.34
508.777	11447.51
509.145	11500.39
509.514	11476.66
509.882	11576.32
510.25	11576.77
510.618	11728.86
510.986	11695.19
511.354	11826.93
511.722	11882.53
512.09	11956.65
512.458	11905.8
512.826	12020.6
513.193	12135.63
513.561	12002.75
513.929	12119.13
514.297	12253.59
514.664	12323.64
515.032	12278.22
515.4	12316.64
515.767	12380.37
516.135	12417.65
516.502	12384.43
516.869	12513.7
517.237	12543.3
517.604	12545.56
517.972	12651.77
518.339	12578.1
518.706	12621.04
519.073	12688.83
519.44	12673.69
519.808	12747.14
520.175	12689.06
520.542	12794.37
520.909	12876.17
521.276	12872.33
521.643	12941.26
522.009	12985.32
522.376	13025.55
522.743	13058.09
523.11	13039.11
523.477	13118.43
523.843	13236.84
524.21	13279.33
524.577	13355.03
524.943	13337.86
525.31	13340.57
525.676	13442.94
526.043	13432.99
526.409	13460.79
526.776	13446.78
527.142	13481.58
527.508	13506.66
527.874	13482.94
528.241	13517.96
528.607	13488.36
528.973	13474.58
529.339	13474.58
529.705	13558.87
530.071	13640.45
530.437	13613.55
530.803	13717.73
531.169	13704.4
531.535	13629.15
531.901	13657.17
532.267	13664.4
532.632	13608.36
532.998	13555.93
533.364	13642.25
533.73	13667.11
534.095	13598.87
534.461	13587.79
534.826	13566.32
535.192	13527.91
535.557	13524.29
535.923	13529.49
536.288	13537.4
536.653	13497.63
537.019	13409.49
537.384	13493.33
537.749	13498.3
538.114	13434.12
538.479	13345.76
538.845	13384.18
539.21	13263.96
539.575	13238.65
539.94	13295.82
540.305	13269.83
540.67	13163.4
541.034	13144.41
541.399	13171.53
541.764	13220.8
542.129	13203.17
542.494	13078.65
542.858	13095.6
543.223	13050.41
543.587	13063.29
543.952	13015.83
544.316	12909.39
544.681	12863.29
545.045	12887.92
545.41	12896.51
545.774	12840.92
546.138	12786.68
546.503	12748.27
546.867	12617.65
547.231	12762.73
547.595	12710.53
547.959	12642.05
548.324	12599.34
548.688	12641.15
549.052	12564.09
549.416	12489.74
549.779	12477.31
550.143	12462.85
550.507	12489.29
550.871	12422.17
551.235	12333.14
551.599	12430.76
551.962	12463.08
552.326	12351.21
552.689	12350.54
553.053	12170.88
553.417	12296.75
553.78	12314.38
554.143	12255.4
554.507	12322.74
554.87	12168.17
555.234	12245
555.597	12170.2
555.96	12137.89
556.323	12121.39
556.686	12138.11
557.05	12162.52
557.413	12241.16
557.776	12028.74
558.139	12157.32
558.502	12011.79
558.865	12061.96
559.228	12007.72
559.59	12094.27
559.953	12008.85
560.316	12124.78
560.679	12101.05
561.041	12136.31
561.404	12122.75
561.767	12154.16
562.129	12080.94
562.492	12205.91
562.854	12052.24
563.217	12106.7
563.579	12100.6
563.941	12053.82
564.304	12153.93
564.666	12223.76
565.028	12129.98
565.39	12094.5
565.753	12200.71
566.115	12183.31
566.477	12229.41
566.839	12206.81
567.201	12223.76
567.563	12217.66
567.925	12274.61
568.287	12295.62
568.648	12252.23
569.01	12231.9
569.372	12307.15
569.734	12260.6
570.095	12308.96
570.457	12293.82
570.819	12430.99
571.18	12375.62
571.542	12431.21
571.903	12344.66
572.265	12430.53
572.626	12387.6
572.987	12407.48
573.349	12369.52
573.71	12469.63
574.071	12433.47
574.432	12427.37
574.794	12524.54
575.155	12499.69
575.516	12409.97
575.877	12522.06
576.238	12442.06
576.599	12470.31
576.96	12461.27
577.32	12539.46
577.681	12513.24
578.042	12513.7
578.403	12482.51
578.763	12579.91
579.124	12561.6
579.485	12544.2
579.845	12655.39
580.206	12565.67
580.566	12543.98
580.927	12503.08
581.287	12479.57
581.648	12482.96
582.008	12494.26
582.368	12443.87
582.728	12538.1
583.089	12493.81
583.449	12466.69
583.809	12512.34
584.169	12543.07
584.529	12450.42
584.889	12483.41
585.249	12489.74
585.609	12336.3
585.969	12432.12
586.329	12338.11
586.688	12439.57
587.048	12432.57
587.408	12405.68
587.768	12318.67
588.127	12340.37
588.487	12357.77
588.846	12422.63
589.206	12356.86
589.565	12384.66
589.925	12390.31
590.284	12334.49
590.643	12428.05
591.003	12433.02
591.362	12452.68
591.721	12304.66
592.08	12342.63
592.44	12340.37
592.799	12445.68
593.158	12354.38
593.517	12300.82
593.876	12318
594.235	12294.95
594.593	12270.09
594.952	12363.42
595.311	12242.97
595.67	12218.11
596.029	12297.43
596.387	12354.38
596.746	12301.05
597.104	12254.72
597.463	12184.67
597.822	12239.81
598.18	12201.84
598.538	12207.94
598.897	12283.65
599.255	12240.26
599.613	12237.32
599.972	12226.02
600.33	12273.25
600.688	12150.09
601.046	12203.87
601.404	12276.87
601.762	12272.35
602.12	12263.31
602.478	12258.11
602.836	12331.1
603.194	12197.09
603.552	12244.55
603.91	12180.82
604.268	12244.78
604.625	12216.3
604.983	12258.79
605.341	12193.25
605.698	12267.83
606.056	12285.23
606.413	12217.66
606.771	12219.24
607.128	12272.12
607.485	12169.98
607.843	12155.74
608.2	12285.68
608.557	12256.3
608.914	12223.76
609.272	12229.64
609.629	12296.3
609.986	12356.86
610.343	12282.29
610.7	12388.73
611.057	12314.83
611.414	12309.63
611.771	12406.13
612.127	12424.21
612.484	12310.76
612.841	12404.32
613.198	12322.74
613.554	12363.87
613.911	12488.84
614.267	12464.21
614.624	12418.78
614.98	12430.31
615.337	12571.55
615.693	12538.55
616.05	12472.34
616.406	12526.58
616.762	12478.44
617.118	12533.36
617.475	12470.31
617.831	12558.89
618.187	12551.66
618.543	12566.58
618.899	12600.7
619.255	12565.67
619.611	12597.76
619.967	12528.39
620.323	12655.16
620.678	12632.79
621.034	12562.51
621.39	12503.3
621.746	12617.87
622.101	12649.51
622.457	12576.07
622.812	12625.33
623.168	12612.22
623.523	12615.16
623.879	12601.6
624.234	12560.7
624.589	12644.54
624.945	12617.87
625.3	12663.75
625.655	12613.35
626.01	12595.05
626.365	12582.62
626.72	12594.15
627.075	12597.08
627.43	12576.75
627.785	12468.73
628.14	12560.02
628.495	12602.28
628.85	12597.76
629.205	12471.89
629.559	12560.93
629.914	12514.6
630.269	12500.36
630.623	12552.57
630.978	12453.58
631.332	12483.87
631.687	12426.02
632.041	12377.43
632.396	12517.09
632.75	12344.89
633.104	12433.47
633.459	12354.83
633.813	12347.83
634.167	12347.37
634.521	12313.93
634.875	12382.17
635.229	12347.6
635.583	12213.14
635.937	12307.83
636.291	12276.41
636.645	12252.91
636.999	12204.33
637.352	12261.05
637.706	12211.56
638.06	12245
638.413	12211.78
638.767	12229.64
639.121	12093.37
639.474	12092.24
639.828	12162.97
640.181	12142.63
640.534	12144.44
640.888	12136.98
641.241	12111.22
641.594	12146.25
641.947	12099.7
642.301	12100.15
642.654	12103.99
643.007	12097.89
643.36	12084.56
643.713	11983.54
644.066	12120.03
644.419	11994.61
644.771	11993.26
645.124	11799.82
645.477	11924.79
645.83	11752.81
646.182	11701.74
646.535	11680.95
646.888	11650.44
647.24	11624.23
647.593	11657.67
647.945	11624
648.298	11604.79
648.65	11584.46
649.002	11539.26
649.355	11566.15
649.707	11553.27
650.059	11710.55
650.411	11828.52
650.763	11796.2
651.115	11945.58
651.467	11878.68
651.819	11887.95
652.171	11922.3
652.523	11802.3
652.875	11792.81
653.227	11806.82
653.578	11832.36
653.93	11916.42
654.282	11833.94
654.633	11715.07
654.985	11794.62
655.337	11838.01
655.688	11818.57
656.039	11866.71
656.391	11831.45
656.742	11860.15
657.094	11774.28
657.445	11954.39
657.796	11797.56
658.147	11763.89
658.498	11841.17
658.849	11879.36
659.2	11783.55
659.551	11768.63
659.902	11857.44
660.253	11788.07
660.604	11846.14
660.955	11795.07
661.306	11960.49
661.656	11846.14
662.007	11875.75
662.358	11940.15
662.708	11894.5
663.059	11842.75
663.409	11869.87
663.76	11866.48
664.11	11889.53
664.461	11888.85
664.811	11966.82
665.161	11877.55
665.511	11926.59
665.862	11853.15
666.212	11982.18
666.562	11857.67
666.912	11897.67
667.262	11954.62
667.612	11860.61
667.962	11922.3
668.312	11909.87
668.662	11890.21
669.011	11863.32
669.361	11832.81
669.711	11840.72
670.06	11860.83
670.41	11745.13
670.76	11827.39
671.109	11810.89
671.459	11873.49
671.808	11885.46
672.157	11840.49
672.507	11729.76
672.856	11782.42
673.205	11813.15
673.554	11902.19
673.904	11804.56
674.253	11820.38
674.602	11831.23
674.951	11636.21
675.3	11539.71
675.649	11690.22
675.998	11735.64
676.346	11694.73
676.695	11749.42
677.044	11636.43
677.393	11661.29
677.741	11699.25
678.09	11683.21
678.438	11629.65
678.787	11671.23
679.135	11689.99
679.484	11555.53
679.832	11615.19
680.181	11523.21
680.529	11591.01
680.877	11511.69
681.225	11487.28
681.573	11556.66
681.922	11508.75
682.27	11451.35
682.618	11424.01
682.966	11393.5
683.314	11419.26
683.661	11433.72
684.009	11339.72
684.357	11302.2
684.705	11286.16
685.053	11262.43
685.4	11204.58
685.748	11228.76
686.095	11141.3
686.443	11158.93
686.79	11156.67
687.138	11174.3
687.485	11111.02
687.832	11089.78
688.18	11104.92
688.527	10996.22
688.874	10953.96
689.221	10947.86
689.568	10896.56
689.915	10877.58
690.262	10924.13
690.609	10877.81
690.956	10821.76
691.303	10867.19
691.65	10740.86
691.997	10780.63
692.344	10722.11
692.69	10676.68
693.037	10662.67
693.383	10615.67
693.73	10624.25
694.077	10524.37
694.423	10519.62
694.769	10531.15
695.116	10457.48
695.462	10384.71
695.808	10389.91
696.155	10396.46
696.501	10335.67
696.847	10285.96
697.193	10150.82
697.539	10233.76
697.885	10149.92
698.231	10111.05
698.577	10097.94
698.923	10086.42
699.269	10006.42
699.614	9995.12
699.96	9933.65
700.306	9917.83
700.651	9864.5
700.997	9843.94
701.342	9827.89
701.688	9745.63
702.033	9814.56
702.379	9734.79
702.724	9650.27
703.069	9782.92
703.415	9585.86
703.76	9592.42
704.105	9631.51
704.45	9578.86
704.795	9535.7
705.14	9445.3
705.485	9409.37
705.83	9416.15
706.175	9383.38
706.52	9356.27
706.865	9309.26
707.209	9314.68
707.554	9257.06
707.899	9265.65
708.243	9169.38
708.588	9133.9
708.932	9162.15
709.277	9158.08
709.621	9145.42
709.966	9088.48
710.31	9069.49
710.654	8996.27
710.998	9029.49
711.342	8974.58
711.687	8972.32
712.031	8927.8
712.375	8963.06
712.719	8900.01
713.063	8946.11
713.407	8901.14
713.75	8841.7
714.094	8897.97
714.438	8850.06
714.782	8849.84
715.125	8773.68
715.469	8798.99
715.812	8740.24
716.156	8737.52
716.499	8707.92
716.843	8704.76
717.186	8695.04
717.53	8692.1
717.873	8742.72
718.216	8668.6
718.559	8627.24
718.902	8576.85
719.246	8616.62
719.589	8590.86
719.932	8576.17
720.275	8532.11
720.617	8608.71
720.96	8502.73
721.303	8529.85
721.646	8596.06
721.989	8478.32
722.331	8512.22
722.674	8523.52
723.016	8531.2
723.359	8460.92
723.701	8490.98
724.044	8529.17
724.386	8440.13
724.729	8424.99
725.071	8431.77
725.413	8482.39
725.755	8432.9
726.097	8371.43
726.439	8392
726.782	8318.33
727.124	8396.29
727.465	8370.98
727.807	8403.75
728.149	8360.59
728.491	8330.3
728.833	8353.58
729.175	8339.12
729.516	8311.55
729.858	8262.28
730.199	8338.89
730.541	8305.67
730.882	8290.08
731.224	8307.48
731.565	8308.61
731.906	8314.71
732.248	8327.37
732.589	8326.69
732.93	8230.87
733.271	8283.75
733.612	8274.26
733.953	8265.9
734.294	8244.43
734.635	8272.23
734.976	8288.27
735.317	8309.74
735.658	8272.23
735.999	8303.41
736.339	8243.3
736.68	8308.16
737.021	8307.71
737.361	8262.73
737.702	8345.67
738.042	8276.29
738.383	8296.86
738.723	8319.91
739.063	8329.85
739.404	8352
739.744	8321.94
740.084	8388.83
740.424	8408.49
740.764	8372.79
741.104	8403.3
741.444	8416.18
741.784	8382.51
742.124	8377.76
742.464	8416.63
742.804	8449.62
743.143	8471.99
743.483	8506.12
743.823	8508.6
744.162	8525.55
744.502	8604.65
744.841	8617.98
745.181	8617.98
745.52	8527.36
745.86	8658.43
746.199	8678.09
746.538	8792.21
746.877	8769.84
747.216	8834.7
747.556	8824.3
747.895	8883.74
748.234	8884.41
748.573	9025.2
748.911	9022.49
749.25	9103.16
749.589	9154.24
749.928	9186.55
750.267	9263.61
750.605	9302.03
750.944	9355.14
751.283	9456.6
751.621	9549.71
751.96	9558.52
752.298	9652.98
752.636	9845.74
752.975	9901.11
753.313	10002.12
753.651	10095.45
753.989	10129.35
754.327	10253.42
754.666	10354.21
755.004	10388.33
755.342	10635.55
755.679	10716.91
756.017	10801.65
756.355	10946.05
756.693	11070.34
757.031	11150.57
757.368	11362.77
757.706	11461.29
758.044	11572.03
758.381	11751.46
758.719	11849.08
759.056	12059.25
759.394	12137.44
