Data from hue_36_FLMS001491_00059.txt Node
Date: Tue Feb 07 17:30:00 GMT 2017
User: dcchb
Spectrometer: FLMS00149
Trigger mode: 0
Integration Time (sec): 2.000000E-2
Scans to average: 10
Electric dark correction enabled: true
Nonlinearity correction enabled: false
Boxcar width: 0
XAxis mode: Wavelengths
Number of Pixels in Spectrum: 2048
>>>>>Begin Spectral Data<<<<<
341.393	-10.2
341.776	-10.2
342.16	-10.2
342.543	-36.64
342.927	-84.55
343.31	-63.08
343.693	-77.09
344.077	-69.4
344.46	-79.35
344.843	-55.62
345.226	-48.84
345.61	-45.45
345.993	-1.38
346.376	9.01
346.759	12.17
347.142	29.35
347.525	67.09
347.908	53.53
348.291	67.09
348.674	88.11
349.057	113.87
349.44	125.17
349.823	139.63
350.206	163.58
350.588	174.2
350.971	223.69
351.354	223.24
351.737	234.32
352.119	245.84
352.502	267.54
352.884	284.48
353.267	289.68
353.65	279.29
354.032	312.96
354.414	304.82
354.797	319.29
355.179	338.95
355.562	329.23
355.944	305.5
356.326	337.14
356.709	343.01
357.091	333.97
357.473	338.95
357.855	348.44
358.238	332.84
358.62	329.68
359.002	352.5
359.384	334.2
359.766	360.41
360.148	330.13
360.53	354.54
360.912	342.79
361.294	327.87
361.676	334.2
362.057	341.88
362.439	346.86
362.821	305.05
363.203	335.33
363.584	321.77
363.966	319.74
364.348	326.29
364.729	320.64
365.111	329.91
365.493	327.42
365.874	314.31
366.256	333.3
366.637	336.69
367.019	312.28
367.4	338.72
367.781	318.83
368.163	333.75
368.544	334.88
368.925	322.45
369.306	329.23
369.688	313.86
370.069	317.93
370.45	297.59
370.831	331.49
371.212	322.22
371.593	323.13
371.974	324.48
372.355	329.91
372.736	320.19
373.117	308.21
373.498	313.64
373.879	325.84
374.26	301.21
374.641	317.7
375.021	326.74
375.402	329.91
375.783	319.29
376.163	325.39
376.544	343.01
376.925	335.33
377.305	321.09
377.686	351.83
378.066	328.1
378.447	329.23
378.827	328.78
379.208	307.08
379.588	333.52
379.968	333.97
380.349	346.63
380.729	334.2
381.109	339.85
381.489	347.76
381.87	322
382.25	328.55
382.63	341.21
383.01	366.29
383.39	365.39
383.77	339.85
384.15	336.23
384.53	331.94
384.91	348.66
385.29	350.25
385.67	338.49
386.049	361.54
386.429	351.83
386.809	355.44
387.189	340.08
387.568	361.54
387.948	348.89
388.328	356.12
388.707	362
389.087	353.41
389.466	366.29
389.846	343.01
390.225	359.51
390.605	341.43
390.984	362.9
391.363	363.58
391.743	371.04
392.122	368.55
392.501	349.34
392.881	363.58
393.26	371.04
393.639	367.19
394.018	369.68
394.397	379.62
394.776	377.36
395.155	371.94
395.534	367.42
395.913	371.49
396.292	368.78
396.671	376.01
397.05	384.82
397.429	387.98
397.808	374.65
398.186	380.75
398.565	406.74
398.944	385.27
399.323	383.46
399.701	396.57
400.08	356.57
400.458	390.02
400.837	381.43
401.215	389.57
401.594	402.22
401.972	409.9
402.351	419.85
402.729	402.45
403.107	393.63
403.486	397.02
403.864	393.86
404.242	399.74
404.62	406.97
404.999	420.98
405.377	409.9
405.755	420.75
406.133	421.43
406.511	403.35
406.889	409
407.267	414.88
407.645	449.45
408.023	422.56
408.401	419.85
408.779	429.34
409.156	426.18
409.534	446.29
409.912	413.29
410.29	443.58
410.667	431.82
411.045	440.19
411.422	447.64
411.8	454.2
412.178	443.12
412.555	427.08
412.933	429.56
413.31	452.62
413.687	474.08
414.065	476.34
414.442	459.39
414.819	459.17
415.197	450.36
415.574	487.19
415.951	471.6
416.328	470.24
416.705	467.53
417.082	464.59
417.46	471.15
417.837	456.91
418.214	476.8
418.591	482.22
418.967	484.7
419.344	469.11
419.721	492.84
420.098	495.78
420.475	498.49
420.852	491.26
421.228	518.38
421.605	503.69
421.982	482.44
422.358	526.06
422.735	511.82
423.111	503.69
423.488	519.73
423.864	521.09
424.241	521.54
424.617	548.88
424.994	547.3
425.37	530.58
425.746	528.55
426.123	548.66
426.499	519.96
426.875	532.39
427.251	567.64
427.627	576.45
428.003	540.52
428.379	546.85
428.756	566.96
429.132	562.67
429.507	591.82
429.883	576.23
430.259	582.1
430.635	581.88
431.011	597.7
431.387	597.24
431.763	612.16
432.138	597.47
432.514	619.62
432.89	591.14
433.265	638.83
433.641	629.79
434.016	623.91
434.392	629.33
434.767	639.5
435.143	629.11
435.518	633.85
435.894	634.76
436.269	623.91
436.644	650.58
437.02	659.62
437.395	658.71
437.77	693.74
438.145	674.3
438.52	692.16
438.895	683.57
439.271	693.74
439.646	675.21
440.021	692.61
440.395	694.19
440.77	698.71
441.145	716.34
441.52	722.21
441.895	711.82
442.27	720.4
442.645	722.89
443.019	709.11
443.394	737.58
443.769	740.52
444.143	718.14
444.518	723.12
444.892	721.53
445.267	753.62
445.641	744.58
446.016	724.47
446.39	748.88
446.764	784.36
447.139	776.45
447.513	744.58
447.887	780.06
448.262	798.37
448.636	760.86
449.01	773.96
449.384	776
449.758	777.58
450.132	774.87
450.506	817.8
450.88	817.58
451.254	824.13
451.628	817.8
452.002	843.57
452.376	839.95
452.75	831.36
453.123	829.1
453.497	855.99
453.871	856.45
454.244	860.51
454.618	866.84
454.992	882.89
455.365	874.3
455.739	888.54
456.112	903.9
456.486	911.59
456.859	887.86
457.232	953.62
457.606	923.79
457.979	928.99
458.352	943
458.725	973.05
459.099	995.2
459.472	1005.82
459.845	993.62
460.218	1002.88
460.591	1025.26
460.964	987.29
461.337	1030.68
461.71	1043.11
462.083	1053.05
462.456	1070.68
462.829	1058.7
463.201	1073.84
463.574	1083.79
463.947	1088.08
464.32	1117.23
464.692	1132.15
465.065	1131.69
465.438	1158.13
465.81	1171.24
466.183	1189.77
466.555	1169.21
466.928	1194.74
467.3	1217.57
467.672	1223.22
468.045	1272.71
468.417	1242.65
468.789	1299.6
469.161	1336.66
469.534	1357.68
469.906	1389.77
470.278	1350.9
470.65	1376.66
471.022	1440.84
471.394	1462.76
471.766	1465.92
472.138	1500.27
472.51	1524.23
472.882	1555.41
473.253	1568.29
473.625	1615.75
473.997	1623.43
474.369	1666.37
474.74	1681.28
475.112	1703.66
475.484	1795.18
475.855	1785.24
476.227	1829.98
476.598	1862.97
476.97	1925.12
477.341	1995.85
477.713	2025.68
478.084	2027.49
478.455	2091.67
478.827	2173.25
479.198	2236.52
479.569	2240.82
479.94	2310.87
480.311	2380.93
480.682	2429.06
481.053	2504.99
481.424	2583.41
481.795	2613.69
482.166	2688.71
482.537	2788.82
482.908	2845.32
483.279	2899.33
483.65	2964.64
484.021	3035.15
484.391	3138.87
484.762	3188.36
485.133	3278.53
485.503	3300.9
485.874	3425.19
486.244	3494.57
486.615	3597.39
486.985	3678.97
487.356	3798.29
487.726	3871.28
488.097	3999.41
488.467	4059.53
488.837	4194.66
489.207	4257.49
489.578	4338.61
489.948	4465.39
490.318	4504.26
490.688	4582
491.058	4752.84
491.428	4847.98
491.798	4927.98
492.168	5025.15
492.538	5064.47
492.908	5205.94
493.278	5306.5
493.648	5397.8
494.017	5483.44
494.387	5595.08
494.757	5707.17
495.126	5793.27
495.496	5817.9
495.866	5962.53
496.235	6031.68
496.605	6129.75
496.974	6220.83
497.344	6284.33
497.713	6383.98
498.082	6450.2
498.452	6621.49
498.821	6677.76
499.19	6722.73
499.559	6810.19
499.928	6897.87
500.298	6988.71
500.667	7129.95
501.036	7161.14
501.405	7180.8
501.774	7245.88
502.143	7317.52
502.512	7443.39
502.88	7564.07
503.249	7585.31
503.618	7602.71
503.987	7698.53
504.356	7766.55
504.724	7905.07
505.093	7965.86
505.462	8014.9
505.83	8117.27
506.199	8176.03
506.567	8308.68
506.936	8281.11
507.304	8413.08
507.672	8454.44
508.041	8599.29
508.409	8630.25
508.777	8630.25
509.145	8791.6
509.514	8778.72
509.882	8891.94
510.25	8921.09
510.618	8952.73
510.986	9012.39
511.354	9096.23
511.722	9187.53
512.09	9333.51
512.458	9338.26
512.826	9423.23
513.193	9530.12
513.561	9502.09
513.929	9602.88
514.297	9705.71
514.664	9767.17
515.032	9790.45
515.4	9878.58
515.767	9876.32
516.135	9962.42
516.502	9867.28
516.869	10092.14
517.237	10079.71
517.604	10104.11
517.972	10246.71
518.339	10260.94
518.706	10319.47
519.073	10413.26
519.44	10468.85
519.808	10584.55
520.175	10540.26
520.542	10692.57
520.909	10704.32
521.276	10805.34
521.643	10874.71
522.009	10934.37
522.376	11002.62
522.743	11028.83
523.11	11110.87
523.477	11201.49
523.843	11315.38
524.21	11420.69
524.577	11490.52
524.943	11529.61
525.31	11599.67
525.676	11723.28
526.043	11789.27
526.409	11815.93
526.776	11956.27
527.142	12017.73
527.508	12005.76
527.874	12090.95
528.241	12229.93
528.607	12295.02
528.973	12365.07
529.339	12377.95
529.705	12455.01
530.071	12597.83
530.437	12616.14
530.803	12697.72
531.169	12783.82
531.535	12784.49
531.901	12760.54
532.267	12937.48
532.632	13052.74
532.998	12995.11
533.364	13171.38
533.73	13162.79
534.095	13245.73
534.461	13259.28
534.826	13355.55
535.192	13418.38
535.557	13515.32
535.923	13500.86
536.288	13547.19
536.653	13701.53
537.019	13554.87
537.384	13714.87
537.749	13764.81
538.114	13649.56
538.479	13812.72
538.845	13862.88
539.21	13882.09
539.575	13929.1
539.94	14026.5
540.305	14160.73
540.67	14127.06
541.034	14172.03
541.399	14297
541.764	14276.21
542.129	14368.86
542.494	14388.29
542.858	14488.18
543.223	14471.68
543.587	14615.18
543.952	14616.08
544.316	14694.5
544.681	14691.79
545.045	14733.14
545.41	14912.8
545.774	14922.74
546.138	14907.6
546.503	15007.49
546.867	15083.19
547.231	15186.01
547.595	15103.76
547.959	15194.83
548.324	15242.96
548.688	15274.37
549.052	15342.17
549.416	15344.65
549.779	15350.3
550.143	15433.69
550.507	15527.02
550.871	15534.25
551.235	15581.93
551.599	15786.9
551.962	15816.28
552.326	15697.41
552.689	15878.42
553.053	15823.06
553.417	15956.39
553.78	16143.5
554.143	16040
554.507	16117.97
554.87	16183.73
555.234	16302.59
555.597	16240.22
555.96	16343.27
556.323	16487
556.686	16385.98
557.05	16588.69
557.413	16525.86
557.776	16699.87
558.139	16724.5
558.502	16707.33
558.865	16713.43
559.228	16787.55
559.59	16891.96
559.953	17030.26
560.316	17174.66
560.679	17165.17
561.041	17222.8
561.404	17323.13
561.767	17296.24
562.129	17340.76
562.492	17568.78
562.854	17515.22
563.217	17546.86
563.579	17567.87
563.941	17757.47
564.304	17790.01
564.666	17885.6
565.028	17919.73
565.39	18026.39
565.753	18014.87
566.115	18077.24
566.477	18163.11
566.839	18292.15
567.201	18415.31
567.563	18374.18
567.925	18466.15
568.287	18544.12
568.648	18537.79
569.01	18635.19
569.372	18975.29
569.734	18819.59
570.095	18846.26
570.457	19000.15
570.819	19071.56
571.18	19121.95
571.542	19302.29
571.903	19214.61
572.265	19278.79
572.626	19402.17
572.987	19420.7
573.349	19527.82
573.71	19739.34
574.071	19660.02
574.432	19796.51
574.794	20013.91
575.155	20052.55
575.516	20053.91
575.877	20224.3
576.238	20288.93
576.599	20343.62
576.96	20542.93
577.32	20650.05
577.681	20723.49
578.042	20848.46
578.403	20940.66
578.763	20996.93
579.124	21261.11
579.485	21430.82
579.845	21561.89
580.206	21578.39
580.566	21772.73
580.927	21857.7
581.287	22148.32
581.648	22149.22
582.008	22441.87
582.368	22436.9
582.728	22633.05
583.089	22824.23
583.449	23099.03
583.809	23132.47
584.169	23333.82
584.529	23481.61
584.889	23761.38
585.249	23860.36
585.609	23946.01
585.969	24290.18
586.329	24477.29
586.688	24653.56
587.048	24886.32
587.408	24925.42
587.768	25269.14
588.127	25352.75
588.487	25530.6
588.846	25934.21
589.206	25903.25
589.565	26179.85
589.925	26493.74
590.284	26612.61
590.643	26865.71
591.003	27152.03
591.362	27367.61
591.721	27627.95
592.08	27714.95
592.44	28002.85
592.799	28154.26
593.158	28312.22
593.517	28711.08
593.876	28779.55
594.235	28880.79
594.593	29298.64
594.952	29617.5
595.311	29539.99
595.67	30036.47
596.029	30303.13
596.387	30509.23
596.746	30616.57
597.104	30689.11
597.463	30945.15
597.822	31229.21
598.18	31334.74
598.538	31469.43
598.897	32054.27
599.255	31830.1
599.613	32602.96
599.972	32437.99
600.33	32789.17
600.688	32734.93
601.046	32988.93
601.404	33171.3
601.762	33220.34
602.12	33651.74
602.478	33694.68
602.836	33987.55
603.194	33863.04
603.552	34193.87
603.91	34331.5
604.268	34499.86
604.625	34606.52
604.983	34854.87
605.341	34726.74
605.698	35070.69
606.056	35286.73
606.413	35412.6
606.771	35670.45
607.128	35813.04
607.485	35704.57
607.843	35936.43
608.2	36215.29
608.557	36504.1
608.914	36509.52
609.272	36727.59
609.629	36964.65
609.986	37156.96
610.343	36950.19
610.7	37382.04
611.057	37459.33
611.414	37435.37
611.771	37590.17
612.127	37948.58
612.484	37819.77
612.841	38125.75
613.198	38278.97
613.554	38298.4
613.911	38605.96
614.267	38551.27
614.624	38636.02
614.98	38786.75
615.337	39022.9
615.693	39165.04
616.05	38968.66
616.406	39333.4
616.762	39254.31
617.118	39419.95
617.475	39440.97
617.831	39774.29
618.187	39638.7
618.543	39794.63
618.899	40118.46
619.255	40043.21
619.611	40039.14
619.967	40169.31
620.323	40420.15
620.678	40224.68
621.034	40297.44
621.39	40231.46
621.746	40349.65
622.101	40591.45
622.457	40651.78
622.812	40721.84
623.168	40826.47
623.523	40973.36
623.879	40994.6
624.234	40851.1
624.589	40915.96
624.945	41037.99
625.3	41216.74
625.655	41167.7
626.01	41182.39
626.365	41292.9
626.72	41191.66
627.075	41306.68
627.43	41266.91
627.785	41330.86
628.14	41510.97
628.495	41425.32
628.85	41574.92
629.205	41333.12
629.559	41635.04
629.914	41383.29
630.269	41547.13
630.623	41542.83
630.978	41393.01
631.332	41526.11
631.687	41613.34
632.041	41395.95
632.396	41679.55
632.75	41502.38
633.104	41644.3
633.459	41403.4
633.813	41409.5
634.167	41395.95
634.521	41494.25
634.875	41652.44
635.229	41486.79
635.583	41582.83
635.937	41434.59
636.291	41401.37
636.645	41374.48
636.999	41424.42
637.352	41569.27
637.706	41329.73
638.06	41491.76
638.413	41392.1
638.767	41228.72
639.121	41394.59
639.474	41145.33
639.828	41232.79
640.181	41350.3
640.534	41269.4
640.888	41052.9
641.241	41160.25
641.594	41186.69
641.947	41282.95
642.301	41185.1
642.654	41192.56
643.007	41289.51
643.36	41151.66
643.713	41048.61
644.066	41324.31
644.419	40966.8
644.771	40782.63
645.124	40487.04
645.477	40432.13
645.83	40134.74
646.182	40015.87
646.535	39868.75
646.888	40038.02
647.24	39953.95
647.593	40104
647.945	39941.29
648.298	39792.37
648.65	39677.35
649.002	39593.96
649.355	39793.95
649.707	39899.26
650.059	39820.62
650.411	40394.62
650.763	40365.46
651.115	40687.49
651.467	40676.42
651.819	40678.45
652.171	40536.53
652.523	40459.92
652.875	40441.85
653.227	40251.34
653.578	40579.7
653.93	40561.17
654.282	40327.5
654.633	40141.97
654.985	40357.55
655.337	40358.68
655.688	40429.87
656.039	40537.21
656.391	40241.4
656.742	40355.52
657.094	40450.43
657.445	40339.02
657.796	40359.14
658.147	40338.12
658.498	40219.03
658.849	40343.54
659.2	40308.97
659.551	40155.75
659.902	40318.69
660.253	40360.27
660.604	40412.02
660.955	40187.62
661.306	40341.28
661.656	40245.02
662.007	40323.88
662.358	40344.67
662.708	40264.68
663.059	40248.63
663.409	39803.44
663.76	40336.54
664.11	40142.19
664.461	40182.87
664.811	40167.28
665.161	40144.23
665.511	40234.17
665.862	40162.98
666.212	40176.09
666.562	40336.54
666.912	40041.4
667.262	40044.79
667.612	40112.59
667.962	40073.04
668.312	39938.58
668.662	40268.97
669.011	40113.04
669.361	40038.69
669.711	40110.56
670.06	40013.38
670.41	40010.22
670.76	39883.67
671.109	40049.54
671.459	39912.82
671.808	39882.31
672.157	39916.21
672.507	39590.8
672.856	39719.61
673.205	39950.11
673.554	39999.37
673.904	39820.85
674.253	39947.85
674.602	39796.21
674.951	39364.81
675.3	39189.45
675.649	39787.17
675.998	39710.79
676.346	39712.15
676.695	39843.44
677.044	39519.38
677.393	39713.73
677.741	39786.04
678.09	39733.84
678.438	39474.41
678.787	39597.8
679.135	39578.14
679.484	39350.58
679.832	39506.96
680.181	39396.9
680.529	39368.2
680.877	39295.89
681.225	39232.61
681.573	39382.21
681.922	39112.39
682.27	39001.88
682.618	39176.57
682.966	38915.33
683.314	39038.27
683.661	38927.31
684.009	38751.5
684.357	38683.25
684.705	38638.05
685.053	38683.25
685.4	38670.37
685.748	38566.19
686.095	38459.98
686.443	38357.83
686.79	38398.96
687.138	38429.92
687.485	38434.89
687.832	38321.9
688.18	38273.99
688.527	38031.29
688.874	38112.87
689.221	37971.63
689.568	37918.3
689.915	37706.55
690.262	37815.7
690.609	37775.02
690.956	37593.56
691.303	37675.82
691.65	37419.55
691.997	37429.95
692.344	37187.02
692.69	37193.34
693.037	37263.17
693.383	36978.21
693.73	37105.21
694.077	36793.58
694.423	36854.82
694.769	36719.01
695.116	36655.28
695.462	36590.65
695.808	36442.18
696.155	36731.89
696.501	36166.7
696.847	36230.66
697.193	35949.99
697.539	36161.05
697.885	36039.93
698.231	35792.25
698.577	35792.7
698.923	35832.7
699.269	35747.28
699.614	35471.36
699.96	35405.14
700.306	35349.55
700.651	35089.44
700.997	35159.5
701.342	35079.95
701.688	34984.59
702.033	34971.03
702.379	34914.31
702.724	34850.81
703.069	34866.4
703.415	34527.43
703.76	34501.21
704.105	34636.58
704.45	34515.9
704.795	34292.18
705.14	34150.49
705.485	34063.48
705.83	34016.48
706.175	34035.46
706.52	33855.8
706.865	33832.3
707.209	33729.48
707.554	33566.32
707.899	33623.27
708.243	33528.81
708.588	33501.01
708.932	33303.5
709.277	33288.36
709.621	33421.69
709.966	33047.69
710.31	33198.87
710.654	32917.98
710.998	32826
711.342	32899.9
711.687	32796.85
712.031	32715.04
712.375	32563.18
712.719	32626.91
713.063	32529.96
713.407	32647.93
713.75	32495.84
714.094	32356.18
714.438	32180.82
714.782	32271.89
715.125	32242.29
715.469	32298.33
715.812	32073.93
716.156	31845.01
716.499	31972.92
716.843	31956.87
717.186	31709.87
717.53	31973.14
717.873	31792.81
718.216	31777.22
718.559	31635.3
718.902	31335.19
719.246	31480.05
719.589	31477.11
719.932	31189.89
720.275	31236.44
720.617	31374.51
720.96	31218.59
721.303	31090.91
721.646	31224.01
721.989	30973.17
722.331	31100.17
722.674	30941.76
723.016	31030.79
723.359	30961.64
723.701	30930.46
724.044	30673.29
724.386	30533.63
724.729	30782.21
725.071	30618.38
725.413	30635.32
725.755	30650.24
726.097	30444.37
726.439	30377.48
726.782	30474.2
727.124	30518.27
727.465	30399.17
727.807	30219.52
728.149	30278.27
728.491	30264.03
728.833	30195.11
729.175	30111.95
729.516	29956.02
729.858	30008.22
730.199	29983.82
730.541	29809.81
730.882	29836.02
731.224	29879.64
731.565	29711.05
731.906	29734.11
732.248	29787.89
732.589	29671.06
732.93	29530.72
733.271	29514.9
733.612	29639.19
733.953	29557.61
734.294	29433.77
734.635	29374.57
734.976	29384.28
735.317	29224.97
735.658	29263.61
735.999	29378.41
736.339	29274
736.68	29259.99
737.021	29193.78
737.361	28971.41
737.702	29132.31
738.042	29040.56
738.383	29021.36
738.723	29057.74
739.063	28893.22
739.404	28948.36
739.744	28907.91
740.084	28725.09
740.424	28893.9
740.764	28705.88
741.104	28895.94
741.444	28576.4
741.784	28535.72
742.124	28472.9
742.464	28463.4
742.804	28489.84
743.143	28416.4
743.483	28486.23
743.823	28307.93
744.162	28270.64
744.502	28233.35
744.841	28219.34
745.181	28293.47
745.52	28223.18
745.86	28111.77
746.199	28140.93
746.538	28181.15
746.877	28173.24
747.216	28046.24
747.556	27967.37
747.895	28042.17
748.234	27886.47
748.573	27797.88
748.911	27695.06
749.25	27676.53
749.589	27660.49
749.928	27637.89
750.267	27555.41
750.605	27610.32
750.944	27407.61
751.283	27462.3
751.621	27469.53
751.96	27323.55
752.298	27362.64
752.636	27273.83
752.975	27171.23
753.313	27198.13
753.651	27215.98
753.989	27033.16
754.327	27166.04
754.666	26861.19
755.004	27033.16
755.342	27039.03
755.679	26888.76
756.017	26736.67
756.355	26824.35
756.693	26641.08
757.031	26693.28
757.368	26561.53
757.706	26519.27
