Data from hue_34_FLMS001491_00034.txt Node
Date: Tue Feb 07 17:25:32 GMT 2017
User: dcchb
Spectrometer: FLMS00149
Trigger mode: 0
Integration Time (sec): 2.000000E-2
Scans to average: 10
Electric dark correction enabled: true
Nonlinearity correction enabled: false
Boxcar width: 0
XAxis mode: Wavelengths
Number of Pixels in Spectrum: 2048
>>>>>Begin Spectral Data<<<<<
341.393	-8.26
341.776	-8.26
342.16	-8.26
342.543	-25.44
342.927	-34.48
343.31	-61.59
343.693	-63.85
344.077	-74.02
344.46	-62.72
344.843	-46.68
345.226	-52.56
345.61	-31.99
345.993	-16.85
346.376	1
346.759	15.92
347.142	15.47
347.525	57.72
347.908	73.09
348.291	66.76
348.674	80.32
349.057	99.98
349.44	139.53
349.823	160.77
350.206	163.94
350.588	206.42
350.971	213.43
351.354	226.31
351.737	246.87
352.119	246.42
352.502	285.52
352.884	282.35
353.267	288.9
353.65	306.76
354.032	301.11
354.414	315.57
354.797	312.63
355.179	326.42
355.562	319.41
355.944	338.85
356.326	342.46
356.709	347.89
357.091	336.36
357.473	346.08
357.855	360.32
358.238	349.92
358.62	357.38
359.002	354.44
359.384	342.01
359.766	333.65
360.148	355.57
360.53	347.21
360.912	337.72
361.294	342.01
361.676	357.6
362.057	353.99
362.439	336.14
362.821	312.41
363.203	348.11
363.584	327.77
363.966	328.45
364.348	315.12
364.729	319.41
365.111	330.94
365.493	323.48
365.874	321.45
366.256	320.32
366.637	339.98
367.019	303.82
367.4	320.99
367.781	309.92
368.163	303.14
368.544	311.73
368.925	333.42
369.306	336.81
369.688	330.94
370.069	317.38
370.45	335.01
370.831	326.87
371.212	305.63
371.593	325.51
371.974	318.96
372.355	309.02
372.736	318.28
373.117	306.31
373.498	311.73
373.879	318.51
374.26	311.28
374.641	323.93
375.021	332.07
375.402	332.29
375.783	306.31
376.163	309.92
376.544	338.85
376.925	336.59
377.305	344.5
377.686	313.08
378.066	328.9
378.447	336.59
378.827	334.55
379.208	354.44
379.588	336.36
379.968	337.72
380.349	363.71
380.729	332.52
381.109	337.27
381.489	335.01
381.87	335.91
382.25	310.37
382.63	338.62
383.01	335.91
383.39	368
383.77	345.17
384.15	343.14
384.53	346.3
384.91	342.46
385.29	347.66
385.67	349.69
386.049	345.4
386.429	342.24
386.809	352.86
387.189	343.37
387.568	370.48
387.948	374.55
388.328	360.77
388.707	345.17
389.087	345.63
389.466	373.87
389.846	351.05
390.225	365.96
390.605	356.47
390.984	375.68
391.363	369.81
391.743	364.61
392.122	369.13
392.501	368.9
392.881	373.87
393.26	376.59
393.639	373.42
394.018	362.35
394.397	389.92
394.776	385.63
395.155	388.34
395.534	379.98
395.913	369.13
396.292	385.17
396.671	365.96
397.05	376.13
397.429	352.63
397.808	370.26
398.186	414.1
398.565	377.49
398.944	382.24
399.323	381.33
399.701	390.37
400.08	396.02
400.458	397.15
400.837	381.11
401.215	404.83
401.594	387.66
401.972	408.22
402.351	395.34
402.729	401.22
403.107	417.26
403.486	394.89
403.864	383.82
404.242	406.19
404.62	418.62
404.999	398.73
405.377	408.45
405.755	399.64
406.133	395.34
406.511	423.14
406.889	435.34
407.267	415.68
407.645	427.88
408.023	411.16
408.401	422.01
408.779	418.62
409.156	426.98
409.534	442.8
409.912	421.78
410.29	460.2
410.667	449.35
411.045	467.43
411.422	420.88
411.8	451.16
412.178	456.81
412.555	457.71
412.933	461.78
413.31	466.98
413.687	454.78
414.065	465.17
414.442	460.43
414.819	471.27
415.197	473.31
415.574	473.76
415.951	467.21
416.328	469.01
416.705	493.65
417.082	478.96
417.46	481.44
417.837	500.88
418.214	506.3
418.591	507.88
418.967	512.85
419.344	486.87
419.721	497.26
420.098	494.1
420.475	523.25
420.852	513.31
421.228	509.69
421.605	519.63
421.982	516.02
422.358	519.18
422.735	508.79
423.111	525.96
423.488	542.91
423.864	539.52
424.241	531.16
424.617	518.73
424.994	510.37
425.37	551.04
425.746	543.59
426.123	566.41
426.499	578.84
426.875	570.71
427.251	554.89
427.627	555.11
428.003	563.47
428.379	569.8
428.756	578.84
429.132	563.47
429.507	572.06
429.883	599.86
430.259	589.46
430.635	615.22
431.011	594.89
431.387	596.24
431.763	611.83
432.138	614.32
432.514	598.28
432.89	622.68
433.265	630.82
433.641	633.75
434.016	649.57
434.392	645.96
434.767	651.61
435.143	646.86
435.518	652.51
435.894	643.47
436.269	656.8
436.644	681.21
437.02	670.59
437.395	685.73
437.77	706.07
438.145	685.5
438.52	680.08
438.895	699.52
439.271	691.61
439.646	704.26
440.021	717.59
440.395	707.88
440.77	734.32
441.145	715.11
441.52	744.26
441.895	762.79
442.27	726.18
442.645	762.79
443.019	757.82
443.394	736.35
443.769	758.27
444.143	743.13
444.518	767.54
444.892	756.46
445.267	744.49
445.641	780.64
446.016	779.74
446.39	758.95
446.764	787.65
447.139	784.94
447.513	777.25
447.887	784.94
448.262	784.26
448.636	780.19
449.01	804.82
449.384	808.44
449.758	814.77
450.132	832.62
450.506	795.33
450.88	816.8
451.254	837.59
451.628	828.33
452.002	833.07
452.376	865.84
452.75	874.65
453.123	859.29
453.497	868.32
453.871	877.82
454.244	894.31
454.618	917.59
454.992	907.87
455.365	920.53
455.739	925.05
456.112	931.15
456.486	923.24
456.859	947.19
457.232	986.74
457.606	967.08
457.979	967.08
458.352	984.71
458.725	975.44
459.099	1006.85
459.472	1005.27
459.845	1017.02
460.218	1019.28
460.591	1035.78
460.964	1032.61
461.337	1065.38
461.71	1066.96
462.083	1086.17
462.456	1083.69
462.829	1095.21
463.201	1101.31
463.574	1124.59
463.947	1146.51
464.32	1156
464.692	1152.61
465.065	1134.53
465.438	1179.73
465.81	1200.97
466.183	1208.2
466.555	1235.55
466.928	1269.44
467.3	1237.13
467.672	1276.68
468.045	1293.62
468.417	1291.59
468.789	1297.92
469.161	1333.17
469.534	1334.75
469.906	1385.37
470.278	1380.63
470.65	1395.09
471.022	1409.1
471.394	1429.89
471.766	1481.87
472.138	1506.27
472.51	1520.96
472.882	1547.63
473.253	1595.31
473.625	1589.89
473.997	1645.25
474.369	1657
474.74	1692.03
475.112	1743.1
475.484	1771.35
475.855	1799.83
476.227	1836.66
476.598	1855.64
476.97	1873.04
477.341	1949.2
477.713	1994.85
478.084	2003.89
478.455	2085.02
478.827	2092.47
479.198	2153.49
479.569	2194.84
479.94	2245.92
480.311	2270.77
480.682	2371.79
481.053	2437.77
481.424	2512.12
481.795	2515.06
482.166	2585.79
482.537	2636.64
482.908	2710.99
483.279	2733.81
483.65	2834.37
484.021	2907.37
484.391	2964.54
484.762	3001.38
485.133	3092.9
485.503	3145.78
485.874	3240.69
486.244	3296.96
486.615	3355.26
486.985	3441.82
487.356	3531.76
487.726	3604.07
488.097	3655.82
488.467	3712.77
488.837	3833.9
489.207	3900.34
489.578	4003.61
489.948	4028.92
490.318	4195.02
490.688	4185.98
491.058	4317.95
491.428	4370.83
491.798	4449.02
492.168	4487.89
492.538	4606.31
492.908	4700.31
493.278	4752.29
493.648	4835.23
494.017	4980.98
494.387	4999.97
494.757	5093.52
495.126	5158.83
495.496	5230.47
495.866	5256.68
496.235	5300.98
496.605	5389.11
496.974	5503.01
497.344	5561.99
497.713	5600.63
498.082	5679.27
498.452	5712.94
498.821	5790
499.19	5864.58
499.559	5919.49
499.928	5966.95
500.298	6044.69
500.667	6089.88
501.036	6132.37
501.405	6246.26
501.774	6273.61
502.143	6295.98
502.512	6334.85
502.88	6452.58
503.249	6517.67
503.618	6554.5
503.987	6537.78
504.356	6640.15
504.724	6696.42
505.093	6698.23
505.462	6708.4
505.83	6783.2
506.199	6922.85
506.567	6980.71
506.936	7023.19
507.304	7081.95
507.672	7133.47
508.041	7150.87
508.409	7237.2
508.777	7268.16
509.145	7366.23
509.514	7313.35
509.882	7405.33
510.25	7396.97
510.618	7477.42
510.986	7511.31
511.354	7605.55
511.722	7667.69
512.09	7779.56
512.458	7733.23
512.826	7772.1
513.193	7781.59
513.561	7845.77
513.929	7941.13
514.297	7983.17
514.664	8072.88
515.032	8026.55
515.4	8134.57
515.767	8135.93
516.135	8176.83
516.502	8153.78
516.869	8296.83
517.237	8278.53
517.604	8308.35
517.972	8385.19
518.339	8448.24
518.706	8434.23
519.073	8427.22
519.44	8434
519.808	8543.6
520.175	8560.55
520.542	8691.62
520.909	8687.78
521.276	8758.96
521.643	8825.63
522.009	8842.35
522.376	8885.29
522.743	8932.97
523.11	9009.58
523.477	9116.24
523.843	9116.02
524.21	9170.71
524.577	9276.47
524.943	9345.39
525.31	9358.04
525.676	9415.44
526.043	9544.03
526.409	9480.75
526.776	9612.73
527.142	9576.34
527.508	9633.52
527.874	9706.51
528.241	9800.97
528.607	9838.48
528.973	9871.03
529.339	9858.82
529.705	9961.64
530.071	10034.64
530.437	10150.11
530.803	10166.84
531.169	10196.89
531.535	10203.22
531.901	10209.1
532.267	10312.82
532.632	10360.28
532.998	10383.33
533.364	10520.73
533.73	10377
534.095	10674.39
534.461	10680.27
534.826	10676.65
535.192	10692.02
535.557	10775.41
535.923	10819.48
536.288	10771.79
536.653	10879.59
537.019	10881.17
537.384	10892.92
537.749	10990.32
538.114	10969.75
538.479	11010.2
538.845	11070.99
539.21	11137.43
539.575	11138.56
539.94	11204.55
540.305	11305.34
540.67	11275.96
541.034	11314.38
541.399	11392.34
541.764	11387.82
542.129	11521.6
542.494	11531.55
542.858	11582.17
543.223	11572.22
543.587	11671.43
543.952	11622.39
544.316	11753.69
544.681	11751.43
545.045	11752.78
545.41	11863.74
545.774	11961.37
546.138	11948.26
546.503	12037.52
546.867	11995.49
547.231	12077.97
547.595	12108.26
547.959	12141.02
548.324	12155.03
548.688	12148.93
549.052	12275.93
549.416	12310.06
549.779	12343.5
550.143	12362.49
550.507	12478.41
550.871	12535.36
551.235	12516.83
551.599	12609.26
551.962	12610.39
552.326	12668.01
552.689	12764.96
553.053	12807.67
553.417	12783.72
553.78	12931.06
554.143	12900.32
554.507	12946.43
554.87	12935.13
555.234	13054.22
555.597	12947.78
555.96	13031.17
556.323	13108.68
556.686	13112.97
557.05	13169.24
557.413	13292.86
557.776	13229.36
558.139	13410.14
558.502	13391.16
558.865	13386.19
559.228	13482.91
559.59	13523.59
559.953	13654.88
560.316	13731.04
560.679	13638.84
561.041	13778.49
561.404	13824.37
561.767	13904.59
562.129	13812.62
562.492	14003.35
562.854	14017.81
563.217	14004.48
563.579	14081.08
563.941	14123.34
564.304	14145.94
564.666	14295.54
565.028	14162.66
565.39	14347.97
565.753	14353.85
566.115	14423.22
566.477	14521.07
566.839	14481.53
567.201	14567.4
567.563	14652.37
567.925	14689.2
568.287	14768.07
568.648	14797
569.01	14864.11
569.372	14929.2
569.734	14844.45
570.095	15028.63
570.457	15041.06
570.819	15158.8
571.18	15168.29
571.542	15195.18
571.903	15298
572.265	15416.19
572.626	15483.31
572.987	15566.7
573.349	15562.18
573.71	15643.98
574.071	15769.85
574.432	15754.71
574.794	15981.37
575.155	16017.3
575.516	16061.37
575.877	16168.94
576.238	16227.02
576.599	16405.54
576.96	16474.24
577.32	16515.14
577.681	16674.91
578.042	16822.26
578.403	16900.67
578.763	17068.35
579.124	17113.77
579.485	17350.6
579.845	17552.63
580.206	17639.18
580.566	17738.16
580.927	17935.22
581.287	18005.05
581.648	18180.64
582.008	18395.32
582.368	18518.48
582.728	18711.7
583.089	18896.55
583.449	19015.42
583.809	19371.79
584.169	19509.64
584.529	19617.44
584.889	19919.8
585.249	19969.07
585.609	20144.65
585.969	20498.99
586.329	20585.77
586.688	20923.62
587.048	21129.94
587.408	21413.55
587.768	21572.19
588.127	21832.52
588.487	22070.7
588.846	22386.18
589.206	22557.02
589.565	22690.58
589.925	23115.42
590.284	23383.44
590.643	23566.94
591.003	23877.44
591.362	24122.18
591.721	24338.67
592.08	24545.67
592.44	24883.06
592.799	25135.94
593.158	25293.22
593.517	25575.25
593.876	25906.54
594.235	26013.2
594.593	26394.66
594.952	26657.93
595.311	26863.35
595.67	27160.06
596.029	27608.19
596.387	27798.24
596.746	28059.02
597.104	28178.34
597.463	28475.51
597.822	28871.43
598.18	28899
598.538	29219.67
598.897	29618.76
599.255	29599.09
599.613	30232.3
599.972	30160.89
600.33	30474.55
600.688	30690.37
601.046	30915.9
601.404	31318.37
601.762	31344.81
602.12	31755.2
602.478	31857.79
602.836	32215.07
603.194	32136.2
603.552	32528.74
603.91	32534.61
604.268	32935.96
604.625	32977.76
604.983	33367.13
605.341	33290.75
605.698	33710.62
606.056	33792.88
606.413	34104.29
606.771	34327.11
607.128	34555.12
607.485	34564.84
607.843	34755.57
608.2	35038.73
608.557	35252.28
608.914	35321.88
609.272	35622.67
609.629	35839.16
609.986	36055.65
610.343	35999.83
610.7	36325.25
611.057	36402.31
611.414	36530.89
611.771	36685.69
612.127	36900.15
612.484	37005.45
612.841	37208.61
613.198	37251.55
613.554	37328.16
613.911	37686.79
614.267	37786.22
614.624	37904.64
614.98	38000.23
615.337	38288.81
615.693	38352.08
616.05	38482.25
616.406	38603.83
616.762	38640.44
617.118	38742.58
617.475	38881.11
617.831	39074.1
618.187	39158.17
618.543	39292.4
618.899	39529.91
619.255	39527.65
619.611	39465.95
619.967	39807.64
620.323	40022.1
620.678	39710.69
621.034	39862.33
621.39	39987.3
621.746	39974.64
622.101	40488.53
622.457	40118.59
622.812	40382.09
623.168	40551.8
623.523	40385.48
623.879	40641.52
624.234	40506.6
624.589	40705.92
624.945	40898.46
625.3	40872.02
625.655	40839.03
626.01	40950.66
626.365	40898.91
626.72	41033.37
627.075	41015.29
627.43	41079.24
627.785	41003.09
628.14	41283.53
628.495	41252.12
628.85	41087.83
629.205	41071.11
629.559	41281.73
629.914	41256.64
630.269	41328.96
630.623	41267.94
630.978	41243.76
631.332	41508.39
631.687	41530.31
632.041	41369.41
632.396	41432.68
632.75	41404.89
633.104	41546.35
633.459	41279.69
633.813	41375.06
634.167	41276.08
634.521	41354.04
634.875	41503.19
635.229	41433.59
635.583	41355.85
635.937	41306.81
636.291	41319.92
636.645	41352.01
636.999	41213.48
637.352	41399.01
637.706	41226.81
638.06	41305.91
638.413	41197.43
638.767	41205.12
639.121	41335.96
639.474	40980.49
639.828	41089.19
640.181	41349.75
640.534	41272.46
640.888	41137.32
641.241	40952.02
641.594	41018.23
641.947	41126.7
642.301	40892.81
642.654	40905.92
643.007	41030.21
643.36	41033.6
643.713	40923.54
644.066	41279.69
644.419	40926.71
644.771	40757.22
645.124	40338.02
645.477	40310
645.83	39946.85
646.182	39881.99
646.535	39723.8
646.888	39873.63
647.24	39720.64
647.593	39800.41
647.945	39865.49
648.298	39673.63
648.65	39551.83
649.002	39492.39
649.355	39698.72
649.707	39716.34
650.059	39760.86
650.411	40373.95
650.763	40378.92
651.115	40820.49
651.467	40540.5
651.819	40627.73
652.171	40552.93
652.523	40324.91
652.875	40380.28
653.227	40370.34
653.578	40566.72
653.93	40347.06
654.282	40263.45
654.633	40139.61
654.985	40308.64
655.337	40334.18
655.688	40275.65
656.039	40445.59
656.391	40139.61
656.742	40120.85
657.094	40275.88
657.445	40341.64
657.796	40172.6
658.147	40142.77
658.498	40209.66
658.849	40201.75
659.2	40195.43
659.551	40172.83
659.902	40217.8
660.253	40164.01
660.604	40216.22
660.955	39968.31
661.306	40192.49
661.656	40047.18
662.007	40074.75
662.358	39992.72
662.708	40130.12
663.059	40174.64
663.409	39983.23
663.76	39986.39
664.11	40054.41
664.461	39935.55
664.811	40199.95
665.161	40047.86
665.511	40014.64
665.862	39881.76
666.212	39919.05
666.562	39984.81
666.912	40072.49
667.262	40062.1
667.612	39983
667.962	40026.39
668.312	39963.79
668.662	40147.29
669.011	39979.16
669.361	39886.96
669.711	39903
670.06	39900.52
670.41	39774.19
670.76	39792.95
671.109	40064.13
671.459	39795.66
671.808	39783.46
672.157	39926.51
672.507	39559.96
672.856	39713.63
673.205	39681.77
673.554	39939.84
673.904	39705.72
674.253	39742.78
674.602	39702.11
674.951	39170.82
675.3	38983.48
675.649	39585.95
675.998	39484.94
676.346	39510.25
676.695	39747.08
677.044	39437.25
677.393	39440.19
677.741	39491.49
678.09	39324.49
678.438	39314.55
678.787	39279.07
679.135	39327.2
679.484	39185.96
679.832	39428.44
680.181	39094.44
680.529	39188.9
680.877	39107.09
681.225	39093.08
681.573	39309.57
681.922	39033.2
682.27	38889.47
682.618	38952.97
682.966	38888.57
683.314	38919.75
683.661	38871.85
684.009	38646.09
684.357	38592.3
684.705	38624.85
685.053	38517.05
685.4	38407
685.748	38345.98
686.095	38275.25
686.443	38215.14
686.79	38199.32
687.138	38211.3
687.485	38195.48
687.832	38120.23
688.18	38138.08
688.527	37836.84
688.874	37908.25
689.221	37876.17
689.568	37733.12
689.915	37618.32
690.262	37596.85
690.609	37532.22
690.956	37406.57
691.303	37429.4
691.65	37264.43
691.997	37176.75
692.344	37012.68
692.69	37027.6
693.037	37038.67
693.383	36749.42
693.73	36764.78
694.077	36646.14
694.423	36583.77
694.769	36484.34
695.116	36465.81
695.462	36498.57
695.808	36199.37
696.155	36356.88
696.501	36122.09
696.847	35937.91
697.193	35730.46
697.539	35866.95
697.885	35810.23
698.231	35611.14
698.577	35693.85
698.923	35521.65
699.269	35237.82
699.614	35302.45
699.96	35174.32
700.306	35271.04
700.651	35051.61
700.997	34921.44
701.342	34841.89
701.688	34803.48
702.033	34707.21
702.379	34710.82
702.724	34663.59
703.069	34575.69
703.415	34206.88
703.76	34226.09
704.105	34244.62
704.45	34206.43
704.795	33935.48
705.14	33950.62
705.485	33962.82
705.83	33830.62
706.175	33863.16
706.52	33739.1
706.865	33615.49
707.209	33590.18
707.554	33435.38
707.899	33389.73
708.243	33244.42
708.588	33271.77
708.932	33037.65
709.277	33176.18
709.621	33114.71
709.966	32832.23
710.31	32987.03
710.654	32665
710.998	32759.92
711.342	32718.33
711.687	32535.51
712.031	32509.07
712.375	32433.14
712.719	32459.58
713.063	32333.71
713.407	32533.48
713.75	32306.37
714.094	32260.04
714.438	32095.53
714.782	32171.91
715.125	31974.4
715.469	31975.53
715.812	31782.77
716.156	31678.36
716.499	31785.48
716.843	31866.83
717.186	31458.03
717.53	31797.91
717.873	31627.06
718.216	31508.87
718.559	31559.5
718.902	31097.36
719.246	31345.94
719.589	31296
719.932	31070.47
720.275	31057.81
720.617	31196.11
720.96	31017.59
721.303	31007.19
721.646	31041.99
721.989	30686.3
722.331	30793.64
722.674	30867.99
723.016	30752.51
723.359	30642.91
723.701	30759.52
724.044	30471.39
724.386	30447.21
724.729	30609.24
725.071	30390.03
725.413	30590.25
725.755	30492.18
726.097	30257.61
726.439	30030.5
726.782	30112.08
727.124	30239.3
727.465	29999.54
727.807	30073.21
728.149	30035.92
728.491	30017.39
728.833	29963.6
729.175	29887.67
729.516	29720.9
729.858	29801.12
730.199	29835.25
730.541	29781.69
730.882	29700.33
731.224	29724.06
731.565	29553.22
731.906	29591.19
732.248	29567.91
732.589	29324.98
732.93	29357.29
733.271	29347.12
733.612	29269.84
733.953	29358.2
734.294	29202.04
734.635	29231.65
734.976	29246.56
735.317	29035.27
735.658	29096.73
735.999	29035.49
736.339	28929.28
736.68	29047.92
737.021	28834.14
737.361	28874.14
737.702	28968.83
738.042	28893.12
738.383	28744.65
738.723	28799.79
739.063	28769.74
739.404	28739.46
739.744	28606.13
740.084	28566.13
740.424	28616.52
740.764	28456.07
741.104	28525.45
741.444	28465.34
741.784	28404.78
742.124	28384.21
742.464	28429.18
742.804	28306.7
743.143	28320.94
743.483	28173.82
743.823	28119.36
744.162	28084.33
744.502	28127.04
744.841	28028.29
745.181	28154.84
745.52	27940.83
745.86	28021.28
746.199	27933.38
746.538	27886.82
746.877	27958.01
747.216	27848.18
747.556	27779.48
747.895	27868.29
748.234	27682.08
748.573	27698.81
748.911	27466.72
749.25	27574.74
749.589	27454.97
749.928	27474.63
750.267	27497.68
750.605	27478.25
750.944	27348.98
751.283	27393.05
751.621	27323.45
751.96	27140.85
752.298	27160.74
752.636	27146.05
752.975	27069.67
753.313	26989.45
753.651	27137.92
753.989	26861.54
754.327	26891.6
754.666	26722.79
755.004	26680.3
755.342	26692.05
755.679	26746.74
756.017	26646.4
756.355	26644.14
756.693	26470.59
757.031	26545.62
757.368	26316.47
757.706	26207.09
758.044	26321.44
