Data from hue_310_FLMS001491_90.txt Node
Date: Mon Feb 06 15:50:21 GMT 2017
User: dcchb
Spectrometer: FLMS00149
Trigger mode: 0
Integration Time (sec): 2.000000E-2
Scans to average: 10
Electric dark correction enabled: true
Nonlinearity correction enabled: false
Boxcar width: 0
XAxis mode: Wavelengths
Number of Pixels in Spectrum: 2048
>>>>>Begin Spectral Data<<<<<
341.393	-15.37
341.776	-15.37
342.16	-15.37
342.543	-55.82
342.927	-61.02
343.31	-63.5
343.693	-86.1
344.077	-76.83
344.46	-64.86
344.843	-61.69
345.226	-36.38
345.61	-38.42
345.993	-8.81
346.376	-9.72
346.759	24.63
347.142	43.39
347.525	41.35
347.908	52.65
348.291	76.61
348.674	70.96
349.057	136.72
349.44	139.66
349.823	141.92
350.206	169.49
350.588	192.99
350.971	207.9
351.354	238.64
351.737	228.92
352.119	238.86
352.502	260.56
352.884	270.95
353.267	261.01
353.65	279.77
354.032	290.16
354.414	325.64
354.797	305.75
355.179	322.7
355.562	326.77
355.944	327.45
356.326	341.91
356.709	336.26
357.091	346.21
357.473	332.87
357.855	329.03
358.238	347.34
358.62	334.91
359.002	344.17
359.384	345.98
359.766	347.79
360.148	332.19
360.53	329.48
360.912	337.17
361.294	343.72
361.676	322.93
362.057	338.52
362.439	335.81
362.821	329.26
363.203	342.14
363.584	329.71
363.966	321.35
364.348	350.05
364.729	317.73
365.111	324.74
365.493	312.31
365.874	310.27
366.256	318.86
366.637	326.32
367.019	317.73
367.4	337.62
367.781	318.86
368.163	313.21
368.544	316.38
368.925	309.14
369.306	318.18
369.688	307.79
370.069	313.21
370.45	325.64
370.831	330.84
371.212	316.6
371.593	312.53
371.974	299.65
372.355	329.93
372.736	329.48
373.117	325.42
373.498	327.68
373.879	318.64
374.26	310.05
374.641	313.89
375.021	328.35
375.402	333.1
375.783	333.55
376.163	353.89
376.544	318.86
376.925	310.73
377.305	323.61
377.686	314.34
378.066	336.94
378.447	307.11
378.827	324.96
379.208	341.91
379.588	335.81
379.968	345.08
380.349	343.72
380.729	342.59
381.109	320.9
381.489	323.38
381.87	347.79
382.25	353.66
382.63	367.22
383.01	334
383.39	343.04
383.77	341.01
384.15	341.69
384.53	334
384.91	341.69
385.29	353.44
385.67	339.2
386.049	352.76
386.429	372.19
386.809	373.32
387.189	355.7
387.568	343.72
387.948	353.89
388.328	376.49
388.707	350.05
389.087	363.15
389.466	354.79
389.846	368.13
390.225	383.27
390.605	367.9
390.984	373.1
391.363	351.18
391.743	383.72
392.122	387.56
392.501	364.96
392.881	377.17
393.26	377.84
393.639	362.25
394.018	375.13
394.397	376.94
394.776	378.3
395.155	397.28
395.534	381.01
395.913	399.31
396.292	392.53
396.671	386.66
397.05	407.45
397.429	398.63
397.808	392.53
398.186	423.27
398.565	400.89
398.944	406.54
399.323	403.38
399.701	390.72
400.08	416.94
400.458	433.21
400.837	428.01
401.215	431.18
401.594	444.28
401.972	416.49
402.351	414.9
402.729	430.5
403.107	425.75
403.486	452.19
403.864	425.53
404.242	449.25
404.62	434.79
404.999	444.28
405.377	432.76
405.755	442.02
406.133	447.67
406.511	455.81
406.889	475.69
407.267	460.78
407.645	489.25
408.023	484.06
408.401	481.12
408.779	483.38
409.156	500.33
409.534	514.34
409.912	506.65
410.29	529.7
410.667	522.25
411.045	507.11
411.422	539.19
411.8	520.66
412.178	561.57
412.555	533.09
412.933	552.75
413.31	556.37
413.687	586.65
414.065	582.81
414.442	575.35
414.819	579.65
415.197	587.56
415.574	605.86
415.951	600.44
416.328	629.59
416.705	649.25
417.082	642.92
417.46	639.31
417.837	639.53
418.214	668.46
418.591	676.37
418.967	690.15
419.344	696.25
419.721	711.62
420.098	711.39
420.475	687.44
420.852	711.85
421.228	717.04
421.605	735.8
421.982	761.11
422.358	754.33
422.735	743.26
423.111	775.12
423.488	786.87
423.864	785.97
424.241	793.43
424.617	805.18
424.994	792.97
425.37	820.54
425.746	828
426.123	824.39
426.499	857.83
426.875	857.6
427.251	873.88
427.627	878.17
428.003	886.08
428.379	887.89
428.756	893.54
429.132	913.87
429.507	911.61
429.883	955.23
430.259	954.78
430.635	958.17
431.011	959.07
431.387	964.72
431.763	1020.31
432.138	1004.72
432.514	1020.99
432.89	1017.83
433.265	1023.25
433.641	1043.36
434.016	1068.45
434.392	1070.71
434.767	1073.87
435.143	1081.1
435.518	1095.56
435.894	1131.5
436.269	1140.53
436.644	1171.27
437.02	1149.57
437.395	1161.55
437.77	1190.93
438.145	1195
438.52	1195.45
438.895	1182.12
439.271	1198.16
439.646	1231.83
440.021	1212.62
440.395	1231.38
440.77	1242.91
441.145	1254.2
441.52	1282.45
441.895	1281.77
442.27	1265.73
442.645	1268.89
443.019	1318.84
443.394	1321.32
443.769	1290.59
444.143	1304.37
444.518	1337.82
444.892	1298.5
445.267	1312.28
445.641	1322.9
446.016	1354.54
446.39	1353.64
446.764	1330.81
447.139	1354.54
447.513	1375.56
447.887	1387.99
448.262	1354.99
448.636	1378.49
449.01	1371.72
449.384	1414.43
449.758	1386.4
450.132	1410.81
450.506	1428.21
450.88	1415.78
451.254	1405.84
451.628	1444.71
452.002	1473.18
452.376	1435.67
452.75	1458.49
453.123	1460.3
453.497	1520.41
453.871	1525.16
454.244	1531.49
454.618	1511.37
454.992	1525.84
455.365	1527.87
455.739	1557.02
456.112	1575.1
456.486	1553.63
456.859	1586.4
457.232	1596.12
457.606	1624.82
457.979	1645.15
458.352	1619.39
458.725	1644.25
459.099	1650.8
459.472	1700.52
459.845	1689
460.218	1689.67
460.591	1713.18
460.964	1710.69
461.337	1727.41
461.71	1754.98
462.083	1763.12
462.456	1788.43
462.829	1781.87
463.201	1815.55
463.574	1808.54
463.947	1860.06
464.32	1860.97
464.692	1867.3
465.065	1851.93
465.438	1869.78
465.81	1877.46
466.183	1931.47
466.555	1951.14
466.928	1992.04
467.3	1974.64
467.672	1980.51
468.045	2023.22
468.417	2025.48
468.789	2008.31
469.161	2033.62
469.534	2057.35
469.906	2088.53
470.278	2096.44
470.65	2110.9
471.022	2148.64
471.394	2204.46
471.766	2146.38
472.138	2251.92
472.51	2246.27
472.882	2241.97
473.253	2261.86
473.625	2309.54
473.997	2317.23
474.369	2335.98
474.74	2367.62
475.112	2397.68
475.484	2389.54
475.855	2454.85
476.227	2451.23
476.598	2545.02
476.97	2502.53
477.341	2536.66
477.713	2597.9
478.084	2599.25
478.455	2665.47
478.827	2682.87
479.198	2720.15
479.569	2719.25
479.94	2752.92
480.311	2799.02
480.682	2835.18
481.053	2900.26
481.424	2923.09
481.795	2923.99
482.166	2949.53
482.537	2985.46
482.908	3058.9
483.279	3043.76
483.65	3117.21
484.021	3157.66
484.391	3133.02
484.762	3167.6
485.133	3192.23
485.503	3264.77
485.874	3283.3
486.244	3310.87
486.615	3319.46
486.985	3380.48
487.356	3441.27
487.726	3422.06
488.097	3456.86
488.467	3490.98
488.837	3551.55
489.207	3627.25
489.578	3599
489.948	3639.68
490.318	3696.85
490.688	3685.1
491.058	3736.4
491.428	3806
491.798	3788.83
492.168	3917.19
492.538	3875.15
492.908	3912.67
493.278	3928.94
493.648	3920.8
494.017	3960.35
494.387	3983.17
494.757	4015.04
495.126	4090.06
495.496	4088.03
495.866	4107.69
496.235	4133.45
496.605	4151.08
496.974	4132.77
497.344	4237.4
497.713	4231.98
498.082	4220.23
498.452	4299.77
498.821	4277.4
499.19	4297.51
499.559	4298.19
499.928	4382.26
500.298	4377.06
500.667	4374.35
501.036	4376.61
501.405	4414.12
501.774	4424.97
502.143	4444.18
502.512	4459.77
502.88	4546.32
503.249	4461.58
503.618	4512.2
503.987	4565.08
504.356	4588.13
504.724	4572.54
505.093	4619.09
505.462	4605.3
505.83	4604.85
506.199	4640.33
506.567	4666.32
506.936	4710.84
507.304	4724.62
507.672	4722.14
508.041	4721.91
508.409	4794.68
508.777	4838.74
509.145	4815.24
509.514	4829.48
509.882	4906.31
510.25	4832.87
510.618	4884.17
510.986	4896.14
511.354	4953.09
511.722	4923.03
512.09	4966.65
512.458	4961.9
512.826	5014.11
513.193	5002.81
513.561	5028.79
513.929	5038.51
514.297	5084.84
514.664	5088
515.032	5116.7
515.4	5151.95
515.767	5188.56
516.135	5096.36
516.502	5124.61
516.869	5193.31
517.237	5166.87
517.604	5156.25
517.972	5217.49
518.339	5210.94
518.706	5237.6
519.073	5254.55
519.44	5273.31
519.808	5294.55
520.175	5276.92
520.542	5362.57
520.909	5411.38
521.276	5368.67
521.643	5385.4
522.009	5425.17
522.376	5454.77
522.743	5431.04
523.11	5461.78
523.477	5530.25
523.843	5536.58
524.21	5593.75
524.577	5646.86
524.943	5621.55
525.31	5688.21
525.676	5718.49
526.043	5732.73
526.409	5771.6
526.776	5776.35
527.142	5817.93
527.508	5787.64
527.874	5820.19
528.241	5877.81
528.607	5935.66
528.973	5954.65
529.339	5940.41
529.705	6013.4
530.071	5976.79
530.437	6014.31
530.803	6096.79
531.169	6104.47
531.535	6088.65
531.901	6198.71
532.267	6189.44
532.632	6233.28
532.998	6272.6
533.364	6234.19
533.73	6275.99
534.095	6351.7
534.461	6374.07
534.826	6387.4
535.192	6309.89
535.557	6455.42
535.923	6407.74
536.288	6459.94
536.653	6515.53
537.019	6526.83
537.384	6568.41
537.749	6602.54
538.114	6541.97
538.479	6629.88
538.845	6717.56
539.21	6642.54
539.575	6616.32
539.94	6683.21
540.305	6786.04
540.67	6748.07
541.034	6797.56
541.399	6823.1
541.764	6819.71
542.129	6890.89
542.494	6867.16
542.858	6945.35
543.223	6902.87
543.587	7003.43
543.952	7002.98
544.316	6995.3
544.681	7067.16
545.045	7182.18
545.41	7141.73
545.774	7174.95
546.138	7124.33
546.503	7209.08
546.867	7158.68
547.231	7277.55
547.595	7231.22
547.959	7263.31
548.324	7290.2
548.688	7350.77
549.052	7407.49
549.416	7345.57
549.779	7385.12
550.143	7409.52
550.507	7469.18
550.871	7461.72
551.235	7484.55
551.599	7563.64
551.962	7550.99
552.326	7577.2
552.689	7578.33
553.053	7564.55
553.417	7647.93
553.78	7705.11
554.143	7702.17
554.507	7703.98
554.87	7720.25
555.234	7831.43
555.597	7683.64
555.96	7791.43
556.323	7807.03
556.686	7838.89
557.05	7885.22
557.413	7947.81
557.776	7919.11
558.139	7966.8
558.502	7980.81
558.865	8010.18
559.228	8074.59
559.59	8035.72
559.953	7999.34
560.316	8141.03
560.679	8153.01
561.041	8196.17
561.404	8223.51
561.767	8275.04
562.129	8164.76
562.492	8258.09
562.854	8295.83
563.217	8259.44
563.579	8328.14
563.941	8333.79
564.304	8432.09
564.666	8460.34
565.028	8425.54
565.39	8462.6
565.753	8513.67
566.115	8479.33
566.477	8568.14
566.839	8574.69
567.201	8662.82
567.563	8682.26
567.925	8670.28
568.287	8701.01
568.648	8741.01
569.01	8779.43
569.372	8849.03
569.734	8798.19
570.095	8895.59
570.457	8967.9
570.819	8940.1
571.18	8950.73
571.542	9093.77
571.903	9082.02
572.265	9194.11
572.626	9117.05
572.987	9170.15
573.349	9266.65
573.71	9347.78
574.071	9381.22
574.432	9451.95
574.794	9491.05
575.155	9543.03
575.516	9573.99
575.877	9710.93
576.238	9655.79
576.599	9794.77
576.96	9879.97
577.32	9959.96
577.681	10034.99
578.042	10189.34
578.403	10200.64
578.763	10277.92
579.124	10448.76
579.485	10554.75
579.845	10606.95
580.206	10745.48
580.566	10854.4
580.927	10904.8
581.287	11255.75
581.648	11244.9
582.008	11439.47
582.368	11516.31
582.728	11684.44
583.089	11908.61
583.449	12097.99
583.809	12132.56
584.169	12389.28
584.529	12564.64
584.889	12892.54
585.249	12925.54
585.609	13162.14
585.969	13436.93
586.329	13563.94
586.688	13840.99
587.048	14045.51
587.408	14202.56
587.768	14578.37
588.127	14768.43
588.487	15062.88
588.846	15419.93
589.206	15526.15
589.565	15772.92
589.925	16212.68
590.284	16409.06
590.643	16692.89
591.003	16980.57
591.362	17287.91
591.721	17540.78
592.08	17740.1
592.44	18188.9
592.799	18469.57
593.158	18659.85
593.517	18988.2
593.876	19419.6
594.235	19614.85
594.593	19825.24
594.952	20282.4
595.311	20500.93
595.67	20772.79
596.029	21315.6
596.387	21630.62
596.746	21972.08
597.104	22110.15
597.463	22453.87
597.822	22782.9
598.18	23146.06
598.538	23464.24
598.897	23777.23
599.255	23934.29
599.613	24507.15
599.972	24628.5
600.33	24916.86
600.688	25241.14
601.046	25659.66
601.404	25954.12
601.762	26201.12
602.12	26588.91
602.478	26972.17
602.836	27133.98
603.194	27177.59
603.552	27710.91
603.91	27841.75
604.268	28168.3
604.625	28393.83
604.983	28751.11
605.341	28962.4
605.698	29217.54
606.056	29643.29
606.413	29763.74
606.771	30163.05
607.128	30384.51
607.485	30539.31
607.843	30831.28
608.2	31165.51
608.557	31526.63
608.914	31629.45
609.272	31857.92
609.629	32132.26
609.986	32521.86
610.343	32521.18
610.7	32905.12
611.057	33084.33
611.414	33204.55
611.771	33576.74
612.127	33824.42
612.484	33900.35
612.841	34192.32
613.198	34202.72
613.554	34485.87
613.911	34651.52
614.267	34897.84
614.624	34990.94
614.98	35287.43
615.337	35487.2
615.693	35558.39
616.05	35696.91
616.406	36094.87
616.762	36011.93
617.118	36322.43
617.475	36442.66
617.831	36647.62
618.187	36778.69
618.543	36980.04
618.899	37334.16
619.255	37295.97
619.611	37344.33
619.967	37643.3
620.323	37848.04
620.678	37723.98
621.034	37785.45
621.39	37987.25
621.746	38042.62
622.101	38442.61
622.457	38331.2
622.812	38502.26
623.168	38660.45
623.523	38589.27
623.879	38852.09
624.234	38897.96
624.589	38912.88
624.945	39089.37
625.3	39260.44
625.655	39314.67
626.01	39264.96
626.365	39395.35
626.72	39566.19
627.075	39571.84
627.43	39683.7
627.785	39542.69
628.14	39818.61
628.495	39821.1
628.85	39797.37
629.205	39705.4
629.559	40110.36
629.914	39989.68
630.269	40037.14
630.623	40030.81
630.978	39989.23
631.332	40235.55
631.687	40272.61
632.041	40142.22
632.396	40318.26
632.75	40061.55
633.104	40312.39
633.459	40135.67
633.813	40180.19
634.167	40219.06
634.521	40301.77
634.875	40365.72
635.229	40218.38
635.583	40202.11
635.937	40263.12
636.291	40266.74
636.645	40296.79
636.999	40196.01
637.352	40277.13
637.706	40210.02
638.06	40416.34
638.413	40286.62
638.767	40208.43
639.121	40311.48
639.474	40087.31
639.828	40079.4
640.181	40291.6
640.534	40293.4
640.888	40043.69
641.241	40114.88
641.594	40126.4
641.947	40290.47
642.301	40069
642.654	40210.92
643.007	40192.84
643.36	40071.71
643.713	40289.79
644.066	40257.25
644.419	40004.82
644.771	39813.64
645.124	39359.19
645.477	39432.86
645.83	39073.32
646.182	39186.54
646.535	38928.24
646.888	39182.92
647.24	38776.61
647.593	39039.43
647.945	38937.51
648.298	38804.63
648.65	38682.6
649.002	38654.58
649.355	38850.05
649.707	38803.27
650.059	39026.77
650.411	39312.64
650.763	39425.18
651.115	39923.24
651.467	39653.65
651.819	39651.84
652.171	39563.48
652.523	39549.24
652.875	39587.89
653.227	39397.38
653.578	39737.49
653.93	39706.3
654.282	39502.69
654.633	39394.67
654.985	39393.09
655.337	39537.27
655.688	39482.13
656.039	39603.7
656.391	39257.72
656.742	39367.78
657.094	39215.24
657.445	39530.49
657.796	39345.86
658.147	39274
658.498	39446.87
658.849	39500.43
659.2	39371.17
659.551	39186.31
659.902	39495.23
660.253	39295.01
660.604	39394.67
660.955	39146.54
661.306	39358.06
661.656	39225.86
662.007	39304.5
662.358	39323.26
662.708	39252.98
663.059	39192.64
663.409	38913.78
663.76	39318.97
664.11	39271.74
664.461	39267.44
664.811	39284.39
665.161	39260.89
665.511	39227.9
665.862	39278.74
666.212	39271.06
666.562	39280.1
666.912	39107.45
667.262	39199.87
667.612	39073.32
667.962	39083.27
668.312	39102.47
668.662	39290.27
669.011	39169.59
669.361	39067.45
669.711	39099.54
670.06	39182.47
670.41	39015.25
670.76	38997.39
671.109	39054.11
671.459	39042.82
671.808	38899.54
672.157	39021.35
672.507	38757.4
672.856	38971.4
673.205	38932.31
673.554	38864.97
673.904	38907.45
674.253	38923.27
674.602	38914.91
674.951	38356.51
675.3	38201.03
675.649	38808.92
675.998	38667.46
676.346	38658.19
676.695	38896.38
677.044	38519.67
677.393	38700.23
677.741	38722.15
678.09	38588.82
678.438	38596.27
678.787	38552.88
679.135	38642.37
679.484	38382.72
679.832	38611.87
680.181	38370.06
680.529	38475.6
680.877	38199.45
681.225	38207.13
681.573	38523.28
681.922	38208.03
682.27	38158.54
682.618	38173.69
682.966	37956.74
683.314	38134.59
683.661	38077.42
684.009	37814.15
684.357	37817.76
684.705	37848.27
685.053	37816.18
685.4	37680.82
685.748	37491.22
686.095	37634.94
686.443	37528.05
686.79	37386.59
687.138	37429.07
687.485	37402.86
687.832	37269.53
688.18	37321.5
688.527	37081.51
688.874	37112.7
689.221	37000.16
689.568	36902.31
689.915	36889.88
690.262	36981.63
690.609	36655.08
690.956	36663.22
691.303	36519.94
691.65	36434.75
691.997	36381.19
692.344	36220.74
692.69	36313.62
693.037	36215.77
693.383	35992.5
693.73	36036.34
694.077	35880.41
694.423	35931.26
694.769	35734.2
695.116	35640.87
695.462	35700.98
695.808	35587.99
696.155	35475.45
696.501	35424.83
696.847	35344.83
697.193	35113.65
697.539	35214.67
697.885	34977.84
698.231	34853.09
698.577	34816.26
698.923	34773.32
699.269	34590.28
699.614	34474.8
699.96	34477.96
700.306	34456.27
700.651	34410.17
700.997	34317.52
701.342	34139.22
701.688	34167.01
702.033	34174.92
702.379	33993.23
702.724	33936.06
703.069	34097.18
703.415	33586.01
703.76	33695.16
704.105	33693.8
704.45	33566.35
704.795	33366.35
705.14	33246.81
705.485	33273.02
705.83	33162.52
706.175	32988.51
706.52	33036.87
706.865	32814.5
707.209	32831.23
707.554	32744
707.899	32972.24
708.243	32569.31
708.588	32617.22
708.932	32392.37
709.277	32451.8
709.621	32343.1
709.966	32215.42
710.31	32300.39
710.654	32104.24
710.998	32070.34
711.342	32059.95
711.687	31965.71
712.031	31824.25
712.375	31778.6
712.719	31796
713.063	31626.97
713.407	31689.34
713.75	31555.33
714.094	31564.37
714.438	31529.34
714.782	31539.74
715.125	31273.53
715.469	31432.17
715.812	31285.51
716.156	31175.23
716.499	31124.38
716.843	31110.82
717.186	30937.49
717.53	31040.09
717.873	31047.09
718.216	30954.67
718.559	30704.96
718.902	30515.13
719.246	30725.97
719.589	30676.26
719.932	30551.51
720.275	30517.62
720.617	30471.97
720.96	30376.6
721.303	30326.89
721.646	30352.65
721.989	30241.24
722.331	30176.38
722.674	30197.62
723.016	30086.21
723.359	30050.74
723.701	30160.11
724.044	29918.99
724.386	29806.67
724.729	29970.51
725.071	29708.15
725.413	29835.83
725.755	29744.53
726.097	29650.75
726.439	29335.05
726.782	29537.98
727.124	29609.16
727.465	29297.31
727.807	29431.32
728.149	29268.16
728.491	29385.67
728.833	29241.49
729.175	29185.9
729.516	29253.02
729.858	29241.04
730.199	29209.85
730.541	28978
730.882	28937.32
731.224	29103.64
731.565	28967.15
731.906	29010.08
732.248	28961.5
732.589	28711.56
732.93	28604.9
733.271	28708.17
733.612	28682.41
733.953	28691.9
734.294	28611.9
734.635	28526.48
734.976	28625.69
735.317	28369.2
735.658	28405.13
735.999	28386.6
736.339	28312.25
736.68	28414.85
737.021	28332.81
737.361	28271.57
737.702	28342.53
738.042	28194.96
738.383	28189.77
738.723	28184.34
739.063	28049.21
739.404	27963.78
739.744	28006.04
740.084	27805.37
740.424	27839.72
740.764	27728.08
741.104	28012.82
741.444	27717.69
741.784	27612.61
742.124	27734.64
742.464	27639.95
742.804	27701.64
743.143	27598.82
743.483	27455.78
743.823	27495.1
744.162	27504.36
744.502	27548.43
744.841	27284.93
745.181	27477.92
745.52	27312.5
745.86	27364.93
746.199	27221.21
746.538	27091.72
746.877	27237.48
747.216	27153.18
747.556	27044.26
747.895	27113.41
748.234	27015.56
748.573	26873.19
748.911	26812.63
749.25	26787.09
749.589	26725.62
749.928	26711.39
750.267	26818.96
750.605	26546.19
750.944	26670.03
751.283	26617.38
751.621	26629.58
751.96	26457.84
752.298	26350.72
752.636	26340.55
752.975	26281.12
753.313	26135.13
753.651	26261.23
753.989	26042.71
754.327	26075.92
754.666	25837.96
755.004	25906.89
755.342	25895.36
755.679	25830.73
756.017	25705.54
756.355	25787.8
756.693	25613.79
757.031	25745.76
757.368	25667.8
757.706	25483.62
758.044	25516.84
758.381	25484.53
758.719	25328.83
759.056	25423.51
759.394	25234.59
