Data from hue_340_FLMS001491_88.txt Node
Date: Mon Feb 06 15:43:44 GMT 2017
User: dcchb
Spectrometer: FLMS00149
Trigger mode: 0
Integration Time (sec): 2.000000E-2
Scans to average: 10
Electric dark correction enabled: true
Nonlinearity correction enabled: false
Boxcar width: 0
XAxis mode: Wavelengths
Number of Pixels in Spectrum: 2048
>>>>>Begin Spectral Data<<<<<
341.393	-10.76
341.776	-10.76
342.16	-10.76
342.543	-51.67
342.927	-60.25
343.31	-81.27
343.693	-70.65
344.077	-50.31
344.46	-69.07
344.843	-59.8
345.226	-36.07
345.61	-18.22
345.993	-7.82
346.376	-7.82
346.759	-7.82
347.142	32.85
347.525	30.82
347.908	31.72
348.291	80.53
348.674	110.14
349.057	122.79
349.44	131.83
349.823	146.3
350.206	179.29
350.588	198.72
350.971	181.77
351.354	242.34
351.737	242.11
352.119	250.25
352.502	254.77
352.884	278.72
353.267	290.47
353.65	288.89
354.032	289.34
354.414	304.48
354.797	323.24
355.179	307.65
355.562	326.63
355.944	346.74
356.326	327.31
356.709	347.65
357.091	329.12
357.473	342.67
357.855	330.47
358.238	336.57
358.62	337.03
359.002	342.9
359.384	334.54
359.766	362.11
360.148	335.22
360.53	343.58
360.912	331.83
361.294	329.79
361.676	337.48
362.057	320.08
362.439	326.4
362.821	339.28
363.203	299.96
363.584	333.64
363.966	339.74
364.348	312.17
364.729	305.61
365.111	316.01
365.493	333.41
365.874	318.04
366.256	325.73
366.637	321.43
367.019	306.97
367.4	318.72
367.781	285.73
368.163	308.33
368.544	318.04
368.925	292.73
369.306	327.99
369.688	318.49
370.069	306.52
370.45	300.87
370.831	310.59
371.212	325.73
371.593	305.16
371.974	317.14
372.355	309.91
372.736	319.85
373.117	309
373.498	312.84
373.879	301.77
374.26	335.44
374.641	329.57
375.021	297.48
375.402	316.46
375.783	329.12
376.163	320.3
376.544	320.75
376.925	336.35
377.305	320.53
377.686	320.53
378.066	323.92
378.447	333.18
378.827	321.21
379.208	322.79
379.588	326.4
379.968	344.03
380.349	333.18
380.729	321.21
381.109	325.95
381.489	333.41
381.87	324.14
382.25	326.63
382.63	331.83
383.01	346.97
383.39	333.18
383.77	345.16
384.15	361.88
384.53	326.4
384.91	353.07
385.29	354.2
385.67	328.66
386.049	366.18
386.429	346.74
386.809	342
387.189	337.25
387.568	357.59
387.948	326.63
388.328	356.23
388.707	338.83
389.087	339.06
389.466	347.87
389.846	352.17
390.225	358.49
390.605	352.17
390.984	368.44
391.363	348.1
391.743	361.66
392.122	357.14
392.501	358.72
392.881	350.58
393.26	350.81
393.639	390.81
394.018	376.8
394.397	372.73
394.776	384.71
395.155	381.09
395.534	378.61
395.913	373.18
396.292	374.09
396.671	367.31
397.05	377.48
397.429	366.63
397.808	380.64
398.186	386.97
398.565	376.8
398.944	357.14
399.323	386.29
399.701	386.29
400.08	386.74
400.458	383.58
400.837	407.31
401.215	383.8
401.594	398.94
401.972	400.75
402.351	387.65
402.729	397.36
403.107	395.1
403.486	411.37
403.864	403.46
404.242	421.77
404.62	438.94
404.999	399.4
405.377	409.57
405.755	406.4
406.133	394.65
406.511	437.81
406.889	434.88
407.267	413.41
407.645	436.23
408.023	419.73
408.401	434.88
408.779	421.54
409.156	437.59
409.534	441.2
409.912	439.62
410.29	469.68
410.667	425.38
411.045	433.52
411.422	446.63
411.8	441.2
412.178	477.81
412.555	478.04
412.933	458.6
413.31	491.6
413.687	489.79
414.065	462.67
414.442	492.28
414.819	499.05
415.197	505.61
415.574	508.09
415.951	505.38
416.328	510.35
416.705	498.15
417.082	505.38
417.46	549.22
417.837	543.12
418.214	497.92
418.591	525.49
418.967	523.23
419.344	548.77
419.721	538.15
420.098	528.66
420.475	543.12
420.852	542.9
421.228	567.75
421.605	549.67
421.982	539.96
422.358	571.6
422.735	559.17
423.111	556.45
423.488	560.75
423.864	575.21
424.241	591.48
424.617	603.01
424.994	586.51
425.37	575.21
425.746	604.14
426.123	609.33
426.499	609.79
426.875	630.12
427.251	615.44
427.627	635.55
428.003	663.8
428.379	650.24
428.756	650.46
429.132	664.47
429.507	658.15
429.883	671.71
430.259	668.99
430.635	661.76
431.011	685.04
431.387	682.55
431.763	692.72
432.138	692.95
432.514	684.36
432.89	711.03
433.265	727.98
433.641	711.25
434.016	723.23
434.392	741.76
434.767	763
435.143	759.84
435.518	785.15
435.894	748.31
436.269	756.68
436.644	757.8
437.02	776.34
437.395	788.76
437.77	792.38
438.145	789.89
438.52	795.77
438.895	803
439.271	820.4
439.646	827.86
440.021	830.35
440.395	853.4
440.77	817.46
441.145	838.03
441.52	846.16
441.895	846.16
442.27	853.17
442.645	856.56
443.019	852.49
443.394	869.89
443.769	880.29
444.143	852.49
444.518	879.84
444.892	887.29
445.267	873.51
445.641	905.15
446.016	912.15
446.39	918.7
446.764	899.04
447.139	899.5
447.513	886.84
447.887	899.72
448.262	914.86
448.636	899.72
449.01	920.51
449.384	923.68
449.758	933.17
450.132	946.5
450.506	938.37
450.88	953.96
451.254	920.96
451.628	945.82
452.002	974.97
452.376	960.29
452.75	993.28
453.123	981.3
453.497	976.78
453.871	1010.91
454.244	999.15
454.618	1014.07
454.992	1026.5
455.365	1015.43
455.739	1050.45
456.112	1040.51
456.486	1039.38
456.859	1059.49
457.232	1083.67
457.606	1062.66
457.979	1097.68
458.352	1090.23
458.725	1105.59
459.099	1108.98
459.472	1109.66
459.845	1143.11
460.218	1116.89
460.591	1123.9
460.964	1136.1
461.337	1184.01
461.71	1166.16
462.083	1198.92
462.456	1216.78
462.829	1197.34
463.201	1242.54
463.574	1234.18
463.947	1235.76
464.32	1264.01
464.692	1244.57
465.065	1265.81
465.438	1294.97
465.81	1274.18
466.183	1281.86
466.555	1355.98
466.928	1353.95
467.3	1337.68
467.672	1358.47
468.045	1353.95
468.417	1406.15
468.789	1386.26
469.161	1410.67
469.534	1422.42
469.906	1448.18
470.278	1451.12
470.65	1454.51
471.022	1504
471.394	1503.32
471.766	1491.12
472.138	1551.91
472.51	1547.16
472.882	1571.79
473.253	1631.23
473.625	1602.3
473.997	1684.56
474.369	1638.91
474.74	1658.57
475.112	1691.79
475.484	1727.04
475.855	1750.55
476.227	1757.55
476.598	1796.65
476.97	1800.26
477.341	1832.35
477.713	1894.5
478.084	1891.79
478.455	1908.28
478.827	1956.87
479.198	1961.16
479.569	1976.53
479.94	2004.78
480.311	2067.15
480.682	2091.1
481.053	2130.2
481.424	2188.5
481.795	2168.84
482.166	2203.87
482.537	2231.66
482.908	2258.56
483.279	2289.52
483.65	2327.93
484.021	2366.12
484.391	2423.98
484.762	2429.17
485.133	2454.94
485.503	2441.6
485.874	2527.93
486.244	2522.05
486.615	2577.42
486.985	2632.56
487.356	2646.79
487.726	2645.21
488.097	2708.94
488.467	2738.09
488.837	2783.74
489.207	2814.93
489.578	2862.83
489.948	2865.32
490.318	2939.44
490.688	2950.52
491.058	3006.56
491.428	3007.92
491.798	3021.7
492.168	3093.56
492.538	3077.07
492.908	3150.51
493.278	3147.12
493.648	3183.5
494.017	3212.66
494.387	3228.47
494.757	3303.95
495.126	3305.31
495.496	3330.84
495.866	3353.89
496.235	3350.28
496.605	3411.75
496.974	3376.27
497.344	3449.49
497.713	3462.82
498.082	3499.2
498.452	3487.45
498.821	3494.91
499.19	3552.53
499.559	3600.89
499.928	3533.1
500.298	3593.66
500.667	3618.29
501.036	3595.24
501.405	3653.32
501.774	3637.5
502.143	3678.63
502.512	3679.76
502.88	3735.58
503.249	3780.1
503.618	3742.36
503.987	3765.86
504.356	3821.91
504.724	3807.67
505.093	3848.57
505.462	3877.04
505.83	3893.09
506.199	3894.9
506.567	3930.6
506.936	3905.29
507.304	3919.3
507.672	3978.51
508.041	3999.98
508.409	3986.19
508.777	4007.66
509.145	4062.35
509.514	4048.11
509.882	4055.57
510.25	4014.44
510.618	4043.37
510.986	4090.6
511.354	4126.53
511.722	4129.24
512.09	4148.45
512.458	4131.05
512.826	4217.83
513.193	4236.13
513.561	4218.5
513.929	4224.83
514.297	4302.34
514.664	4273.87
515.032	4307.54
515.4	4314.32
515.767	4335.11
516.135	4305.06
516.502	4342.34
516.869	4349.35
517.237	4375.79
517.604	4391.16
517.972	4369.46
518.339	4433.64
518.706	4456.92
519.073	4463.7
519.44	4455.33
519.808	4490.14
520.175	4510.93
520.542	4524.03
520.909	4514.54
521.276	4552.51
521.643	4569.91
522.009	4574.88
522.376	4609.23
522.743	4597.03
523.11	4681.32
523.477	4638.15
523.843	4675.67
524.21	4751.15
524.577	4711.6
524.943	4743.01
525.31	4767.87
525.676	4790.24
526.043	4851.03
526.409	4811.03
526.776	4897.58
527.142	4878.6
527.508	4921.31
527.874	4931.48
528.241	5019.16
528.607	4967.41
528.973	5021.2
529.339	5019.39
529.705	5090.12
530.071	5114.53
530.437	5102.78
530.803	5146.84
531.169	5223
531.535	5163.11
531.901	5146.39
532.267	5202.21
532.632	5279.04
532.998	5251.7
533.364	5291.02
533.73	5261.19
534.095	5368.31
534.461	5348.64
534.826	5416.44
535.192	5386.84
535.557	5465.03
535.923	5432.03
536.288	5457.79
536.653	5489.88
537.019	5472.48
537.384	5536.21
537.749	5534.85
538.114	5516.78
538.479	5559.71
538.845	5572.82
539.21	5593.38
539.575	5601.29
539.94	5634.06
540.305	5698.24
540.67	5678.13
541.034	5716.32
541.399	5726.49
541.764	5705.25
542.129	5767.39
542.494	5803.32
542.858	5862.53
543.223	5799.93
543.587	5895.07
543.952	5858.01
544.316	5923.32
544.681	5948.63
545.045	5924.9
545.41	6004.45
545.774	6042.41
546.138	5978.01
546.503	6052.58
546.867	6017.78
547.231	6169.87
547.595	6130.32
547.959	6083.99
548.324	6159.7
548.688	6231.11
549.052	6214.84
549.416	6197.44
549.779	6189.07
550.143	6264.1
550.507	6274.95
550.871	6346.36
551.235	6309.75
551.599	6350.43
551.962	6365.34
552.326	6375.74
552.689	6371.89
553.053	6408.73
553.417	6410.76
553.78	6492.12
554.143	6469.97
554.507	6472.23
554.87	6488.5
555.234	6568.95
555.597	6597.65
555.96	6629.51
556.323	6589.29
556.686	6603.53
557.05	6653.47
557.413	6667.93
557.776	6698.44
558.139	6697.99
558.502	6698.21
558.865	6727.37
559.228	6776.63
559.59	6797.42
559.953	6829.06
560.316	6843.52
560.679	6834.26
561.041	6877.87
561.404	6909.73
561.767	6925.78
562.129	6985.66
562.492	6977.75
562.854	6990.86
563.217	7012.1
563.579	6998.77
563.941	6996.74
564.304	7068.6
564.666	7098.88
565.028	7141.82
565.39	7132.33
565.753	7167.58
566.115	7202.61
566.477	7202.38
566.839	7239.44
567.201	7304.07
567.563	7272.66
567.925	7337.52
568.287	7345.65
568.648	7325.54
569.01	7421.58
569.372	7443.05
569.734	7474.24
570.095	7526.21
570.457	7493.22
570.819	7599.66
571.18	7573.22
571.542	7636.49
571.903	7688.24
572.265	7643.5
572.626	7747.23
572.987	7788.13
573.349	7812.08
573.71	7846.43
574.071	7888.69
574.432	7954.9
574.794	8008.69
575.155	8030.16
575.516	8072.64
575.877	8146.54
576.238	8169.14
576.599	8286.65
576.96	8388.79
577.32	8403.93
577.681	8469.69
578.042	8655.68
578.403	8669.46
578.763	8646.64
579.124	8800.08
579.485	8875.56
579.845	8999.4
580.206	9060.19
580.566	9087.08
580.927	9314.87
581.287	9393.96
581.648	9515.77
582.008	9645.48
582.368	9718.93
582.728	9846.83
583.089	10028.97
583.449	10196.43
583.809	10334.95
584.169	10485.68
584.529	10590.99
584.889	10817.2
585.249	10962.06
585.609	11067.59
585.969	11269.39
586.329	11492.21
586.688	11716.39
587.048	11861.02
587.408	12017.62
587.768	12224.4
588.127	12486.54
588.487	12648.11
588.846	13059.85
589.206	13067.76
589.565	13357.93
589.925	13656.22
590.284	13802.43
590.643	14114.52
591.003	14399.71
591.362	14676.76
591.721	14885.34
592.08	15116.52
592.44	15449.85
592.799	15722.84
593.158	15965.54
593.517	16211.64
593.876	16497.73
594.235	16810.72
594.593	17078.96
594.952	17313.75
595.311	17543.13
595.67	17856.56
596.029	18261.53
596.387	18548.52
596.746	18872.36
597.104	19067.38
597.463	19185.57
597.822	19584.65
598.18	19814.7
598.538	20047.69
598.897	20502.82
599.255	20567.23
599.613	21192.3
599.972	21255.35
600.33	21619.4
600.688	21752.96
601.046	22101.65
601.404	22476.33
601.762	22658.02
602.12	23072.7
602.478	23345.23
602.836	23505
603.194	23708.39
603.552	23984.99
603.91	24127.13
604.268	24541.36
604.625	24680.11
604.983	24998.52
605.341	25097.73
605.698	25481.22
606.056	25703.82
606.413	25871.04
606.771	26248.43
607.128	26446.62
607.485	26493.85
607.843	26792.37
608.2	27076.66
608.557	27370.66
608.914	27564.56
609.272	27808.39
609.629	28072.57
609.986	28206.8
610.343	28351.43
610.7	28650.4
611.057	28868.48
611.414	28989.6
611.771	29292.42
612.127	29510.5
612.484	29652.41
612.841	29939.41
613.198	29978.28
613.554	30108.67
613.911	30457.14
614.267	30529.68
614.624	30678.15
614.98	30964.69
615.337	31150.23
615.693	31201.07
616.05	31250.11
616.406	31658.69
616.762	31680.16
617.118	31812.81
617.475	31951.56
617.831	32215.06
618.187	32237.88
618.543	32406.46
618.899	32806.68
619.255	32904.76
619.611	32855.27
619.967	32923.51
620.323	33250.28
620.678	33135.94
621.034	33211.64
621.39	33492.54
621.746	33400.34
622.101	33739.08
622.457	33646.43
622.812	33856.14
623.168	34171.62
623.523	34070.38
623.879	34255.91
624.234	34117.83
624.589	34170.26
624.945	34407.99
625.3	34487.54
625.655	34549.23
626.01	34613.86
626.365	34841.65
626.72	34679.62
627.075	34753.07
627.43	34872.61
627.785	34890.01
628.14	34911.26
628.495	35091.37
628.85	35111.48
629.205	35088.2
629.559	35281.19
629.914	35166.39
630.269	35294.98
630.623	35311.25
630.978	35244.58
631.332	35442.54
631.687	35547.62
632.041	35257.69
632.396	35488.19
632.75	35420.62
633.104	35489.55
633.459	35326.16
633.813	35400.74
634.167	35492.94
634.521	35537.68
634.875	35406.84
635.229	35530.9
635.583	35405.26
635.937	35658.58
636.291	35424.92
636.645	35467.85
636.999	35237.12
637.352	35469.21
637.706	35269.67
638.06	35471.69
638.413	35474.86
638.767	35392.37
639.121	35657.9
639.474	35187.18
639.828	35320.51
640.181	35565.03
640.534	35391.92
640.888	35357.57
641.241	35310.79
641.594	35501.75
641.947	35657.9
642.301	35414.97
642.654	35388.08
643.007	35381.98
643.36	35410
643.713	35306.05
644.066	35522.77
644.419	35288.65
644.771	35082.1
645.124	34720.75
645.477	34685.27
645.83	34537.26
646.182	34386.07
646.535	34407.77
646.888	34375.45
647.24	34162.8
647.593	34427.88
647.945	34320.99
648.298	34222.24
648.65	34166.64
649.002	34187.21
649.355	34245.29
649.707	34150.6
650.059	34313.76
650.411	34769.34
650.763	34748.1
651.115	35202.55
651.467	35041.88
651.819	34937.02
652.171	35072.61
652.523	34891.37
652.875	34859.73
653.227	34873.52
653.578	35138.14
653.93	34850.69
654.282	34768.21
654.633	34770.92
654.985	34789.9
655.337	34826.29
655.688	34829.9
656.039	34910.35
656.391	34619.06
656.742	34760.53
657.094	34770.47
657.445	34893.63
657.796	34832.84
658.147	34635.11
658.498	34607.76
658.849	34653.18
659.2	34691.38
659.551	34573.86
659.902	34839.85
660.253	34625.39
660.604	34690.47
660.955	34531.15
661.306	34590.14
661.656	34536.35
662.007	34587.88
662.358	34401.89
662.708	34510.36
663.059	34513.98
663.409	34331.39
663.76	34549.68
664.11	34549.23
664.461	34624.26
664.811	34546.52
665.161	34585.39
665.511	34599.63
665.862	34498.16
666.212	34643.24
666.562	34617.48
666.912	34520.76
667.262	34559.4
667.612	34481.66
667.962	34532.74
668.312	34555.79
668.662	34644.82
669.011	34642.56
669.361	34427.43
669.711	34412.74
670.06	34441.67
670.41	34287.09
670.76	34310.14
671.109	34469.01
671.459	34437.37
671.808	34323.02
672.157	34367.77
672.507	34237.6
672.856	34328.45
673.205	34224.27
673.554	34264.72
673.904	34283.25
674.253	34473.3
674.602	34336.13
674.951	33855.01
675.3	33686.43
675.649	34319.18
675.998	34309.47
676.346	34261.1
676.695	34348.33
677.044	34024.73
677.393	34060.21
677.741	34156.47
678.09	33962.58
678.438	34109.7
678.787	34045.74
679.135	34085.52
679.484	33829.7
679.832	33961
680.181	33865.18
680.529	33956.03
680.877	33718.97
681.225	33762.59
681.573	33902.24
681.922	33738.63
682.27	33542.03
682.618	33686.43
682.966	33546.55
683.314	33704.51
683.661	33511.97
684.009	33369.15
684.357	33240.79
684.705	33373.9
685.053	33250.74
685.4	33365.99
685.748	33133.22
686.095	33102.04
686.443	32926.9
686.79	32956.28
687.138	33023.85
687.485	33012.55
687.832	32871.99
688.18	32791.09
688.527	32670.41
688.874	32746.57
689.221	32691.88
689.568	32513.13
689.915	32450.53
690.262	32462.51
690.609	32197.43
690.956	32205.34
691.303	32226.81
691.65	32086.92
691.997	32097.09
692.344	31925.57
692.69	31940.26
693.037	31863.43
693.383	31559.03
693.73	31784.79
694.077	31593.38
694.423	31479.03
694.769	31424.12
695.116	31511.57
695.462	31418.02
695.808	31225.7
696.155	31246.95
696.501	31185.71
696.847	31087.63
697.193	30872.72
697.539	31028.2
697.885	30810.57
698.231	30678.6
698.577	30677.7
698.923	30728.32
699.269	30331.49
699.614	30317.48
699.96	30388.44
700.306	30365.84
700.651	30167.2
700.997	30071.38
701.342	30130.14
701.688	30041.78
702.033	29914.55
702.379	29971.95
702.724	29789.36
703.069	29870.26
703.415	29420.1
703.76	29565.41
704.105	29515.92
704.45	29438.86
704.795	29263.72
705.14	29312.31
705.485	29172.88
705.83	29162.71
706.175	29168.58
706.52	29170.62
706.865	28931.53
707.209	28876.39
707.554	28784.19
707.899	28954.13
708.243	28700.8
708.588	28703.96
708.932	28487.02
709.277	28507.36
709.621	28456.06
709.966	28288.38
710.31	28408.38
710.654	28166.35
710.998	28258.1
711.342	28291.77
711.687	28100.36
712.031	28096.97
712.375	27919.8
712.719	27939.69
713.063	27842.97
713.407	27844.78
713.75	27823.76
714.094	27784.44
714.438	27726.36
714.782	27614.73
715.125	27515.52
715.469	27457.67
715.812	27433.49
716.156	27334.51
716.499	27325.02
716.843	27311.23
717.186	27158.69
717.53	27245.92
717.873	27285.02
718.216	27199.6
718.559	27106.04
718.902	26946.04
719.246	26979.94
719.589	26906.95
719.932	26710.57
720.275	26797.57
720.617	26713.28
720.96	26666.73
721.303	26617.24
721.646	26717.12
721.989	26494.08
722.331	26586.05
722.674	26482.33
723.016	26504.25
723.359	26414.98
723.701	26434.19
724.044	26280.52
724.386	26140.41
724.729	26217.93
725.071	26162.33
725.413	26250.47
725.755	26078.5
726.097	26114.65
726.439	25990.14
726.782	25860.42
727.124	26121.88
727.465	25955.79
727.807	25952.85
728.149	25768.45
728.491	25769.12
728.833	25728.9
729.175	25690.26
729.516	25702.23
729.858	25516.02
730.199	25549.24
730.541	25476.03
730.882	25597.15
731.224	25584.04
731.565	25425.18
731.906	25432.18
732.248	25452.07
732.589	25363.49
732.93	25274.45
733.271	25293.88
733.612	25222.02
733.953	25147.22
734.294	25147.9
734.635	25056.83
734.976	25148.12
735.317	25033.55
735.658	25004.4
735.999	24962.82
736.339	24986.09
736.68	25059.99
737.021	24903.61
737.361	24733.67
737.702	24863.39
738.042	24808.02
738.383	24717.17
738.723	24827.23
739.063	24588.82
739.404	24662.26
739.744	24594.92
740.084	24577.07
740.424	24669.94
740.764	24391.53
741.104	24593.11
741.444	24482.15
741.784	24404.64
742.124	24475.37
742.464	24476.05
742.804	24297.98
743.143	24368.48
743.483	24324.64
743.823	24106.8
744.162	24182.27
744.502	24143.4
744.841	24173.46
745.181	24154.7
745.52	24035.61
745.86	24116.06
746.199	24077.42
746.538	23999.68
746.877	23943.41
747.216	23909.74
747.556	23849.18
747.895	23893.92
748.234	23722.17
748.573	23739.57
748.911	23794.26
749.25	23664.77
749.589	23516.75
749.928	23561.95
750.267	23513.82
750.605	23593.14
750.944	23533.25
751.283	23417.55
751.621	23377.78
751.96	23275.18
752.298	23434.5
752.636	23226.37
752.975	23204.9
753.313	23149.08
753.651	23169.42
753.989	22939.59
754.327	23033.38
754.666	23068.63
755.004	22955.64
755.342	22962.19
755.679	22971.46
756.017	22855.53
756.355	22821.63
756.693	22708.41
757.031	22766.27
757.368	22656.44
757.706	22531.7
758.044	22442.21
758.381	22456.44
758.719	22383.9
759.056	22435.65
759.394	22340.97
759.731	22255.32
760.068	22266.39
760.405	22105.27
760.743	22092.61
