Data from hue_32_FLMS001491_00082.txt Node
Date: Tue Feb 07 17:24:01 GMT 2017
User: dcchb
Spectrometer: FLMS00149
Trigger mode: 0
Integration Time (sec): 2.000000E-2
Scans to average: 10
Electric dark correction enabled: true
Nonlinearity correction enabled: false
Boxcar width: 0
XAxis mode: Wavelengths
Number of Pixels in Spectrum: 2048
>>>>>Begin Spectral Data<<<<<
341.393	-29.45
341.776	-29.45
342.16	-29.45
342.543	-73.06
342.927	-65.83
343.31	-67.41
343.693	-53.85
344.077	-52.95
344.46	-60.41
344.843	-57.92
345.226	-34.42
345.61	-35.1
345.993	-5.49
346.376	-14.99
346.759	-12.27
347.142	31.12
347.525	32.92
347.908	52.13
348.291	98.23
348.674	81.51
349.057	98.91
349.44	121.96
349.823	137.33
350.206	155.18
350.588	193.6
350.971	211.45
351.354	219.81
351.737	229.98
352.119	255.74
352.502	265.69
352.884	256.19
353.267	291.67
353.65	303.88
354.032	306.14
354.414	310.2
354.797	305.23
355.179	311.79
355.562	329.19
355.944	314.27
356.326	325.34
356.709	321.28
357.091	349.3
357.473	342.07
357.855	350.65
358.238	333.48
358.62	343.88
359.002	353.37
359.384	323.31
359.766	321.5
360.148	345.68
360.53	350.88
360.912	338.45
361.294	330.09
361.676	366.93
362.057	337.1
362.439	343.88
362.821	337.77
363.203	332.8
363.584	325.34
363.966	322.86
364.348	336.42
364.729	322.41
365.111	333.93
365.493	330.77
365.874	312.01
366.256	308.4
366.637	323.76
367.019	308.85
367.4	302.52
367.781	319.92
368.163	315.4
368.544	312.92
368.925	310.2
369.306	328.96
369.688	326.25
370.069	316.31
370.45	315.63
370.831	334.84
371.212	315.4
371.593	323.54
371.974	326.93
372.355	343.65
372.736	326.93
373.117	308.62
373.498	325.34
373.879	328.06
374.26	324.21
374.641	328.96
375.021	318.57
375.402	324.67
375.783	330.99
376.163	339.36
376.544	322.63
376.925	325.57
377.305	329.41
377.686	314.27
378.066	346.59
378.447	340.26
378.827	340.71
379.208	330.09
379.588	353.14
379.968	333.93
380.349	357.43
380.729	333.48
381.109	330.77
381.489	347.04
381.87	341.16
382.25	362.86
382.63	317.66
383.01	340.03
383.39	356.76
383.77	354.5
384.15	339.81
384.53	354.5
384.91	360.6
385.29	352.24
385.67	359.92
386.049	338.45
386.429	352.91
386.809	354.5
387.189	345.23
387.568	337.55
387.948	365.57
388.328	359.47
388.707	361.05
389.087	359.69
389.466	348.17
389.846	393.37
390.225	362.18
390.605	382.07
390.984	382.07
391.363	366.02
391.743	356.08
392.122	379.13
392.501	378.68
392.881	395.17
393.26	376.42
393.639	373.7
394.018	364.89
394.397	389.75
394.776	373.25
395.155	393.82
395.534	402.86
395.913	366.7
396.292	378.22
396.671	380.03
397.05	391.11
397.429	387.94
397.808	418.68
398.186	387.26
398.565	397.21
398.944	393.37
399.323	411.9
399.701	400.37
400.08	420.26
400.458	401.73
400.837	408.73
401.215	391.78
401.594	416.87
401.972	409.18
402.351	432.69
402.729	421.61
403.107	418.68
403.486	427.71
403.864	406.92
404.242	422.97
404.62	420.26
404.999	429.3
405.377	430.43
405.755	438.79
406.133	434.27
406.511	459.58
406.889	422.52
407.267	448.51
407.645	452.35
408.023	453.93
408.401	464.55
408.779	450.99
409.156	459.13
409.534	451.67
409.912	468.62
410.29	457.09
410.667	474.04
411.045	450.99
411.422	470.2
411.8	467.94
412.178	476.3
412.555	470.43
412.933	496.19
413.31	498.45
413.687	487.15
414.065	520.37
414.442	494.61
414.819	488.05
415.197	498.67
415.574	486.24
415.951	501.84
416.328	513.81
416.705	498.9
417.082	517.66
417.46	527.37
417.837	520.59
418.214	526.24
418.591	513.36
418.967	510.2
419.344	528.96
419.721	521.27
420.098	505.68
420.475	539.8
420.852	533.7
421.228	566.24
421.605	557.88
421.982	555.62
422.358	560.82
422.735	584.32
423.111	562.85
423.488	563.76
423.864	570.31
424.241	580.25
424.617	580.25
424.994	586.81
425.37	586.81
425.746	598.11
426.123	587.26
426.499	603.08
426.875	596.3
427.251	601.27
427.627	608.05
428.003	634.94
428.379	627.94
428.756	614.83
429.132	645.34
429.507	636.52
429.883	649.18
430.259	631.78
430.635	638.33
431.011	630.42
431.387	660.03
431.763	650.31
432.138	647.82
432.514	673.36
432.89	678.78
433.265	679.69
433.641	702.28
434.016	692.79
434.392	699.8
434.767	706.13
435.143	717.88
435.518	725.11
435.894	731.44
436.269	740.7
436.644	738.22
437.02	737.31
437.395	749.06
437.77	749.51
438.145	731.89
438.52	759.01
438.895	767.59
439.271	751.1
439.646	777.76
440.021	766.91
440.395	807.59
440.77	798.1
441.145	790.64
441.52	821.15
441.895	803.75
442.27	802.39
442.645	798.55
443.019	804.88
443.394	797.65
443.769	790.64
444.143	816.86
444.518	862.73
444.892	857.53
445.267	876.06
445.641	859.57
446.016	850.3
446.39	861.15
446.764	860.7
447.139	870.64
447.513	885.33
447.887	876.74
448.262	871.32
448.636	891.43
449.01	880.58
449.384	912.45
449.758	898.66
450.132	898.89
450.506	890.08
450.88	941.15
451.254	911.54
451.628	921.04
452.002	931.43
452.376	936.85
452.75	978.21
453.123	967.36
453.497	975.04
453.871	994.93
454.244	1016.17
454.618	1004.87
454.992	1004.2
455.365	1037.87
455.739	1041.71
456.112	1041.26
456.486	1064.31
456.859	1063.86
457.232	1067.92
457.606	1078.09
457.979	1101.6
458.352	1084.19
458.725	1119.45
459.099	1100.24
459.472	1150.41
459.845	1183.18
460.218	1163.29
460.591	1184.31
460.964	1194.47
461.337	1228.37
461.71	1211.2
462.083	1239.44
462.456	1276.51
462.829	1253.91
463.201	1274.02
463.574	1280.12
463.947	1290.74
464.32	1316.73
464.692	1332.32
465.065	1355.15
465.438	1334.81
465.81	1369.38
466.183	1389.27
466.555	1423.39
466.928	1427.69
467.3	1450.96
467.672	1459.78
468.045	1502.94
468.417	1501.36
468.789	1515.6
469.161	1534.58
469.534	1577.06
469.906	1605.76
470.278	1630.17
470.65	1618.87
471.022	1638.76
471.394	1715.59
471.766	1721.69
472.138	1735.48
472.51	1781.58
472.882	1798.75
473.253	1834.46
473.625	1858.19
473.997	1916.94
474.369	1922.14
474.74	1954.91
475.112	2007.79
475.484	2048.69
475.855	2096.15
476.227	2140.89
476.598	2196.48
476.97	2210.94
477.341	2264.05
477.713	2349.7
478.084	2321.22
478.455	2424.72
478.827	2496.13
479.198	2521.67
479.569	2528
479.94	2626.75
480.311	2675.79
480.682	2778.84
481.053	2848.22
481.424	2837.14
481.795	2928.67
482.166	3005.95
482.537	3032.39
482.908	3182.44
483.279	3200.98
483.65	3294.08
484.021	3390.57
484.391	3399.16
484.762	3493.4
485.133	3568.42
485.503	3637.35
485.874	3754.63
486.244	3825.14
486.615	3888.64
486.985	4001.41
487.356	4090.67
487.726	4097
488.097	4258.12
488.467	4255.41
488.837	4455.18
489.207	4493.6
489.578	4596.19
489.948	4707.6
490.318	4766.13
490.688	4807.26
491.058	4921.83
491.428	5039.8
491.798	5108.72
492.168	5264.42
492.538	5327.7
492.908	5378.55
493.278	5526.56
493.648	5551.65
494.017	5637.97
494.387	5710.74
494.757	5800.23
495.126	5888.36
495.496	5891.75
495.866	5975.59
496.235	6102.14
496.605	6154.34
496.974	6252.42
497.344	6359.76
497.713	6355.24
498.082	6430.49
498.452	6564.5
498.821	6639.53
499.19	6661.68
499.559	6750.49
499.928	6847.88
500.298	6914.32
500.667	6983.93
501.036	7006.52
501.405	7122.23
501.774	7096.69
502.143	7260.53
502.512	7249
502.88	7307.53
503.249	7406.06
503.618	7425.27
503.987	7526.74
504.356	7613.97
504.724	7606.74
505.093	7641.76
505.462	7770.35
505.83	7776.45
506.199	7813.28
506.567	8002.2
506.936	8021.19
507.304	8092.37
507.672	8182.31
508.041	8166.27
508.409	8293.27
508.777	8378.92
509.145	8358.35
509.514	8394.06
509.882	8426.83
510.25	8460.05
510.618	8598.57
510.986	8651.45
511.354	8676.54
511.722	8717.21
512.09	8800.83
512.458	8821.17
512.826	8911.33
513.193	8994.5
513.561	8957.66
513.929	9080.37
514.297	9172.57
514.664	9201.27
515.032	9204.21
515.4	9294.15
515.767	9331.66
516.135	9387.03
516.502	9340.7
516.869	9559.23
517.237	9570.98
517.604	9486.01
517.972	9596.29
518.339	9638.32
518.706	9641.26
519.073	9730.52
519.44	9784.76
519.808	9889.39
520.175	9883.51
520.542	10006.22
520.909	10075.14
521.276	10070.17
521.643	10157.63
522.009	10226.33
522.376	10220.45
522.743	10314.91
523.11	10345.19
523.477	10510.61
523.843	10534.79
524.21	10644.62
524.577	10696.37
524.943	10696.6
525.31	10681
525.676	10873.77
526.043	10919.19
526.409	10958.96
526.776	11064.5
527.142	11139.75
527.508	11165.96
527.874	11271.27
528.241	11299.52
528.607	11330.93
528.973	11404.15
529.339	11477.37
529.705	11549.23
530.071	11620.41
530.437	11720.3
530.803	11759.39
531.169	11739.51
531.535	11777.92
531.901	11900.18
532.267	11934.53
532.632	11996.22
532.998	11982.21
533.364	12143.79
533.73	12169.1
534.095	12176.33
534.461	12288.19
534.826	12334.75
535.192	12357.34
535.557	12491.58
535.923	12443.9
536.288	12521.63
536.653	12648.86
537.019	12598.24
537.384	12635.53
537.749	12753.72
538.114	12768.41
538.479	12802.3
538.845	12837.33
539.21	12749.88
539.575	12872.81
539.94	12919.36
540.305	13053.6
540.67	13051.11
541.034	13142.63
541.399	13213.37
541.764	13154.39
542.129	13220.82
542.494	13298.11
542.858	13412.91
543.223	13477.09
543.587	13527.94
543.952	13558.44
544.316	13605.45
544.681	13626.01
545.045	13632.11
545.41	13739
545.774	13785.56
546.138	13846.34
546.503	13835.72
546.867	13849.28
547.231	14078.88
547.595	14073.01
547.959	14009.96
548.324	14094.25
548.688	14092.21
549.052	14226.22
549.416	14225.54
549.779	14236.84
550.143	14243.85
550.507	14475.48
550.871	14384.41
551.235	14390.29
551.599	14634.57
551.962	14539.89
552.326	14677.74
552.689	14727
553.053	14629.83
553.417	14607
553.78	14998.63
554.143	14818.3
554.507	15018.52
554.87	15018.07
555.234	15105.97
555.597	15033.88
555.96	15119.98
556.323	15145.52
556.686	15160.66
557.05	15309.36
557.413	15309.36
557.776	15315.46
558.139	15483.59
558.502	15450.14
558.865	15505.51
559.228	15577.6
559.59	15646.75
559.953	15663.47
560.316	15790.47
560.679	15844.03
561.041	15872.73
561.404	15937.59
561.767	16170.58
562.129	16057.13
562.492	16207.86
562.854	16125.38
563.217	16195.21
563.579	16233.85
563.941	16223.68
564.304	16376.9
564.666	16453.73
565.028	16500.06
565.39	16526.95
565.753	16644.92
566.115	16699.6
566.477	16813.5
566.839	16852.37
567.201	17007.17
567.563	16983.66
567.925	17045.36
568.287	17051.01
568.648	17085.58
569.01	17296.88
569.372	17265.92
569.734	17202.64
570.095	17365.57
570.457	17538.23
570.819	17559.02
571.18	17511.79
571.542	17703.87
571.903	17716.53
572.265	17822.96
572.626	17895.96
572.987	17986.35
573.349	18076.97
573.71	18171.43
574.071	18255.27
574.432	18294.82
574.794	18428.6
575.155	18467.69
575.516	18519.67
575.877	18701.58
576.238	18789.27
576.599	18977.51
576.96	18977.06
577.32	19067
577.681	19331.62
578.042	19375.01
578.403	19590.37
578.763	19599.41
579.124	19724.61
579.485	19942.46
579.845	19946.98
580.206	20149.46
580.566	20278.49
580.927	20534.76
581.287	20744.47
581.648	20805.71
582.008	21048.64
582.368	21116.89
582.728	21351.91
583.089	21604.11
583.449	21662.64
583.809	21985.11
584.169	22092.46
584.529	22292
584.889	22563.4
585.249	22765.88
585.609	23000.45
585.969	23301.01
586.329	23434.57
586.688	23610.61
587.048	23837.04
587.408	24052.4
587.768	24194.32
588.127	24505.73
588.487	24703.91
588.846	25097.12
589.206	25111.59
589.565	25281.98
589.925	25698.01
590.284	25851.23
590.643	26112.69
591.003	26573.47
591.362	26844.87
591.721	26907.02
592.08	27318.99
592.44	27550.39
592.799	27772.31
593.158	28016.59
593.517	28310.15
593.876	28520.08
594.235	28764.82
594.593	28933.18
594.952	29361.19
595.311	29427.18
595.67	29813.83
596.029	30294.27
596.387	30490.43
596.746	30696.52
597.104	30819.91
597.463	30947.59
597.822	31348.26
598.18	31504.19
598.538	31752.99
598.897	32225.75
599.255	32247.67
599.613	32794.55
599.972	32737.6
600.33	33026.63
600.688	33134.88
601.046	33425.04
601.404	33800.85
601.762	34017.57
602.12	34178.47
602.478	34480.83
602.836	34589.08
603.194	34797.66
603.552	34982.06
603.91	35099.12
604.268	35397.87
604.625	35644.87
604.983	35858.2
605.341	35752.66
605.698	36194.91
606.056	36384.28
606.413	36524.39
606.771	36716.7
607.128	36939.75
607.485	37093.64
607.843	37171.83
608.2	37594.87
608.557	37753.29
608.914	37833.74
609.272	38119.38
609.629	38216.1
609.986	38366.6
610.343	38354.18
610.7	38816.99
611.057	38931.11
611.414	38968.17
611.771	39221.05
612.127	39316.18
612.484	39527.48
612.841	39765.21
613.198	39726.57
613.554	39814.7
613.911	40145.54
614.267	40121.81
614.624	40256.05
614.98	40397.74
615.337	40636.15
615.693	40783.72
616.05	40717.95
616.406	41140.09
616.762	41149.58
617.118	41178.06
617.475	41185.51
617.831	41562.45
618.187	41558.16
618.543	41655.78
618.899	41937.13
619.255	41860.52
619.611	41937.58
619.967	42200.63
620.323	42338.25
620.678	42192.04
621.034	42181.65
621.39	42340.06
621.746	42274.07
622.101	42867.5
622.457	42524.01
622.812	42671.12
623.168	42830.67
623.523	42794.28
623.879	43058.68
624.234	42857.79
624.589	43161.28
624.945	43123.99
625.3	43250.32
625.655	43252.58
626.01	43401.05
626.365	43346.59
626.72	43382.07
627.075	43344.1
627.43	43413.03
627.785	43361.28
628.14	43506.81
628.495	43599.46
628.85	43508.16
629.205	43341.39
629.559	43620.93
629.914	43519.69
630.269	43572.34
630.623	43526.02
630.978	43465
631.332	43743.64
631.687	43840.58
632.041	43669.06
632.396	43887.81
632.75	43639.46
633.104	43796.29
633.459	43538.45
633.813	43629.29
634.167	43768.5
634.521	43752
634.875	43733.69
635.229	43712.45
635.583	43349.07
635.937	43499.12
636.291	43605.11
636.645	43658.67
636.999	43434.04
637.352	43642.62
637.706	43482.63
638.06	43718.33
638.413	43420.03
638.767	43377.09
639.121	43499.58
639.474	43257.32
639.828	43270.66
640.181	43445.79
640.534	43347.72
640.888	43225.01
641.241	43172.81
641.594	43191.11
641.947	43390.88
642.301	43227.27
642.654	43286.7
643.007	43332.8
643.36	43385.46
643.713	43307.94
644.066	43552.68
644.419	43172.81
644.771	42987.95
645.124	42640.84
645.477	42509.55
645.83	42337.57
646.182	42042.21
646.535	41962.67
646.888	42158.14
647.24	41889.22
647.593	42153.85
647.945	41962.89
648.298	41821.43
648.65	41713.41
649.002	41716.57
649.355	41979.39
649.707	41878.38
650.059	42077.47
650.411	42406.95
650.763	42417.35
651.115	42855.53
651.467	42737.56
651.819	42697.11
652.171	42696.21
652.523	42612.82
652.875	42655.98
653.227	42482.88
653.578	42601.52
653.93	42571.47
654.282	42537.79
654.633	42394.97
654.985	42575.99
655.337	42542.77
655.688	42545.93
656.039	42529.66
656.391	42259.16
656.742	42460.51
657.094	42430.45
657.445	42375.09
657.796	42357.69
658.147	42243.56
658.498	42388.42
658.849	42494.63
659.2	42369.89
659.551	42228.2
659.902	42537.57
660.253	42330.34
660.604	42409.89
660.955	42287.86
661.306	42471.36
661.656	42237.24
662.007	42190.46
662.358	42278.82
662.708	42248.54
663.059	42192.04
663.409	42047.41
663.76	42274.07
664.11	42300.74
664.461	42428.87
664.811	42260.97
665.161	42255.09
665.511	42138.03
665.862	42194.07
666.212	42299.83
666.562	42227.75
666.912	42162.89
667.262	42109.1
667.612	42092.16
667.962	41993.85
668.312	42088.99
668.662	42331.02
669.011	42284.69
669.361	42081.31
669.711	41977.13
670.06	42072.27
670.41	41984.14
670.76	41932.84
671.109	42107.97
671.459	42039.95
671.808	41936.91
672.157	42039.28
672.507	41732.39
672.856	41751.37
673.205	41847.42
673.554	41894.65
673.904	41849.9
674.253	41984.36
674.602	41772.16
674.951	41260.99
675.3	41111.39
675.649	41740.07
675.998	41629.12
676.346	41912.5
676.695	41819.39
677.044	41543.92
677.393	41716.12
677.741	41712.05
678.09	41583.69
678.438	41469.35
678.787	41594.99
679.135	41653.07
679.484	41351.84
679.832	41401.55
680.181	41305.06
680.529	41377.37
680.877	41197.04
681.225	41138.06
681.573	41421.89
681.922	41110.49
682.27	41006.53
682.618	41049.02
682.966	40830.95
683.314	40988.46
683.661	40854.9
684.009	40691.29
684.357	40667.33
684.705	40756.82
685.053	40670.05
685.4	40646.09
685.748	40507.56
686.095	40430.73
686.443	40335.82
686.79	40236.61
687.138	40286.55
687.485	40382.37
687.832	40073.68
688.18	40159.33
688.527	40005.66
688.874	39819.45
689.221	39951.42
689.568	39656.29
689.915	39610.87
690.262	39736.96
690.609	39574.93
690.956	39437.31
691.303	39318.22
691.65	39344.21
691.997	39192.57
692.344	38955.97
692.69	38912.13
693.037	38967.72
693.383	38621.29
693.73	38867.61
694.077	38575.19
694.423	38503.32
694.769	38532.48
695.116	38367.96
695.462	38461.74
695.808	38315.76
696.155	38281.41
696.501	38069.89
696.847	37978.37
697.193	37704.47
697.539	37968.2
697.885	37667.64
698.231	37510.58
698.577	37711.71
698.923	37489.57
699.269	37273.07
699.614	37257.71
699.96	37192.17
700.306	37197.37
700.651	36962.12
700.997	36854.1
701.342	36825.63
701.688	36815.23
702.033	36666.76
702.379	36484.39
702.724	36514.22
703.069	36664.95
703.415	36203.72
703.76	36257.06
704.105	36223.84
704.45	36059.55
704.795	35884.18
705.14	35926.89
705.485	35770.29
705.83	35578.43
706.175	35752.21
706.52	35648.94
706.865	35460.24
707.209	35413.69
707.554	35299.57
707.899	35368.04
708.243	35234.94
708.588	34960.14
708.932	34914.27
709.277	34909.97
709.621	35049.4
709.966	34760.82
710.31	34659.58
710.654	34404.67
710.998	34496.88
711.342	34454.84
711.687	34417.78
712.031	34300.27
712.375	34094.63
712.719	34251.46
713.063	34197.67
713.407	34225.92
713.75	33938.47
714.094	33891.92
714.438	33807.4
714.782	34038.58
715.125	33768.76
715.469	33805.82
715.812	33429.56
716.156	33454.19
716.499	33541.42
716.843	33369.67
717.186	33251.03
717.53	33408.77
717.873	33350.69
718.216	33301.2
718.559	33161.77
718.902	32985.5
719.246	32960.64
719.589	32785.73
719.932	32670.48
720.275	32802.91
720.617	32751.84
720.96	32649.92
721.303	32713.65
721.646	32658.05
721.989	32404.28
722.331	32560.88
722.674	32479.53
723.016	32542.8
723.359	32379.19
723.701	32331.06
724.044	32264.62
724.386	31981.91
724.729	32242.7
725.071	32110.72
725.413	32136.71
725.755	32033.21
726.097	32028.92
726.439	31794.57
726.782	31813.33
727.124	31985.3
727.465	31700.11
727.807	31736.27
728.149	31745.31
728.491	31602.26
728.833	31702.15
729.175	31467.12
729.516	31483.4
729.858	31340.8
730.199	31386
730.541	31427.8
730.882	31290.63
731.224	31480.23
731.565	31120.92
731.906	31165.44
732.248	31280.46
732.589	30979.91
732.93	30890.42
733.271	30994.37
733.612	31077.3
733.953	30960.25
734.294	30880.02
734.635	30811.32
734.976	30836.86
735.317	30602.97
735.658	30649.74
735.999	30621.95
736.339	30593.48
736.68	30570.88
737.021	30546.7
737.361	30467.83
737.702	30486.36
738.042	30489.75
738.383	30366.36
738.723	30505.34
739.063	30189.19
739.404	30302.64
739.744	30108.29
740.084	30045.92
740.424	30144.67
740.764	30066.26
741.104	30092.7
741.444	29962.98
741.784	29789.65
742.124	29985.58
742.464	29862.87
742.804	29650.45
743.143	29741.07
743.483	29840.05
743.823	29569.55
744.162	29667.4
744.502	29738.81
744.841	29473.28
745.181	29620.17
745.52	29462.88
745.86	29539.49
746.199	29456.56
746.538	29342.66
746.877	29491.36
747.216	29478.02
747.556	29447.06
747.895	29306.73
748.234	29152.84
748.573	29139.95
748.911	29168.2
749.25	29140.18
749.589	28959.85
749.928	29006.62
750.267	29023.12
750.605	29002.78
750.944	28895.44
751.283	28858.15
751.621	28910.58
751.96	28629.46
752.298	28738.83
752.636	28755.33
752.975	28619.74
753.313	28509.46
753.651	28591.95
753.989	28463.14
754.327	28455.68
754.666	28360.31
755.004	28304.95
755.342	28360.77
755.679	28223.82
756.017	28048.91
756.355	28170.49
756.693	27996.26
757.031	28005.52
757.368	27791.29
