Data from hue_22_FLMS001491_00094.txt Node
Date: Tue Feb 07 17:10:57 GMT 2017
User: dcchb
Spectrometer: FLMS00149
Trigger mode: 0
Integration Time (sec): 2.000000E-2
Scans to average: 10
Electric dark correction enabled: true
Nonlinearity correction enabled: false
Boxcar width: 0
XAxis mode: Wavelengths
Number of Pixels in Spectrum: 2048
>>>>>Begin Spectral Data<<<<<
341.393	-12.39
341.776	-12.39
342.16	-12.39
342.543	-63.23
342.927	-58.26
343.31	-71.14
343.693	-67.98
344.077	-63.46
344.46	-66.62
344.843	-58.94
345.226	-35.44
345.61	-32.05
345.993	-20.07
346.376	0.27
346.759	6.37
347.142	38.69
347.525	41.62
347.908	53.37
348.291	80.94
348.674	85.92
349.057	108.51
349.44	120.72
349.823	141.73
350.206	165.24
350.588	184.9
350.971	222.86
351.354	232.35
351.737	254.05
352.119	264.89
352.502	254.5
352.884	265.12
353.267	292.69
353.65	295.85
354.032	298.79
354.414	299.47
354.797	321.16
355.179	308.06
355.562	317.55
355.944	357.55
356.326	353.71
356.709	321.84
357.091	339.69
357.473	350.09
357.855	348.28
358.238	338.56
358.62	338.11
359.002	337.89
359.384	333.14
359.766	320.03
360.148	340.6
360.53	351.45
360.912	341.5
361.294	350.77
361.676	339.47
362.057	325.91
362.439	329.53
362.821	327.94
363.203	316.64
363.584	319.13
363.966	331.56
364.348	323.65
364.729	333.82
365.111	312.35
365.493	328.62
365.874	327.94
366.256	314.61
366.637	338.11
367.019	322.75
367.4	302.18
367.781	333.82
368.163	316.64
368.544	297.66
368.925	320.03
369.306	320.03
369.688	318.68
370.069	321.39
370.45	320.49
370.831	325.68
371.212	331.79
371.593	328.62
371.974	325.68
372.355	316.19
372.736	315.51
373.117	324.1
373.498	324.55
373.879	322.52
374.26	351.9
374.641	337.89
375.021	338.79
375.402	335.85
375.783	316.42
376.163	325.46
376.544	319.58
376.925	336.98
377.305	343.54
377.686	324.1
378.066	337.21
378.447	340.15
378.827	333.82
379.208	348.51
379.588	347.83
379.968	338.79
380.349	338.34
380.729	338.56
381.109	347.83
381.489	330.43
381.87	349.41
382.25	347.15
382.63	351.22
383.01	339.47
383.39	351.9
383.77	342.18
384.15	340.82
384.53	352.12
384.91	337.89
385.29	332.69
385.67	342.41
386.049	337.89
386.429	338.11
386.809	361.16
387.189	346.25
387.568	354.16
387.948	363.2
388.328	340.15
388.707	340.82
389.087	383.31
389.466	356.87
389.846	364.78
390.225	371.78
390.605	362.97
390.984	348.73
391.363	355.06
391.743	379.69
392.122	372.24
392.501	358.68
392.881	367.49
393.26	361.61
393.639	369.07
394.018	362.97
394.397	385.79
394.776	383.08
395.155	380.6
395.534	376.08
395.913	379.24
396.292	379.24
396.671	398.68
397.05	374.27
397.429	346.25
397.808	381.28
398.186	408.39
398.565	387.38
398.944	388.73
399.323	372.91
399.701	416.98
400.08	393.48
400.458	395.74
400.837	401.61
401.215	398
401.594	403.65
401.972	403.87
402.351	413.82
402.729	407.72
403.107	429.18
403.486	423.31
403.864	409.98
404.242	414.04
404.62	407.49
404.999	406.59
405.377	389.41
405.755	392.57
406.133	405.91
406.511	426.7
406.889	409.3
407.267	435.29
407.645	418.11
408.023	433.93
408.401	409.07
408.779	451.1
409.156	416.08
409.534	435.96
409.912	444.78
410.29	449.52
410.667	422.4
411.045	463.08
411.422	424.66
411.8	450.88
412.178	450.88
412.555	449.75
412.933	448.17
413.31	459.24
413.687	448.39
414.065	456.75
414.442	460.14
414.819	488.17
415.197	483.87
415.574	493.36
415.951	478
416.328	466.02
416.705	475.74
417.082	484.78
417.46	493.14
417.837	486.81
418.214	472.57
418.591	478.9
418.967	481.61
419.344	481.84
419.721	504.21
420.098	507.37
420.475	487.49
420.852	513.48
421.228	520.48
421.605	508.5
421.982	535.85
422.358	532.68
422.735	522.29
423.111	531.33
423.488	523.19
423.864	534.27
424.241	551.89
424.617	520.25
424.994	510.09
425.37	525
425.746	544.89
426.123	536.98
426.499	535.4
426.875	541.95
427.251	546.47
427.627	576.75
428.003	566.58
428.379	566.58
428.756	581.72
429.132	585.79
429.507	576.52
429.883	593.93
430.259	573.13
430.635	592.8
431.011	586.24
431.387	596.86
431.763	617.2
432.138	612
432.514	621.49
432.89	627.82
433.265	612.91
433.641	636.41
434.016	625.11
434.392	640.03
434.767	638.9
435.143	653.13
435.518	630.76
435.894	659.46
436.269	649.52
436.644	652.68
437.02	640.7
437.395	690.65
437.77	657.43
438.145	684.09
438.52	666.92
438.895	702.17
439.271	698.1
439.646	706.01
440.021	717.54
440.395	719.35
440.77	716.41
441.145	705.11
441.52	710.76
441.895	764.99
442.27	746.46
442.645	705.79
443.019	733.58
443.394	741.94
443.769	751.66
444.143	751.21
444.518	767.25
444.892	740.81
445.267	755.28
445.641	791.21
446.016	770.19
446.39	767.25
446.764	770.64
447.139	769.51
447.513	793.92
447.887	779.23
448.262	779
448.636	819.23
449.01	797.54
449.384	806.35
449.758	797.08
450.132	808.16
450.506	806.35
450.88	821.49
451.254	840.7
451.628	818.33
452.002	820.81
452.376	843.64
452.75	861.71
453.123	846.8
453.497	881.15
453.871	868.04
454.244	878.89
454.618	877.31
454.992	884.99
455.365	889.96
455.739	912.33
456.112	892
456.486	914.59
456.859	922.73
457.232	942.84
457.606	928.38
457.979	974.25
458.352	958.21
458.725	944.42
459.099	978.77
459.472	948.49
459.845	983.07
460.218	1008.38
460.591	1018.77
460.964	1010.86
461.337	1047.7
461.71	1018.09
462.083	1059.22
462.456	1055.16
462.829	1059.9
463.201	1089.73
463.574	1075.27
463.947	1079.79
464.32	1118.66
464.692	1140.8
465.065	1123.4
465.438	1156.17
465.81	1161.59
466.183	1178.54
466.555	1217.86
466.928	1224.87
467.3	1216.96
467.672	1214.02
468.045	1239.33
468.417	1259.22
468.789	1260.57
469.161	1280.01
469.534	1299.67
469.906	1334.7
470.278	1338.99
470.65	1360.01
471.022	1370.85
471.394	1395.71
471.766	1383.06
472.138	1420.34
472.51	1481.81
472.882	1498.53
473.253	1503.28
473.625	1532.88
473.997	1534.69
474.369	1541.92
474.74	1573.33
475.112	1601.58
475.484	1606.55
475.855	1650.62
476.227	1677.06
476.598	1721.13
476.97	1741.69
477.341	1763.39
477.713	1808.81
478.084	1828.92
478.455	1873.44
478.827	1901.01
479.198	1935.13
479.569	1940.78
479.94	1995.24
480.311	2057.39
480.682	2098.97
481.053	2153.66
481.424	2189.82
481.795	2232.07
482.166	2251.51
482.537	2285.63
482.908	2313.2
483.279	2349.59
483.65	2392.52
484.021	2437.72
484.391	2498.73
484.762	2515.68
485.133	2550.94
485.503	2588.67
485.874	2671.38
486.244	2689.92
486.615	2751.16
486.985	2779.4
487.356	2854.43
487.726	2874.32
488.097	2941.89
488.467	2962.22
488.837	3049.23
489.207	3063.92
489.578	3132.84
489.948	3129
490.318	3209.9
490.688	3230.47
491.058	3321.08
491.428	3362.44
491.798	3406.96
492.168	3479.27
492.538	3503
492.908	3592.26
493.278	3601.3
493.648	3635.88
494.017	3670
494.387	3660.96
494.757	3728.76
495.126	3788.64
495.496	3808.08
495.866	3853.95
496.235	3881.07
496.605	3898.7
496.974	3891.69
497.344	4008.75
497.713	4030.22
498.082	4055.53
498.452	4081.07
498.821	4125.36
499.19	4151.57
499.559	4152.25
499.928	4211.46
500.298	4233.38
500.667	4271.34
501.036	4322.41
501.405	4354.5
501.774	4360.83
502.143	4401.06
502.512	4381.62
502.88	4409.87
503.249	4396.31
503.618	4461.39
503.987	4458.91
504.356	4525.12
504.724	4598.79
505.093	4583.42
505.462	4580.26
505.83	4657.32
506.199	4652.58
506.567	4716.08
506.936	4711.78
507.304	4780.93
507.672	4795.4
508.041	4809.41
508.409	4806.47
508.777	4833.81
509.145	4880.82
509.514	4871.55
509.882	4924.88
510.25	4935.73
510.618	4970.99
510.986	4991.1
511.354	5054.37
511.722	5018.22
512.09	5070.19
512.458	5126.01
512.826	5129.63
513.193	5157.42
513.561	5169.4
513.929	5195.39
514.297	5204.65
514.664	5244.65
515.032	5238.32
515.4	5333.01
515.767	5289.39
516.135	5361.48
516.502	5270.41
516.869	5383.18
517.237	5361.48
517.604	5372.33
517.972	5410.52
518.339	5377.98
518.706	5457.3
519.073	5509.95
519.44	5504.08
519.808	5503.63
520.175	5535.04
520.542	5595.38
520.909	5599.9
521.276	5624.98
521.643	5648.93
522.009	5677.63
522.376	5737.74
522.743	5750.4
523.11	5742.94
523.477	5790.85
523.843	5842.37
524.21	5899.1
524.577	5852.09
524.943	5941.13
525.31	5959.89
525.676	5925.76
526.043	6012.54
526.409	6070.84
526.776	6071.97
527.142	6105.42
527.508	6110.84
527.874	6170.73
528.241	6244.4
528.607	6224.74
528.973	6260.89
529.339	6335.02
529.705	6312.64
530.071	6343.6
530.437	6380.89
530.803	6497.5
531.169	6450.04
531.535	6445.07
531.901	6498.4
532.267	6486.65
532.632	6513.77
532.998	6582.02
533.364	6611.85
533.73	6672.18
534.095	6733.2
534.461	6713.99
534.826	6751.5
535.192	6783.14
535.557	6822.01
535.923	6841.44
536.288	6867.66
536.653	6860.65
537.019	6835.57
537.384	6880.31
537.749	6916.47
538.114	6933.87
538.479	6958.05
538.845	6986.75
539.21	6963.93
539.575	7053.64
539.94	7030.14
540.305	7121.44
540.67	7108.33
541.034	7177.93
541.399	7160.31
541.764	7207.99
542.129	7236.46
542.494	7250.7
542.858	7280.3
543.223	7236.91
543.587	7294.54
543.952	7359.17
544.316	7363.69
544.681	7386.97
545.045	7432.84
545.41	7524.14
545.774	7468.77
546.138	7581.76
546.503	7542.67
546.867	7537.47
547.231	7709.67
547.595	7631.48
547.959	7658.37
548.324	7663.57
548.688	7673.74
549.052	7779.05
549.416	7779.95
549.779	7743.12
550.143	7889.55
550.507	7893.85
550.871	7882.1
551.235	7866.73
551.599	7924.13
551.962	7946.05
552.326	8031.47
552.689	8035.09
553.053	8000.96
553.417	8010.91
553.78	8154.18
554.143	8099.72
554.507	8156.89
554.87	8106.72
555.234	8278.02
555.597	8224.91
555.96	8252.03
556.323	8339.03
556.686	8317.56
557.05	8339.94
557.413	8407.96
557.776	8363.21
558.139	8393.95
558.502	8407.73
558.865	8466.26
559.228	8469.42
559.59	8495.41
559.953	8521.4
560.316	8621.74
560.679	8590.1
561.041	8648.4
561.404	8666.93
561.767	8676.88
562.129	8673.71
562.492	8791.9
562.854	8782.41
563.217	8830.54
563.579	8805.69
563.941	8888.4
564.304	8963.2
564.666	8955.06
565.028	8951.67
565.39	8992.8
565.753	9038.67
566.115	9048.39
566.477	9065.57
566.839	9121.38
567.201	9181.04
567.563	9200.48
567.925	9240.7
568.287	9282.74
568.648	9315.5
569.01	9365.45
569.372	9391.21
569.734	9389.4
570.095	9470.75
570.457	9501.26
570.819	9530.64
571.18	9550.75
571.542	9645.44
571.903	9628.26
572.265	9646.34
572.626	9760.69
572.987	9747.36
573.349	9837.52
573.71	9848.6
574.071	9894.7
574.432	10012.66
574.794	10114.35
575.155	10138.08
575.516	10149.83
575.877	10268.47
576.238	10282.94
576.599	10403.38
576.96	10443.84
577.32	10509.82
577.681	10577.84
578.042	10757.5
578.403	10806.54
578.763	10893.32
579.124	11006.53
579.485	11105.06
579.845	11287.66
580.206	11317.26
580.566	11484.71
580.927	11585.73
581.287	11728.32
581.648	11844.25
582.008	12086.73
582.368	12015.09
582.728	12253.05
583.089	12494.63
583.449	12695.3
583.809	12888.07
584.169	13040.15
584.529	13174.61
584.889	13365.34
585.249	13530.76
585.609	13791.09
585.969	14055.49
586.329	14203.06
586.688	14369.16
587.048	14650.28
587.408	14936.6
587.768	15209.13
588.127	15348.34
588.487	15681.66
588.846	16058.38
589.206	16148.77
589.565	16525.71
589.925	16796.89
590.284	17168.4
590.643	17425.12
591.003	17761.38
591.362	18073.47
591.721	18225.33
592.08	18698.99
592.44	19021.46
592.799	19389.59
593.158	19656.47
593.517	20007.88
593.876	20221.21
594.235	20607.86
594.593	20855.77
594.952	21253.95
595.311	21648.06
595.67	22032.91
596.029	22514.7
596.387	22737.98
596.746	23172.54
597.104	23410.27
597.463	23678.52
597.822	24130.26
598.18	24428.55
598.538	24720.07
598.897	25261.98
599.255	25428.07
599.613	25972.24
599.972	26247.04
600.33	26644.31
600.688	26916.62
601.046	27160.01
601.404	27729.48
601.762	27963.83
602.12	28443.36
602.478	28668.44
602.836	29037.7
603.194	29176.22
603.552	29446.05
603.91	29747.51
604.268	30346.36
604.625	30534.83
604.983	30855.73
605.341	30988.83
605.698	31533
606.056	31849.37
606.413	32112.19
606.771	32458.17
607.128	32823.13
607.485	32944.26
607.843	33043.24
608.2	33683
608.557	33987.4
608.914	34098.35
609.272	34433.26
609.629	34887.49
609.986	35203.64
610.343	35198.66
610.7	35570.41
611.057	35824.64
611.414	36064.18
611.771	36227.79
612.127	36645.18
612.484	36788.45
612.841	37031.16
613.198	37060.31
613.554	37312.96
613.911	37720.18
614.267	37830.01
614.624	38034.97
614.98	38202.43
615.337	38586.82
615.693	38682.42
616.05	38722.64
616.406	39077.66
616.762	39279.46
617.118	39301.83
617.475	39505.9
617.831	39834.02
618.187	40020.68
618.543	40307.91
618.899	40628.8
619.255	40592.65
619.611	40696.37
619.967	41001.45
620.323	41131.16
620.678	41093.65
621.034	41150.6
621.39	41196.7
621.746	41329.13
622.101	41919.62
622.457	41665.84
622.812	41988.77
623.168	42035.1
623.523	42130.46
623.879	42447.97
624.234	42229.67
624.589	42425.82
624.945	42577.91
625.3	42801.63
625.655	42657.23
626.01	42734.74
626.365	42944.45
626.72	43052.47
627.075	42887.5
627.43	43023.09
627.785	43019.93
628.14	43189.87
628.495	43293.14
628.85	43299.92
629.205	43228.06
629.559	43542.17
629.914	43402.29
630.269	43597.31
630.623	43503.08
630.978	43460.14
631.332	43671.89
631.687	43859.91
632.041	43700.14
632.396	43779.23
632.75	43835.73
633.104	43774.26
633.459	43750.53
633.813	43664.66
634.167	43744.65
634.521	43870.53
634.875	43930.41
635.229	43901.03
635.583	43768.61
635.937	43752.79
636.291	43748.95
636.645	43872.79
636.999	43778.33
637.352	43920.92
637.706	43610.65
638.06	43842.73
638.413	43845.22
638.767	43589.63
639.121	43812
639.474	43560.03
639.828	43640.7
640.181	43740.36
640.534	43790.98
640.888	43556.19
641.241	43532.01
641.594	43615.62
641.947	43695.62
642.301	43548.73
642.654	43723.41
643.007	43694.49
643.36	43757.54
643.713	43652
644.066	43799.57
644.419	43516.19
644.771	43267.15
645.124	42973.38
645.477	42837.56
645.83	42558.92
646.182	42507.85
646.535	42565.7
646.888	42467.85
647.24	42215.2
647.593	42606.61
647.945	42579.71
648.298	42292.94
648.65	42308.31
649.002	42025.38
649.355	42386.5
649.707	42321.64
650.059	42474.63
650.411	42909.2
650.763	42976.99
651.115	43294.5
651.467	43203.2
651.819	43239.13
652.171	43042.3
652.523	43085.01
652.875	43201.84
653.227	43118.91
653.578	43228.51
653.93	43105.58
654.282	42987.39
654.633	42906.94
654.985	42948.97
655.337	43178.57
655.688	43077.33
656.039	43097.89
656.391	42816.77
656.742	42807.96
657.094	42921.63
657.445	42927.73
657.796	42839.37
658.147	42855.86
658.498	42860.61
658.849	42924.34
659.2	42896.99
659.551	42783.78
659.902	42953.72
660.253	42949.42
660.604	42953.04
660.955	42737.9
661.306	42846.83
661.656	42764.79
662.007	42889.08
662.358	42879.82
662.708	42748.3
663.059	42765.7
663.409	42634.63
663.76	42837.79
664.11	42736.55
664.461	42774.74
664.811	42786.49
665.161	42713.04
665.511	42633.05
665.862	42615.42
666.212	42826.03
666.562	42810.44
666.912	42637.34
667.262	42659.03
667.612	42619.71
667.962	42849.31
668.312	42698.58
668.662	42957.1
669.011	42718.69
669.361	42536.33
669.711	42672.37
670.06	42627.4
670.41	42469.89
670.76	42496.33
671.109	42524.12
671.459	42503.56
671.808	42429.21
672.157	42583.1
672.507	42170.68
672.856	42333.62
673.205	42482.54
673.554	42428.31
673.904	42222.89
674.253	42634.85
674.602	42360.51
674.951	41886.85
675.3	41730.7
675.649	42335.43
675.998	42374.07
676.346	42295.43
676.695	42419.04
677.044	42061.99
677.393	42142.44
677.741	42308.76
678.09	42141.99
678.438	42050.01
678.787	42165.26
679.135	42180.18
679.484	41711.04
679.832	42062.67
680.181	41822.67
680.529	41874.2
680.877	41756.68
681.225	41647.08
681.573	41945.83
681.922	41626.29
682.27	41526.86
682.618	41512.62
682.966	41320.54
683.314	41509.46
683.661	41264.27
684.009	41085.06
684.357	41225.4
684.705	41153.76
685.053	41245.51
685.4	41122.8
685.748	40831.74
686.095	40964.39
686.443	40807.56
686.79	40741.12
687.138	40923.49
687.485	40814.56
687.832	40776.15
688.18	40838.06
688.527	40567.79
688.874	40403.05
689.221	40467.23
689.568	40310.85
689.915	40236.05
690.262	40233.11
690.609	40205.99
690.956	40033.34
691.303	40016.17
691.65	39907.02
691.997	39769.84
692.344	39562.39
692.69	39543.64
693.037	39539.57
693.383	39276.75
693.73	39347.48
694.077	39078.79
694.423	39079.69
694.769	38932.35
695.116	38889.87
695.462	38790.89
695.808	38661.85
696.155	38886.03
696.501	38498.01
696.847	38432.93
697.193	38307.28
697.539	38425.7
697.885	38230.22
698.231	38095.09
698.577	38127.85
698.923	38021.42
699.269	37865.71
699.614	37664.81
699.96	37682.89
700.306	37655.78
700.651	37421.88
700.997	37304.15
701.342	37248.1
701.688	37251.94
702.033	37132.4
702.379	37059.41
702.724	36886.98
703.069	37008.11
703.415	36578.97
703.76	36582.58
704.105	36744.16
704.45	36611.51
704.795	36408.12
705.14	36221.24
705.485	36321.8
705.83	36124.29
706.175	36069.83
706.52	35894.47
706.865	35906.89
707.209	35887.46
707.554	35812.66
707.899	35724.75
708.243	35659.67
708.588	35517.98
708.932	35278.44
709.277	35131.1
709.621	35354.37
709.966	35060.82
710.31	35223.97
710.654	35036.18
710.998	34996.41
711.342	34951.89
711.687	34914.6
712.031	34631.67
712.375	34645.69
712.719	34764.55
713.063	34585.12
713.407	34705.34
713.75	34509.19
714.094	34599.36
714.438	34284.56
714.782	34327.28
715.125	34176.54
715.469	34134.51
715.812	33960.96
716.156	33862.43
716.499	33880.28
716.843	33873.95
717.186	33697.91
717.53	33760.96
717.873	33786.72
718.216	33662.21
718.559	33503.79
718.902	33350.8
719.246	33354.87
719.589	33354.42
719.932	33125.95
720.275	33285.27
720.617	33118.49
720.96	33117.59
721.303	33109.91
721.646	33166.18
721.989	32855.9
722.331	32961.44
722.674	32974.09
723.016	32990.14
723.359	32834.43
723.701	32996.46
724.044	32621.11
724.386	32531.62
724.729	32754.21
725.071	32549.47
725.413	32521
725.755	32428.34
726.097	32349.25
726.439	32114.45
726.782	32191.96
727.124	32354.45
727.465	32191.29
727.807	32110.16
728.149	32002.14
728.491	31927.79
728.833	32044.62
729.175	31907.45
729.516	31880.56
729.858	31856.83
730.199	31907.23
730.541	31760.34
730.882	31785.65
731.224	31731.19
731.565	31523.28
731.906	31534.35
732.248	31528.93
732.589	31497.97
732.93	31297.75
733.271	31415.94
733.612	31459.78
733.953	31380.46
734.294	31307.92
734.635	31128.26
734.976	31291.2
735.317	31088.72
735.658	31045.1
735.999	31005.1
736.339	30940.92
736.68	31097.08
737.021	30844.43
737.361	30826.8
737.702	30897.76
738.042	30874.48
738.383	30679.01
738.723	30778.89
739.063	30632.46
739.404	30782.74
739.744	30592.23
740.084	30487.6
740.424	30592.23
740.764	30347.94
741.104	30473.37
741.444	30248.06
741.784	30174.84
742.124	30368.51
742.464	30368.96
742.804	30201.96
743.143	30284.67
743.483	30236.31
743.823	30025.69
744.162	29945.7
744.502	30056.2
744.841	29946.37
745.181	30037.44
745.52	29920.16
745.86	29974.17
746.199	29935.75
746.538	29868.64
746.877	29979.82
747.216	29926.26
747.556	29682.88
747.895	29726.72
748.234	29606.04
748.573	29537.34
748.911	29496.22
749.25	29356.78
749.589	29409.21
749.928	29386.84
750.267	29376.22
750.605	29263
750.944	29283.79
751.283	29132.16
751.621	29254.64
751.96	29073.63
752.298	29036.57
752.636	28992.95
752.975	28825.27
753.313	28754.99
753.651	28889.45
753.989	28557.26
754.327	28602.68
754.666	28454.66
755.004	28586.18
755.342	28605.62
755.679	28465.73
756.017	28406.3
756.355	28578.5
756.693	28356.81
757.031	28322.01
757.368	28070.04
757.706	28045.18
758.044	28052.19
758.381	28149.13
758.719	27935.81
759.056	27984.84
759.394	27794.34
759.731	27760.67
760.068	27614.91
760.405	27482.71
760.743	27406.1
