Data from hue_90_FLMS001491_10.txt Node
Date: Mon Feb 06 15:24:37 GMT 2017
User: dcchb
Spectrometer: FLMS00149
Trigger mode: 0
Integration Time (sec): 2.000000E-2
Scans to average: 10
Electric dark correction enabled: true
Nonlinearity correction enabled: false
Boxcar width: 0
XAxis mode: Wavelengths
Number of Pixels in Spectrum: 2048
>>>>>Begin Spectral Data<<<<<
341.393	3.98
341.776	3.98
342.16	3.98
342.543	-79.4
342.927	-60.65
343.31	-65.17
343.693	-69.46
344.077	-71.72
344.46	-73.08
344.843	-63.81
345.226	-35.56
345.61	-45.06
345.993	1.5
346.376	-0.54
346.759	7.37
347.142	21.84
347.525	46.02
347.908	73.36
348.291	77.88
348.674	91.21
349.057	105.22
349.44	142.74
349.823	145.22
350.206	143.41
350.588	199.68
350.971	209.18
351.354	216.18
351.737	243.07
352.119	253.24
352.502	263.41
352.884	250.3
353.267	281.49
353.65	274.94
354.032	298.89
354.414	307.7
354.797	314.48
355.179	302.51
355.562	321.04
355.944	323.3
356.326	323.75
356.709	337.76
357.091	326.91
357.473	332.56
357.855	343.41
358.238	333.01
358.62	339.34
359.002	339.12
359.384	324.43
359.766	320.13
360.148	331.88
360.53	328.04
360.912	330.75
361.294	326.46
361.676	327.14
362.057	336.63
362.439	312.68
362.821	308.83
363.203	320.36
363.584	327.82
363.966	328.49
364.348	317.2
364.729	320.58
365.111	325.56
365.493	328.72
365.874	320.81
366.256	308.16
366.637	312.22
367.019	299.34
367.4	333.01
367.781	319.68
368.163	310.42
368.544	314.71
368.925	283.07
369.306	333.01
369.688	294.37
370.069	292.11
370.45	301.15
370.831	305.44
371.212	319.45
371.593	330.98
371.974	310.42
372.355	317.65
372.736	319.23
373.117	310.19
373.498	319.91
373.879	306.35
374.26	308.61
374.641	318.55
375.021	311.32
375.402	303.64
375.783	290.76
376.163	314.48
376.544	331.21
376.925	322.17
377.305	313.35
377.686	338.21
378.066	311.09
378.447	339.57
378.827	350.19
379.208	313.58
379.588	319.45
379.968	324.2
380.349	310.64
380.729	337.76
381.109	321.94
381.489	334.82
381.87	334.14
382.25	333.92
382.63	292.79
383.01	337.31
383.39	330.08
383.77	326.46
384.15	321.26
384.53	352.22
384.91	340.02
385.29	340.7
385.67	339.79
386.049	346.12
386.429	336.63
386.809	330.98
387.189	355.61
387.568	359.23
387.948	352
388.328	383.18
388.707	340.7
389.087	344.31
389.466	359
389.846	352.45
390.225	357.19
390.605	347.48
390.984	365.33
391.363	367.59
391.743	379.11
392.122	361.94
392.501	379.11
392.881	359.91
393.26	329.17
393.639	359.45
394.018	375.05
394.397	380.47
394.776	377.08
395.155	366.91
395.534	374.82
395.913	384.31
396.292	371.88
396.671	373.46
397.05	360.36
397.429	368.95
397.808	389.06
398.186	373.46
398.565	364.2
398.944	393.13
399.323	408.49
399.701	392.45
400.08	402.39
400.458	393.58
400.837	386.35
401.215	397.19
401.594	404.42
401.972	396.29
402.351	409.4
402.729	389.96
403.107	415.5
403.486	390.19
403.864	391.32
404.242	420.92
404.62	415.5
404.999	412.33
405.377	409.62
405.755	433.35
406.133	421.6
406.511	411.88
406.889	412.11
407.267	411.43
407.645	420.24
408.023	437.42
408.401	422.05
408.779	413.69
409.156	434.25
409.534	427.93
409.912	448.49
410.29	442.62
410.667	459.79
411.045	450.3
411.422	462.73
411.8	460.47
412.178	465.67
412.555	455.72
412.933	467.02
413.31	471.77
413.687	472.9
414.065	490.75
414.442	487.13
414.819	474.25
415.197	482.84
415.574	477.19
415.951	487.13
416.328	484.65
416.705	496.17
417.082	489.85
417.46	518.09
417.837	504.53
418.214	495.95
418.591	488.49
418.967	492.11
419.344	509.05
419.721	502.05
420.098	497.08
420.475	525.33
420.852	508.38
421.228	527.36
421.605	538.66
421.982	532.1
422.358	524.65
422.735	529.39
423.111	539.79
423.488	554.48
423.864	547.92
424.241	556.74
424.617	549.73
424.994	550.18
425.37	559.22
425.746	563.74
426.123	558.09
426.499	576.17
426.875	562.16
427.251	586.57
427.627	606.23
428.003	589.5
428.379	599
428.756	594.48
429.132	605.32
429.507	604.87
429.883	599.67
430.259	622.72
430.635	602.61
431.011	630.41
431.387	622.05
431.763	629.73
432.138	644.19
432.514	654.81
432.89	634.47
433.265	638.32
433.641	665.66
434.016	678.99
434.392	685.09
434.767	688.71
435.143	678.32
435.518	707.47
435.894	708.6
436.269	703.63
436.644	708.6
437.02	699.33
437.395	724.19
437.77	726.45
438.145	732.55
438.52	709.95
438.895	735.04
439.271	754.92
439.646	771.42
440.021	760.8
440.395	770.06
440.77	766
441.145	780.46
441.52	770.29
441.895	763.51
442.27	794.47
442.645	797.63
443.019	788.37
443.394	795.37
443.769	803.51
444.143	798.76
444.518	833.11
444.892	806.22
445.267	810.74
445.641	834.7
446.016	850.06
446.39	810.29
446.764	852.77
447.139	829.05
447.513	842.38
447.887	835.37
448.262	837.18
448.636	845.99
449.01	864.75
449.384	875.37
449.758	875.37
450.132	871.3
450.506	879.21
450.88	897.97
451.254	901.36
451.628	902.72
452.002	903.62
452.376	945.2
452.75	942.72
453.123	947.01
453.497	978.87
453.871	964.86
454.244	955.6
454.618	986.33
454.992	965.54
455.365	996.5
455.739	1015.26
456.112	1006.89
456.486	1031.07
456.859	1039.21
457.232	1048.25
457.606	1052.09
457.979	1077.63
458.352	1085.99
458.725	1075.59
459.099	1135.03
459.472	1125.31
459.845	1125.08
460.218	1147.46
460.591	1169.38
460.964	1153.78
461.337	1175.25
461.71	1200.34
462.083	1221.35
462.456	1234.46
462.829	1270.84
463.201	1244.63
463.574	1255.02
463.947	1277.4
464.32	1311.07
464.692	1287.11
465.065	1325.3
465.438	1347.68
465.81	1394.23
466.183	1384.96
466.555	1416.83
466.928	1403.95
467.3	1443.72
467.672	1431.97
468.045	1477.39
468.417	1513.55
468.789	1504.06
469.161	1502.7
469.534	1550.61
469.906	1626.54
470.278	1651.4
470.65	1622.7
471.022	1696.37
471.394	1701.11
471.766	1741.34
472.138	1760.32
472.51	1814.33
472.882	1842.8
473.253	1876.7
473.625	1922.8
473.997	1990.6
474.369	1969.35
474.74	2012.74
475.112	2078.05
475.484	2089.58
475.855	2124.15
476.227	2192.4
476.598	2284.6
476.97	2287.76
477.341	2300.19
477.713	2394.2
478.084	2438.95
478.455	2513.97
478.827	2551.71
479.198	2677.36
479.569	2706.96
479.94	2746.96
480.311	2827.86
480.682	2918.71
481.053	3044.81
481.424	3095.43
481.795	3178.36
482.166	3234.41
482.537	3301.75
482.908	3421.07
483.279	3475.98
483.65	3565.7
484.021	3709.65
484.391	3755.07
484.762	3828.52
485.133	3916.87
485.503	4031.9
485.874	4103.31
486.244	4218.11
486.615	4335.85
486.985	4438.22
487.356	4559.8
487.726	4603.41
488.097	4770.64
488.467	4869.17
488.837	4996.85
489.207	5101.93
489.578	5201.36
489.948	5331.75
490.318	5474.12
490.688	5557.74
491.058	5679.09
491.428	5788.69
491.798	5903.71
492.168	6069.36
492.538	6136.25
492.908	6276.81
493.278	6431.38
493.648	6421.89
494.017	6602.91
494.387	6749.57
494.757	6798.38
495.126	6926.96
495.496	6998.38
495.866	7073.85
496.235	7262.1
496.605	7378.7
496.974	7461.41
497.344	7614.86
497.713	7651.92
498.082	7755.42
498.452	7873.15
498.821	7958.12
499.19	8104.56
499.559	8179.36
499.928	8283.54
500.298	8321.05
500.667	8482.18
501.036	8551.55
501.405	8577.09
501.774	8646.69
502.143	8760.81
502.512	8866.35
502.88	8945.89
503.249	8930.08
503.618	9096.63
503.987	9135.04
504.356	9297.3
504.724	9326.68
505.093	9330.29
505.462	9429.27
505.83	9454.13
506.199	9579.78
506.567	9747.46
506.936	9714.01
507.304	9841.01
507.672	9929.6
508.041	9942.03
508.409	10012.99
508.777	10133.21
509.145	10174.34
509.514	10176.37
509.882	10315.35
510.25	10323.03
510.618	10359.64
510.986	10402.13
511.354	10459.75
511.722	10599.41
512.09	10615.68
512.458	10645.96
512.826	10720.31
513.193	10731.61
513.561	10697.71
513.929	10798.95
514.297	10906.52
514.664	10926.41
515.032	10946.75
515.4	11042.56
515.767	11035.33
516.135	11118.72
516.502	11000.3
516.869	11271.48
517.237	11180.86
517.604	11154.42
517.972	11234.2
518.339	11370.69
518.706	11283.23
519.073	11285.27
519.44	11310.8
519.808	11424.7
520.175	11466.28
520.542	11575.88
520.909	11519.61
521.276	11562.1
521.643	11541.31
522.009	11637.8
522.376	11645.94
522.743	11738.59
523.11	11778.36
523.477	11780.17
523.843	11880.96
524.21	11885.25
524.577	11947.17
524.943	11933.16
525.31	11951.24
525.676	12036.89
526.043	12053.84
526.409	12115.08
526.776	12129.09
527.142	12164.34
527.508	12099.48
527.874	12152.59
528.241	12236.43
528.607	12176.32
528.973	12336.54
529.339	12183.78
529.705	12320.5
530.071	12299.25
530.437	12325.01
530.803	12317.33
531.169	12283.21
531.535	12217.67
531.901	12255.19
532.267	12324.56
532.632	12367.95
532.998	12293.83
533.364	12292.7
533.73	12325.92
534.095	12374.05
534.461	12371.57
534.826	12333.38
535.192	12354.84
535.557	12360.72
535.923	12295.41
536.288	12221.51
536.653	12300.38
537.019	12204.57
537.384	12207.5
537.749	12197.79
538.114	12116.66
538.479	12198.01
538.845	12137.68
539.21	12056.1
539.575	12075.53
539.94	12014.97
540.305	12034.85
540.67	12014.51
541.034	11969.32
541.399	12038.02
541.764	12009.77
542.129	12008.19
542.494	11994.18
542.858	11989.66
543.223	11928.64
543.587	12011.12
543.952	11918.02
544.316	11859.26
544.681	11777.68
545.045	11775.2
545.41	11876.44
545.774	11799.15
546.138	11675.09
546.503	11668.53
546.867	11734.52
547.231	11698.36
547.595	11670.79
547.959	11614.07
548.324	11573.17
548.688	11624.69
549.052	11611.14
549.416	11525.26
549.779	11507.41
550.143	11527.97
550.507	11503.57
550.871	11443.23
551.235	11414.53
551.599	11495.66
551.962	11464.47
552.326	11424.7
552.689	11412.04
553.053	11458.82
553.417	11394.19
553.78	11412.5
554.143	11357.36
554.507	11333.18
554.87	11271.71
555.234	11387.64
555.597	11286.17
555.96	11214.08
556.323	11362.1
556.686	11282.1
557.05	11356.45
557.413	11224.7
557.776	11258.38
558.139	11321.88
558.502	11275.32
558.865	11241.43
559.228	11329.11
559.59	11315.32
559.953	11243.24
560.316	11380.41
560.679	11276.68
561.041	11341.09
561.404	11272.84
561.767	11396.45
562.129	11262.9
562.492	11364.81
562.854	11289.56
563.217	11333.18
563.579	11318.71
563.941	11365.04
564.304	11387.19
564.666	11438.94
565.028	11404.14
565.39	11411.82
565.753	11469.44
566.115	11420.63
566.477	11433.06
566.839	11490.23
567.201	11513.96
567.563	11537.24
567.925	11569.55
568.287	11458.6
568.648	11530.91
569.01	11538.14
569.372	11626.5
569.734	11582.66
570.095	11582.21
570.457	11614.98
570.819	11613.17
571.18	11688.2
571.542	11731.36
571.903	11753.96
572.265	11710.79
572.626	11715.54
572.987	11626.73
573.349	11755.99
573.71	11783.11
574.071	11760.51
574.432	11844.8
574.794	11871.02
575.155	11804.8
575.516	11751.02
575.877	11803.45
576.238	11862.2
576.599	11777.91
576.96	11788.53
577.32	11864.91
577.681	11906.95
578.042	11961.63
578.403	11876.67
578.763	11834.63
579.124	11913.73
579.485	11908.75
579.845	11957.11
580.206	11908.98
580.566	11926.61
580.927	11874.41
581.287	11934.74
581.648	11831.02
582.008	11895.87
582.368	11885.25
582.728	11894.29
583.089	11903.56
583.449	11836.89
583.809	11855.42
584.169	11825.82
584.529	11760.51
584.889	11860.62
585.249	11777.01
585.609	11770
585.969	11855.65
586.329	11791.92
586.688	11839.83
587.048	11800.06
587.408	11756.22
587.768	11753.5
588.127	11734.75
588.487	11674.64
588.846	11824.46
589.206	11757.12
589.565	11729.32
589.925	11787.63
590.284	11742.43
590.643	11779.72
591.003	11782.43
591.362	11727.29
591.721	11758.02
592.08	11735.43
592.44	11774.75
592.799	11725.26
593.158	11717.8
593.517	11699.27
593.876	11806.38
594.235	11773.39
594.593	11712.15
594.952	11624.24
595.311	11651.36
595.67	11690.23
596.029	11776.78
596.387	11715.77
596.746	11729.55
597.104	11666.5
597.463	11618.82
597.822	11685.03
598.18	11614.53
598.538	11646.16
598.897	11657.01
599.255	11604.58
599.613	11709.21
599.972	11711.02
600.33	11660.4
600.688	11587.86
601.046	11581.76
601.404	11702.88
601.762	11661.98
602.12	11695.65
602.478	11661.08
602.836	11709.21
603.194	11616.56
603.552	11675.99
603.91	11634.41
604.268	11710.34
604.625	11635.99
604.983	11715.09
605.341	11624.47
605.698	11683.22
606.056	11671.25
606.413	11685.94
606.771	11730.45
607.128	11712.38
607.485	11664.24
607.843	11654.75
608.2	11760.96
608.557	11766.84
608.914	11694.3
609.272	11826.72
609.629	11758.48
609.986	11708.31
610.343	11669.66
610.7	11831.92
611.057	11883.67
611.414	11774.75
611.771	11806.16
612.127	11864.01
612.484	11868.53
612.841	11859.04
613.198	11863.33
613.554	11851.81
613.911	11885.03
614.267	11956.44
614.624	11857.68
614.98	11809.55
615.337	12007.96
615.693	11909.66
616.05	11853.61
616.406	11993.95
616.762	11872.15
617.118	11867.17
617.475	11978.36
617.831	11981.75
618.187	11878.92
618.543	12007.74
618.899	11944.69
619.255	11997.34
619.611	11932.93
619.967	12076.43
620.323	11974.74
620.678	12037.34
621.034	12035.76
621.39	11904.91
621.746	11995.53
622.101	12091.12
622.457	12017.9
622.812	12033.27
623.168	12019.71
623.523	12068.52
623.879	12114.4
624.234	11995.76
624.589	12026.49
624.945	12047.73
625.3	12077.79
625.655	11977.45
626.01	12022.42
626.365	12033.27
626.72	12051.35
627.075	11987.17
627.43	11956.66
627.785	11985.59
628.14	11969.54
628.495	11981.75
628.85	12017.9
629.205	11914.18
629.559	12048.86
629.914	11948.53
630.269	12002.09
630.623	11929.09
630.978	11907.17
631.332	11957.79
631.687	11969.77
632.041	11846.16
632.396	11936.55
632.75	11788.98
633.104	11910.56
633.459	11863.11
633.813	11897.23
634.167	11779.04
634.521	11771.81
634.875	11786.5
635.229	11797.12
635.583	11732.49
635.937	11733.62
636.291	11620.4
636.645	11785.82
636.999	11683.68
637.352	11719.83
637.706	11687.74
638.06	11683.22
638.413	11610.68
638.767	11628.54
639.121	11620.17
639.474	11629.21
639.828	11638.71
640.181	11570.01
640.534	11643.22
640.888	11520.97
641.241	11607.75
641.594	11589.22
641.947	11588.54
642.301	11575.88
642.654	11561.42
643.007	11562.78
643.36	11551.48
643.713	11440.29
644.066	11539.27
644.419	11493.62
644.771	11442.78
645.124	11290.24
645.477	11254.53
645.83	11272.61
646.182	11139.06
646.535	11147.87
646.888	11106.06
647.24	11145.61
647.593	11155.33
647.945	11119.4
648.298	11041.66
648.65	10996.69
649.002	11045.05
649.355	11123.24
649.707	11037.82
650.059	11100.64
650.411	11265.16
650.763	11241.88
651.115	11388.77
651.467	11335.89
651.819	11341.31
652.171	11282.1
652.523	11253.4
652.875	11315.1
653.227	11250.47
653.578	11351.48
653.93	11319.84
654.282	11301.54
654.633	11260.64
654.985	11238.94
655.337	11307.64
655.688	11279.62
656.039	11327.75
656.391	11248.21
656.742	11292.27
657.094	11171.6
657.445	11338.15
657.796	11257.25
658.147	11288.43
658.498	11309
658.849	11334.76
659.2	11241.2
659.551	11231.48
659.902	11302.44
660.253	11255.66
660.604	11343.57
660.955	11245.95
661.306	11332.72
661.656	11337.02
662.007	11291.14
662.358	11275.32
662.708	11259.05
663.059	11285.95
663.409	11250.01
663.76	11330.69
664.11	11307.19
664.461	11361.65
664.811	11380.86
665.161	11306.51
665.511	11335.21
665.862	11346.51
666.212	11383.12
666.562	11433.74
666.912	11356.45
667.262	11334.76
667.612	11304.48
667.962	11353.52
668.312	11314.19
668.662	11362.1
669.011	11317.58
669.361	11244.37
669.711	11316
670.06	11281.2
670.41	11234.42
670.76	11342.89
671.109	11334.53
671.459	11321.2
671.808	11201.2
672.157	11267.64
672.507	11176.8
672.856	11255.66
673.205	11254.76
673.554	11259.05
673.904	11202.78
674.253	11261.31
674.602	11166.85
674.951	11070.13
675.3	11040.75
675.649	11187.42
675.998	11108.32
676.346	11155.33
676.695	11199.17
677.044	11082.56
677.393	11177.7
677.741	11150.36
678.09	11130.24
678.438	11087.99
678.787	11100.41
679.135	11064.71
679.484	11015.22
679.832	10982
680.181	11011.15
680.529	11062.22
680.877	11026.52
681.225	10964.37
681.573	11103.13
681.922	10923.47
682.27	10864.04
682.618	10893.64
682.966	10835.56
683.314	10881.89
683.661	10817.71
684.009	10743.14
684.357	10769.12
684.705	10763.25
685.053	10727.32
685.4	10714.89
685.748	10695.23
686.095	10678.96
686.443	10730.93
686.79	10566.19
687.138	10590.6
687.485	10555.8
687.832	10517.6
688.18	10576.13
688.527	10455.69
688.874	10459.75
689.221	10408.68
689.568	10416.59
689.915	10467.66
690.262	10331.85
690.609	10333.65
690.956	10294.79
691.303	10238.06
691.65	10233.77
691.997	10197.61
692.344	10231.51
692.69	10210.95
693.037	10210.49
693.383	10082.36
693.73	10139.54
694.077	10011.86
694.423	10038.97
694.769	9977.05
695.116	9975.7
695.462	9970.73
695.808	9876.94
696.155	9897.06
696.501	9819.09
696.847	9800.79
697.193	9745.65
697.539	9770.96
697.885	9686.21
698.231	9654.8
698.577	9639.44
698.923	9571.64
699.269	9596.27
699.614	9421.81
699.96	9479.44
700.306	9500.23
700.651	9454.58
700.997	9452.55
701.342	9392.89
701.688	9369.16
702.033	9290.74
702.379	9350.63
702.724	9221.59
703.069	9250.52
703.415	9159.45
703.76	9127.58
704.105	9173.01
704.45	9129.62
704.795	9103.63
705.14	9066.8
705.485	9037.87
705.83	9022.28
706.175	9002.84
706.52	8942.96
706.865	8945.67
707.209	8965.56
707.554	8902.96
707.899	8875.16
708.243	8797.42
708.588	8861.6
708.932	8736.86
709.277	8765.11
709.621	8756.07
709.966	8654.15
710.31	8769.85
710.654	8620.03
710.998	8647.6
711.342	8659.8
711.687	8640.59
712.031	8596.07
712.375	8517.88
712.719	8568.05
713.063	8496.64
713.407	8616.41
713.75	8506.36
714.094	8532.8
714.438	8458
714.782	8432.24
715.125	8420.48
715.469	8471.78
715.812	8385.91
716.156	8365.35
716.499	8393.59
716.843	8425.46
717.186	8291.22
717.53	8366.02
717.873	8298
718.216	8343.42
718.559	8263.65
718.902	8231.56
719.246	8299.81
719.589	8240.38
719.932	8160.83
720.275	8217.1
720.617	8196.54
720.96	8156.31
721.303	8124.45
721.646	8210.09
721.989	8210.77
722.331	8166.71
722.674	8133.49
723.016	8167.84
723.359	8232.92
723.701	8184.78
724.044	8081.74
724.386	8104.56
724.729	8120.61
725.071	8114.28
725.413	8098.91
725.755	8089.19
726.097	8030.44
726.439	8034.28
726.782	7996.99
727.124	8093.26
727.465	7986.15
727.807	8084.9
728.149	7999.93
728.491	8006.71
728.833	8067.73
729.175	8036.99
729.516	7984.34
729.858	7982.98
730.199	8019.59
730.541	8001.74
730.882	7938.69
731.224	7948.18
731.565	7994.28
731.906	7907.28
732.248	7966.49
732.589	7881.52
732.93	7926.94
733.271	7921.06
733.612	7921.51
733.953	8010.78
734.294	7952.47
734.635	7919.03
734.976	7936.43
735.317	7954.51
735.658	7940.95
735.999	7898.01
736.339	7878.8
736.68	7947.5
737.021	7934.62
737.361	7911.57
737.702	7963.55
738.042	7963.55
738.383	7964.68
738.723	8020.27
739.063	7929.65
739.404	7931.91
739.744	7907.96
740.084	7949.54
740.424	8013.26
740.764	7996.09
741.104	8000.61
741.444	8069.31
741.784	8021.4
742.124	7986.6
742.464	7988.41
742.804	7995.19
743.143	8038.12
743.483	8086.26
743.823	8010.1
744.162	8111.79
744.502	8129.64
744.841	8193.15
745.181	8232.92
745.52	8177.55
745.86	8231.11
746.199	8174.62
746.538	8279.25
746.877	8310.21
747.216	8366.7
747.556	8359.24
747.895	8416.19
748.234	8414.84
748.573	8517.88
748.911	8493.03
749.25	8609.18
749.589	8582.06
749.928	8729.86
750.267	8736.18
750.605	8824.77
750.944	8791.55
751.283	8867.25
751.621	8962.17
751.96	8974.82
752.298	9100.01
752.636	9198.54
752.975	9212.55
753.313	9284.42
753.651	9464.75
753.989	9503.17
754.327	9593.11
754.666	9675.37
755.004	9748.13
755.342	9839.66
755.679	9956.26
756.017	10030.61
756.355	10146.32
756.693	10273.77
757.031	10423.37
757.368	10515.12
757.706	10607.32
758.044	10707.66
758.381	10830.82
758.719	10973.86
759.056	11019.51
759.394	11208.21
759.731	11297.92
760.068	11386.96
760.405	11553.28
