Data from hue_120_FLMS001491_00098.txt Node
Date: Tue Feb 07 17:00:17 GMT 2017
User: dcchb
Spectrometer: FLMS00149
Trigger mode: 0
Integration Time (sec): 2.000000E-2
Scans to average: 10
Electric dark correction enabled: true
Nonlinearity correction enabled: false
Boxcar width: 0
XAxis mode: Wavelengths
Number of Pixels in Spectrum: 2048
>>>>>Begin Spectral Data<<<<<
341.393	-16.3
341.776	-16.3
342.16	-16.3
342.543	-54.72
342.927	-73.47
343.31	-71.66
343.693	-57.2
344.077	-65.79
344.46	-61.27
344.843	-51.33
345.226	-35.06
345.61	-34.6
345.993	-10.2
346.376	-9.97
346.759	8.33
347.142	14.21
347.525	51.95
347.908	56.69
348.291	83.81
348.674	79.74
349.057	102.34
349.44	121.55
349.823	138.5
350.206	173.98
350.588	187.09
350.971	203.81
351.354	237.03
351.737	219.63
352.119	239.74
352.502	264.37
352.884	263.02
353.267	277.93
353.65	291.94
354.032	307.76
354.414	285.61
354.797	316.12
355.179	309.57
355.562	289.68
355.944	310.47
356.326	338.04
356.709	341.66
357.091	330.58
357.473	327.65
357.855	343.69
358.238	342.56
358.62	342.79
359.002	330.81
359.384	331.04
359.766	347.31
360.148	350.25
360.53	336.91
360.912	314.31
361.294	335.33
361.676	329.23
362.057	338.49
362.439	332.17
362.821	319.06
363.203	315.22
363.584	325.39
363.966	340.3
364.348	326.97
364.729	322.68
365.111	330.81
365.493	326.52
365.874	324.03
366.256	322
366.637	308.44
367.019	303.47
367.4	301.21
367.781	297.59
368.163	310.02
368.544	291.94
368.925	331.71
369.306	312.73
369.688	306.86
370.069	305.05
370.45	279.51
370.831	304.14
371.212	306.18
371.593	330.58
371.974	343.01
372.355	319.96
372.736	314.09
373.117	312.73
373.498	307.31
373.879	313.18
374.26	315.44
374.641	298.49
375.021	315.9
375.402	312.96
375.783	313.64
376.163	343.92
376.544	326.06
376.925	335.1
377.305	326.06
377.686	308.21
378.066	330.36
378.447	326.74
378.827	320.64
379.208	321.77
379.588	323.35
379.968	330.81
380.349	328.1
380.729	336.46
381.109	332.39
381.489	334.43
381.87	327.65
382.25	320.87
382.63	334.88
383.01	317.93
383.39	333.97
383.77	359.96
384.15	369.91
384.53	333.07
384.91	338.49
385.29	364.03
385.67	336.46
386.049	357.25
386.429	351.83
386.809	361.77
387.189	355.89
387.568	349.34
387.948	356.35
388.328	353.18
388.707	325.39
389.087	347.53
389.466	358.15
389.846	365.61
390.225	362.67
390.605	364.93
390.984	377.81
391.363	377.59
391.743	375.1
392.122	345.5
392.501	396.8
392.881	374.65
393.26	358.61
393.639	365.16
394.018	372.62
394.397	358.15
394.776	363.8
395.155	358.38
395.534	384.59
395.913	387.98
396.292	371.49
396.671	364.26
397.05	376.91
397.429	392.05
397.808	391.83
398.186	397.7
398.565	384.82
398.944	381.88
399.323	391.37
399.701	385.95
400.08	397.48
400.458	405.61
400.837	417.81
401.215	390.47
401.594	410.81
401.972	387.31
402.351	416.46
402.729	425.27
403.107	395.44
403.486	411.94
403.864	401.09
404.242	405.61
404.62	413.97
404.999	407.64
405.377	417.36
405.755	424.14
406.133	422.56
406.511	427.53
406.889	416.68
407.267	432.95
407.645	425.72
408.023	425.05
408.401	434.54
408.779	422.79
409.156	453.07
409.534	440.86
409.912	438.6
410.29	460.75
410.667	454.42
411.045	455.55
411.422	464.14
411.8	469.56
412.178	484.25
412.555	461.2
412.933	481.54
413.31	456.68
413.687	486.74
414.065	500.52
414.442	501.65
414.819	496.46
415.197	499.62
415.574	485.83
415.951	480.86
416.328	527.19
416.705	515.44
417.082	516.79
417.46	505.27
417.837	511.6
418.214	518.38
418.591	512.95
418.967	509.34
419.344	520.86
419.721	514.99
420.098	532.61
420.475	537.58
420.852	522.67
421.228	534.42
421.605	533.74
421.982	565.15
422.358	545.49
422.735	561.09
423.111	566.51
423.488	581.65
423.864	578.94
424.241	572.39
424.617	553.63
424.994	585.04
425.37	588.2
425.746	606.28
426.123	584.59
426.499	600.86
426.875	614.19
427.251	581.65
427.627	617.58
428.003	610.35
428.379	599.96
428.756	607.41
429.132	626.4
429.507	630.92
429.883	637.02
430.259	660.75
430.635	661.88
431.011	645.6
431.387	643.12
431.763	661.65
432.138	674.53
432.514	678.37
432.89	647.19
433.265	679.5
433.641	701.87
434.016	695.77
434.392	706.85
434.767	716.34
435.143	728.77
435.518	733.74
435.894	747.52
436.269	751.36
436.644	740.07
437.02	764.02
437.395	757.69
437.77	764.47
438.145	756.34
438.52	781.42
438.895	784.81
439.271	765.6
439.646	798.14
440.021	799.72
440.395	778.71
440.77	823.45
441.145	803.11
441.52	825.71
441.895	814.41
442.27	810.12
442.645	822.32
443.019	845.15
443.394	855.99
443.769	853.51
444.143	812.61
444.518	834.75
444.892	847.86
445.267	866.62
445.641	866.39
446.016	886.73
446.39	876.33
446.764	879.72
447.139	855.99
447.513	918.59
447.887	930.57
448.262	905.26
448.636	909.33
449.01	920.17
449.384	914.52
449.758	930.12
450.132	947.74
450.506	957.46
450.88	951.13
451.254	949.1
451.628	967.86
452.002	972.6
452.376	1015.09
452.75	990.68
453.123	990.91
453.497	1026.16
453.871	1023.67
454.244	1048.08
454.618	1027.97
454.992	1047.4
455.365	1039.94
455.739	1068.19
456.112	1101.64
456.486	1102.77
456.859	1092.6
457.232	1122.2
457.606	1109.77
457.979	1130.34
458.352	1179.6
458.725	1161.98
459.099	1207.4
459.472	1230.22
459.845	1227.96
460.218	1225.93
460.591	1232.48
460.964	1250.33
461.337	1248.98
461.71	1293.72
462.083	1315.19
462.456	1315.42
462.829	1326.94
463.201	1349.77
463.574	1356.77
463.947	1393.38
464.32	1408.3
464.692	1402.87
465.065	1425.02
465.438	1462.76
465.81	1460.05
466.183	1506.6
466.555	1492.36
466.928	1544.11
467.3	1545.92
467.672	1586.82
468.045	1631.57
468.417	1636.54
468.789	1623.43
469.161	1671.57
469.534	1672.7
469.906	1743.43
470.278	1758.34
470.65	1772.58
471.022	1865.91
471.394	1879.02
471.766	1898.9
472.138	1942.07
472.51	1988.39
472.882	2021.61
473.253	2032.91
473.625	2050.77
473.997	2120.37
474.369	2156.53
474.74	2221.61
475.112	2235.85
475.484	2326.69
475.855	2370.53
476.227	2416.86
476.598	2498.66
476.97	2508.83
477.341	2651.43
477.713	2639.9
478.084	2676.74
478.455	2811.2
478.827	2870.4
479.198	3001.02
479.569	3028.14
479.94	3139.1
480.311	3151.3
480.682	3294.8
481.053	3365.53
481.424	3466.1
481.795	3519.43
482.166	3590.61
482.537	3718.97
482.908	3876.03
483.279	3892.98
483.65	4040.32
484.021	4144.72
484.391	4238.28
484.762	4320.54
485.133	4403.92
485.503	4517.37
485.874	4697.93
486.244	4794.2
486.615	4934.76
486.985	5007.75
487.356	5216.78
487.726	5270.34
488.097	5447.74
488.467	5486.16
488.837	5700.16
489.207	5797.79
489.578	5929.53
489.948	6026.48
490.318	6239.81
490.688	6289.3
491.058	6498.33
491.428	6611.78
491.798	6735.61
492.168	6934.25
492.538	7033.01
492.908	7115.72
493.278	7328.37
493.648	7358.2
494.017	7537.4
494.387	7692.2
494.757	7774.91
495.126	7933.1
495.496	8021
495.866	8118.4
496.235	8346.64
496.605	8456.7
496.974	8531.27
497.344	8730.36
497.713	8767.65
498.082	8904.14
498.452	9093.97
498.821	9171.71
499.19	9179.84
499.559	9348.43
499.928	9475.65
500.298	9547.52
500.667	9683.33
501.036	9693.73
501.405	9879.03
501.774	9882.42
502.143	10052.14
502.512	10141.17
502.88	10245.13
503.249	10278.8
503.618	10429.3
503.987	10391.11
504.356	10560.15
504.724	10643.31
505.093	10761.5
505.462	10797.43
505.83	10860.7
506.199	10974.6
506.567	11165.1
506.936	11104.76
507.304	11228.6
507.672	11402.61
508.041	11350.86
508.409	11467.01
508.777	11541.82
509.145	11693
509.514	11680.34
509.882	11771.19
510.25	11784.07
510.618	11864.07
510.986	11879.66
511.354	12064.51
511.722	12067.23
512.09	12104.51
512.458	12141.8
512.826	12252.98
513.193	12342.47
513.561	12332.3
513.929	12391.96
514.297	12473.54
514.664	12539.08
515.032	12553.77
515.4	12645.06
515.767	12644.39
516.135	12766.87
516.502	12668.79
516.869	12871.05
517.237	12887.32
517.604	12908.11
517.972	12972.06
518.339	12898.39
518.706	12947.65
519.073	12974.09
519.44	13016.8
519.808	13080.08
520.175	13163.24
520.542	13200.53
520.909	13282.33
521.276	13273.97
521.643	13352.16
522.009	13402.78
522.376	13402.56
522.743	13395.55
523.11	13478.49
523.477	13605.72
523.843	13614.98
524.21	13678.93
524.577	13737.24
524.943	13734.53
525.31	13849.33
525.676	13819.5
526.043	13874.64
526.409	13879.61
526.776	13873.28
527.142	13960.96
527.508	13940.85
527.874	14054.74
528.241	14074.4
528.607	14011.58
528.973	14138.13
529.339	13994.18
529.705	14107.4
530.071	14171.58
530.437	14188.3
530.803	14126.15
531.169	14171.58
531.535	14109.21
531.901	14065.36
532.267	14097.45
532.632	14202.08
532.998	14218.13
533.364	14165.93
533.73	14236.89
534.095	14221.52
534.461	14177.68
534.826	14165.47
535.192	14178.13
535.557	14191.46
535.923	14101.97
536.288	14078.7
536.653	14153.05
537.019	14063.1
537.384	14068.53
537.749	14027.17
538.114	13950.34
538.479	14012.48
538.845	14003.45
539.21	13910.57
539.575	13986.04
539.94	13968.64
540.305	13930.45
540.67	13868.31
541.034	13839.61
541.399	13788.31
541.764	13811.13
542.129	13880.51
542.494	13792.15
542.858	13812.04
543.223	13718.48
543.587	13755.77
543.952	13626.51
544.316	13668.76
544.681	13700.4
545.045	13705.37
545.41	13720.06
545.774	13561.42
546.138	13601.2
546.503	13550.35
546.867	13567.3
547.231	13487.53
547.595	13507.64
547.959	13395.78
548.324	13375.44
548.688	13365.27
549.052	13414.08
549.416	13353.07
549.779	13289.34
550.143	13329.11
550.507	13250.47
550.871	13359.62
551.235	13208.89
551.599	13232.84
551.962	13152.85
552.326	13200.98
552.689	13238.27
553.053	13098.16
553.417	13078.72
553.78	13143.35
554.143	13054.77
554.507	13096.8
554.87	13113.3
555.234	13204.37
555.597	13013.64
555.96	12957.15
556.323	12991.27
556.686	13036.47
557.05	13062
557.413	13069.68
557.776	13009.8
558.139	13063.58
558.502	13003.02
558.865	12903.36
559.228	13078.05
559.59	13003.92
559.953	12953.53
560.316	13103.13
560.679	13027.43
561.041	13084.83
561.404	13084.15
561.767	13069.01
562.129	13019.74
562.492	13141.32
562.854	13075.11
563.217	13063.13
563.579	13003.47
563.941	13147.42
564.304	13186.29
564.666	13191.26
565.028	13130.47
565.39	13132.51
565.753	13201.43
566.115	13256.8
566.477	13292.96
566.839	13223.8
567.201	13294.99
567.563	13256.12
567.925	13291.83
568.287	13323.24
568.648	13285.5
569.01	13447.08
569.372	13348.32
569.734	13332.95
570.095	13422.44
570.457	13355.78
570.819	13386.96
571.18	13376.34
571.542	13422.44
571.903	13483.01
572.265	13484.59
572.626	13448.43
572.987	13485.04
573.349	13517.36
573.71	13377.02
574.071	13508.54
574.432	13559.39
574.794	13628.77
575.155	13575.89
575.516	13480.07
575.877	13525.72
576.238	13562.78
576.599	13615.88
576.96	13611.59
577.32	13525.72
577.681	13676.9
578.042	13592.61
578.403	13574.98
578.763	13604.81
579.124	13567.98
579.485	13661.76
579.845	13676.67
580.206	13546.96
580.566	13578.6
580.927	13574.08
581.287	13586.28
581.648	13604.59
582.008	13659.27
582.368	13602.33
582.728	13667.41
583.089	13619.5
583.449	13554.19
583.809	13638.48
584.169	13615.43
584.529	13546.51
584.889	13658.37
585.249	13580.18
585.609	13506.96
585.969	13556.23
586.329	13531.37
586.688	13569.11
587.048	13531.59
587.408	13549.45
587.768	13461.76
588.127	13485.04
588.487	13443.69
588.846	13576.11
589.206	13419.28
589.565	13447.08
589.925	13570.91
590.284	13363.46
590.643	13438.26
591.003	13453.63
591.362	13460.63
591.721	13494.76
592.08	13344.71
592.44	13381.77
592.799	13435.1
593.158	13364.59
593.517	13399.17
593.876	13371.82
594.235	13479.39
594.593	13414.08
594.952	13440.75
595.311	13273.3
595.67	13438.04
596.029	13456.34
596.387	13423.35
596.746	13384.93
597.104	13283.01
597.463	13328.21
597.822	13469.67
598.18	13335.44
598.538	13287.98
598.897	13534.76
599.255	13228.1
599.613	13451.37
599.972	13339.28
600.33	13403.24
600.688	13313.52
601.046	13323.01
601.404	13420.41
601.762	13441.88
602.12	13449.11
602.478	13361.88
602.836	13429
603.194	13325.27
603.552	13375.89
603.91	13287.08
604.268	13298.15
604.625	13306.51
604.983	13273.97
605.341	13301.99
605.698	13304.25
606.056	13393.97
606.413	13374.08
606.771	13378.15
607.128	13433.06
607.485	13343.58
607.843	13372.05
608.2	13447.53
608.557	13446.4
608.914	13432.84
609.272	13421.09
609.629	13429.22
609.986	13487.98
610.343	13483.23
610.7	13513.97
611.057	13541.76
611.414	13496.11
611.771	13492.95
612.127	13588.77
612.484	13518.03
612.841	13616.79
613.198	13523.46
613.554	13483.01
613.911	13557.36
614.267	13570.91
614.624	13617.92
614.98	13625.15
615.337	13617.47
615.693	13618.82
616.05	13563.91
616.406	13699.72
616.762	13625.15
617.118	13604.81
617.475	13638.94
617.831	13745.6
618.187	13726.39
618.543	13631.03
618.899	13753.73
619.255	13797.35
619.611	13726.84
619.967	13802.55
620.323	13724.58
620.678	13781.3
621.034	13686.17
621.39	13767.52
621.746	13684.81
622.101	13839.61
622.457	13640.07
622.812	13685.49
623.168	13661.53
623.523	13737.01
623.879	13854.3
624.234	13651.59
624.589	13805.71
624.945	13757.58
625.3	13775.2
625.655	13709.67
626.01	13788.08
626.365	13772.04
626.72	13804.81
627.075	13723.45
627.43	13758.25
627.785	13749.67
628.14	13713.96
628.495	13789.67
628.85	13713.74
629.205	13671.48
629.559	13761.19
629.914	13606.62
630.269	13688.65
630.623	13685.26
630.978	13600.07
631.332	13756.67
631.687	13675.32
632.041	13725.71
632.396	13640.74
632.75	13604.59
633.104	13652.27
633.459	13608.43
633.813	13622.44
634.167	13568.43
634.521	13576.34
634.875	13577.92
635.229	13571.82
635.583	13481.65
635.937	13494.76
636.291	13400.52
636.645	13484.14
636.999	13478.49
637.352	13452.73
637.706	13319.85
638.06	13452.73
638.413	13351.94
638.767	13391.03
639.121	13396.46
639.474	13316.68
639.828	13398.49
640.181	13300.19
640.534	13294.76
640.888	13257.7
641.241	13240.53
641.594	13264.93
641.947	13266.29
642.301	13205.05
642.654	13204.37
643.007	13224.71
643.36	13188.1
643.713	13136.35
644.066	13251.15
644.419	13160.08
644.771	13158.95
645.124	12980.2
645.477	12976.58
645.83	12917.15
646.182	12823.14
646.535	12796.25
646.888	12740.2
647.24	12755.79
647.593	12776.36
647.945	12695.68
648.298	12797.15
648.65	12664.27
649.002	12597.15
649.355	12711.05
649.707	12753.08
650.059	12833.31
650.411	12951.5
650.763	12885.51
651.115	13039.85
651.467	12997.37
651.819	12908.78
652.171	12985.39
652.523	13031.95
652.875	12949.91
653.227	12895.45
653.578	13008.9
653.93	13014.09
654.282	12992.17
654.633	12921.89
654.985	13001.66
655.337	12962.79
655.688	13023.58
656.039	12980.65
656.391	12896.36
656.742	12894.55
657.094	12984.26
657.445	13074.66
657.796	13017.71
658.147	13050.02
658.498	12936.58
658.849	12991.72
659.2	12913.76
659.551	12942.23
659.902	12959.41
660.253	13010.93
660.604	13050.02
660.955	12987.2
661.306	12994.88
661.656	12958.73
662.007	12966.86
662.358	12989.69
662.708	12952.17
663.059	13086.18
663.409	12971.38
663.76	13007.31
664.11	12986.3
664.461	13007.31
664.811	13055.45
665.161	12987.88
665.511	13049.8
665.862	13056.58
666.212	13090.93
666.562	13074.2
666.912	13055.22
667.262	13025.39
667.612	13029.01
667.962	13021.1
668.312	13023.13
668.662	13085.96
669.011	12988.78
669.361	12998.5
669.711	12953.76
670.06	13080.08
670.41	12946.3
670.76	12999.86
671.109	12966.64
671.459	12970.03
671.808	12994.43
672.157	13002.34
672.507	12846.87
672.856	12854.55
673.205	12936.13
673.554	13012.28
673.904	12960.53
674.253	12994.88
674.602	12968.67
674.951	12735.46
675.3	12680.32
675.649	12835.11
675.998	12839.86
676.346	12815.45
676.695	12902.91
677.044	12781.33
677.393	12836.02
677.741	12790.14
678.09	12766.87
678.438	12717.83
678.787	12704.72
679.135	12689.13
679.484	12673.08
679.832	12744.04
680.181	12536.82
680.529	12644.84
680.877	12586.08
681.225	12602.13
681.573	12603.71
681.922	12452.98
682.27	12518.74
682.618	12578.62
682.966	12426.31
683.314	12558.96
683.661	12462.47
684.009	12383.83
684.357	12411.85
684.705	12357.39
685.053	12329.37
685.4	12318.07
685.748	12260.44
686.095	12224.96
686.443	12186.77
686.79	12265.86
687.138	12207.56
687.485	12235.58
687.832	12155.13
688.18	12187
688.527	12114.68
688.874	12043.72
689.221	12035.81
689.568	11998.98
689.915	11921.69
690.262	11969.15
690.609	11878.98
690.956	11976.15
691.303	11852.32
691.65	11836.04
691.997	11802.83
692.344	11678.99
692.69	11694.81
693.037	11733.22
693.383	11524.87
693.73	11576.16
694.077	11484.19
694.423	11529.16
694.769	11430.41
695.116	11449.16
695.462	11395.83
695.808	11351.76
696.155	11398.32
696.501	11294.36
696.847	11290.75
697.193	11168.94
697.539	11229.06
697.885	11077.87
698.231	11073.8
698.577	11002.85
698.923	11039
699.269	11012.56
699.614	10958.1
699.96	10931.44
700.306	10906.13
700.651	10791.1
700.997	10760.82
701.342	10756.07
701.688	10722.4
702.033	10610.09
702.379	10648.05
702.724	10658.9
703.069	10642.4
703.415	10494.61
703.76	10470.88
704.105	10516.08
704.45	10440.38
704.795	10335.29
705.14	10301.85
705.485	10275.86
705.83	10223.66
706.175	10247.16
706.52	10243.77
706.865	10221.85
707.209	10238.35
707.554	10092.36
707.899	10165.35
708.243	10125.58
708.588	10110.21
708.932	10030.89
709.277	9999.71
709.621	10020.27
709.966	9921.52
710.31	9931.69
710.654	9886.94
710.998	9952.03
711.342	9893.95
711.687	9908.64
712.031	9855.08
712.375	9712.26
712.719	9774.18
713.063	9744.8
713.407	9790
713.75	9739.38
714.094	9687.4
714.438	9629.55
714.782	9647.85
715.125	9622.77
715.469	9648.98
715.812	9620.74
716.156	9550.23
716.499	9541.19
716.843	9556.1
717.186	9495.32
717.53	9488.08
717.873	9505.03
718.216	9521.98
718.559	9433.17
718.902	9389.33
719.246	9538.25
719.589	9453.51
719.932	9394.08
720.275	9445.37
720.617	9468.65
720.96	9365.15
721.303	9328.99
721.646	9345.26
721.989	9288.77
722.331	9302.55
722.674	9336.68
723.016	9324.02
723.359	9249.45
723.701	9315.21
724.044	9307.98
724.386	9227.3
724.729	9276.34
725.071	9294.87
725.413	9235.89
725.755	9206.06
726.097	9232.05
726.439	9143.69
726.782	9149.56
727.124	9155.44
727.465	9148.88
727.807	9166.51
728.149	9120.41
728.491	9122.9
728.833	9107.75
729.175	9154.08
729.516	9125.16
729.858	9129
730.199	9127.42
730.541	9127.87
730.882	9010.58
731.224	9059.85
731.565	8997.02
731.906	9121.09
732.248	9148.66
732.589	9034.31
732.93	9041.99
733.271	9044.93
733.612	9069.11
733.953	9087.19
734.294	9051.03
734.635	8976.68
734.976	9016.91
735.317	8964.03
735.658	9022.79
735.999	9024.14
736.339	9076.8
736.68	9117.7
737.021	9056.91
737.361	9038.38
737.702	9065.5
738.042	9092.16
738.383	9062.33
738.723	9078.38
739.063	9166.06
739.404	9112.73
739.744	9149.79
740.084	9144.82
740.424	9116.57
740.764	9114.53
741.104	9177.58
741.444	9107.98
741.784	9126.74
742.124	9237.92
742.464	9198.6
742.804	9181.88
743.143	9210.58
743.483	9214.19
743.823	9233.4
744.162	9202.89
744.502	9279.05
744.841	9189.79
745.181	9345.49
745.52	9377.8
745.86	9449.67
746.199	9494.64
746.538	9470.68
746.877	9576.9
747.216	9624.13
747.556	9581.19
747.895	9694.41
748.234	9710.45
748.573	9730.56
748.911	9797.23
749.25	9848.3
749.589	9826.38
749.928	10008.52
750.267	10036.32
750.605	10147.73
750.944	10222.75
751.283	10234.73
751.621	10381.62
751.96	10388.17
752.298	10455.52
752.636	10577.55
752.975	10664.78
753.313	10697.54
753.651	10872.45
753.989	10836.97
754.327	11029.06
754.666	11065.22
755.004	11248.26
755.342	11343.4
755.679	11475.83
756.017	11603.51
756.355	11727.35
756.693	11846.44
757.031	12012.76
757.368	12094.79
757.706	12247.79
758.044	12313.77
758.381	12611.17
758.719	12646.42
