Data from hue_70_FLMS001491_80.txt Node
Date: Mon Feb 06 15:21:26 GMT 2017
User: dcchb
Spectrometer: FLMS00149
Trigger mode: 0
Integration Time (sec): 2.000000E-2
Scans to average: 10
Electric dark correction enabled: true
Nonlinearity correction enabled: false
Boxcar width: 0
XAxis mode: Wavelengths
Number of Pixels in Spectrum: 2048
>>>>>Begin Spectral Data<<<<<
341.393	-11.19
341.776	-11.19
342.16	-11.19
342.543	-66.55
342.927	-51.64
343.31	-69.94
343.693	-71.52
344.077	-67.46
344.46	-58.19
344.843	-46.89
345.226	-45.76
345.61	-47.8
345.993	-17.74
346.376	-11.86
346.759	11.86
347.142	18.87
347.525	53.22
347.908	76.72
348.291	78.53
348.674	83.5
349.057	114.46
349.44	144.29
349.823	146.78
350.206	167.57
350.588	191.07
350.971	212.99
351.354	214.8
351.737	245.53
352.119	256.6
352.502	258.41
352.884	267.9
353.267	287.11
353.65	286.89
354.032	280.11
354.414	302.03
354.797	316.26
355.179	306.77
355.562	306.32
355.944	344.74
356.326	349.03
356.709	340.67
357.091	325.75
357.473	330.95
357.855	319.2
358.238	347.45
358.62	329.14
359.002	334.57
359.384	339.99
359.766	336.38
360.148	310.61
360.53	320.1
360.912	332.31
361.294	334.57
361.676	330.5
362.057	341.12
362.439	310.39
362.821	344.74
363.203	318.97
363.584	320.78
363.966	332.76
364.348	315.81
364.729	300.22
365.111	320.33
365.493	344.74
365.874	323.04
366.256	325.53
366.637	299.09
367.019	310.84
367.4	295.02
367.781	318.75
368.163	313.1
368.544	312.2
368.925	308.58
369.306	310.84
369.688	296.38
370.069	318.52
370.45	318.75
370.831	318.75
371.212	313.78
371.593	323.95
371.974	304.06
372.355	316.04
372.736	302.25
373.117	324.62
373.498	324.17
373.879	304.51
374.26	304.29
374.641	321.01
375.021	293.21
375.402	297.73
375.783	327.79
376.163	319.65
376.544	323.49
376.925	315.81
377.305	313.78
377.686	324.85
378.066	309.94
378.447	314
378.827	316.94
379.208	309.71
379.588	317.84
379.968	339.09
380.349	311.07
380.729	340.22
381.109	342.93
381.489	342.25
381.87	340.67
382.25	321.69
382.63	323.95
383.01	335.25
383.39	343.38
383.77	341.35
384.15	337.51
384.53	343.15
384.91	331.18
385.29	361.23
385.67	344.28
386.049	343.38
386.429	365.53
386.809	353.1
387.189	337.73
387.568	342.25
387.948	337.28
388.328	346.54
388.707	351.52
389.087	348.13
389.466	376.15
389.846	352.87
390.225	332.99
390.605	365.98
390.984	358.97
391.363	360.1
391.743	368.69
392.122	353.55
392.501	364.62
392.881	372.08
393.26	356.26
393.639	365.75
394.018	371.18
394.397	373.66
394.776	378.41
395.155	368.92
395.534	373.89
395.913	377.96
396.292	382.25
396.671	366.66
397.05	394.68
397.429	351.52
397.808	359.43
398.186	384.06
398.565	385.64
398.944	378.41
399.323	360.78
399.701	397.62
400.08	381.8
400.458	380.44
400.837	392.65
401.215	377.5
401.594	394.9
401.972	389.71
402.351	383.61
402.729	404.17
403.107	383.15
403.486	412.08
403.864	402.36
404.242	390.39
404.62	378.41
404.999	421.12
405.377	419.31
405.755	418.41
406.133	386.77
406.511	389.26
406.889	400.1
407.267	403.04
407.645	423.15
408.023	407.33
408.401	390.16
408.779	417.73
409.156	440.1
409.534	419.09
409.912	430.61
410.29	442.59
410.667	439.42
411.045	435.81
411.422	439.42
411.8	433.77
412.178	451.4
412.555	441.46
412.933	460.67
413.31	453.43
413.687	435.58
414.065	446.2
414.442	443.27
414.819	468.8
415.197	465.19
415.574	457.28
415.951	472.19
416.328	462.7
416.705	472.87
417.082	461.8
417.46	466.99
417.837	481.68
418.214	459.76
418.591	482.36
418.967	474
419.344	486.43
419.721	498.4
420.098	509.93
420.475	478.74
420.852	492.3
421.228	489.14
421.605	489.59
421.982	480.33
422.358	507.44
422.735	508.12
423.111	481
423.488	509.25
423.864	506.99
424.241	526.2
424.617	522.13
424.994	538.4
425.37	530.04
425.746	537.95
426.123	509.03
426.499	543.83
426.875	538.63
427.251	538.18
427.627	546.31
428.003	573.21
428.379	561.91
428.756	553.54
429.132	567.78
429.507	561.68
429.883	565.75
430.259	594
430.635	584.05
431.011	589.7
431.387	584.05
431.763	584.28
432.138	600.78
432.514	572.08
432.89	580.44
433.265	611.17
433.641	607.1
434.016	625.41
434.392	651.17
434.767	624.73
435.143	632.41
435.518	624.73
435.894	645.07
436.269	649.59
436.644	654.11
437.02	662.02
437.395	640.77
437.77	667.67
438.145	663.82
438.52	689.59
438.895	674.45
439.271	685.97
439.646	691.85
440.021	693.88
440.395	706.08
440.77	698.85
441.145	707.44
441.52	712.18
441.895	710.6
442.27	736.82
442.645	724.16
443.019	712.64
443.394	754.9
443.769	734.56
444.143	698.63
444.518	758.29
444.892	734.78
445.267	735.91
445.641	749.02
446.016	756.03
446.39	771.39
446.764	752.86
447.139	769.58
447.513	780.43
447.887	761.9
448.262	784.95
448.636	789.7
449.01	790.6
449.384	824.72
449.758	795.12
450.132	778.62
450.506	802.13
450.88	815.01
451.254	807.32
451.628	812.52
452.002	817.04
452.376	817.49
452.75	852.52
453.123	850.71
453.497	879.64
453.871	867.43
454.244	880.77
454.618	883.25
454.992	894.55
455.365	875.34
455.739	902.01
456.112	910.6
456.486	911.5
456.859	946.98
457.232	963.25
457.606	902.01
457.979	971.61
458.352	988.56
458.725	983.36
459.099	994.21
459.472	995.79
459.845	1006.41
460.218	1033.31
460.591	1004.83
460.964	1048.67
461.337	1074.89
461.71	1087.09
462.083	1107.2
462.456	1116.47
462.829	1095.45
463.201	1140.65
463.574	1137.94
463.947	1116.92
464.32	1140.87
464.692	1178.61
465.065	1181.55
465.438	1175.22
465.81	1197.14
466.183	1201.89
466.555	1253.19
466.928	1260.42
467.3	1275.79
467.672	1269.91
468.045	1316.91
468.417	1313.52
468.789	1340.87
469.161	1390.81
469.534	1389.68
469.906	1429.91
470.278	1433.3
470.65	1469.68
471.022	1483.01
471.394	1537.02
471.766	1549.9
472.138	1604.14
472.51	1626.74
472.882	1652.72
473.253	1654.08
473.625	1678.94
473.997	1722.33
474.369	1765.72
474.74	1813.4
475.112	1843
475.484	1861.76
475.855	1941.98
476.227	1954.64
476.598	2073.28
476.97	2064.47
477.341	2124.8
477.713	2176.33
478.084	2247.06
478.455	2298.58
478.827	2355.08
479.198	2423.55
479.569	2455.19
479.94	2562.31
480.311	2636.65
480.682	2683.88
481.053	2756.65
481.424	2850.21
481.795	2909.42
482.166	2994.61
482.537	3097.66
482.908	3199.58
483.279	3289.74
483.65	3350.99
484.021	3457.2
484.391	3524.77
484.762	3622.39
485.133	3733.57
485.503	3804.31
485.874	3962.72
486.244	4040.46
486.615	4211.08
486.985	4304.18
487.356	4456.49
487.726	4490.84
488.097	4645.41
488.467	4712.76
488.837	4927.67
489.207	4990.94
489.578	5127.66
489.948	5275.23
490.318	5422.8
490.688	5567.88
491.058	5631.38
491.428	5794.99
491.798	5954.31
492.168	6111.36
492.538	6181.87
492.908	6369.21
493.278	6505.7
493.648	6572.14
494.017	6719.26
494.387	6853.94
494.757	7013.04
495.126	7156.53
495.496	7286.7
495.866	7409.86
496.235	7616.86
496.605	7686.92
496.974	7869.28
497.344	7998.55
497.713	8141.14
498.082	8243.29
498.452	8335.26
498.821	8450.29
499.19	8647.8
499.559	8772.31
499.928	8872.42
500.298	8975.02
500.667	9156.71
501.036	9239.87
501.405	9393.76
501.774	9426.31
502.143	9610.26
502.512	9716.02
502.88	9865.62
503.249	9956.46
503.618	10025.16
503.987	10179.05
504.356	10239.39
504.724	10407.97
505.093	10497.46
505.462	10560.74
505.83	10813.16
506.199	10867.17
506.567	11068.07
506.936	11136.32
507.304	11271.91
507.672	11278.23
508.041	11413.82
508.409	11565.23
508.777	11762.06
509.145	11817.88
509.514	11870.08
509.882	12000.25
510.25	12035.95
510.618	12258.55
510.986	12298.32
511.354	12442.5
511.722	12605.66
512.09	12640.68
512.458	12760.68
512.826	12865.99
513.193	12962.48
513.561	12945.99
513.929	13081.8
514.297	13138.52
514.664	13288.35
515.032	13377.61
515.4	13487.67
515.767	13590.94
516.135	13657.83
516.502	13634.33
516.869	14081.1
517.237	13967.43
517.604	13987.09
517.972	14127.43
518.339	14177.82
518.706	14305.73
519.073	14338.72
519.44	14397.47
519.808	14613.29
520.175	14608.54
520.542	14705.49
520.909	14904.81
521.276	14893.51
521.643	15022.32
522.009	15137.34
522.376	15285.59
522.743	15351.57
523.11	15446.49
523.477	15478.58
523.843	15619.14
524.21	15846.25
524.577	15770.55
524.943	16031.78
525.31	15903.65
525.676	16139.35
526.043	16248.73
526.409	16168.28
526.776	16436.97
527.142	16440.81
527.508	16503.41
527.874	16639.22
528.241	16731.2
528.607	16749.5
528.973	16864.98
529.339	16889.61
529.705	17068.82
530.071	17235.82
530.437	17171.64
530.803	17212.77
531.169	17398.3
531.535	17270.85
531.901	17383.38
532.267	17499.77
532.632	17493.66
532.998	17604.4
533.364	17669.48
533.73	17634.23
534.095	17708.35
534.461	17825.18
534.826	17878.96
535.192	17824.5
535.557	18076.93
535.923	17907.89
536.288	18054.33
536.653	17999.64
537.019	17957.15
537.384	18066.08
537.749	18159.18
538.114	18149.24
538.479	18118.28
538.845	18160.09
539.21	18184.95
539.575	18274.43
539.94	18174.1
540.305	18365.73
540.67	18300.87
541.034	18335.68
541.399	18467.88
541.764	18401.66
542.129	18390.82
542.494	18452.96
542.858	18443.92
543.223	18525.95
543.587	18551.72
543.952	18533.19
544.316	18565.05
544.681	18552.17
545.045	18637.14
545.41	18666.51
545.774	18640.75
546.138	18690.92
546.503	18754.87
546.867	18625.84
547.231	18789.45
547.595	18819.96
547.959	18722.11
548.324	18736.12
548.688	18765.27
549.052	18875.1
549.416	18784.03
549.779	18879.39
550.143	18901.99
550.507	18946.73
550.871	19015.21
551.235	18963.46
551.599	19030.57
551.962	19069.89
552.326	19037.35
552.689	19212.94
553.053	19098.14
553.417	19103.79
553.78	19282.54
554.143	19240.06
554.507	19249.32
554.87	19304.24
555.234	19428.08
555.597	19339.04
555.96	19294.29
556.323	19382.43
556.686	19396.89
557.05	19479.37
557.413	19607.06
557.776	19529.54
558.139	19677.34
558.502	19676.21
558.865	19731.57
559.228	19855.64
559.59	19789.42
559.953	19926.59
560.316	20019.02
560.679	20007.27
561.041	20073.26
561.404	20067.61
561.767	20244.33
562.129	19976.31
562.492	20388.96
562.854	20341.05
563.217	20380.82
563.579	20378.79
563.941	20442.29
564.304	20544.88
564.666	20655.62
565.028	20602.51
565.39	20600.02
565.753	20707.37
566.115	20763.63
566.477	20845.44
566.839	20794.82
567.201	21017.87
567.563	20993.46
567.925	21188.26
568.287	21154.36
568.648	21135.15
569.01	21270.97
569.372	21384.86
569.734	21239.33
570.095	21413.79
570.457	21559.55
570.819	21494.46
571.18	21543.73
571.542	21618.98
571.903	21641.35
572.265	21642.71
572.626	21694.91
572.987	21750.05
573.349	21812.19
573.71	21982.36
574.071	21922.25
574.432	21894.45
574.794	22055.13
575.155	22048.8
575.516	22028.46
575.877	22140.1
576.238	22133.09
576.599	22093.54
576.96	22235.23
577.32	22164.73
577.681	22253.09
578.042	22348.68
578.403	22400.88
578.763	22367.89
579.124	22344.38
579.485	22428.45
579.845	22395.23
580.206	22300.32
580.566	22412.41
580.927	22470.03
581.287	22638.84
581.648	22385.74
582.008	22731.49
582.368	22523.59
582.728	22506.87
583.089	22521.78
583.449	22515.68
583.809	22500.99
584.169	22590.25
584.529	22502.8
584.889	22617.37
585.249	22562.01
585.609	22538.05
585.969	22580.99
586.329	22613.76
586.688	22603.13
587.048	22503.48
587.408	22576.02
587.768	22555.9
588.127	22484.49
588.487	22470.03
588.846	22660.76
589.206	22475.68
589.565	22445.85
589.925	22638.61
590.284	22537.15
590.643	22534.89
591.003	22565.17
591.362	22620.99
591.721	22554.77
592.08	22685.17
592.44	22688.33
592.799	22621.89
593.158	22604.26
593.517	22547.99
593.876	22641.78
594.235	22464.61
594.593	22572.4
594.952	22729.46
595.311	22630.03
595.67	22652.62
596.029	22711.15
596.387	22711.38
596.746	22665.05
597.104	22674.32
597.463	22517.94
597.822	22627.99
598.18	22595.9
598.538	22546.64
598.897	22719.97
599.255	22383.25
599.613	22826.86
599.972	22690.14
600.33	22869.79
600.688	22752.51
601.046	22805.62
601.404	22936.46
601.762	22836.8
602.12	22909.57
602.478	22821.43
602.836	22869.34
603.194	22846.74
603.552	22900.75
603.91	22742.11
604.268	22900.98
604.625	22912.05
604.983	22931.49
605.341	22760.87
605.698	22929
606.056	23025.5
606.413	22985.27
606.771	23106.85
607.128	23077.92
607.485	22959.28
607.843	22992.28
608.2	23139.39
608.557	23214.42
608.914	23050.35
609.272	23144.82
609.629	23230.69
609.986	23315.43
610.343	23227.98
610.7	23409.89
611.057	23444.24
611.414	23284.92
611.771	23340.06
612.127	23461.87
612.484	23447.86
612.841	23517.01
613.198	23412.15
613.554	23405.6
613.911	23517.01
614.267	23507.74
614.624	23585.93
614.98	23592.04
615.337	23774.4
615.693	23724.69
616.05	23777.34
616.406	23933.95
616.762	23715.65
617.118	23796.78
617.475	23785.93
617.831	23860.28
618.187	23846.04
618.543	23923.1
618.899	23973.49
619.255	24020.05
619.611	23971.91
619.967	24037.67
620.323	23980.5
620.678	23924
621.034	23924.23
621.39	23949.31
621.746	23990.22
622.101	24240.38
622.457	24056.66
622.812	24175.97
623.168	24175.97
623.523	24189.53
623.879	24209.42
624.234	24142.08
624.589	24227.95
624.945	24152.47
625.3	24272.92
625.655	24117.67
626.01	24269.98
626.365	24254.84
626.72	24221.4
627.075	24145.24
627.43	24173.71
627.785	24134.85
628.14	24240.83
628.495	24240.15
628.85	24096.43
629.205	24023.21
629.559	24179.36
629.914	24063.66
630.269	24026.15
630.623	24100.5
630.978	24056.88
631.332	24257.78
631.687	24195.41
632.041	24040.38
632.396	24103.66
632.75	24044
633.104	24159.48
633.459	23971.23
633.813	24022.31
634.167	23954.06
634.521	24012.14
634.875	23842.88
635.229	23854.85
635.583	23844.01
635.937	23750.9
636.291	23812.14
636.645	23759.26
636.999	23783.89
637.352	23784.35
637.706	23684.91
638.06	23877.45
638.413	23735.08
638.767	23707.29
639.121	23650.11
639.474	23532.83
639.828	23606.27
640.181	23729.88
640.534	23675.2
640.888	23561.53
641.241	23493.05
641.594	23528.76
641.947	23509.1
642.301	23432.27
642.654	23575.31
643.007	23578.25
643.36	23545.48
643.713	23500.51
644.066	23510.46
644.419	23429.55
644.771	23228.2
645.124	23046.74
645.477	22992.95
645.83	22874.31
646.182	22678.61
646.535	22740.76
646.888	22771.72
647.24	22673.87
647.593	22796.8
647.945	22726.75
648.298	22506.87
648.65	22520.42
649.002	22404.27
649.355	22636.58
649.707	22584.15
650.059	22551.38
650.411	22873.86
650.763	23036.12
651.115	23230.69
651.467	23190.01
651.819	23118.38
652.171	23136.68
652.523	23098.71
652.875	23080.41
653.227	22979.62
653.578	23193.85
653.93	23057.13
654.282	23026.17
654.633	23011.71
654.985	23082.9
655.337	23048.77
655.688	23085.16
656.039	23251.03
656.391	22922.9
656.742	23007.42
657.094	23015.33
657.445	23102.1
657.796	22898.95
658.147	22910.02
658.498	22924.03
658.849	23054.65
659.2	22903.92
659.551	22955.22
659.902	23044.25
660.253	23004.93
660.604	23051.03
660.955	22876.8
661.306	23060.3
661.656	22993.86
662.007	22976.91
662.358	22897.82
662.708	22968.32
663.059	22994.99
663.409	22802.23
663.76	23061.88
664.11	22986.63
664.461	22898.72
664.811	22914.31
665.161	22947.31
665.511	22874.31
665.862	22979.62
666.212	23079.05
666.562	23031.37
666.912	23100.97
667.262	22947.53
667.612	22916.35
667.962	23031.82
668.312	22981.43
668.662	23067.08
669.011	22971.71
669.361	22940.98
669.711	22905.73
670.06	22894.43
670.41	22833.86
670.76	22825.95
671.109	22878.16
671.459	22865.73
671.808	22792.73
672.157	22926.97
672.507	22656.24
672.856	22793.86
673.205	22823.69
673.554	22901.21
673.904	22850.13
674.253	22809.46
674.602	22725.84
674.951	22455.79
675.3	22413.08
675.649	22745.5
675.998	22623.47
676.346	22705.05
676.695	22729.68
677.044	22571.72
677.393	22686.75
677.741	22773.53
678.09	22587.32
678.438	22565.4
678.787	22501.44
679.135	22604.72
679.484	22371.95
679.832	22547.99
680.181	22364.27
680.529	22477.71
680.877	22391.39
681.225	22318.85
681.573	22468.22
681.922	22258.96
682.27	22158.4
682.618	22206.99
682.966	22105.52
683.314	22198.4
683.661	22142.58
684.009	21982.13
684.357	21963.15
684.705	21886.09
685.053	21896.03
685.4	21842.93
685.748	21730.16
686.095	21827.79
686.443	21763.38
686.79	21593.67
687.138	21722.71
687.485	21724.06
687.832	21552.31
688.18	21626.89
688.527	21511.41
688.874	21437.74
689.221	21340.79
689.568	21381.02
689.915	21258.99
690.262	21212.44
690.609	21251.98
690.956	21237.07
691.303	21065.32
691.65	21083.63
691.997	21063.06
692.344	20927.92
692.69	20988.49
693.037	20864.88
693.383	20659.68
693.73	20811.09
694.077	20669.17
694.423	20615.39
694.769	20632.79
695.116	20528.16
695.462	20481.83
695.808	20341.95
696.155	20365.23
696.501	20308.73
696.847	20194.16
697.193	20132.92
697.539	20165.01
697.885	19946.48
698.231	19918.69
698.577	19959.36
698.923	19807.5
699.269	19713.94
699.614	19706.94
699.96	19544.68
700.306	19519.15
700.651	19525.02
700.997	19534.97
701.342	19468.53
701.688	19377.91
702.033	19291.58
702.379	19240.74
702.724	19142.43
703.069	19166.61
703.415	18978.6
703.76	18943.34
704.105	18990.57
704.45	18888.88
704.795	18833.29
705.14	18713.97
705.485	18663.35
705.83	18656.57
706.175	18671.94
706.52	18580.87
706.865	18488.44
707.209	18466.97
707.554	18452.51
707.899	18507.87
708.243	18352.62
708.588	18316.92
708.932	18180.2
709.277	18158.73
709.621	18091.39
709.966	18164.83
710.31	18111.95
710.654	17969.81
710.998	17945.18
711.342	17956.7
711.687	17836.03
712.031	17801.68
712.375	17823.83
712.719	17812.75
713.063	17737.73
713.407	17662.7
713.75	17667.22
714.094	17730.72
714.438	17537.5
714.782	17591.51
715.125	17574.57
715.469	17629.25
715.812	17485.98
716.156	17316.95
716.499	17310.17
716.843	17325.99
717.186	17292.54
717.53	17441.24
717.873	17252.54
718.216	17269.04
718.559	17164.63
718.902	17111.08
719.246	17162.37
719.589	17083.05
719.932	16989.27
720.275	17006.22
720.617	16981.36
720.96	16980.46
721.303	16972.55
721.646	16959.67
721.989	16918.76
722.331	16969.61
722.674	16916.28
723.016	16958.99
723.359	16867.47
723.701	16925.09
724.044	16733.01
724.386	16693.23
724.729	16721.26
725.071	16709.05
725.413	16824.08
725.755	16665.21
726.097	16535.5
726.439	16563.52
726.782	16595.61
727.124	16594.93
727.465	16583.63
727.807	16568.26
728.149	16488.49
728.491	16401.94
728.833	16482.39
729.175	16582.5
729.516	16434.94
729.858	16453.92
730.199	16361.49
730.541	16408.04
730.882	16435.61
731.224	16366.69
731.565	16344.32
731.906	16324.2
732.248	16433.35
732.589	16281.94
732.93	16309.74
733.271	16385.44
733.612	16324.43
733.953	16317.88
734.294	16163.53
734.635	16255.96
734.976	16280.36
735.317	16222.96
735.658	16361.72
735.999	16223.19
736.339	16120.59
736.68	16224.09
737.021	16161.27
737.361	16142.29
737.702	16206.92
738.042	16092.8
738.383	16086.02
738.723	16161.5
739.063	16150.42
739.404	16152.46
739.744	16073.36
740.084	16107.49
740.424	16117.43
740.764	16068.17
741.104	16195.17
741.444	16131.44
741.784	16201.49
742.124	16056.64
742.464	16149.52
742.804	16094.61
743.143	16190.2
743.483	16124.89
743.823	16036.3
744.162	16119.01
744.502	16175.28
744.841	16109.75
745.181	16264.77
745.52	16201.72
745.86	16256.41
746.199	16273.13
746.538	16285.79
746.877	16435.61
747.216	16401.26
747.556	16313.58
747.895	16375.73
748.234	16434.48
748.573	16325.79
748.911	16424.31
749.25	16489.85
749.589	16493.69
749.928	16577.53
750.267	16577.3
750.605	16591.32
750.944	16582.73
751.283	16669.73
751.621	16800.12
751.96	16796.06
752.298	16839.44
752.636	16906.34
752.975	16880.57
753.313	16863.4
753.651	17078.99
753.989	17109.49
754.327	17069.04
754.666	17159.44
755.004	17298.19
755.342	17299.09
755.679	17397.17
756.017	17348.58
756.355	17530.95
756.693	17550.84
