Data from hue_28_FLMS001491_00019.txt Node
Date: Tue Feb 07 17:16:56 GMT 2017
User: dcchb
Spectrometer: FLMS00149
Trigger mode: 0
Integration Time (sec): 2.000000E-2
Scans to average: 10
Electric dark correction enabled: true
Nonlinearity correction enabled: false
Boxcar width: 0
XAxis mode: Wavelengths
Number of Pixels in Spectrum: 2048
>>>>>Begin Spectral Data<<<<<
341.393	-16.82
341.776	-16.82
342.16	-16.82
342.543	-51.85
342.927	-60.44
343.31	-76.48
343.693	-56.82
344.077	-70.61
344.46	-85.52
344.843	-48.23
345.226	-45.97
345.61	-33.77
345.993	-19.31
346.376	-12.98
346.759	9.84
347.142	17.75
347.525	46.45
347.908	65.44
348.291	86.23
348.674	105.44
349.057	118.54
349.44	130.75
349.823	127.13
350.206	153.8
350.588	201.93
350.971	216.17
351.354	206.9
351.737	234.47
352.119	248.03
352.502	280.8
352.884	276.05
353.267	271.53
353.65	293.45
354.032	283.06
354.414	300.91
354.797	281.02
355.179	316.5
355.562	319.89
355.944	336.84
356.326	333.45
356.709	312.44
357.091	316.5
357.473	340.91
357.855	334.58
358.238	364.64
358.62	346.11
359.002	350.85
359.384	347.01
359.766	328.71
360.148	342.04
360.53	341.36
360.912	347.24
361.294	332.1
361.676	357.41
362.057	317.63
362.439	332.77
362.821	328.93
363.203	315.15
363.584	326.67
363.966	329.84
364.348	314.7
364.729	320.12
365.111	354.02
365.493	317.63
365.874	315.6
366.256	317.18
366.637	318.31
367.019	323.28
367.4	331.64
367.781	304.07
368.163	314.24
368.544	327.35
368.925	302.49
369.306	309.05
369.688	323.51
370.069	317.86
370.45	325.54
370.831	318.31
371.212	318.08
371.593	309.72
371.974	315.15
372.355	310.4
372.736	315.83
373.117	315.15
373.498	325.54
373.879	298.42
374.26	283.74
374.641	306.11
375.021	325.54
375.402	307.69
375.783	320.34
376.163	339.1
376.544	347.46
376.925	308.37
377.305	314.7
377.686	334.13
378.066	335.49
378.447	344.3
378.827	331.87
379.208	318.31
379.588	338.65
379.968	345.65
380.349	359.21
380.729	330.74
381.109	315.6
381.489	340.23
381.87	342.72
382.25	331.87
382.63	330.97
383.01	336.16
383.39	351.08
383.77	361.47
384.15	376.16
384.53	331.19
384.91	358.31
385.29	344.98
385.67	339.78
386.049	340.91
386.429	350.17
386.809	355.37
387.189	347.91
387.568	360.12
387.948	378.42
388.328	349.5
388.707	352.66
389.087	358.08
389.466	339.1
389.846	359.21
390.225	355.37
390.605	366.9
390.984	346.78
391.363	367.12
391.743	373.45
392.122	388.82
392.501	375.26
392.881	387.24
393.26	370.06
393.639	389.04
394.018	356.05
394.397	383.85
394.776	387.46
395.155	395.6
395.534	390.17
395.913	395.37
396.292	369.16
396.671	378.87
397.05	396.95
397.429	413.45
397.808	387.69
398.186	379.78
398.565	395.37
398.944	388.37
399.323	397.4
399.701	377.74
400.08	378.87
400.458	382.72
400.837	396.27
401.215	401.02
401.594	403.73
401.972	392.43
402.351	402.15
402.729	413.68
403.107	408.25
403.486	403.28
403.864	423.84
404.242	405.99
404.62	406.9
404.999	401.7
405.377	398.76
405.755	418.87
406.133	410.96
406.511	408.48
406.889	431.53
407.267	443.51
407.645	440.12
408.023	417.97
408.401	431.98
408.779	436.27
409.156	433.79
409.534	443.73
409.912	431.75
410.29	457.97
410.667	471.98
411.045	451.87
411.422	457.74
411.8	448.93
412.178	451.19
412.555	467.23
412.933	474.46
413.31	457.29
413.687	469.95
414.065	488.25
414.442	473.34
414.819	466.1
415.197	486.67
415.574	476.72
415.951	492.54
416.328	485.31
416.705	492.32
417.082	499.1
417.46	499.77
417.837	503.84
418.214	488.93
418.591	518.08
418.967	481.47
419.344	524.41
419.721	528.02
420.098	511.98
420.475	499.1
420.852	518.76
421.228	537.51
421.605	512.66
421.982	517.85
422.358	517.63
422.735	522.6
423.111	545.2
423.488	538.87
423.864	526.67
424.241	547.91
424.617	533.22
424.994	534.8
425.37	549.27
425.746	568.02
426.123	553.78
426.499	554.24
426.875	579.09
427.251	560.56
427.627	568.25
428.003	573.9
428.379	573.67
428.756	568.47
429.132	605.31
429.507	607.57
429.883	592.88
430.259	615.48
430.635	605.99
431.011	599.21
431.387	610.28
431.763	626.33
432.138	598.3
432.514	618.19
432.89	650.51
433.265	652.09
433.641	641.24
434.016	661.13
434.392	636.27
434.767	671.97
435.143	667.68
435.518	666.1
435.894	657.96
436.269	687.57
436.644	670.62
437.02	705.19
437.395	692.99
437.77	700
438.145	677.4
438.52	708.36
438.895	711.52
439.271	713.1
439.646	704.74
440.021	748.36
440.395	724.4
440.77	754.91
441.145	741.8
441.52	748.36
441.895	748.81
442.27	770.28
442.645	743.84
443.019	756.04
443.394	745.42
443.769	773.21
444.143	747.45
444.518	760.56
444.892	783.16
445.267	789.71
445.641	771.86
446.016	772.76
446.39	797.85
446.764	795.81
447.139	793.33
447.513	769.6
447.887	831.97
448.262	810.95
448.636	819.31
449.01	801.24
449.384	837.62
449.758	830.16
450.132	845.3
450.506	848.69
450.88	841.46
451.254	882.14
451.628	836.49
452.002	887.11
452.376	891.18
452.75	868.8
453.123	896.6
453.497	886.43
453.871	893.89
454.244	913.78
454.618	921.91
454.992	919.2
455.365	919.42
455.739	946.09
456.112	932.31
456.486	964.85
456.859	956.26
457.232	990.16
457.606	982.93
457.979	990.16
458.352	991.74
458.725	1014.79
459.099	1029.93
459.472	1040.1
459.845	1015.02
460.218	1020.89
460.591	1059.31
460.964	1048.69
461.337	1092.3
461.71	1122.81
462.083	1099.31
462.456	1104.5
462.829	1119.19
463.201	1114.9
463.574	1123.26
463.947	1133.2
464.32	1164.16
464.692	1182.47
465.065	1188.34
465.438	1190.83
465.81	1219.3
466.183	1236.93
466.555	1257.5
466.928	1229.93
467.3	1247.78
467.672	1275.8
468.045	1318.96
468.417	1317.38
468.789	1319.87
469.161	1306.31
469.534	1342.69
469.906	1389.02
470.278	1414.1
470.65	1430.37
471.022	1452.97
471.394	1487.55
471.766	1457.26
472.138	1513.53
472.51	1542.46
472.882	1555.11
473.253	1551.5
473.625	1606.19
473.997	1652.06
474.369	1636.24
474.74	1659.29
475.112	1699.07
475.484	1717.82
475.855	1766.86
476.227	1795.56
476.598	1812.28
476.97	1852.73
477.341	1899.51
477.713	1913.07
478.084	1923.47
478.455	1994.65
478.827	1982.67
479.198	2081.43
479.569	2073.74
479.94	2167.3
480.311	2131.82
480.682	2242.33
481.053	2254.53
481.424	2332.5
481.795	2352.83
482.166	2416.79
482.537	2441.64
482.908	2479.16
483.279	2544.02
483.65	2611.13
484.021	2675.99
484.391	2701.53
484.762	2710.79
485.133	2756.44
485.503	2820.62
485.874	2878.47
486.244	2932.93
486.615	3040.05
486.985	3019.93
487.356	3112.36
487.726	3121.17
488.097	3178.35
488.467	3217.22
488.837	3322.3
489.207	3362.52
489.578	3427.61
489.948	3472.58
490.318	3554.16
490.688	3550.32
491.058	3640.71
491.428	3671.44
491.798	3685.68
492.168	3805.22
492.538	3855.39
492.908	3904.21
493.278	3921.15
493.648	3952.57
494.017	4038.66
494.387	4106.69
494.757	4140.58
495.126	4218.1
495.496	4190.53
495.866	4241.37
496.235	4320.01
496.605	4340.58
496.974	4416.51
497.344	4433
497.713	4426.68
498.082	4497.18
498.452	4535.38
498.821	4598.42
499.19	4597.75
499.559	4657.63
499.928	4710.51
500.298	4714.81
500.667	4804.75
501.036	4785.09
501.405	4815.37
501.774	4858.98
502.143	4917.51
502.512	4957.74
502.88	4976.04
503.249	4956.15
503.618	5029.6
503.987	5093.55
504.356	5081.58
504.724	5115.7
505.093	5161.12
505.462	5169.93
505.83	5212.65
506.199	5266.43
506.567	5290.84
506.936	5339.87
507.304	5418.74
507.672	5384.39
508.041	5403.6
508.409	5459.64
508.777	5504.62
509.145	5545.97
509.514	5554.78
509.882	5590.26
510.25	5538.29
510.618	5568.57
510.986	5626.87
511.354	5710.26
511.722	5735.8
512.09	5769.24
512.458	5723.37
512.826	5794.78
513.193	5784.38
513.561	5842.23
513.929	5896.92
514.297	5966.75
514.664	5964.26
515.032	5924.49
515.4	6013.75
515.767	6026.86
516.135	6076.13
516.502	6018.5
516.869	6143.47
517.237	6159.74
517.604	6159.06
517.972	6179.4
518.339	6227.08
518.706	6230.02
519.073	6188.66
519.44	6219.62
519.808	6289.91
520.175	6293.52
520.542	6345.95
520.909	6411.71
521.276	6414.87
521.643	6487.87
522.009	6488.32
522.376	6529.22
522.743	6525.83
523.11	6623
523.477	6606.28
523.843	6713.62
524.21	6697.35
524.577	6776.45
524.943	6817.8
525.31	6788.88
525.676	6867.07
526.043	6917.91
526.409	6914.97
526.776	6983.67
527.142	6972.15
527.508	7108.19
527.874	7089.66
528.241	7131.01
528.607	7111.35
528.973	7223.44
529.339	7190.45
529.705	7237.68
530.071	7306.15
530.437	7331.69
530.803	7342.98
531.169	7413.49
531.535	7403.77
531.901	7397.9
532.267	7528.06
532.632	7499.14
532.998	7560.15
533.364	7580.04
533.73	7567.84
534.095	7646.48
534.461	7711.79
534.826	7780.49
535.192	7777.78
535.557	7849.86
535.923	7830.43
536.288	7915.85
536.653	7924.66
537.019	7944.1
537.384	7941.16
537.749	7949.75
538.114	7994.72
538.479	8013.93
538.845	8050.31
539.21	8083.98
539.575	8102.06
539.94	8148.61
540.305	8211.89
540.67	8194.94
541.034	8204.43
541.399	8229.74
541.764	8264.54
542.129	8322.85
542.494	8335.73
542.858	8414.82
543.223	8402.17
543.587	8475.38
543.952	8451.43
544.316	8487.59
544.681	8526
545.045	8540.47
545.41	8628.37
545.774	8656.17
546.138	8661.82
546.503	8711.54
546.867	8668.37
547.231	8776.39
547.595	8854.81
547.959	8877.18
548.324	8897.75
548.688	8885.77
549.052	8957.18
549.416	8925.54
549.779	9038.31
550.143	8989.5
550.507	9066.1
550.871	9090.51
551.235	9064.3
551.599	9174.35
551.962	9137.74
552.326	9176.16
552.689	9254.8
553.053	9229.94
553.417	9303.84
553.78	9388.13
554.143	9325.98
554.507	9389.48
554.87	9408.92
555.234	9527.11
555.597	9396.26
555.96	9470.39
556.323	9586.32
556.686	9574.56
557.05	9600.55
557.413	9629.25
557.776	9708.35
558.139	9655.47
558.502	9754.67
558.865	9726.88
559.228	9861.56
559.59	9828.12
559.953	9863.37
560.316	9902.24
560.679	9954.89
561.041	10014.1
561.404	10058.17
561.767	10063.37
562.129	10039.64
562.492	10219.07
562.854	10167.77
563.217	10173.64
563.579	10207.09
563.941	10214.77
564.304	10283.02
564.666	10369.12
565.028	10276.24
565.39	10360.76
565.753	10432.17
566.115	10453.19
566.477	10465.84
566.839	10505.39
567.201	10519.4
567.563	10530.92
567.925	10658.6
568.287	10671.26
568.648	10671.48
569.01	10733.4
569.372	10857.02
569.734	10724.59
570.095	10967.07
570.457	10947.41
570.819	10979.95
571.18	11029.44
571.542	11102.66
571.903	11078.03
572.265	11167.07
572.626	11173.17
572.987	11227.63
573.349	11281.86
573.71	11420.39
574.071	11478.7
574.432	11485.93
574.794	11598.69
575.155	11642.31
575.516	11713.49
575.877	11782.64
576.238	11847.27
576.599	11994.61
576.96	12018.79
577.32	12127.04
577.681	12241.61
578.042	12343.08
578.403	12430.31
578.763	12467.82
579.124	12616.07
579.485	12652.45
579.845	12824.87
580.206	12891.54
580.566	13064.42
580.927	13180.12
581.287	13299.44
581.648	13351.41
582.008	13688.35
582.368	13738.07
582.728	13925.64
583.089	14008.12
583.449	14208.57
583.809	14429.35
584.169	14669.12
584.529	14701.44
584.889	15028.88
585.249	15115.44
585.609	15302.78
585.969	15540.96
586.329	15786.15
586.688	16033.6
587.048	16264.33
587.408	16495.96
587.768	16723.08
588.127	16933.92
588.487	17153.12
588.846	17582.72
589.206	17638.08
589.565	17972.76
589.925	18229.7
590.284	18482.8
590.643	18739.97
591.003	19063.13
591.362	19425.83
591.721	19578.37
592.08	19845.93
592.44	20295.19
592.799	20433.94
593.158	20743.99
593.517	20949.63
593.876	21344.42
594.235	21547.36
594.593	21901.7
594.952	22203.39
595.311	22480.89
595.67	22780.55
596.029	23184.6
596.387	23473.18
596.746	23803.12
597.104	23981.19
597.463	24295.99
597.822	24673.83
598.18	24737.33
598.538	25061.16
598.897	25649.4
599.255	25612.56
599.613	26340
599.972	26371.19
600.33	26727.56
600.688	26970.94
601.046	27389.46
601.404	27571.61
601.762	27810.47
602.12	28228.54
602.478	28550.79
602.836	28800.27
603.194	28885.7
603.552	29191.68
603.91	29343.76
604.268	29749.4
604.625	29955.05
604.983	30259.67
605.341	30359.55
605.698	30664.18
606.056	31100.1
606.413	31306.2
606.771	31639.97
607.128	31816.69
607.485	31874.54
607.843	32066.85
608.2	32521.08
608.557	32857.79
608.914	32903.89
609.272	33126.04
609.629	33395.86
609.986	33707.26
610.343	33843.31
610.7	34202.84
611.057	34185.67
611.414	34376.4
611.771	34640.57
612.127	34929.15
612.484	35096.83
612.841	35401.23
613.198	35400.1
613.554	35578.17
613.911	35892.97
614.267	35978.84
614.624	36163.47
614.98	36288.89
615.337	36712.83
615.693	36860.63
616.05	36838.48
616.406	37190.11
616.762	37141.52
617.118	37298.58
617.475	37316.21
617.831	37811.11
618.187	37871.45
618.543	38092.23
618.899	38222.4
619.255	38175.85
619.611	38386.01
619.967	38652.9
620.323	38703.97
620.678	38679.11
621.034	38819.22
621.39	38907.35
621.746	38918.2
622.101	39418.3
622.457	38995.49
622.812	39472.76
623.168	39450.62
623.523	39690.38
623.879	39791.4
624.234	39690.61
624.589	39684.06
624.945	39871.4
625.3	40036.81
625.655	39971.96
626.01	40079.98
626.365	40298.95
626.72	40279.07
627.075	40491.27
627.43	40370.37
627.785	40385.05
628.14	40513.41
628.495	40642.67
628.85	40543.47
629.205	40492.85
629.559	40852.61
629.914	40578.5
630.269	40802.44
630.623	40654.2
630.978	40694.2
631.332	40987.98
631.687	41010.35
632.041	40880.63
632.396	40979.61
632.75	40867.08
633.104	40924.02
633.459	40921.31
633.813	40961.76
634.167	40884.7
634.521	40911.14
634.875	41082.66
635.229	41002.21
635.583	40882.22
635.937	40931.71
636.291	40915.66
636.645	41021.42
636.999	40924.7
637.352	40956.34
637.706	40778.72
638.06	41008.99
638.413	40878.37
638.767	40882.44
639.121	40960.41
639.474	40726.06
639.828	40846.96
640.181	40688.32
640.534	40840.86
640.888	40820.07
641.241	40735.55
641.594	40737.59
641.947	40928.54
642.301	40819.84
642.654	40842.44
643.007	40800.18
643.36	40813.74
643.713	40658.72
644.066	40813.52
644.419	40712.95
644.771	40392.74
645.124	40003.37
645.477	39914.33
645.83	39741.46
646.182	39615.36
646.535	39480.67
646.888	39689.03
647.24	39486.77
647.593	39701.68
647.945	39617.84
648.298	39438.41
648.65	39440.45
649.002	39339.66
649.355	39438.19
649.707	39456.49
650.059	39761.34
650.411	40034.1
650.763	40076.59
651.115	40566.29
651.467	40487.2
651.819	40419.86
652.171	40364.94
652.523	40306.86
652.875	40251.27
653.227	40105.06
653.578	40317.49
653.93	40318.62
654.282	40069.58
654.633	40135.34
654.985	40064.16
655.337	40118.62
655.688	40174.89
656.039	40252.4
656.391	39898.06
656.742	40154.1
657.094	40183.93
657.445	40213.76
657.796	40114.55
658.147	40045.63
658.498	40035.91
658.849	40196.36
659.2	40159.98
659.551	39879.76
659.902	40093.54
660.253	40078.4
660.604	40165.17
660.955	39911.17
661.306	39957.49
661.656	40065.29
662.007	40028.45
662.358	40104.61
662.708	39952.75
663.059	39940.32
663.409	39614
663.76	40059.64
664.11	40063.93
664.461	40046.76
664.811	40113.42
665.161	39997.72
665.511	39933.09
665.862	40030.49
666.212	40085.4
666.562	39968.57
666.912	39912.07
667.262	39704.85
667.612	39745.97
667.962	39869.36
668.312	40041.11
668.662	40051.96
669.011	39973.31
669.361	40013.31
669.711	39956.59
670.06	39876.14
670.41	39814.45
670.76	39628.24
671.109	39863.03
671.459	39877.04
671.808	39730.16
672.157	39719.76
672.507	39543.27
672.856	39555.7
673.205	39731.96
673.554	39741
673.904	39551.4
674.253	39880.66
674.602	39619.2
674.951	39228.25
675.3	38938.76
675.649	39590.95
675.998	39417.62
676.346	39462.82
676.695	39668.46
677.044	39224.41
677.393	39348.02
677.741	39439.32
678.09	39401.8
678.438	39260.56
678.787	39491.74
679.135	39581.46
679.484	39275.93
679.832	39234.12
680.181	39131.3
680.529	39278.42
680.877	39063.28
681.225	38989.84
681.573	39411.97
681.922	38974.24
682.27	38880.91
682.618	38984.19
682.966	38872.55
683.314	39018.76
683.661	38844.98
684.009	38645.89
684.357	38531.09
684.705	38664.42
685.053	38636.63
685.4	38412.45
685.748	38353.02
686.095	38431.21
686.443	38163.87
686.79	38068.28
687.138	38348.72
687.485	38210.42
687.832	37996.64
688.18	38031.67
688.527	37811.79
688.874	37765.24
689.221	37781.73
689.568	37734.95
689.915	37626.03
690.262	37614.05
690.609	37458.35
690.956	37318.24
691.303	37325.47
691.65	37164.8
691.997	37158.25
692.344	37018.36
692.69	36952.38
693.037	37051.36
693.383	36750.12
693.73	36824.02
694.077	36648.88
694.423	36614.08
694.769	36547.41
695.116	36530.47
695.462	36419.96
695.808	36233.3
696.155	36299.96
696.501	35962.35
696.847	36136.8
697.193	35817.72
697.539	36040.99
697.885	35720.54
698.231	35608
698.577	35481.45
698.923	35501.11
699.269	35346.54
699.614	35344.51
699.96	35349.25
700.306	35304.74
700.651	35197.85
700.997	35013.44
701.342	34928.25
701.688	34821.81
702.033	34686.9
702.379	34664.75
702.724	34562.61
703.069	34625.21
703.415	34170.3
703.76	34144.99
704.105	34302.05
704.45	34297.98
704.795	33994.04
705.14	33931.21
705.485	33844.43
705.83	33784.78
706.175	33893.25
706.52	33797.66
706.865	33625.01
707.209	33671.78
707.554	33414.62
707.899	33451.45
708.243	33378.23
708.588	33482.41
708.932	32991.58
709.277	33062.99
709.621	33118.8
709.966	32893.5
710.31	33004.91
710.654	32771.24
710.998	32749.32
711.342	32740.28
711.687	32611.02
712.031	32521.31
712.375	32468.65
712.719	32524.92
713.063	32267.75
713.407	32443.79
713.75	32248.09
714.094	32110.92
714.438	32102.79
714.782	32094.88
715.125	31929.68
715.469	32024.37
715.812	31837.48
716.156	31743.7
716.499	31748.9
716.843	31616.02
717.186	31587.09
717.53	31740.99
717.873	31736.24
718.216	31636.13
718.559	31484.72
718.902	31272.07
719.246	31376.03
719.589	31171.28
719.932	31123.6
720.275	31200.66
720.617	31107.33
720.96	31123.6
721.303	31094.45
721.646	30963.61
721.989	30903.72
722.331	30956.83
722.674	30886.32
723.016	30918.64
723.359	30773.56
723.701	30983.72
724.044	30588.25
724.386	30476.84
724.729	30658.76
725.071	30543.05
725.413	30421.25
725.755	30469.38
726.097	30359.33
726.439	30203.4
726.782	30235.72
727.124	30362.72
727.465	30120.92
727.807	30139.22
728.149	30077.53
728.491	29894.71
728.833	30010.41
729.175	29900.13
729.516	29907.59
729.858	29807.7
730.199	29856.29
730.541	29855.84
730.882	29700.14
731.224	29912.56
731.565	29660.59
731.906	29755.73
732.248	29712.11
732.589	29468.05
732.93	29247.04
733.271	29473.93
733.612	29396.87
733.953	29432.35
734.294	29345.12
734.635	29203.43
734.976	29252.69
735.317	29085.01
735.658	29100.6
735.999	29096.31
736.339	29016.99
736.68	29176.76
737.021	29007.27
737.361	28841.4
737.702	29007.5
738.042	28913.72
738.383	28865.58
738.723	28822.42
739.063	28766.6
739.404	28880.5
739.744	28695.87
740.084	28624.23
740.424	28699.03
740.764	28576.32
741.104	28720.28
741.444	28471.47
741.784	28348.08
742.124	28528.87
742.464	28455.42
742.804	28360.06
743.143	28312.15
743.483	28247.29
743.823	28158.03
744.162	28147.18
744.502	28115.77
744.841	27980.41
745.181	28184.24
745.52	28089.56
745.86	27978.6
746.199	27978.6
746.538	27926.62
746.877	27973.4
747.216	28027.64
747.556	27807.08
747.895	27940.18
748.234	27688.89
748.573	27783.8
748.911	27668.1
749.25	27548.1
749.589	27613.41
749.928	27625.62
750.267	27549.23
750.605	27537.93
750.944	27408.22
751.283	27369.12
751.621	27453.19
751.96	27318.96
752.298	27193.76
752.636	27303.59
752.975	27182.92
753.313	27056.82
753.651	27262.91
753.989	27043.48
754.327	27010.04
754.666	26844.62
755.004	26873.54
755.342	26887.56
755.679	26812.08
756.017	26693.66
756.355	26738.18
756.693	26640.33
757.031	26645.53
757.368	26422.71
757.706	26526.89
758.044	26462.48
758.381	26236.95
758.719	26271.07
759.056	26213.22
759.394	26103.4
759.731	26042.15
760.068	25987.92
