Data from hue_230_FLMS001491_00096.txt Node
Date: Tue Feb 07 16:38:01 GMT 2017
User: dcchb
Spectrometer: FLMS00149
Trigger mode: 0
Integration Time (sec): 2.000000E-2
Scans to average: 10
Electric dark correction enabled: true
Nonlinearity correction enabled: false
Boxcar width: 0
XAxis mode: Wavelengths
Number of Pixels in Spectrum: 2048
>>>>>Begin Spectral Data<<<<<
341.393	-7.46
341.776	-7.46
342.16	-7.46
342.543	-64.86
342.927	-68.92
343.31	-57.4
343.693	-63.28
344.077	-72.54
344.46	-71.86
344.843	-46.78
345.226	-52.43
345.61	-41.13
345.993	-9.04
346.376	-5.2
346.759	14.69
347.142	28.93
347.525	33.45
347.908	53.11
348.291	70.73
348.674	98.08
349.057	120.67
349.44	125.19
349.823	139.21
350.206	156.61
350.588	183.5
350.971	191.63
351.354	224.17
351.737	247.68
352.119	235.7
352.502	255.36
352.884	276.6
353.267	259.65
353.65	284.06
354.032	285.19
354.414	297.17
354.797	310.73
355.179	309.37
355.562	330.84
355.944	323.38
356.326	319.54
356.709	334.68
357.091	315.92
357.473	322.48
357.855	339.2
358.238	329.03
358.62	339.65
359.002	321.35
359.384	324.06
359.766	322.03
360.148	319.54
360.53	323.38
360.912	325.87
361.294	322.25
361.676	324.51
362.057	310.27
362.439	306.43
362.821	317.28
363.203	308.69
363.584	303.04
363.966	339.65
364.348	316.83
364.729	315.25
365.111	327.9
365.493	310.27
365.874	286.77
366.256	289.71
366.637	300.56
367.019	313.21
367.4	302.14
367.781	285.64
368.163	288.81
368.544	299.2
368.925	308.01
369.306	315.7
369.688	311.86
370.069	309.82
370.45	317.51
370.831	305.98
371.212	306.88
371.593	301.69
371.974	310.27
372.355	289.48
372.736	295.59
373.117	310.5
373.498	310.95
373.879	319.31
374.26	276.6
374.641	321.57
375.021	328.35
375.402	301.24
375.783	314.79
376.163	315.92
376.544	330.39
376.925	307.56
377.305	317.96
377.686	308.01
378.066	321.35
378.447	332.65
378.827	323.16
379.208	304.17
379.588	304.85
379.968	343.49
380.349	321.12
380.729	334.68
381.109	328.35
381.489	321.57
381.87	330.61
382.25	313.44
382.63	326.77
383.01	319.31
383.39	350.73
383.77	341.01
384.15	330.84
384.53	326.09
384.91	333.78
385.29	348.92
385.67	339.65
386.049	332.87
386.429	339.65
386.809	339.65
387.189	334.68
387.568	349.37
387.948	345.53
388.328	333.1
388.707	341.91
389.087	356.15
389.466	342.36
389.846	345.3
390.225	363.38
390.605	358.86
390.984	353.66
391.363	343.95
391.743	357.28
392.122	368.58
392.501	349.14
392.881	348.69
393.26	369.71
393.639	362.93
394.018	381.91
394.397	360.22
394.776	359.54
395.155	377.84
395.534	378.75
395.913	371.29
396.292	362.93
396.671	390.27
397.05	378.07
397.429	363.15
397.808	373.55
398.186	392.53
398.565	373.32
398.944	355.92
399.323	408.35
399.701	388.24
400.08	383.04
400.458	388.69
400.837	366.77
401.215	409.03
401.594	391.63
401.972	391.18
402.351	397.5
402.729	426.2
403.107	401.12
403.486	388.69
403.864	405.41
404.242	413.55
404.62	433.43
404.999	440.44
405.377	425.75
405.755	416.03
406.133	400.44
406.511	420.78
406.889	417.84
407.267	437.05
407.645	437.5
408.023	433.89
408.401	461.46
408.779	462.59
409.156	471.17
409.534	454.45
409.912	490.61
410.29	476.82
410.667	496.03
411.045	488.35
411.422	502.13
411.8	489.7
412.178	507.56
412.555	531.74
412.933	513.88
413.31	502.81
413.687	522.02
414.065	541.23
414.442	522.25
414.819	534.22
415.197	551.4
415.574	555.01
415.951	537.39
416.328	567.44
416.705	575.35
417.082	571.51
417.46	587.33
417.837	576.93
418.214	597.5
418.591	604.5
418.967	601.57
419.344	631.4
419.721	625.97
420.098	621.9
420.475	653.77
420.852	639.31
421.228	651.06
421.605	673.65
421.982	671.39
422.358	655.58
422.735	685.18
423.111	677.95
423.488	709.81
423.864	711.17
424.241	742.58
424.617	735.12
424.994	732.18
425.37	750.49
425.746	747.1
426.123	747.78
426.499	770.38
426.875	784.61
427.251	808.79
427.627	830.71
428.003	843.14
428.379	820.32
428.756	826.87
429.132	839.98
429.507	833.2
429.883	865.51
430.259	870.94
430.635	852.41
431.011	897.83
431.387	902.35
431.763	925.63
432.138	937.15
432.514	943.25
432.89	942.8
433.265	940.31
433.641	973.76
434.016	980.54
434.392	981.9
434.767	1028.67
435.143	1011.95
435.518	1065.28
435.894	1068.67
436.269	1073.19
436.644	1136.02
437.02	1116.13
437.395	1116.81
437.77	1132.4
438.145	1149.57
438.52	1171.72
438.895	1192.06
439.271	1176.69
439.646	1224.15
440.021	1218.95
440.395	1239.29
440.77	1238.61
441.145	1262.79
441.52	1305.28
441.895	1318.61
442.27	1324.03
442.645	1320.19
443.019	1344.82
443.394	1324.48
443.769	1362.45
444.143	1330.36
444.518	1387.76
444.892	1390.92
445.267	1359.96
445.641	1383.24
446.016	1411.04
446.39	1415.1
446.764	1467.31
447.139	1424.6
447.513	1462.56
447.887	1462.56
448.262	1475.44
448.636	1489
449.01	1477.02
449.384	1483.35
449.758	1486.06
450.132	1541.65
450.506	1554.54
450.88	1565.61
451.254	1539.39
451.628	1594.99
452.002	1596.57
452.376	1590.47
452.75	1622.56
453.123	1639.73
453.497	1664.36
453.871	1650.58
454.244	1681.99
454.618	1707.53
454.992	1720.18
455.365	1704.36
455.739	1779.84
456.112	1766.96
456.486	1794.53
456.859	1781.87
457.232	1825.49
457.606	1803.12
457.979	1832.49
458.352	1875.66
458.725	1892.61
459.099	1877.01
459.472	1924.02
459.845	1951.81
460.218	1984.35
460.591	1948.42
460.964	1976.9
461.337	2047.18
461.71	2052.15
462.083	2084.46
462.456	2101.87
462.829	2098.25
463.201	2113.84
463.574	2109.1
463.947	2147.74
464.32	2213.5
464.692	2170.11
465.065	2232.48
465.438	2265.48
465.81	2262.99
466.183	2272.48
466.555	2348.41
466.928	2351.58
467.3	2340.05
467.672	2395.87
468.045	2461.4
468.417	2454.4
468.789	2456.88
469.161	2527.62
469.534	2521.97
469.906	2580.95
470.278	2568.07
470.65	2588.86
471.022	2680.61
471.394	2706.37
471.766	2714.96
472.138	2734.62
472.51	2806.93
472.882	2837.89
473.253	2863.43
473.625	2883.99
473.997	2983.2
474.369	2950.66
474.74	2966.48
475.112	3039.02
475.484	3051.45
475.855	3120.37
476.227	3138
476.598	3217.54
476.97	3214.83
477.341	3281.5
477.713	3349.29
478.084	3318.1
478.455	3415.28
478.827	3468.38
479.198	3525.56
479.569	3565.1
479.94	3617.98
480.311	3643.52
480.682	3711.31
481.053	3778.43
481.424	3847.13
481.795	3884.87
482.166	3916.06
482.537	3934.36
482.908	4015.04
483.279	4043.96
483.65	4096.62
484.021	4219.78
484.391	4213.22
484.762	4261.36
485.133	4317.17
485.503	4372.09
485.874	4448.02
486.244	4438.53
486.615	4505.19
486.985	4594
487.356	4653.89
487.726	4628.8
488.097	4723.94
488.467	4738.86
488.837	4832.64
489.207	4899.76
489.578	4969.13
489.948	4981.56
490.318	5069.92
490.688	5055.69
491.058	5129.81
491.428	5174.55
491.798	5199.41
492.168	5277.15
492.538	5332.97
492.908	5403.02
493.278	5431.04
493.648	5453.19
494.017	5494.09
494.387	5525.96
494.757	5505.62
495.126	5617.03
495.496	5630.81
495.866	5611.83
496.235	5671.94
496.605	5695.22
496.974	5749.45
497.344	5842.11
497.713	5803.46
498.082	5831.94
498.452	5851.37
498.821	5929.11
499.19	5896.34
499.559	5939.05
499.928	5987.64
500.298	6014.31
500.667	5990.58
501.036	5965.27
501.405	6030.8
501.774	6104.7
502.143	6140.18
502.512	6127.75
502.88	6183.34
503.249	6153.51
503.618	6148.54
503.987	6223.57
504.356	6205.26
504.724	6224.24
505.093	6285.26
505.462	6255.43
505.83	6338.14
506.199	6242.77
506.567	6423.11
506.936	6396.67
507.304	6435.31
507.672	6421.98
508.041	6436.67
508.409	6463.56
508.777	6522.77
509.145	6566.38
509.514	6524.8
509.882	6569.09
510.25	6586.49
510.618	6551.47
510.986	6564.35
511.354	6627.4
511.722	6649.32
512.09	6706.26
512.458	6689.32
512.826	6695.19
513.193	6712.37
513.561	6734.29
513.929	6764.57
514.297	6764.12
514.664	6809.31
515.032	6805.02
515.4	6795.75
515.767	6823.55
516.135	6829.42
516.502	6781.52
516.869	6900.16
517.237	6848.63
517.604	6816.32
517.972	6874.17
518.339	6905.36
518.706	6909.65
519.073	6868.29
519.44	6971.79
519.808	6925.24
520.175	6927.73
520.542	6934.05
520.909	6998.46
521.276	6951.91
521.643	6981.74
522.009	7018.35
522.376	7019.25
522.743	7034.84
523.11	7054.5
523.477	7105.35
523.843	7127.27
524.21	7088.18
524.577	7163.88
524.943	7194.61
525.31	7082.07
525.676	7195.29
526.043	7175.18
526.409	7140.83
526.776	7258.79
527.142	7216.53
527.508	7230.54
527.874	7285.46
528.241	7225.8
528.607	7240.71
528.973	7270.77
529.339	7282.75
529.705	7269.19
530.071	7279.36
530.437	7317.77
530.803	7294.05
531.169	7283.42
531.535	7245.23
531.901	7272.35
532.267	7288.62
532.632	7252.92
532.998	7282.07
533.364	7385.34
533.73	7271
534.095	7336.3
534.461	7296.98
534.826	7294.05
535.192	7286.81
535.557	7364.1
535.923	7285.23
536.288	7269.64
536.653	7261.96
537.019	7223.54
537.384	7244.1
537.749	7244.56
538.114	7208.85
538.479	7176.08
538.845	7178.12
539.21	7130.21
539.575	7142.19
539.94	7212.47
540.305	7182.41
540.67	7084.56
541.034	7123.2
541.399	7108.06
541.764	7101.28
542.129	7102.64
542.494	7067.16
542.858	7138.34
543.223	7126.37
543.587	7100.15
543.952	7041.85
544.316	7024.45
544.681	7022.19
545.045	7045.01
545.41	7035.52
545.774	7044.11
546.138	7050.44
546.503	6994.84
546.867	6960.27
547.231	7033.04
547.595	6957.11
547.959	6987.39
548.324	6950.55
548.688	6953.72
549.052	6931.12
549.416	6919.82
549.779	6923.21
550.143	6914.39
550.507	6918.91
550.871	6838.24
551.235	6829.42
551.599	6862.64
551.962	6798.24
552.326	6789.2
552.689	6911.23
553.053	6792.14
553.417	6786.94
553.78	6863.32
554.143	6786.71
554.507	6845.92
554.87	6797.79
555.234	6817.67
555.597	6777.45
555.96	6765.92
556.323	6814.51
556.686	6741.74
557.05	6793.27
557.413	6777.67
557.776	6737.68
558.139	6804.34
558.502	6780.39
558.865	6751.91
559.228	6792.59
559.59	6837.11
559.953	6771.57
560.316	6848.63
560.679	6776.54
561.041	6833.04
561.404	6877.56
561.767	6859.48
562.129	6874.85
562.492	6863.32
562.854	6823.32
563.217	6843.44
563.579	6884.11
563.941	6883.21
564.304	6912.81
564.666	6939.93
565.028	6927.95
565.39	6954.62
565.753	6901.51
566.115	6941.06
566.477	6952.13
566.839	6988.52
567.201	7029.87
567.563	7062.64
567.925	7050.89
568.287	7054.28
568.648	7059.25
569.01	7102.19
569.372	7110.32
569.734	7082.07
570.095	7128.17
570.457	7131.34
570.819	7162.3
571.18	7157.1
571.542	7112.13
571.903	7108.74
572.265	7190.09
572.626	7235.29
572.987	7242.75
573.349	7189.64
573.71	7280.26
574.071	7268.96
574.432	7244.78
574.794	7334.27
575.155	7330.65
575.516	7256.98
575.877	7304.21
576.238	7352.12
576.599	7338.79
576.96	7367.26
577.32	7423.53
577.681	7388.51
578.042	7408.84
578.403	7475.74
578.763	7408.39
579.124	7496.75
579.485	7461.27
579.845	7562.96
580.206	7508.05
580.566	7520.93
580.927	7550.31
581.287	7576.75
581.648	7600.03
582.008	7549.18
582.368	7604.32
582.728	7629.86
583.089	7595.96
583.449	7605.22
583.809	7604.55
584.169	7672.79
584.529	7605.22
584.889	7701.72
585.249	7674.83
585.609	7699.68
585.969	7729.97
586.329	7755.5
586.688	7727.71
587.048	7779.91
587.408	7724.09
587.768	7739.01
588.127	7704.66
588.487	7776.52
588.846	7818.1
589.206	7754.82
589.565	7747.14
589.925	7808.38
590.284	7795.5
590.643	7742.17
591.003	7818.33
591.362	7875.05
591.721	7851.54
592.08	7909.4
592.44	7851.09
592.799	7860.58
593.158	7890.64
593.517	7944.2
593.876	7936.74
594.235	7910.53
594.593	7826.23
594.952	7916.4
595.311	7951.66
595.67	7948.27
596.029	7984.65
596.387	7912.56
596.746	8020.13
597.104	7988.49
597.463	7933.35
597.822	8026.68
598.18	7936.51
598.538	7962.73
598.897	7955.5
599.255	7935.61
599.613	8088.37
599.972	7971.54
600.33	8030.52
600.688	7948.72
601.046	7982.84
601.404	8083.86
601.762	8082.27
602.12	8059.45
602.478	8113.68
602.836	8106
603.194	8077.53
603.552	8105.55
603.91	8088.37
604.268	8129.73
604.625	8063.97
604.983	8078.21
605.341	8055.38
605.698	8102.16
606.056	8088.37
606.413	8099.22
606.771	8194.36
607.128	8120.01
607.485	8145.77
607.843	8136.96
608.2	8203.63
608.557	8150.75
608.914	8150.75
609.272	8204.53
609.629	8178.99
609.986	8195.72
610.343	8209.05
610.7	8274.36
611.057	8239.33
611.414	8224.87
611.771	8249.73
612.127	8276.62
612.484	8278.2
612.841	8281.14
613.198	8239.56
613.554	8249.05
613.911	8294.7
614.267	8345.54
614.624	8315.26
614.98	8367.24
615.337	8319.78
615.693	8323.85
616.05	8338.76
616.406	8400.68
616.762	8371.98
617.118	8368.59
617.475	8369.72
617.831	8411.76
618.187	8359.1
618.543	8394.36
618.899	8470.96
619.255	8424.19
619.611	8428.03
619.967	8459.21
620.323	8456.73
620.678	8448.37
621.034	8395.71
621.39	8404.07
621.746	8423.73
622.101	8429.83
622.457	8458.76
622.812	8444.75
623.168	8444.07
623.523	8427.8
623.879	8430.06
624.234	8459.44
624.589	8426.67
624.945	8440.91
625.3	8406.33
625.655	8421.93
626.01	8494.24
626.365	8393.68
626.72	8478.87
627.075	8408.82
627.43	8363.85
627.785	8364.07
628.14	8446.33
628.495	8360.46
628.85	8380.12
629.205	8334.92
629.559	8445.65
629.914	8384.64
630.269	8331.98
630.623	8331.31
630.978	8315.49
631.332	8308.71
631.687	8352.55
632.041	8331.53
632.396	8371.53
632.75	8354.13
633.104	8318.65
633.459	8221.93
633.813	8311.19
634.167	8276.84
634.521	8302.15
634.875	8289.5
635.229	8269.61
635.583	8249.27
635.937	8206.79
636.291	8195.26
636.645	8283.4
636.999	8199.78
637.352	8268.94
637.706	8189.16
638.06	8150.97
638.413	8185.55
638.767	8146.68
639.121	8188.49
639.474	8045.89
639.828	8146
640.181	8086.12
640.534	8161.82
640.888	8134.7
641.241	8050.41
641.594	8122.72
641.947	8062.84
642.301	8061.03
642.654	8050.41
643.007	8041.37
643.36	8149.39
643.713	8119.11
644.066	8168.15
644.419	8033.46
644.771	7981.49
645.124	7936.06
645.477	7883.41
645.83	7809.96
646.182	7800.25
646.535	7739.01
646.888	7870.98
647.24	7727.71
647.593	7832.34
647.945	7814.26
648.298	7726.58
648.65	7751.21
649.002	7640.48
649.355	7750.53
649.707	7793.69
650.059	7769.51
650.411	7851.09
650.763	7920.47
651.115	7995.95
651.467	7945.55
651.819	7906.46
652.171	7969.73
652.523	7921.83
652.875	7939.9
653.227	7855.61
653.578	7949.4
653.93	7914.59
654.282	7924.99
654.633	7879.11
654.985	7914.59
655.337	7901.49
655.688	7886.12
656.039	7962.05
656.391	7850.87
656.742	7828.72
657.094	7901.26
657.445	7915.72
657.796	7903.3
658.147	7882.96
658.498	7902.84
658.849	7893.58
659.2	7945.55
659.551	7905.33
659.902	7902.17
660.253	7934.03
660.604	7957.76
660.955	7896.97
661.306	7868.72
661.656	7903.97
662.007	7887.48
662.358	7965.67
662.708	7886.8
663.059	7892.67
663.409	7901.49
663.76	7939.68
664.11	7908.49
664.461	7961.37
664.811	7933.58
665.161	7976.51
665.511	7949.17
665.862	7910.07
666.212	7957.98
666.562	7972.45
666.912	7916.85
667.262	7908.27
667.612	7866.91
667.962	7944.88
668.312	7975.84
668.662	7966.12
669.011	7935.38
669.361	7960.02
669.711	7941.03
670.06	7940.81
670.41	7917.98
670.76	7931.32
671.109	7974.93
671.459	7885.89
671.808	7916.63
672.157	7902.84
672.507	7891.09
672.856	7843.64
673.205	7891.77
673.554	7896.74
673.904	7818.1
674.253	7901.49
674.602	7915.72
674.951	7786.91
675.3	7701.27
675.649	7831.21
675.998	7832.79
676.346	7777.2
676.695	7857.87
677.044	7801.38
677.393	7813.35
677.741	7769.74
678.09	7821.26
678.438	7754.6
678.787	7806.12
679.135	7823.52
679.484	7717.54
679.832	7717.99
680.181	7721.15
680.529	7709.85
680.877	7684.09
681.225	7685
681.573	7693.13
681.922	7683.64
682.27	7593.47
682.618	7668.05
682.966	7647.71
683.314	7630.08
683.661	7586.47
684.009	7530.2
684.357	7553.7
684.705	7553.02
685.053	7522.51
685.4	7463.76
685.748	7494.04
686.095	7453.82
686.443	7436.41
686.79	7447.49
687.138	7419.47
687.485	7468.28
687.832	7416.98
688.18	7379.69
688.527	7353.93
688.874	7343.08
689.221	7307.83
689.568	7298.79
689.915	7295.4
690.262	7274.61
690.609	7217.21
690.956	7238.23
691.303	7223.54
691.65	7207.49
691.997	7202.52
692.344	7152.81
692.69	7091.79
693.037	7125.69
693.383	7047.72
693.73	7062.87
694.077	7098.34
694.423	7002.75
694.769	6966.14
695.116	6990.32
695.462	6918.91
695.808	6939.93
696.155	6964.79
696.501	6907.61
696.847	6914.62
697.193	6767.73
697.539	6866.03
697.885	6786.04
698.231	6819.48
698.577	6786.04
698.923	6756.43
699.269	6714.63
699.614	6683.21
699.96	6670.33
700.306	6652.03
700.651	6642.54
700.997	6632.82
701.342	6639.83
701.688	6580.39
702.033	6564.12
702.379	6582.88
702.724	6502.88
703.069	6522.09
703.415	6423.79
703.76	6499.94
704.105	6459.49
704.45	6440.51
704.795	6431.92
705.14	6348.76
705.485	6334.07
705.83	6320.06
706.175	6313.05
706.52	6294.3
706.865	6279.61
707.209	6263.56
707.554	6217.01
707.899	6221.08
708.243	6256.11
708.588	6201.87
708.932	6169.78
709.277	6184.92
709.621	6138.6
709.966	6150.8
710.31	6128.88
710.654	6101.53
710.998	6040.07
711.342	6092.72
711.687	6091.82
712.031	6017.02
712.375	6000.97
712.719	6072.16
713.063	6034.87
713.407	6018.6
713.75	6013.4
714.094	5951.48
714.438	6007.75
714.782	5919.62
715.125	5961.88
715.469	5912.84
715.812	5892.5
716.156	5885.27
716.499	5940.41
716.843	5888.88
717.186	5870.13
717.53	5826.74
717.873	5892.27
718.216	5912.16
718.559	5847.08
718.902	5791.03
719.246	5832.39
719.589	5766.63
719.932	5815.44
720.275	5771.83
720.617	5747.87
720.96	5786.51
721.303	5771.6
721.646	5753.3
721.989	5690.7
722.331	5786.29
722.674	5768.44
723.016	5792.84
723.359	5763.92
723.701	5729.79
724.044	5687.53
724.386	5710.58
724.729	5737.02
725.071	5746.52
725.413	5736.57
725.755	5637.82
726.097	5731.83
726.439	5659.51
726.782	5669.68
727.124	5685.73
727.465	5648.67
727.807	5684.37
728.149	5630.36
728.491	5693.86
728.833	5677.82
729.175	5645.95
729.516	5650.92
729.858	5579.74
730.199	5679.17
730.541	5650.47
730.882	5568.89
731.224	5646.18
731.565	5639.63
731.906	5650.02
732.248	5617.93
732.589	5624.48
732.93	5594.2
733.271	5619.97
733.612	5634.88
733.953	5598.27
734.294	5564.83
734.635	5593.53
734.976	5613.86
735.317	5586.07
735.658	5635.78
735.999	5623.35
736.339	5604.6
736.68	5671.49
737.021	5599.85
737.361	5575.45
737.702	5641.66
738.042	5624.71
738.383	5622.9
738.723	5671.72
739.063	5683.01
739.404	5658.38
739.744	5698.16
740.084	5623.13
740.424	5686.4
740.764	5668.33
741.104	5730.92
741.444	5669.46
741.784	5690.25
742.124	5743.8
742.464	5727.98
742.804	5755.78
743.143	5738.83
743.483	5744.48
743.823	5762.11
744.162	5787.87
744.502	5819.51
744.841	5840.07
745.181	5821.77
745.52	5880.98
745.86	5929.34
746.199	5915.1
746.538	5952.84
746.877	5971.14
747.216	6032.16
747.556	6054.76
747.895	6093.85
748.234	6084.36
748.573	6085.94
748.911	6162.32
749.25	6190.8
749.589	6227.86
749.928	6225.15
750.267	6375.43
750.605	6373.17
750.944	6424.92
751.283	6446.84
751.621	6569.09
751.96	6536.33
752.298	6601.63
752.636	6657
752.975	6780.39
753.313	6831.68
753.651	6860.61
753.989	6977.9
754.327	6984.45
754.666	7092.69
755.004	7160.26
755.342	7276.42
755.679	7364.1
756.017	7456.53
756.355	7515.51
756.693	7559.35
757.031	7704.66
757.368	7782.85
757.706	7897.87
758.044	8053.35
758.381	8229.84
758.719	8240.24
759.056	8359.33
759.394	8485.43
759.731	8536.5
760.068	8615.14
760.405	8723.39
760.743	8864.4
761.08	8981.23
761.417	9083.15
761.754	9177.61
762.091	9308.46
762.428	9401.56
762.765	9576.25
763.102	9679.07
763.438	9718.84
763.775	9846.97
764.112	9942.34
764.449	10149.34
764.785	10201.09
765.122	10320.18
765.458	10337.13
765.795	10526.28
766.131	10592.94
766.467	10632.94
766.804	10851.01
767.14	10851.47
767.476	10918.13
767.812	11069.31
768.148	11216.65
768.485	11173.49
768.821	11301.85
769.157	11380.04
