Data from hue_28_FLMS001491_00090.txt Node
Date: Tue Feb 07 17:17:56 GMT 2017
User: dcchb
Spectrometer: FLMS00149
Trigger mode: 0
Integration Time (sec): 2.000000E-2
Scans to average: 10
Electric dark correction enabled: true
Nonlinearity correction enabled: false
Boxcar width: 0
XAxis mode: Wavelengths
Number of Pixels in Spectrum: 2048
>>>>>Begin Spectral Data<<<<<
341.393	-34.17
341.776	-34.17
342.16	-34.17
342.543	-50.89
342.927	-43.88
343.31	-87.5
343.693	-70.32
344.077	-62.64
344.46	-56.76
344.843	-47.95
345.226	-45.01
345.61	-35.97
345.993	-27.39
346.376	-3.21
346.759	22.56
347.142	35.66
347.525	39.73
347.908	48.09
348.291	93.51
348.674	86.96
349.057	110.24
349.44	128.09
349.823	133.97
350.206	171.25
350.588	193.62
350.971	216.45
351.354	213.06
351.737	224.36
352.119	234.53
352.502	265.94
352.884	263.91
353.267	279.05
353.65	291.93
354.032	293.28
354.414	307.97
354.797	307.07
355.179	330.57
355.562	306.16
355.944	315.43
356.326	337.35
356.709	316.79
357.091	331.02
357.473	339.16
357.855	333.28
358.238	339.84
358.62	317.24
359.002	321.31
359.384	343.23
359.766	340.97
360.148	332.15
360.53	336.67
360.912	333.96
361.294	343.68
361.676	340.51
362.057	320.63
362.439	321.76
362.821	340.29
363.203	337.8
363.584	325.6
363.966	315.43
364.348	326.5
364.729	291.93
365.111	325.15
365.493	323.79
365.874	303.68
366.256	316.11
366.637	314.3
367.019	321.53
367.4	309.78
367.781	315.66
368.163	303
368.544	310.91
368.925	307.07
369.306	310.68
369.688	295.77
370.069	302.55
370.45	307.07
370.831	308.88
371.212	312.04
371.593	306.39
371.974	306.16
372.355	291.48
372.736	311.81
373.117	324.24
373.498	324.24
373.879	312.72
374.26	295.54
374.641	299.16
375.021	296
375.402	308.42
375.783	318.59
376.163	300.51
376.544	305.03
376.925	295.32
377.305	325.82
377.686	332.15
378.066	313.85
378.447	322.21
378.827	333.51
379.208	328.54
379.588	321.31
379.968	334.64
380.349	333.96
380.729	352.72
381.109	306.84
381.489	351.59
381.87	336.9
382.25	349.78
382.63	339.16
383.01	333.28
383.39	332.6
383.77	317.46
384.15	342.1
384.53	340.29
384.91	355.88
385.29	345.03
385.67	343.45
386.049	358.37
386.429	349.78
386.809	356.11
387.189	341.64
387.568	351.36
387.948	349.78
388.328	373.06
388.707	367.41
389.087	345.49
389.466	362.66
389.846	362.89
390.225	374.64
390.605	343.45
390.984	370.8
391.363	401.75
391.743	352.49
392.122	366.5
392.501	361.3
392.881	380.96
393.26	369.67
393.639	374.41
394.018	387.74
394.397	373.51
394.776	374.86
395.155	393.17
395.534	371.02
395.913	363.11
396.292	401.75
396.671	376.67
397.05	371.7
397.429	380.29
397.808	370.57
398.186	386.39
398.565	406.5
398.944	382.09
399.323	408.31
399.701	414.41
400.08	385.94
400.458	391.59
400.837	410.12
401.215	396.78
401.594	391.36
401.972	390
402.351	399.95
402.729	386.16
403.107	406.27
403.486	414.86
403.864	389.33
404.242	406.73
404.62	398.59
404.999	399.72
405.377	413.96
405.755	402.88
406.133	432.26
406.511	436.78
406.889	423.45
407.267	440.4
407.645	441.75
408.023	428.65
408.401	445.82
408.779	442.43
409.156	426.84
409.534	441.53
409.912	434.52
410.29	429.1
410.667	444.24
411.045	435.88
411.422	441.98
411.8	462.32
412.178	448.76
412.555	480.85
412.933	477.23
413.31	489.44
413.687	482.66
414.065	481.07
414.442	467.74
414.819	482.88
415.197	486.95
415.574	488.98
415.951	491.24
416.328	518.14
416.705	503
417.082	500.51
417.46	500.74
417.837	509.55
418.214	483.79
418.591	510.23
418.967	533.28
419.344	503
419.721	523.56
420.098	494.41
420.475	542.99
420.852	521.07
421.228	517.01
421.605	531.92
421.982	551.36
422.358	558.36
422.735	543.67
423.111	527.18
423.488	548.64
423.864	577.12
424.241	564.69
424.617	555.88
424.994	555.88
425.37	572.82
425.746	575.54
426.123	580.51
426.499	575.76
426.875	561.3
427.251	556.1
427.627	584.12
428.003	604.46
428.379	580.28
428.756	602.65
429.132	591.81
429.507	603.33
429.883	592.71
430.259	628.19
430.635	619.38
431.011	625.48
431.387	632.94
431.763	630.68
432.138	636.33
432.514	633.61
432.89	631.81
433.265	668.87
433.641	644.46
434.016	654.18
434.392	660.96
434.767	677.68
435.143	701.18
435.518	694.18
435.894	677.68
436.269	673.61
436.644	708.87
437.02	700.05
437.395	717.23
437.77	723.55
438.145	722.65
438.52	733.72
438.895	726.49
439.271	725.14
439.646	739.6
440.021	769.2
440.395	732.14
440.77	742.76
441.145	755.87
441.52	755.64
441.895	758.81
442.27	770.78
442.645	778.92
443.019	762.65
443.394	789.99
443.769	782.99
444.143	771.91
444.518	788.19
444.892	799.71
445.267	793.84
445.641	810.11
446.016	804.23
446.39	811.24
446.764	814.17
447.139	818.69
447.513	844
447.887	820.28
448.262	829.09
448.636	829.99
449.01	840.61
449.384	849.88
449.758	838.35
450.132	842.65
450.506	837
450.88	853.49
451.254	890.56
451.628	868.41
452.002	888.97
452.376	886.94
452.75	903.89
453.123	906.15
453.497	914.96
453.871	920.84
454.244	936.43
454.618	933.04
454.992	935.53
455.365	962.19
455.739	952.93
456.112	988.18
456.486	983.89
456.859	993.38
457.232	988.41
457.606	1014.62
457.979	1027.5
458.352	1052.36
458.725	1043.77
459.099	1055.07
459.472	1078.35
459.845	1073.6
460.218	1074.96
460.591	1106.37
460.964	1103.88
461.337	1098.69
461.71	1138.46
462.083	1121.96
462.456	1153.83
462.829	1171.9
463.201	1164.45
463.574	1160.15
463.947	1178.68
464.32	1195.63
464.692	1210.32
465.065	1226.82
465.438	1211.45
465.81	1264.11
466.183	1290.09
466.555	1279.25
466.928	1281.05
467.3	1318.34
467.672	1344.78
468.045	1360.37
468.417	1360.37
468.789	1385.68
469.161	1373.48
469.534	1412.12
469.906	1432.24
470.278	1427.26
470.65	1451.22
471.022	1500.48
471.394	1506.81
471.766	1509.97
472.138	1542.52
472.51	1580.48
472.882	1622.06
473.253	1634.04
473.625	1617.54
473.997	1672.68
474.369	1721.95
474.74	1708.84
475.112	1759.23
475.484	1758.78
475.855	1813.24
476.227	1800.36
476.598	1890.53
476.97	1910.64
477.341	1945.22
477.713	1979.79
478.084	1988.15
478.455	2025.67
478.827	2061.6
479.198	2151.77
479.569	2130.07
479.94	2225.89
480.311	2243.06
480.682	2282.84
481.053	2348.82
481.424	2379.78
481.795	2460.01
482.166	2497.07
482.537	2518.08
482.908	2560.34
483.279	2555.14
483.65	2685.31
484.021	2677.85
484.391	2743.39
484.762	2780.22
485.133	2843.95
485.503	2874.23
485.874	2923.95
486.244	2984.51
486.615	3078.75
486.985	3081.01
487.356	3202.59
487.726	3154.22
488.097	3243.49
488.467	3277.61
488.837	3390.15
489.207	3423.6
489.578	3442.35
489.948	3522.58
490.318	3579.52
490.688	3617.94
491.058	3659.52
491.428	3724.38
491.798	3824.49
492.168	3836.69
492.538	3873.53
492.908	3955.56
493.278	4000.98
493.648	4021.32
494.017	4083.01
494.387	4090.25
494.757	4138.83
495.126	4247.76
495.496	4248.66
495.866	4252.05
496.235	4341.31
496.605	4426.51
496.974	4426.96
497.344	4442.55
497.713	4505.38
498.082	4554.87
498.452	4600.97
498.821	4611.14
499.19	4669.21
499.559	4707.4
499.928	4732.49
500.298	4787.63
500.667	4810.68
501.036	4798.48
501.405	4891.35
501.774	4888.42
502.143	4990.11
502.512	4967.28
502.88	5029.88
503.249	5041.86
503.618	5063.55
503.987	5139.94
504.356	5109.88
504.724	5158.92
505.093	5193.04
505.462	5193.49
505.83	5231.68
506.199	5281.17
506.567	5321.63
506.936	5378.35
507.304	5422.64
507.672	5426.03
508.041	5449.53
508.409	5476.42
508.777	5555.29
509.145	5578.57
509.514	5585.57
509.882	5621.96
510.25	5617.89
510.618	5663.09
510.986	5715.06
511.354	5805.23
511.722	5784.66
512.09	5805.68
512.458	5793.93
512.826	5907.6
513.193	5850.43
513.561	5902.18
513.929	5928.84
514.297	5956.41
514.664	6030.31
515.032	6012.23
515.4	6048.16
515.767	6066.69
516.135	6115.28
516.502	6127.25
516.869	6190.53
517.237	6194.82
517.604	6189.85
517.972	6240.92
518.339	6289.96
518.706	6244.54
519.073	6322.5
519.44	6314.14
519.808	6358.66
520.175	6395.95
520.542	6505.1
520.909	6466.23
521.276	6447.25
521.643	6560.92
522.009	6583.29
522.376	6580.35
522.743	6676.62
523.11	6698.76
523.477	6724.3
523.843	6746.22
524.21	6757.29
524.577	6798.87
524.943	6871.64
525.31	6891.53
525.676	6893.11
526.043	6972.66
526.409	7007.01
526.776	7042.03
527.142	7047.68
527.508	7122.26
527.874	7201.35
528.241	7181.46
528.607	7159.77
528.973	7318.64
529.339	7271.4
529.705	7375.81
530.071	7429.82
530.437	7438.18
530.803	7489.93
531.169	7498.74
531.535	7417.39
531.901	7570.38
532.267	7623.03
532.632	7661.23
532.998	7632.07
533.364	7663.03
533.73	7710.26
534.095	7794.78
534.461	7842.69
534.826	7839.07
535.192	7884.95
535.557	7927.43
535.923	7975.57
536.288	7980.76
536.653	8014.21
537.019	7962.91
537.384	8042.23
537.749	8078.84
538.114	8136.69
538.479	8138.5
538.845	8244.49
539.21	8231.83
539.575	8268.67
539.94	8266.86
540.305	8280.42
540.67	8289.23
541.034	8338.5
541.399	8383.24
541.764	8421.66
542.129	8464.37
542.494	8493.07
542.858	8563.35
543.223	8599.28
543.587	8581.2
543.952	8580.52
544.316	8644.7
544.681	8679.96
545.045	8745.49
545.41	8728.77
545.774	8790.23
546.138	8810.35
546.503	8818.26
546.867	8828.88
547.231	8917.92
547.595	8890.57
547.959	8977.57
548.324	8972.15
548.688	9065.26
549.052	9020.06
549.416	9063.9
549.779	9093.96
550.143	9127.63
550.507	9207.4
550.871	9241.52
551.235	9218.02
551.599	9335.31
551.962	9275.19
552.326	9315.19
552.689	9356.32
553.053	9350.22
553.417	9400.39
553.78	9528.75
554.143	9392.93
554.507	9553.15
554.87	9543.44
555.234	9605.13
555.597	9556.77
555.96	9672.92
556.323	9693.26
556.686	9693.94
557.05	9648.07
557.413	9769.19
557.776	9763.54
558.139	9832.92
558.502	9839.47
558.865	9811.9
559.228	9988.85
559.59	9958.57
559.953	9989.98
560.316	10166.47
560.679	10075.85
561.041	10152.91
561.404	10088.51
561.767	10175.74
562.129	10160.37
562.492	10250.99
562.854	10257.54
563.217	10308.61
563.579	10382.96
563.941	10423.41
564.304	10447.14
564.666	10530.08
565.028	10494.14
565.39	10521.26
565.753	10562.84
566.115	10587.25
566.477	10641.71
566.839	10656.4
567.201	10735.95
567.563	10682.39
567.925	10807.36
568.287	10857.98
568.648	10939.11
569.01	10960.35
569.372	11008.26
569.734	11033.34
570.095	11114.47
570.457	11115.37
570.819	11152.21
571.18	11141.81
571.542	11216.39
571.903	11316.27
572.265	11342.71
572.626	11349.94
572.987	11448.47
573.349	11468.13
573.71	11608.92
574.071	11587.45
574.432	11569.14
574.794	11716.71
575.155	11746.09
575.516	11778.18
575.877	11842.81
576.238	11999.64
576.599	12083.71
576.96	12195.57
577.32	12181.56
577.681	12330.71
578.042	12412.74
578.403	12483.25
578.763	12569.57
579.124	12684.6
579.485	12919.17
579.845	12935.66
580.206	12996.9
580.566	13169.1
580.927	13286.16
581.287	13457.46
581.648	13472.6
582.008	13668.52
582.368	13840.27
582.728	13932.02
583.089	14076.88
583.449	14228.51
583.809	14493.59
584.169	14612.91
584.529	14748.95
584.889	15138.77
585.249	15141.03
585.609	15248.6
585.969	15663.5
586.329	15776.49
586.688	16030.04
587.048	16253.77
587.408	16403.82
587.768	16648.11
588.127	16935.11
588.487	17073.86
588.846	17473.62
589.206	17720.62
589.565	17860.96
589.925	18212.36
590.284	18487.61
590.643	18668.62
591.003	18997.65
591.362	19380.24
591.721	19557.64
592.08	19824.97
592.44	20133.89
592.799	20464.73
593.158	20607.55
593.517	20862.01
593.876	21315.1
594.235	21537.92
594.593	21752.61
594.952	22089.32
595.311	22322.08
595.67	22693.82
596.029	23134.04
596.387	23455.84
596.746	23831.42
597.104	23941.02
597.463	24249.94
597.822	24519.76
598.18	24754.56
598.538	25079.98
598.897	25513.19
599.255	25552.28
599.613	26189.55
599.972	26482.65
600.33	26752.47
600.688	26818.69
601.046	27228.39
601.404	27527.37
601.762	27742.73
602.12	28168.03
602.478	28431.07
602.836	28612.99
603.194	28950.61
603.552	29188.57
603.91	29291.16
604.268	29707.43
604.625	29877.14
604.983	30270.57
605.341	30440.74
605.698	30733.61
606.056	31128.63
606.413	31243.2
606.771	31601.39
607.128	31810.19
607.485	31833.7
607.843	32248.6
608.2	32553.9
608.557	32828.02
608.914	32915.7
609.272	33293.32
609.629	33473.65
609.986	33823.25
610.343	33810.37
610.7	34326.06
611.057	34392.5
611.414	34531.93
611.771	34723.79
612.127	34953.39
612.484	35170.33
612.841	35543.43
613.198	35572.58
613.554	35697.55
613.911	36070.65
614.267	36184.99
614.624	36236.29
614.98	36611.42
615.337	36857.97
615.693	36914.69
616.05	36960.57
616.406	37459.76
616.762	37312.87
617.118	37457.96
617.475	37813.88
617.831	37769.81
618.187	37884.61
618.543	38186.52
618.899	38475.56
619.255	38481.88
619.611	38482.11
619.967	38796.23
620.323	38956.45
620.678	38840.74
621.034	38943.57
621.39	39008.42
621.746	39058.14
622.101	39576.32
622.457	39397.79
622.812	39466.72
623.168	39833.03
623.523	39844.79
623.879	40050.2
624.234	39844.56
624.589	40051.33
624.945	40144.66
625.3	40288.39
625.655	40343.76
626.01	40412.45
626.365	40499.91
626.72	40496.75
627.075	40504.43
627.43	40520.47
627.785	40637.31
628.14	40683.63
628.495	40870.07
628.85	40816.06
629.205	40629.4
629.559	40955.26
629.914	41001.37
630.269	40969.5
630.623	40949.39
630.978	40837.75
631.332	41233.22
631.687	41188.93
632.041	41219.44
632.396	41268.03
632.75	41114.81
633.104	41227.8
633.459	40995.94
633.813	41086.11
634.167	41178.99
634.521	41191.87
634.875	41242.04
635.229	41144.86
635.583	40999.11
635.937	41181.93
636.291	41211.3
636.645	41281.36
636.999	41156.39
637.352	41309.38
637.706	41037.52
638.06	41223.96
638.413	41169.95
638.767	41117.52
639.121	41268.25
639.474	40953.46
639.828	41178.31
640.181	41060.12
640.534	41172.21
640.888	41034.13
641.241	40863.97
641.594	41085.66
641.947	41103.51
642.301	41025.55
642.654	41199.78
643.007	41058.54
643.36	40955.49
643.713	40898.77
644.066	41195.71
644.419	40927.92
644.771	40687.02
645.124	40170.2
645.477	40320.03
645.83	39910.55
646.182	39925.01
646.535	39862.41
646.888	39870.1
647.24	39721.4
647.593	39914.61
647.945	39922.3
648.298	39720.95
648.65	39789.65
649.002	39664.45
649.355	39822.87
649.707	39624.45
650.059	39871.68
650.411	40216.98
650.763	40440.25
651.115	40729.28
651.467	40614.48
651.819	40692.45
652.171	40420.14
652.523	40536.97
652.875	40504.66
653.227	40365
653.578	40669.17
653.93	40476.41
654.282	40425.34
654.633	40418.56
654.985	40531.1
655.337	40511.21
655.688	40508.05
656.039	40612.22
656.391	40235.96
656.742	40270.31
657.094	40273.93
657.445	40545.56
657.796	40231.44
658.147	40295.85
658.498	40238.9
658.849	40392.79
659.2	40287.49
659.551	40172.46
659.902	40407.93
660.253	40381.95
660.604	40339.46
660.955	40211.33
661.306	40383.75
661.656	40253.14
662.007	40266.24
662.358	40254.49
662.708	40293.14
663.059	40350.99
663.409	40037.32
663.76	40409.97
664.11	40208.62
664.461	40257.88
664.811	40340.37
665.161	40344.66
665.511	40275.06
665.862	40336.3
666.212	40338.56
666.562	40341.95
666.912	40126.59
667.262	40199.13
667.612	40254.04
667.962	40282.74
668.312	40284.77
668.662	40264.66
669.011	40152.12
669.361	40139.47
669.711	40135.63
670.06	40070.32
670.41	40000.94
670.76	40005.91
671.109	40094.95
671.459	40048.4
671.808	39991.67
672.157	40005.69
672.507	39715.07
672.856	39758.91
673.205	39876.88
673.554	40025.57
673.904	39845.01
674.253	40171.56
674.602	39943.31
674.951	39493.38
675.3	39238.47
675.649	39915.07
675.998	39895.18
676.346	39876.2
676.695	40025.57
677.044	39660.61
677.393	39830.55
677.741	39858.34
678.09	39592.36
678.438	39558.24
678.787	39671.91
679.135	39737.67
679.484	39313.05
679.832	39510.56
680.181	39263.33
680.529	39367.06
680.877	39256.33
681.225	39255.42
681.573	39530.9
681.922	39064.24
682.27	39104.92
682.618	39131.13
682.966	39061.76
683.314	39077.12
683.661	38988.31
684.009	38825.6
684.357	38779.73
684.705	38713.06
685.053	38780.41
685.4	38737.92
685.748	38497.93
686.095	38664.93
686.443	38381.1
686.79	38423.58
687.138	38462
687.485	38430.59
687.832	38191.27
688.18	38374.32
688.527	38146.53
688.874	37958.51
689.221	38011.84
689.568	37891.39
689.915	37960.99
690.262	37778.63
690.609	37559.87
690.956	37626.31
691.303	37525.75
691.65	37436.94
691.997	37340.44
692.344	37244.18
692.69	37235.59
693.037	37349.71
693.383	36920.12
693.73	37096.16
694.077	36823.17
694.423	37027.46
694.769	36743.4
695.116	36666.79
695.462	36584.76
695.808	36471.77
696.155	36511.77
696.501	36290.08
696.847	36280.59
697.193	36010.08
697.539	36185.9
697.885	35888.28
698.231	35818.45
698.577	35853.25
698.923	35660.71
699.269	35550.21
699.614	35491.23
699.96	35317.45
700.306	35374.62
700.651	35348.41
700.997	35172.37
701.342	35110.22
701.688	34890.79
702.033	34782.55
702.379	34954.29
702.724	34871.81
703.069	34871.58
703.415	34616.9
703.76	34478.15
704.105	34504.81
704.45	34425.27
704.795	34104.37
705.14	34211.26
705.485	34078.61
705.83	33910.48
706.175	33973.3
706.52	33871.84
706.865	33825.28
707.209	33756.36
707.554	33534.67
707.899	33632.75
708.243	33468.46
708.588	33481.11
708.932	33256.94
709.277	33113.44
709.621	33225.07
709.966	33107.34
710.31	33225.3
710.654	32747.57
710.998	32953.89
711.342	32869.15
711.687	32853.56
712.031	32686.1
712.375	32599.33
712.719	32584.64
713.063	32567.24
713.407	32587.58
713.75	32346.9
714.094	32321.59
714.438	32238.43
714.782	32230.07
715.125	32143.75
715.469	32219.22
715.812	32014.94
716.156	31809.52
716.499	31876.41
716.843	31788.27
717.186	31717.32
717.53	31910.53
717.873	31803.19
718.216	31755.73
718.559	31567.72
718.902	31339.25
719.246	31618.79
719.589	31323.2
719.932	31286.37
720.275	31251.11
720.617	31155.75
720.96	31130.44
721.303	31070.33
721.646	31212.47
721.989	30911.01
722.331	30946.71
722.674	30846.83
723.016	30987.84
723.359	31039.14
723.701	30848.64
724.044	30701.75
724.386	30481.64
724.729	30762.99
725.071	30662.43
725.413	30582.2
725.755	30556.89
726.097	30451.81
726.439	30317.13
726.782	30401.87
727.124	30450.23
727.465	30253.63
727.807	30251.14
728.149	30240.74
728.491	30127.53
728.833	30203.01
729.175	30023.35
729.516	30000.75
729.858	30098.83
730.199	29981.99
730.541	29977.47
730.882	29882.34
731.224	29990.13
731.565	29745.62
731.906	29832.62
732.248	29746.29
732.589	29552.17
732.93	29593.08
733.271	29536.81
733.612	29543.14
733.953	29615.68
734.294	29428.79
734.635	29370.71
734.976	29336.81
735.317	29345.4
735.658	29284.39
735.999	29287.78
736.339	29216.59
736.68	29316.7
737.021	29253.65
737.361	29066.09
737.702	29229.25
738.042	29082.81
738.383	29083.49
738.723	28994.45
739.063	28937.95
739.404	28952.42
739.744	28874
740.084	28769.82
740.424	28876.94
740.764	28790.39
741.104	28828.58
741.444	28638.3
741.784	28548.36
742.124	28678.75
742.464	28615.7
742.804	28527.8
743.143	28482.82
743.483	28351.98
743.823	28356.27
744.162	28229.05
744.502	28284.64
744.841	28146.56
745.181	28365.09
745.52	28082.38
745.86	28298.2
746.199	28128.71
746.538	28084.87
746.877	28254.58
747.216	28165.32
747.556	28119.44
747.895	28108.15
748.234	27952.67
748.573	27893.91
748.911	27988.83
749.25	27861.6
749.589	27721.49
749.928	27821.6
750.267	27806.91
750.605	27768.04
750.944	27675.84
751.283	27586.35
751.621	27671.32
751.96	27552.68
752.298	27473.13
752.636	27471.33
752.975	27392.91
753.313	27199.47
753.651	27499.35
753.989	27336.41
754.327	27273.59
754.666	27234.5
755.004	27114.05
755.342	27220.48
755.679	27083.31
756.017	26919.02
756.355	27031.56
756.693	26928.29
757.031	26877.67
757.368	26792.47
757.706	26749.08
758.044	26653.27
758.381	26672.48
758.719	26603.55
759.056	26628.86
