Data from hue_34_FLMS001491_00060.txt Node
Date: Tue Feb 07 17:25:51 GMT 2017
User: dcchb
Spectrometer: FLMS00149
Trigger mode: 0
Integration Time (sec): 2.000000E-2
Scans to average: 10
Electric dark correction enabled: true
Nonlinearity correction enabled: false
Boxcar width: 0
XAxis mode: Wavelengths
Number of Pixels in Spectrum: 2048
>>>>>Begin Spectral Data<<<<<
341.393	-18.4
341.776	-18.4
342.16	-18.4
342.543	-39.65
342.927	-60.21
343.31	-75.58
343.693	-76.48
344.077	-56.82
344.46	-56.59
344.843	-61.57
345.226	-42.36
345.61	-38.97
345.993	-10.49
346.376	-14.11
346.759	22.5
347.142	14.82
347.525	49.62
347.908	62.5
348.291	64.08
348.674	91.65
349.057	127.81
349.44	127.81
349.823	144.53
350.206	167.35
350.588	177.98
350.971	212.55
351.354	231.99
351.737	246.45
352.119	250.29
352.502	256.17
352.884	254.58
353.267	289.39
353.65	307.92
354.032	300.23
354.414	315.15
354.797	318.54
355.179	310.63
355.562	314.7
355.944	342.72
356.326	360.57
356.709	342.27
357.091	329.61
357.473	342.94
357.855	339.1
358.238	363.06
358.62	356.5
359.002	354.47
359.384	359.21
359.766	341.81
360.148	332.1
360.53	334.36
360.912	347.46
361.294	335.03
361.676	351.08
362.057	333
362.439	335.94
362.821	338.65
363.203	341.14
363.584	327.8
363.966	352.66
364.348	325.77
364.729	320.8
365.111	302.94
365.493	312.89
365.874	319.67
366.256	325.09
366.637	308.37
367.019	323.73
367.4	321.47
367.781	322.15
368.163	333.45
368.544	328.03
368.925	325.09
369.306	364.19
369.688	311.31
370.069	314.24
370.45	312.89
370.831	339.1
371.212	309.5
371.593	325.54
371.974	322.83
372.355	321.02
372.736	309.72
373.117	341.59
373.498	321.47
373.879	334.36
374.26	317.18
374.641	315.6
375.021	321.47
375.402	330.51
375.783	331.87
376.163	337.52
376.544	330.29
376.925	336.62
377.305	325.77
377.686	339.1
378.066	330.97
378.447	326.9
378.827	336.62
379.208	324.41
379.588	335.26
379.968	311.53
380.349	351.76
380.729	350.17
381.109	348.14
381.489	343.85
381.87	345.43
382.25	334.81
382.63	347.24
383.01	341.81
383.39	383.62
383.77	356.05
384.15	342.27
384.53	341.14
384.91	354.24
385.29	342.04
385.67	343.62
386.049	376.39
386.429	360.12
386.809	357.41
387.189	358.76
387.568	353.34
387.948	363.28
388.328	353.34
388.707	362.83
389.087	367.58
389.466	371.19
389.846	375.03
390.225	386.78
390.605	345.2
390.984	364.64
391.363	357.18
391.743	377.52
392.122	377.29
392.501	382.49
392.881	396.95
393.26	359.89
393.639	356.5
394.018	369.61
394.397	373.9
394.776	371.19
395.155	378.2
395.534	384.75
395.913	391.08
396.292	396.5
396.671	397.86
397.05	377.52
397.429	391.76
397.808	401.7
398.186	387.01
398.565	388.14
398.944	397.18
399.323	375.26
399.701	401.7
400.08	412.09
400.458	411.42
400.837	395.14
401.215	398.76
401.594	400.34
401.972	406.22
402.351	426.56
402.729	404.18
403.107	417.52
403.486	419.55
403.864	421.36
404.242	412.32
404.62	426.56
404.999	412.32
405.377	443.96
405.755	432.43
406.133	437.4
406.511	416.39
406.889	425.88
407.267	408.25
407.645	434.92
408.023	433.56
408.401	433.11
408.779	433.11
409.156	426.56
409.534	450.06
409.912	435.6
410.29	461.81
410.667	457.74
411.045	464.07
411.422	458.42
411.8	465.43
412.178	458.42
412.555	469.95
412.933	473.11
413.31	476.5
413.687	473.34
414.065	476.05
414.442	486.67
414.819	500.45
415.197	463.62
415.574	489.83
415.951	485.99
416.328	497.74
416.705	500.9
417.082	508.14
417.46	500.68
417.837	501.58
418.214	498.87
418.591	520.79
418.967	501.36
419.344	521.24
419.721	516.5
420.098	532.54
420.475	524.63
420.852	525.54
421.228	565.54
421.605	529.83
421.982	522.37
422.358	529.15
422.735	521.02
423.111	539.32
423.488	554.01
423.864	555.14
424.241	568.25
424.617	559.89
424.994	576.61
425.37	573.22
425.746	566.67
426.123	567.12
426.499	570.28
426.875	582.94
427.251	555.82
427.627	601.47
428.003	591.98
428.379	612.54
428.756	605.08
429.132	599.89
429.507	612.09
429.883	612.77
430.259	602.6
430.635	617.74
431.011	632.65
431.387	626.33
431.763	635.14
432.138	640.79
432.514	647.34
432.89	649.15
433.265	666.1
433.641	660.9
434.016	662.71
434.392	672.65
434.767	665.65
435.143	701.13
435.518	677.17
435.894	686.66
436.269	679.43
436.644	722.14
437.02	705.19
437.395	714.01
437.77	725.53
438.145	722.37
438.52	737.73
438.895	739.32
439.271	734.12
439.646	747.9
440.021	765.98
440.395	745.87
440.77	742.93
441.145	738.19
441.52	733.67
441.895	763.95
442.27	782.48
442.645	785.42
443.019	778.19
443.394	774.34
443.769	782.48
444.143	773.21
444.518	793.78
444.892	794
445.267	767.11
445.641	828.35
446.016	797.62
446.39	802.82
446.764	808.47
447.139	794.46
447.513	825.42
447.887	847.34
448.262	826.32
448.636	833.55
449.01	835.36
449.384	839.2
449.758	861.57
450.132	886.66
450.506	885.98
450.88	904.28
451.254	871.29
451.628	888.24
452.002	885.3
452.376	914
452.75	914.45
453.123	912.42
453.497	920.55
453.871	915.58
454.244	923.94
454.618	929.37
454.992	958.75
455.365	964.17
455.739	957.84
456.112	992.64
456.486	1009.14
456.859	993.1
457.232	1011.4
457.606	1034
457.979	1041.91
458.352	1035.81
458.725	1036.26
459.099	1059.31
459.472	1069.93
459.845	1103.37
460.218	1097.5
460.591	1094.11
460.964	1113.32
461.337	1130.94
461.71	1134.33
462.083	1170.94
462.456	1182.69
462.829	1161.45
463.201	1177.27
463.574	1175.69
463.947	1200.55
464.32	1221.34
464.692	1212.07
465.065	1221.79
465.438	1269.47
465.81	1269.25
466.183	1319.41
466.555	1343.82
466.928	1317.61
467.3	1309.25
467.672	1357.15
468.045	1401.9
468.417	1405.51
468.789	1396.02
469.161	1429.69
469.534	1444.16
469.906	1482.12
470.278	1527.09
470.65	1480.09
471.022	1553.98
471.394	1567.54
471.766	1617.94
472.138	1625.17
472.51	1634.66
472.882	1685.73
473.253	1689.57
473.625	1735.45
473.997	1753.53
474.369	1780.87
474.74	1813.64
475.112	1845.95
475.484	1904.94
475.855	1929.34
476.227	1970.92
476.598	1991.94
476.97	2051.15
477.341	2089.34
477.713	2156.68
478.084	2194.65
478.455	2276.9
478.827	2302.67
479.198	2370.23
479.569	2376.34
479.94	2456.56
480.311	2495.2
480.682	2614.97
481.053	2645.03
481.424	2713.5
481.795	2744.01
482.166	2810.9
482.537	2859.71
482.908	2941.52
483.279	3013.61
483.65	3058.35
484.021	3173.38
484.391	3257.22
484.762	3275.3
485.133	3350.32
485.503	3419.7
485.874	3568.17
486.244	3613.37
486.615	3670.09
486.985	3786.24
487.356	3887.26
487.726	3953.47
488.097	4065.33
488.467	4059.91
488.837	4195.72
489.207	4259.9
489.578	4412.67
489.948	4426
490.318	4524.3
490.688	4576.05
491.058	4690.17
491.428	4793
491.798	4927.68
492.168	5057.17
492.538	5065.76
492.908	5165.64
493.278	5265.3
493.648	5278.41
494.017	5452.64
494.387	5489.25
494.757	5611.28
495.126	5709.58
495.496	5773.99
495.866	5809.69
496.235	5953.19
496.605	5965.17
496.974	6096.69
497.344	6128.1
497.713	6221.66
498.082	6266.4
498.452	6326.74
498.821	6411.03
499.19	6493.29
499.559	6590.91
499.928	6651.7
500.298	6700.97
500.667	6780.74
501.036	6851.25
501.405	6858.93
501.774	6928.53
502.143	7039.49
502.512	7061.86
502.88	7121.52
503.249	7191.58
503.618	7258.69
503.987	7369.88
504.356	7406.03
504.724	7454.39
505.093	7471.12
505.462	7524.9
505.83	7690.09
506.199	7678.8
506.567	7761.5
506.936	7774.39
507.304	7961.05
507.672	7953.14
508.041	7999.24
508.409	8090.08
508.777	8133.7
509.145	8187.26
509.514	8252.34
509.882	8256.18
510.25	8348.61
510.618	8433.8
510.986	8419.79
511.354	8523.52
511.722	8541.15
512.09	8635.15
512.458	8664.98
512.826	8757.41
513.193	8772.78
513.561	8802.16
513.929	8928.03
514.297	8886.45
514.664	8995.37
515.032	9096.61
515.4	9154.01
515.767	9161.92
516.135	9272.43
516.502	9169.83
516.869	9391.29
517.237	9351.29
517.604	9368.02
517.972	9427.68
518.339	9510.39
518.706	9558.07
519.073	9577.28
519.44	9586.32
519.808	9719.87
520.175	9717.61
520.542	9812.75
520.909	9917.38
521.276	9850.49
521.643	9949.02
522.009	9986.53
522.376	10113.99
522.743	10086.87
523.11	10217.26
523.477	10290.48
523.843	10338.61
524.21	10447.76
524.577	10486.63
524.943	10624.71
525.31	10607.98
525.676	10713.74
526.043	10737.25
526.409	10807.98
526.776	10922.55
527.142	10900.63
527.508	10945.38
527.874	11114.41
528.241	11071.7
528.607	11143.34
528.973	11298.36
529.339	11278.02
529.705	11360.51
530.071	11409.09
530.437	11495.87
530.803	11588.97
531.169	11610.9
531.535	11650.22
531.901	11723.21
532.267	11794.17
532.632	11773.38
532.998	11848.86
533.364	11909.19
533.73	12047.49
534.095	12032.81
534.461	12103.09
534.826	12167.49
535.192	12218.79
535.557	12305.34
535.923	12305.11
536.288	12326.36
536.653	12437.31
537.019	12429.63
537.384	12502.17
537.749	12523.87
538.114	12636.18
538.479	12645.67
538.845	12638.21
539.21	12730.41
539.575	12715.5
539.94	12718.89
540.305	12851.09
540.67	12959.11
541.034	12895.16
541.399	13034.59
541.764	13044.08
542.129	13113
542.494	13113.91
542.858	13252.89
543.223	13157.52
543.587	13270.51
543.952	13235.26
544.316	13400
544.681	13472.77
545.045	13451.3
545.41	13505.31
545.774	13588.24
546.138	13586.66
546.503	13684.97
546.867	13644.97
547.231	13822.81
547.595	13827.33
547.959	13925.41
548.324	13865.53
548.688	13943.72
549.052	13994.79
549.416	14053.99
549.779	14123.15
550.143	14125.86
550.507	14239.53
550.871	14300.77
551.235	14281.11
551.599	14287.89
551.962	14328.79
552.326	14404.95
552.689	14445.17
553.053	14521.33
553.417	14555.22
553.78	14719.51
554.143	14729.01
554.507	14709.57
554.87	14823.92
555.234	14858.27
555.597	14848.55
555.96	14865.5
556.323	14949.56
556.686	14997.92
557.05	15051.71
557.413	15206.05
557.776	15186.62
558.139	15285.6
558.502	15189.56
558.865	15262.1
559.228	15373.96
559.59	15476.78
559.953	15470.45
560.316	15606.04
560.679	15669.32
561.041	15766.49
561.404	15752.71
561.767	15859.15
562.129	15731.01
562.492	15999.48
562.854	16016.88
563.217	15920.61
563.579	16021.63
563.941	16072.47
564.304	16219.36
564.666	16250.77
565.028	16321.05
565.39	16321.73
565.753	16494.38
566.115	16482.63
566.477	16631.33
566.839	16593.59
567.201	16698.22
567.563	16608.28
567.925	16826.35
568.287	16893.02
568.648	16826.8
569.01	16997.65
569.372	17173.69
569.734	17047.81
570.095	17295.27
570.457	17180.24
570.819	17277.41
571.18	17370.29
571.542	17478.99
571.903	17528.25
572.265	17631.75
572.626	17714.92
572.987	17667.46
573.349	17836.27
573.71	17836.04
574.071	17921.69
574.432	17964.4
574.794	18181.57
575.155	18234.68
575.516	18245.07
575.877	18497.27
576.238	18478.74
576.599	18698.17
576.96	18780.65
577.32	18793.76
577.681	18999.85
578.042	19142.9
578.403	19155.1
578.763	19324.82
579.124	19448.2
579.485	19641.19
579.845	19773.17
580.206	19862.43
580.566	19940.85
580.927	20179.94
581.287	20342.42
581.648	20366.15
582.008	20585.57
582.368	20887.94
582.728	21056.07
583.089	21103.53
583.449	21312.56
583.809	21548.26
584.169	21833.23
584.529	21882.72
584.889	22136.49
585.249	22215.14
585.609	22578.29
585.969	22725.63
586.329	22930.82
586.688	23197.71
587.048	23337.59
587.408	23513.41
587.768	23821.87
588.127	23929.22
588.487	24239.04
588.846	24583.89
589.206	24568.52
589.565	24927.38
589.925	25198.79
590.284	25359.46
590.643	25686.91
591.003	25973.23
591.362	26180.91
591.721	26268.81
592.08	26658.18
592.44	26882.81
592.799	27140.43
593.158	27409.12
593.517	27631.94
593.876	27885.27
594.235	28071.48
594.593	28300.63
594.952	28589.66
595.311	28831.46
595.67	29111.23
596.029	29435.74
596.387	29693.13
596.746	29970.41
597.104	29853.58
597.463	30247.02
597.822	30580.34
598.18	30690.39
598.538	30964.51
598.897	31337.38
599.255	31448.11
599.613	31889.68
599.972	31850.36
600.33	32260.52
600.688	32321.31
601.046	32572.15
601.404	33012.82
601.762	33015.76
602.12	33366.71
602.478	33572.8
602.836	33662.29
603.194	33733.7
603.552	34011.21
603.91	34136.18
604.268	34535.04
604.625	34471.09
604.983	34838.31
605.341	34877.18
605.698	35036.27
606.056	35421.79
606.413	35486.88
606.771	35716.7
607.128	35979.07
607.485	35953.98
607.843	36065.17
608.2	36341.54
608.557	36738.14
608.914	36684.81
609.272	36941.3
609.629	37141.52
609.986	37366.38
610.343	37238.02
610.7	37734.95
611.057	37710.77
611.414	37792.58
611.771	38013.36
612.127	38334.49
612.484	38425.56
612.841	38691.31
613.198	38618.77
613.554	38737.87
613.911	39004.75
614.267	38989.38
614.624	39049.72
614.98	39347.34
615.337	39442.03
615.693	39617.16
616.05	39488.81
616.406	39919.08
616.762	39791.62
617.118	39945.74
617.475	40098.28
617.831	40105.74
618.187	40162.91
618.543	40314.55
618.899	40738.04
619.255	40569.46
619.611	40622.34
619.967	40744.82
620.323	41020.29
620.678	40936
621.034	40895.32
621.39	40986.62
621.746	40994.98
622.101	41541.63
622.457	41170.57
622.812	41337.35
623.168	41474.52
623.523	41499.83
623.879	41782.98
624.234	41450.11
624.589	41758.13
624.945	41837.67
625.3	41857.33
625.655	42025.24
626.01	41950.89
626.365	41995.18
626.72	41933.04
627.075	41990.21
627.43	41930.32
627.785	42051.9
628.14	42099.59
628.495	42217.77
628.85	42137.78
629.205	42162.41
629.559	42462.06
629.914	42152.24
630.269	42294.16
630.623	42194.05
630.978	42193.14
631.332	42275.85
631.687	42395.85
632.041	42273.37
632.396	42431.33
632.75	42276.98
633.104	42408.96
633.459	42138.68
633.813	42235.63
634.167	42302.29
634.521	42239.02
634.875	42333.93
635.229	42388.39
635.583	42071.34
635.937	42187.94
636.291	42285.57
636.645	42152.69
636.999	42102.52
637.352	42199.47
637.706	42151.34
638.06	42220.71
638.413	42161.73
638.767	42036.31
639.121	42157.44
639.474	41918.35
639.828	41974.84
640.181	42046.03
640.534	42010.77
640.888	41860.72
641.241	41847.39
641.594	42020.49
641.947	42092.13
642.301	41791.57
642.654	41920.15
643.007	41907.5
643.36	41872.02
643.713	41870.66
644.066	41935.07
644.419	41747.73
644.771	41528.53
645.124	41208.31
645.477	41099.61
645.83	40855.78
646.182	40769.9
646.535	40538.5
646.888	40735.33
647.24	40514.99
647.593	40761.99
647.945	40565.61
648.298	40429.57
648.65	40420.08
649.002	40285.4
649.355	40562.9
649.707	40447.43
650.059	40607.19
650.411	41195.43
650.763	41123.79
651.115	41425.03
651.467	41246.27
651.819	41477
652.171	41223.9
652.523	41175.99
652.875	41240.17
653.227	41171.93
653.578	41368.76
653.93	41218.93
654.282	41153.17
654.633	41018.03
654.985	41140.74
655.337	41130.57
655.688	41054.19
656.039	41359.94
656.391	41000.4
656.742	40987.98
657.094	40986.62
657.445	41095.32
657.796	41126.28
658.147	41054.19
658.498	40920.41
658.849	41024.36
659.2	40914.98
659.551	40985.04
659.902	40862.78
660.253	41030.23
660.604	41061.19
660.955	40745.72
661.306	40863.91
661.656	40835.66
662.007	40914.98
662.358	40754.31
662.708	40890.35
663.059	40644.48
663.409	40639.51
663.76	40803.57
664.11	40864.14
664.461	40791.14
664.811	40770.58
665.161	40771.03
665.511	40694.65
665.862	40627.99
666.212	40861.88
666.562	40752.28
666.912	40707.76
667.262	40712.28
667.612	40694.88
667.962	40747.98
668.312	40586.4
668.662	40956.79
669.011	40730.81
669.361	40778.72
669.711	40635.22
670.06	40608.1
670.41	40615.1
670.76	40580.98
671.109	40732.16
671.459	40728.55
671.808	40574.43
672.157	40691.71
672.507	40365.17
672.856	40509.8
673.205	40567.42
673.554	40639.28
673.904	40556.8
674.253	40656.01
674.602	40599.96
674.951	39884.73
675.3	39841.79
675.649	40375.56
675.998	40279.97
676.346	40321.55
676.695	40583.01
677.044	40179.64
677.393	40304.83
677.741	40353.19
678.09	40267.09
678.438	40052.41
678.787	40256.47
679.135	40154.1
679.484	39917.04
679.832	40185.96
680.181	39793.43
680.529	40064.61
680.877	39849.02
681.225	39930.15
681.573	40112.97
681.922	39793.43
682.27	39793.88
682.618	39739.2
682.966	39556.38
683.314	39688.35
683.661	39452.88
684.009	39465.08
684.357	39395.7
684.705	39303.05
685.053	39421.92
685.4	39289.72
685.748	39195.25
686.095	39192.54
686.443	39078.87
686.79	38947.8
687.138	39070.06
687.485	39091.98
687.832	38752.1
688.18	38936.73
688.527	38761.82
688.874	38683.63
689.221	38563.18
689.568	38483.18
689.915	38454.03
690.262	38366.12
690.609	38304.88
690.956	38210.87
691.303	38117.77
691.65	38104.89
691.997	38045.45
692.344	37720.04
692.69	37833.03
693.037	37726.82
693.383	37384.68
693.73	37481.85
694.077	37211.13
694.423	37311.01
694.769	37241.18
695.116	37166.16
695.462	37087.97
695.808	37033.73
696.155	37090.45
696.501	36793.06
696.847	36849.55
697.193	36541.77
697.539	36585.83
697.885	36326.4
698.231	36434.65
698.577	36386.52
698.923	36271.94
699.269	36092.06
699.614	35958.96
699.96	35961.22
700.306	35987.2
700.651	35792.63
700.997	35727.1
701.342	35569.36
701.688	35523.71
702.033	35507.44
702.379	35358.97
702.724	35250.5
703.069	35467.44
703.415	35051.41
703.76	35054.35
704.105	34990.17
704.45	34918.76
704.795	34767.57
705.14	34565.77
705.485	34538.2
705.83	34493.23
706.175	34484.64
706.52	34359.68
706.865	34290.3
707.209	34307.47
707.554	34048.72
707.899	34147.93
708.243	33996.97
708.588	33970.31
708.932	33655.51
709.277	33719.92
709.621	33807.15
709.966	33542.52
710.31	33594.5
710.654	33209.42
710.998	33374.84
711.342	33314.51
711.687	33263.89
712.031	33062.99
712.375	33007.39
712.719	33036.09
713.063	32979.15
713.407	33068.18
713.75	32869.55
714.094	32834.07
714.438	32652.83
714.782	32688.08
715.125	32541.64
715.469	32658.25
715.812	32594.52
716.156	32396.79
716.499	32370.58
716.843	32487.86
717.186	32194.08
717.53	32320.63
717.873	32281.99
718.216	32267.53
718.559	32044.48
718.902	31847.65
719.246	31954.77
719.589	31848.33
719.932	31707.99
720.275	31688.79
720.617	31769.46
720.96	31624.38
721.303	31672.74
721.646	31644.04
721.989	31429.36
722.331	31381.67
722.674	31400.43
723.016	31519.75
723.359	31476.81
723.701	31335.12
724.044	31116.82
724.386	30976.49
724.729	31217.16
725.071	31021.46
725.413	31060.78
725.755	30971.29
726.097	30934
726.439	30695.37
726.782	30845.87
727.124	30892.87
727.465	30766.32
727.807	30807.68
728.149	30518.42
728.491	30562.04
728.833	30597.06
729.175	30492.21
729.516	30446.11
729.858	30423.28
730.199	30437.29
730.541	30325.21
730.882	30210.18
731.224	30285.66
731.565	30147.36
731.906	30165.66
732.248	30225.77
732.589	29975.84
732.93	29929.06
733.271	29858.33
733.612	29888.83
733.953	29877.99
734.294	29729.29
734.635	29809.51
734.976	29856.07
735.317	29576.98
735.658	29492.91
735.999	29663.98
736.339	29656.75
736.68	29579.01
737.021	29510.09
737.361	29396.19
737.702	29475.74
738.042	29379.02
738.383	29353.25
738.723	29449.07
739.063	29186.93
739.404	29310.77
739.744	29237.55
740.084	29080.72
740.424	29105.58
740.764	29107.61
741.104	29112.81
741.444	28984.68
741.784	28932.93
742.124	29055.41
742.464	28906.26
742.804	28828.3
743.143	28730.9
743.483	28887.5
743.823	28798.69
744.162	28763.89
744.502	28741.29
744.841	28547.4
745.181	28783.78
745.52	28521.41
745.86	28553.95
746.199	28448.64
746.538	28464.46
746.877	28505.59
747.216	28372.71
747.556	28337.01
747.895	28394.86
748.234	28168.2
748.573	28013.85
748.911	28122.1
749.25	28171.36
749.589	27965.04
749.928	27954.42
750.267	28004.14
750.605	27945.16
750.944	27880.3
751.283	27738.38
751.621	27824.03
751.96	27654.32
752.298	27692.05
752.636	27648.21
752.975	27492.51
753.313	27411.16
753.651	27476.69
753.989	27261.78
754.327	27338.17
754.666	27123.48
755.004	27341.33
755.342	27296.58
755.679	27171.62
756.017	26989.7
756.355	27111.5
756.693	26899.31
757.031	27009.13
757.368	26817.95
757.706	26716.26
