Data from hue_190_FLMS001491_00076.txt Node
Date: Tue Feb 07 16:45:45 GMT 2017
User: dcchb
Spectrometer: FLMS00149
Trigger mode: 0
Integration Time (sec): 2.000000E-2
Scans to average: 10
Electric dark correction enabled: true
Nonlinearity correction enabled: false
Boxcar width: 0
XAxis mode: Wavelengths
Number of Pixels in Spectrum: 2048
>>>>>Begin Spectral Data<<<<<
341.393	-5.07
341.776	-5.07
342.16	-5.07
342.543	-63.83
342.927	-65.63
343.31	-72.19
343.693	-78.06
344.077	-58.63
344.46	-49.14
344.843	-39.42
345.226	-26.09
345.61	-38.52
345.993	-23.15
346.376	-7.78
346.759	-0.32
347.142	18.88
347.525	43.29
347.908	36.28
348.291	86.68
348.674	85.1
349.057	123.06
349.44	128.49
349.823	137.98
350.206	173.23
350.588	198.99
350.971	213.45
351.354	231.31
351.737	242.38
352.119	254.36
352.502	259.78
352.884	262.27
353.267	290.97
353.65	292.1
354.032	289.16
354.414	302.04
354.797	318.08
355.179	305.43
355.562	305.2
355.944	324.64
356.326	321.93
356.709	334.58
357.091	349.72
357.473	354.47
357.855	355.6
358.238	330.06
358.62	354.92
359.002	341.81
359.384	335.94
359.766	349.27
360.148	336.39
360.53	335.71
360.912	335.03
361.294	329.61
361.676	342.72
362.057	332.1
362.439	321.25
362.821	308.14
363.203	333
363.584	334.13
363.966	318.76
364.348	330.29
364.729	323.51
365.111	319.67
365.493	338.88
365.874	314.24
366.256	326.67
366.637	329.38
367.019	319.67
367.4	316.73
367.781	316.5
368.163	301.81
368.544	309.27
368.925	321.25
369.306	307.24
369.688	305.66
370.069	312.21
370.45	308.14
370.831	297.75
371.212	306.79
371.593	289.39
371.974	306.79
372.355	313.11
372.736	314.24
373.117	308.14
373.498	323.28
373.879	329.16
374.26	316.28
374.641	323.96
375.021	311.08
375.402	309.72
375.783	341.36
376.163	329.38
376.544	325.77
376.925	331.19
377.305	328.48
377.686	316.95
378.066	314.7
378.447	320.57
378.827	329.16
379.208	303.62
379.588	334.58
379.968	330.29
380.349	335.94
380.729	342.72
381.109	340.01
381.489	342.72
381.87	330.29
382.25	330.06
382.63	337.75
383.01	348.82
383.39	330.51
383.77	339.33
384.15	345.65
384.53	336.62
384.91	341.59
385.29	339.33
385.67	334.13
386.049	342.94
386.429	335.71
386.809	358.76
387.189	336.84
387.568	354.69
387.948	360.34
388.328	365.09
388.707	348.37
389.087	354.92
389.466	353.34
389.846	351.3
390.225	358.76
390.605	359.44
390.984	376.16
391.363	357.63
391.743	347.24
392.122	362.38
392.501	360.8
392.881	365.54
393.26	349.04
393.639	368.03
394.018	390.4
394.397	372.09
394.776	373.45
395.155	401.7
395.534	379.1
395.913	396.95
396.292	384.98
396.671	386.78
397.05	383.85
397.429	391.53
397.808	384.75
398.186	411.64
398.565	391.76
398.944	398.08
399.323	402.38
399.701	403.05
400.08	410.96
400.458	408.93
400.837	409.16
401.215	410.29
401.594	405.77
401.972	414.58
402.351	409.16
402.729	424.07
403.107	417.74
403.486	424.52
403.864	440.57
404.242	427.23
404.62	435.37
404.999	418.65
405.377	444.86
405.755	436.95
406.133	435.6
406.511	449.61
406.889	439.21
407.267	464.07
407.645	465.43
408.023	476.05
408.401	470.4
408.779	464.07
409.156	504.75
409.534	472.21
409.912	478.76
410.29	492.32
410.667	505.65
411.045	519.66
411.422	519.44
411.8	531.64
412.178	522.83
412.555	540.68
412.933	552.88
413.31	562.15
413.687	562.82
414.065	567.12
414.442	573.9
414.819	597.85
415.197	602.6
415.574	613.44
415.951	612.54
416.328	621.81
416.705	623.84
417.082	641.47
417.46	649.83
417.837	643.73
418.214	666.55
418.591	663.84
418.967	673.1
419.344	685.53
419.721	685.31
420.098	690.96
420.475	722.82
420.852	710.62
421.228	734.57
421.605	714.68
421.982	767.56
422.358	774.57
422.735	766.21
423.111	773.21
423.488	807.56
423.864	810.73
424.241	850.05
424.617	822.48
424.994	851.63
425.37	868.8
425.746	861.12
426.123	896.83
426.499	910.61
426.875	912.19
427.251	940.22
427.627	929.37
428.003	934.57
428.379	921.91
428.756	950.84
429.132	966.43
429.507	980.67
429.883	993.55
430.259	1005.3
430.635	1024.96
431.011	1016.6
431.387	1026.31
431.763	1059.99
432.138	1063.83
432.514	1102.47
432.89	1084.39
433.265	1125.75
433.641	1148.8
434.016	1160.55
434.392	1206.88
434.767	1218.4
435.143	1217.27
435.518	1233.09
435.894	1270.83
436.269	1315.57
436.644	1334.56
437.02	1354.44
437.395	1357.15
437.77	1390.37
438.145	1395.12
438.52	1396.25
438.895	1444.61
439.271	1422.01
439.646	1507.21
440.021	1541.1
440.395	1537.04
440.77	1538.39
441.145	1534.1
441.52	1586.98
441.895	1593.08
442.27	1612.51
442.645	1617.49
443.019	1672.85
443.394	1660.87
443.769	1676.47
444.143	1707.65
444.518	1696.58
444.892	1694.32
445.267	1742.91
445.641	1744.26
446.016	1780.19
446.39	1789.01
446.764	1816.8
447.139	1853.64
447.513	1838.5
447.887	1852.51
448.262	1902.68
448.636	1873.75
449.01	1858.61
449.384	1895.44
449.758	1926.18
450.132	1930.92
450.506	1951.04
450.88	1967.31
451.254	1963.69
451.628	1994.65
452.002	2045.5
452.376	2026.29
452.75	2072.84
453.123	2075.78
453.497	2126.62
453.871	2113.29
454.244	2168.66
454.618	2186.74
454.992	2220.86
455.365	2238.49
455.739	2300.86
456.112	2291.59
456.486	2309.44
456.859	2323.68
457.232	2356.9
457.606	2370.69
457.979	2423.11
458.352	2435.77
458.725	2523
459.099	2539.27
459.472	2590.12
459.845	2576.1
460.218	2587.18
460.591	2632.15
460.964	2658.14
461.337	2746.27
461.71	2734.97
462.083	2786.72
462.456	2800.73
462.829	2799.6
463.201	2855.65
463.574	2873.05
463.947	2932.25
464.32	3012.7
464.692	2988.98
465.065	2995.08
465.438	3083.66
465.81	3124.79
466.183	3175.64
466.555	3223.32
466.928	3218.57
467.3	3255.63
467.672	3315.07
468.045	3430.77
468.417	3418.79
468.789	3423.31
469.161	3496.76
469.534	3522.75
469.906	3605.23
470.278	3621.95
470.65	3669.41
471.022	3747.37
471.394	3822.63
471.766	3844.09
472.138	3917.09
472.51	3981.27
472.882	4012.45
473.253	4121.6
473.625	4142.39
473.997	4240.69
474.369	4267.81
474.74	4313.69
475.112	4407.92
475.484	4474.59
475.855	4569.05
476.227	4622.6
476.598	4715.48
476.97	4772.66
477.341	4903.95
477.713	4912.99
478.084	5021.69
478.455	5149.37
478.827	5179.43
479.198	5340.33
479.569	5350.95
479.94	5485.41
480.311	5553.65
480.682	5643.82
481.053	5773.31
481.424	5833.42
481.795	5896.24
482.166	5995
482.537	6055.79
482.908	6225.05
483.279	6301.43
483.65	6425.95
484.021	6485.38
484.391	6597.47
484.762	6656.68
485.133	6732.83
485.503	6821.42
485.874	6936.89
486.244	7060.28
486.615	7202.65
486.985	7265.7
487.356	7362.19
487.726	7441.29
488.097	7604.9
488.467	7543.43
488.837	7746.36
489.207	7876.53
489.578	7942.52
489.948	8045.79
490.318	8145.68
490.688	8188.39
491.058	8348.16
491.428	8439.68
491.798	8521.48
492.168	8615.95
492.538	8727.13
492.908	8754.93
493.278	8888.71
493.648	8860.23
494.017	8977.97
494.387	9110.17
494.757	9101.13
495.126	9196.95
495.496	9269.49
495.866	9300.22
496.235	9319.88
496.605	9401.91
496.974	9518.07
497.344	9547.9
497.713	9595.81
498.082	9629.48
498.452	9741.11
498.821	9789.7
499.19	9829.47
499.559	9838.29
499.928	9946.53
500.298	9973.88
500.667	9994.89
501.036	10001.45
501.405	10067.43
501.774	10099.97
502.143	10170.48
502.512	10181.55
502.88	10316.69
503.249	10199.86
503.618	10223.36
503.987	10254.55
504.356	10298.16
504.724	10338.39
505.093	10307.2
505.462	10358.5
505.83	10421.1
506.199	10496.35
506.567	10544.71
506.936	10522.79
507.304	10677.59
507.672	10642.11
508.041	10619.06
508.409	10735.44
508.777	10735.44
509.145	10786.51
509.514	10786.28
509.882	10828.54
510.25	10817.92
510.618	10864.7
510.986	10826.74
511.354	10885.26
511.722	10935.66
512.09	10994.41
512.458	10925.26
512.826	10976.79
513.193	11009.78
513.561	10981.76
513.929	11036.67
514.297	11103.79
514.664	11114.86
515.032	11071.93
515.4	11120.74
515.767	11155.31
516.135	11156.9
516.502	11061.08
516.869	11183.34
517.237	11190.12
517.604	11066.73
517.972	11171.36
518.339	11150.79
518.706	11258.36
519.073	11148.76
519.44	11137.01
519.808	11195.31
520.175	11221.53
520.542	11249.32
520.909	11252.26
521.276	11212.94
521.643	11323.22
522.009	11196.44
522.376	11305.59
522.743	11273.73
523.11	11349.89
523.477	11334.74
523.843	11286.84
524.21	11437.57
524.577	11362.99
524.943	11371.13
525.31	11348.3
525.676	11454.06
526.043	11379.49
526.409	11403.67
526.776	11344.01
527.142	11380.17
527.508	11358.7
527.874	11358.25
528.241	11354.4
528.607	11304.91
528.973	11371.58
529.339	11283.9
529.705	11405.7
530.071	11431.01
530.437	11278.02
530.803	11307.17
531.169	11290.9
531.535	11241.19
531.901	11199.38
532.267	11165.94
532.632	11175.2
532.998	11045.94
533.364	11134.52
533.73	11031.48
534.095	11126.84
534.461	11008.43
534.826	11018.37
535.192	10914.87
535.557	10895.43
535.923	10857.02
536.288	10870.35
536.653	10783.12
537.019	10721.88
537.384	10730.69
537.749	10699.51
538.114	10647.3
538.479	10621.77
538.845	10572.05
539.21	10465.39
539.575	10465.16
539.94	10467.87
540.305	10434.88
540.67	10295.45
541.034	10257.71
541.399	10230.14
541.764	10209.58
542.129	10123.25
542.494	10118.73
542.858	10082.12
543.223	10038.73
543.587	10060.88
543.952	9922.13
544.316	9931.39
544.681	9896.14
545.045	9834.9
545.41	9748.57
545.774	9742.7
546.138	9739.53
546.503	9629.25
546.867	9510.84
547.231	9558.07
547.595	9564.4
547.959	9502.02
548.324	9368.24
548.688	9361.46
549.052	9326.44
549.416	9209.38
549.779	9214.8
550.143	9167.12
550.507	9283.27
550.871	9083.73
551.235	9036.73
551.599	9076.5
551.962	9024.52
552.326	8985.88
552.689	8876.05
553.053	8814.36
553.417	8874.7
553.78	8929.38
554.143	8769.16
554.507	8721.25
554.87	8705.89
555.234	8741.37
555.597	8624.31
555.96	8595.38
556.323	8568.94
556.686	8510.19
557.05	8584.99
557.413	8488.27
557.776	8502.28
558.139	8474.25
558.502	8382.51
558.865	8389.51
559.228	8406.91
559.59	8428.15
559.953	8330.76
560.316	8312.45
560.679	8352.68
561.041	8308.16
561.404	8352.45
561.767	8307.71
562.129	8252.11
562.492	8298.89
562.854	8229.29
563.217	8279.46
563.579	8276.29
563.941	8246.46
564.304	8250.53
564.666	8248.72
565.028	8207.82
565.39	8199.01
565.753	8167.37
566.115	8180.7
566.477	8219.57
566.839	8223.41
567.201	8191.55
567.563	8205.56
567.925	8205.11
568.287	8201.95
568.648	8210.98
569.01	8199.69
569.372	8212.57
569.734	8185.45
570.095	8163.08
570.457	8240.14
570.819	8151.55
571.18	8156.52
571.542	8210.98
571.903	8179.8
572.265	8180.25
572.626	8157.2
572.987	8195.84
573.349	8216.41
573.71	8157.65
574.071	8174.38
574.432	8088.28
574.794	8277.42
575.155	8198.33
575.516	8164.43
575.877	8161.04
576.238	8185.67
576.599	8142.29
576.96	8197.88
577.32	8109.52
577.681	8190.87
578.042	8218.67
578.403	8128.73
578.763	8105.68
579.124	8233.36
579.485	8163.75
579.845	8163.3
580.206	8166.92
580.566	8140.48
580.927	8130.76
581.287	8118.78
581.648	8088.05
582.008	8082.4
582.368	8061.61
582.728	8122.4
583.089	8132.34
583.449	8043.98
583.809	8072.01
584.169	8057.77
584.529	8035.17
584.889	8094.15
585.249	8063.87
585.609	8023.64
585.969	8027.94
586.329	8036.75
586.688	8049.86
587.048	8029.52
587.408	7990.65
587.768	7979.35
588.127	7961.05
588.487	7931.44
588.846	7987.26
589.206	7914.27
589.565	7937.09
589.925	7971.89
590.284	7937.32
590.643	7941.16
591.003	7949.52
591.362	7865.23
591.721	7933.25
592.08	7895.96
592.44	7868.17
592.799	7880.15
593.158	7879.47
593.517	7888.06
593.876	7897.55
594.235	7897.77
594.593	7813.26
594.952	7815.74
595.311	7828.17
595.67	7778
596.029	7908.85
596.387	7864.78
596.746	7865.46
597.104	7813.93
597.463	7816.64
597.822	7843.99
598.18	7760.38
598.538	7796.98
598.897	7781.39
599.255	7727.16
599.613	7792.69
599.972	7793.14
600.33	7754.73
600.688	7746.14
601.046	7800.37
601.404	7763.54
601.762	7777.78
602.12	7790.88
602.478	7786.82
602.836	7804.67
603.194	7737.32
603.552	7766.7
603.91	7692.58
604.268	7712.47
604.625	7695.97
604.983	7752.69
605.341	7700.94
605.698	7727.16
606.056	7725.35
606.413	7756.08
606.771	7723.09
607.128	7759.7
607.485	7676.54
607.843	7682.19
608.2	7750.88
608.557	7746.36
608.914	7690.77
609.272	7741.62
609.629	7735.06
609.986	7802.86
610.343	7674.73
610.7	7743.43
611.057	7808.51
611.414	7745.69
611.771	7763.99
612.127	7792.46
612.484	7764.67
612.841	7785.23
613.198	7814.38
613.554	7762.18
613.911	7831.56
614.267	7800.15
614.624	7813.71
614.98	7825.46
615.337	7820.94
615.693	7843.76
616.05	7827.04
616.406	7822.07
616.762	7821.39
617.118	7832.01
617.475	7854.84
617.831	7822.75
618.187	7832.24
618.543	7852.8
618.899	7823.42
619.255	7868.39
619.611	7805.35
619.967	7902.52
620.323	7875.63
620.678	7843.99
621.034	7851.9
621.39	7777.78
621.746	7800.37
622.101	7912.46
622.457	7838.57
622.812	7883.54
623.168	7896.42
623.523	7812.58
623.879	7951.78
624.234	7816.19
624.589	7933.25
624.945	7851.67
625.3	7824.33
625.655	7824.1
626.01	7854.61
626.365	7872.24
626.72	7832.46
627.075	7866.13
627.43	7865.68
627.785	7829.07
628.14	7807.38
628.495	7873.14
628.85	7848.06
629.205	7769.19
629.559	7817.1
629.914	7807.38
630.269	7786.82
630.623	7754.05
630.978	7773.71
631.332	7811.67
631.687	7806.93
632.041	7722.64
632.396	7806.93
632.75	7697.33
633.104	7749.98
633.459	7703.65
633.813	7704.11
634.167	7695.74
634.521	7710.88
634.875	7730.32
635.229	7677.44
635.583	7690.55
635.937	7646.48
636.291	7690.09
636.645	7661.39
636.999	7623.66
637.352	7642.41
637.706	7589.98
638.06	7573.71
638.413	7547.73
638.767	7505.24
639.121	7584.11
639.474	7539.36
639.828	7482.87
640.181	7545.01
640.534	7509.31
640.888	7517.44
641.241	7486.71
641.594	7468.86
641.947	7530.32
642.301	7486.94
642.654	7501.85
643.007	7532.81
643.36	7491
643.713	7475.41
644.066	7439.48
644.419	7423.43
644.771	7399.93
645.124	7329.88
645.477	7396.54
645.83	7355.64
646.182	7268.41
646.535	7219.6
646.888	7260.5
647.24	7235.42
647.593	7219.15
647.945	7197.9
648.298	7167.17
648.65	7204.68
649.002	7115.42
649.355	7203.78
649.707	7196.1
650.059	7263.89
650.411	7288.07
650.763	7324
651.115	7383.89
651.467	7348.41
651.819	7379.14
652.171	7399.48
652.523	7315.19
652.875	7405.36
653.227	7334.4
653.578	7334.62
653.93	7372.14
654.282	7357.9
654.633	7350.22
654.985	7344.57
655.337	7423.21
655.688	7368.29
656.039	7377.56
656.391	7345.92
656.742	7357.9
657.094	7387.5
657.445	7390.67
657.796	7364.68
658.147	7305.47
658.498	7433.6
658.849	7379.59
659.2	7381.4
659.551	7387.96
659.902	7406.71
660.253	7417.11
660.604	7399.71
660.955	7393.83
661.306	7420.05
661.656	7415.3
662.007	7467.95
662.358	7470.44
662.708	7394.28
663.059	7403.1
663.409	7387.96
663.76	7393.38
664.11	7475.18
664.461	7443.55
664.811	7498.69
665.161	7398.35
665.511	7414.17
665.862	7447.39
666.212	7477.9
666.562	7487.39
666.912	7448.52
667.262	7442.19
667.612	7441.29
667.962	7447.61
668.312	7456.2
668.662	7429.76
669.011	7388.18
669.361	7406.26
669.711	7388.41
670.06	7417.56
670.41	7372.81
670.76	7379.59
671.109	7371.91
671.459	7396.99
671.808	7408.07
672.157	7390.67
672.507	7342.76
672.856	7366.26
673.205	7313.83
673.554	7385.47
673.904	7338.24
674.253	7342.31
674.602	7411.23
674.951	7222.08
675.3	7171.01
675.649	7328.75
675.998	7321.52
676.346	7324.91
676.695	7362.42
677.044	7277.9
677.393	7309.09
677.741	7391.57
678.09	7301.18
678.438	7287.39
678.787	7312.93
679.135	7301.86
679.484	7222.08
679.832	7296.88
680.181	7213.04
680.529	7227.73
680.877	7157.45
681.225	7178.92
681.573	7269.09
681.922	7155.65
682.27	7132.59
682.618	7169.2
682.966	7110.45
683.314	7103.9
683.661	7080.62
684.009	6964.69
684.357	7062.77
684.705	7025.25
685.053	7034.52
685.4	7032.94
685.748	7025.71
686.095	6971.7
686.443	6972.15
686.79	6950.68
687.138	6953.39
687.485	6952.03
687.832	6923.56
688.18	6889.21
688.527	6887.86
688.874	6813.73
689.221	6814.19
689.568	6809.89
689.915	6806.5
690.262	6739.38
690.609	6758.82
690.956	6786.16
691.303	6745.26
691.65	6773.06
691.997	6708.65
692.344	6627.07
692.69	6639.27
693.037	6644.92
693.383	6517.47
693.73	6579.84
694.077	6523.12
694.423	6494.87
694.769	6508.2
695.116	6474.76
695.462	6443.35
695.808	6404.48
696.155	6409.9
696.501	6388.66
696.847	6343.01
697.193	6269.11
697.539	6316.35
697.885	6285.39
698.231	6260.75
698.577	6248.55
698.923	6199.29
699.269	6157.48
699.614	6192.73
699.96	6109.12
700.306	6139.17
700.651	6114.32
700.997	6105.5
701.342	6039.52
701.688	6100.98
702.033	6047.43
702.379	6032.74
702.724	5966.98
703.069	5997.26
703.415	5938.73
703.76	5978.95
704.105	5933.08
704.45	5922.68
704.795	5880.88
705.14	5857.6
705.485	5803.14
705.83	5788.22
706.175	5806.98
706.52	5788.22
706.865	5746.64
707.209	5757.94
707.554	5717.26
707.899	5695.57
708.243	5695.57
708.588	5666.87
708.932	5661.67
709.277	5656.25
709.621	5610.15
709.966	5583.71
710.31	5615.12
710.654	5531.28
710.998	5575.57
711.342	5626.42
711.687	5533.09
712.031	5481.79
712.375	5537.61
712.719	5489.25
713.063	5497.61
713.407	5536.25
713.75	5497.38
714.094	5499.64
714.438	5421.45
714.782	5466.42
715.125	5433.66
715.469	5425.52
715.812	5404.28
716.156	5369.7
716.499	5367.67
716.843	5356.37
717.186	5398.63
717.53	5404.05
717.873	5354.11
718.216	5386.43
718.559	5342.81
718.902	5312.98
719.246	5383.49
719.589	5324.51
719.932	5305.98
720.275	5333.77
720.617	5306.65
720.96	5291.74
721.303	5243.83
721.646	5325.41
721.989	5241.57
722.331	5256.71
722.674	5281.8
723.016	5294.9
723.359	5259.88
723.701	5264.4
724.044	5236.6
724.386	5239.76
724.729	5230.72
725.071	5252.19
725.413	5227.11
725.755	5272.76
726.097	5197.96
726.439	5190.05
726.782	5223.72
727.124	5174.45
727.465	5227.33
727.807	5209.48
728.149	5230.95
728.491	5235.92
728.833	5211.29
729.175	5196.6
729.516	5151.18
729.858	5178.07
730.199	5220.1
730.541	5160.22
730.882	5212.65
731.224	5274.34
731.565	5185.53
731.906	5211.52
732.248	5181.23
732.589	5256.71
732.93	5138.52
733.271	5161.12
733.612	5220.33
733.953	5187.34
734.294	5186.21
734.635	5173.78
734.976	5183.95
735.317	5225.07
735.658	5202.25
735.999	5223.49
736.339	5198.18
736.68	5263.27
737.021	5209.26
737.361	5192.98
737.702	5232.53
738.042	5219.42
738.383	5293.32
738.723	5228.01
739.063	5253.32
739.404	5297.84
739.744	5278.18
740.084	5262.14
740.424	5313.21
740.764	5325.41
741.104	5344.85
741.444	5341
741.784	5290.16
742.124	5353.66
742.464	5357.05
742.804	5374.45
743.143	5420.55
743.483	5403.15
743.823	5390.49
744.162	5443.15
744.502	5461
744.841	5474.11
745.181	5543.03
745.52	5583.03
745.86	5594.56
746.199	5587.78
746.538	5651.05
746.877	5709.36
747.216	5697.6
747.556	5744.83
747.895	5758.17
748.234	5838.39
748.573	5886.53
748.911	5962.23
749.25	5996.35
749.589	6046.75
749.928	6131.72
750.267	6175.11
750.605	6211.94
750.944	6293.29
751.283	6243.35
751.621	6440.18
751.96	6552.72
752.298	6580.29
752.636	6670.23
752.975	6695.54
753.313	6827.74
753.651	6949.55
753.989	7120.17
754.327	7142.09
754.666	7248.3
755.004	7365.58
755.342	7552.02
755.679	7657.1
756.017	7697.78
756.355	7884.44
756.693	7989.3
757.031	8154.26
757.368	8257.54
757.706	8408.72
758.044	8580.92
758.381	8692.55
758.719	8782.72
759.056	8993.79
759.394	9137.97
759.731	9291.41
760.068	9410.95
760.405	9577.28
760.743	9779.08
761.08	9975.01
761.417	10083.25
761.754	10288.44
762.091	10442.34
762.428	10623.58
762.765	10622.22
763.102	10941.08
763.438	11089.1
763.775	11251.58
764.112	11442.99
764.449	11689.76
764.785	11756.43
765.122	11826.26
765.458	12021.51
765.795	12259.47
766.131	12380.14
766.467	12578.55
766.804	12680.7
