Data from hue_240_FLMS001491_00064.txt Node
Date: Tue Feb 07 16:35:48 GMT 2017
User: dcchb
Spectrometer: FLMS00149
Trigger mode: 0
Integration Time (sec): 2.000000E-2
Scans to average: 10
Electric dark correction enabled: true
Nonlinearity correction enabled: false
Boxcar width: 0
XAxis mode: Wavelengths
Number of Pixels in Spectrum: 2048
>>>>>Begin Spectral Data<<<<<
341.393	-5.3
341.776	-5.3
342.16	-5.3
342.543	-60.66
342.927	-76.26
343.31	-71.74
343.693	-63.6
344.077	-45.97
344.46	-29.48
344.843	-51.85
345.226	-54.79
345.61	-31.96
345.993	-19.08
346.376	-8.69
346.759	15.27
347.142	27.25
347.525	27.47
347.908	68.83
348.291	68.37
348.674	69.28
349.057	100.69
349.44	136.39
349.823	132.1
350.206	171.2
350.588	180.91
350.971	208.94
351.354	219.78
351.737	224.3
352.119	236.96
352.502	253
352.884	266.79
353.267	281.48
353.65	260.46
354.032	290.74
354.414	298.42
354.797	294.13
355.179	311.08
355.562	308.37
355.944	331.64
356.326	332.77
356.709	319.44
357.091	303.85
357.473	335.49
357.855	312.44
358.238	327.58
358.62	333
359.002	335.94
359.384	326.22
359.766	325.54
360.148	314.47
360.53	327.12
360.912	349.04
361.294	315.83
361.676	305.66
362.057	314.7
362.439	316.73
362.821	313.34
363.203	316.5
363.584	321.25
363.966	307.69
364.348	321.25
364.729	294.58
365.111	299.33
365.493	315.6
365.874	316.73
366.256	304.3
366.637	323.73
367.019	321.93
367.4	318.08
367.781	303.17
368.163	314.7
368.544	296.16
368.925	304.07
369.306	296.39
369.688	327.58
370.069	294.36
370.45	308.59
370.831	296.84
371.212	288.71
371.593	288.71
371.974	306.79
372.355	321.02
372.736	316.95
373.117	309.05
373.498	294.36
373.879	295.71
374.26	300.01
374.641	293.23
375.021	299.55
375.402	334.58
375.783	325.09
376.163	314.24
376.544	327.58
376.925	306.11
377.305	309.5
377.686	330.06
378.066	312.89
378.447	312.44
378.827	300.46
379.208	325.77
379.588	313.79
379.968	294.58
380.349	318.54
380.729	314.7
381.109	333.23
381.489	313.11
381.87	325.32
382.25	334.36
382.63	317.18
383.01	332.32
383.39	330.51
383.77	329.16
384.15	347.24
384.53	339.55
384.91	328.71
385.29	339.78
385.67	349.95
386.049	347.24
386.429	351.08
386.809	360.34
387.189	342.72
387.568	335.03
387.948	337.07
388.328	362.83
388.707	351.08
389.087	351.08
389.466	342.72
389.846	370.06
390.225	361.7
390.605	366.22
390.984	364.64
391.363	347.24
391.743	370.74
392.122	369.83
392.501	369.16
392.881	371.42
393.26	391.76
393.639	365.32
394.018	379.1
394.397	376.39
394.776	375.48
395.155	376.84
395.534	374.58
395.913	384.3
396.292	385.2
396.671	380.68
397.05	387.91
397.429	384.98
397.808	388.82
398.186	400.79
398.565	392.43
398.944	385.43
399.323	398.53
399.701	403.51
400.08	392.66
400.458	396.05
400.837	399.21
401.215	416.39
401.594	408.7
401.972	419.55
402.351	422.49
402.729	437.86
403.107	408.7
403.486	412.55
403.864	412.09
404.242	432.21
404.62	433.11
404.999	431.3
405.377	427.91
405.755	422.26
406.133	432.43
406.511	428.59
406.889	442.6
407.267	475.14
407.645	434.24
408.023	474.24
408.401	465.88
408.779	476.5
409.156	471.98
409.534	467.46
409.912	520.57
410.29	499.77
410.667	495.03
411.045	494.13
411.422	498.42
411.8	528.7
412.178	503.84
412.555	516.5
412.933	523.96
413.31	534.8
413.687	536.16
414.065	538.19
414.442	530.28
414.819	548.81
415.197	565.76
415.574	576.84
415.951	595.82
416.328	582.48
416.705	589.49
417.082	598.08
417.46	621.81
417.837	612.54
418.214	595.82
418.591	602.6
418.967	605.53
419.344	615.7
419.721	649.38
420.098	636.95
420.475	639.66
420.852	679.21
421.228	658.19
421.605	688.02
421.982	680.34
422.358	683.5
422.735	690.05
423.111	700
423.488	719.88
423.864	727.57
424.241	727.57
424.617	755.14
424.994	751.97
425.37	767.79
425.746	764.63
426.123	771.41
426.499	770.05
426.875	777.06
427.251	788.81
427.627	814.79
428.003	824.51
428.379	838.98
428.756	835.13
429.132	855.02
429.507	850.95
429.883	885.3
430.259	875.58
430.635	874.45
431.011	895.02
431.387	930.72
431.763	908.58
432.138	902.48
432.514	935.47
432.89	934.11
433.265	976.6
433.641	962.59
434.016	1010.95
434.392	1002.36
434.767	1038.97
435.143	1029.25
435.518	1018.41
435.894	1074.22
436.269	1082.36
436.644	1101.79
437.02	1111.74
437.395	1136.37
437.77	1144.96
438.145	1151.06
438.52	1161.23
438.895	1164.62
439.271	1178.4
439.646	1210.72
440.021	1233.99
440.395	1231.73
440.77	1224.95
441.145	1237.61
441.52	1224.28
441.895	1284.84
442.27	1303.82
442.645	1277.61
443.019	1291.17
443.394	1271.51
443.769	1318.96
444.143	1330.04
444.518	1344.72
444.892	1352.41
445.267	1368.45
445.641	1368.68
446.016	1375.46
446.39	1388.34
446.764	1381.11
447.139	1407.55
447.513	1440.54
447.887	1403.93
448.262	1424.27
448.636	1445.29
449.01	1452.74
449.384	1477.38
449.758	1493.42
450.132	1474.89
450.506	1525.06
450.88	1505.4
451.254	1499.07
451.628	1523.7
452.002	1556.24
452.376	1548.79
452.75	1589.92
453.123	1575.9
453.497	1638.28
453.871	1610.25
454.244	1642.34
454.618	1610.71
454.992	1666.52
455.365	1661.33
455.739	1688.22
456.112	1692.74
456.486	1720.53
456.859	1760.98
457.232	1767.09
457.606	1775.45
457.979	1782.68
458.352	1852.51
458.725	1830.14
459.099	1835.56
459.472	1902
459.845	1923.47
460.218	1904.26
460.591	1950.58
460.964	1935.9
461.337	1997.36
461.71	2021.99
462.083	2028.77
462.456	2044.14
462.829	2055.89
463.201	2073.29
463.574	2089.79
463.947	2109
464.32	2124.14
464.692	2157.58
465.065	2145.83
465.438	2192.16
465.81	2237.36
466.183	2258.37
466.555	2304.93
466.928	2315.32
467.3	2306.28
467.672	2315.55
468.045	2395.09
468.417	2394.41
468.789	2406.39
469.161	2483.68
469.534	2478.03
469.906	2515.99
470.278	2556.9
470.65	2570.46
471.022	2613.17
471.394	2663.56
471.766	2712.15
472.138	2689.32
472.51	2730.45
472.882	2785.36
473.253	2796.89
473.625	2852.03
473.997	2874.18
474.369	2883.44
474.74	2930.22
475.112	2978.13
475.484	3037.56
475.855	3090.67
476.227	3104.23
476.598	3176.31
476.97	3179.03
477.341	3294.73
477.713	3311.45
478.084	3268.74
478.455	3408.63
478.827	3409.75
479.198	3480.04
479.569	3462.86
479.94	3590.54
480.311	3599.13
480.682	3680.71
481.053	3775.17
481.424	3767.03
481.795	3805.45
482.166	3859.01
482.537	3886.58
482.908	3964.99
483.279	4017.87
483.65	4077.08
484.021	4126.8
484.391	4197.3
484.762	4235.72
485.133	4266.68
485.503	4271.2
485.874	4402.95
486.244	4428.94
486.615	4450.86
486.985	4524.75
487.356	4654.47
487.726	4673.68
488.097	4740.57
488.467	4749.38
488.837	4821.92
489.207	4853.78
489.578	4933.78
489.948	4985.08
490.318	4989.37
490.688	5031.86
491.058	5065.08
491.428	5179.2
491.798	5187.79
492.168	5247.67
492.538	5311.85
492.908	5349.82
493.278	5447.67
493.648	5369.93
494.017	5468.23
494.387	5536.48
494.757	5497.38
495.126	5627.55
495.496	5617.83
495.866	5663.93
496.235	5686.31
496.605	5738.06
496.974	5822.12
497.344	5792.52
497.713	5800.88
498.082	5854.21
498.452	5858.28
498.821	5888.11
499.19	5921.1
499.559	5962.68
499.928	6007.43
500.298	6051.72
500.667	6068.22
501.036	6056.47
501.405	6156.8
501.774	6079.06
502.143	6175.11
502.512	6168.55
502.88	6218.95
503.249	6234.54
503.618	6298.49
503.987	6247.65
504.356	6319.28
504.724	6317.93
505.093	6361.77
505.462	6356.34
505.83	6406.96
506.199	6460.3
506.567	6489
506.936	6439.51
507.304	6575.1
507.672	6602.21
508.041	6590.91
508.409	6599.95
508.777	6636.79
509.145	6627.3
509.514	6718.14
509.882	6737.35
510.25	6708.2
510.618	6717.46
510.986	6774.19
511.354	6829.33
511.722	6873.17
512.09	6912.94
512.458	6841.53
512.826	6924.46
513.193	6945.48
513.561	6901.41
513.929	7008.08
514.297	6958.36
514.664	7084.69
515.032	7016.67
515.4	7036.55
515.767	7056.21
516.135	7111.58
516.502	7060.51
516.869	7155.65
517.237	7147.96
517.604	7147.96
517.972	7156.1
518.339	7182.99
518.706	7202.65
519.073	7250.56
519.44	7222.76
519.808	7272.25
520.175	7254.85
520.542	7307.28
520.909	7352.7
521.276	7362.87
521.643	7363.55
522.009	7375.98
522.376	7442.19
522.743	7437.22
523.11	7462.76
523.477	7530.55
523.843	7494.39
524.21	7585.24
524.577	7614.16
524.943	7570.32
525.31	7566.03
525.676	7655.07
526.043	7657.55
526.409	7698.91
526.776	7728.51
527.142	7746.14
527.508	7641.28
527.874	7733.48
528.241	7815.51
528.607	7802.63
528.973	7826.14
529.339	7867.26
529.705	7846.7
530.071	7858.9
530.437	7905.91
530.803	7915.63
531.169	7903.87
531.535	7910.43
531.901	7875.17
532.267	7886.25
532.632	7939.58
532.998	7949.07
533.364	7991.33
533.73	7999.92
534.095	8005.57
534.461	7959.47
534.826	8032.01
535.192	7986.58
535.557	8004.89
535.923	8000.14
536.288	7962.86
536.653	8047.6
537.019	7916.98
537.384	8025.23
537.749	7960.14
538.114	7948.39
538.479	7968.73
538.845	7997.66
539.21	7914.5
539.575	7958.11
539.94	7960.14
540.305	7991.56
540.67	7899.13
541.034	7958.79
541.399	7950.65
541.764	7947.04
542.129	7921.95
542.494	7956.53
542.858	7940.03
543.223	7917.89
543.587	7968.28
543.952	7923.53
544.316	7887.38
544.681	7913.59
545.045	7875.4
545.41	7954.49
545.774	7885.12
546.138	7978.22
546.503	7850.54
546.867	7846.47
547.231	7904.33
547.595	7932.57
547.959	7843.76
548.324	7830.88
548.688	7861.62
549.052	7874.5
549.416	7889.19
549.779	7820.26
550.143	7816.87
550.507	7921.95
550.871	7897.77
551.235	7840.15
551.599	7848.73
551.962	7889.64
552.326	7930.31
552.689	7833.37
553.053	7860.26
553.417	7872.46
553.78	7972.12
554.143	7849.41
554.507	7883.54
554.87	7873.37
555.234	7936.64
555.597	7897.32
555.96	7896.64
556.323	7878.34
556.686	7869.52
557.05	7892.12
557.413	7943.65
557.776	7972.35
558.139	7950.2
558.502	7959.24
558.865	7963.31
559.228	7960.14
559.59	7977.54
559.953	7949.97
560.316	8029.29
560.679	8001.95
561.041	8069.75
561.404	8017.32
561.767	8023.64
562.129	8009.63
562.492	8113.81
562.854	8102.96
563.217	8090.08
563.579	8116.52
563.941	8215.5
564.304	8185
564.666	8191.1
565.028	8176.86
565.39	8267.93
565.753	8215.96
566.115	8273.81
566.477	8293.24
566.839	8291.66
567.201	8387.48
567.563	8344.31
567.925	8382.73
568.287	8342.28
568.648	8386.57
569.01	8410.98
569.372	8454.14
569.734	8401.94
570.095	8535.72
570.457	8504.31
570.819	8498.89
571.18	8539.34
571.542	8555.61
571.903	8520.81
572.265	8592.67
572.626	8650.97
572.987	8615.04
573.349	8647.13
573.71	8688.94
574.071	8685.55
574.432	8699.79
574.794	8758.31
575.155	8733.91
575.516	8738.65
575.877	8757.86
576.238	8783.85
576.599	8822.04
576.96	8814.36
577.32	8842.38
577.681	8813.68
578.042	8906.79
578.403	8899.1
578.763	8912.44
579.124	8846.67
579.485	8932.77
579.845	8936.84
580.206	8906.79
580.566	8933.9
580.927	8990.17
581.287	9006.44
581.648	8956.5
582.008	9028.82
582.368	9007.35
582.728	9062.94
583.089	9032.43
583.449	9028.36
583.809	9129.6
584.169	9081.02
584.529	9051.19
584.889	9130.06
585.249	9109.94
585.609	9114.46
585.969	9151.07
586.329	9133.45
586.688	9171.41
587.048	9113.33
587.408	9126.21
587.768	9129.15
588.127	9187.46
588.487	9081.92
588.846	9239.88
589.206	9203.05
589.565	9236.27
589.925	9238.3
590.284	9180.68
590.643	9231.97
591.003	9321.69
591.362	9192.65
591.721	9242.37
592.08	9250.51
592.44	9238.3
592.799	9281.92
593.158	9222.26
593.517	9248.92
593.876	9274.46
594.235	9236.27
594.593	9256.15
594.952	9248.25
595.311	9236.72
595.67	9305.19
596.029	9366.89
596.387	9431.97
596.746	9364.63
597.104	9351.29
597.463	9365.3
597.822	9397.85
598.18	9395.13
598.538	9330.5
598.897	9420.44
599.255	9283.95
599.613	9375.47
599.972	9417.28
600.33	9401.69
600.688	9398.75
601.046	9429.03
601.404	9470.16
601.762	9370.28
602.12	9450.5
602.478	9426.55
602.836	9463.61
603.194	9437.85
603.552	9384.74
603.91	9363.5
604.268	9437.39
604.625	9428.58
604.983	9430.39
605.341	9462.93
605.698	9454.79
606.056	9481.69
606.413	9533.66
606.771	9524.17
607.128	9499.76
607.485	9490.95
607.843	9453.66
608.2	9479.2
608.557	9617.95
608.914	9529.59
609.272	9520.33
609.629	9604.62
609.986	9539.31
610.343	9572.3
610.7	9601.68
611.057	9602.36
611.414	9563.27
611.771	9593.1
612.127	9614.56
612.484	9665.18
612.841	9705.86
613.198	9643.72
613.554	9637.16
613.911	9723.71
614.267	9699.31
614.624	9635.13
614.98	9692.3
615.337	9774.33
615.693	9718.52
616.05	9729.14
616.406	9761.45
616.762	9678.29
617.118	9733.43
617.475	9735.92
617.831	9759.87
618.187	9812.52
618.543	9803.26
618.899	9843.03
619.255	9859.53
619.611	9751.51
619.967	9801.23
620.323	9775.69
620.678	9846.65
621.034	9825.41
621.39	9833.77
621.746	9784.73
622.101	9920.09
622.457	9742.7
622.812	9837.16
623.168	9838.74
623.523	9866.08
623.879	9839.87
624.234	9777.5
624.589	9793.09
624.945	9820.89
625.3	9742.24
625.655	9848.91
626.01	9876.25
626.365	9838.29
626.72	9790.38
627.075	9803.94
627.43	9835.35
627.785	9833.54
628.14	9826.76
628.495	9791.96
628.85	9812.75
629.205	9737.27
629.559	9840.09
629.914	9803.71
630.269	9763.94
630.623	9742.02
630.978	9708.57
631.332	9751.96
631.687	9767.78
632.041	9687.56
632.396	9804.16
632.75	9615.47
633.104	9706.76
633.459	9651.4
633.813	9612.08
634.167	9611.63
634.521	9648.24
634.875	9660.66
635.229	9579.99
635.583	9579.54
635.937	9627.9
636.291	9581.57
636.645	9550.84
636.999	9521.01
637.352	9525.3
637.706	9505.19
638.06	9575.24
638.413	9604.62
638.767	9493.21
639.121	9569.14
639.474	9471.29
639.828	9430.39
640.181	9471.52
640.534	9469.03
640.888	9472.87
641.241	9394.46
641.594	9418.18
641.947	9415.02
642.301	9453.21
642.654	9409.6
643.007	9434.23
643.36	9434.23
643.713	9423.16
644.066	9456.6
644.419	9356.27
644.771	9288.02
645.124	9254.57
645.477	9179.77
645.83	9177.96
646.182	9075.59
646.535	9122.15
646.888	9116.72
647.24	9067.23
647.593	9063.62
647.945	9069.49
648.298	9033.34
648.65	8998.08
649.002	8954.02
649.355	9005.99
649.707	8985.43
650.059	9050.96
650.411	9185.65
650.763	9181.35
651.115	9289.6
651.467	9184.74
651.819	9198.08
652.171	9228.36
652.523	9200.11
652.875	9200.11
653.227	9184.52
653.578	9247.34
653.93	9197.85
654.282	9235.14
654.633	9093.67
654.985	9112.66
655.337	9239.66
655.688	9141.13
656.039	9208.25
656.391	9165.31
656.742	9161.47
657.094	9185.87
657.445	9164.41
657.796	9137.51
658.147	9121.7
658.498	9143.39
658.849	9174.35
659.2	9175.71
659.551	9136.84
659.902	9196.72
660.253	9242.14
660.604	9173.22
660.955	9118.76
661.306	9185.42
661.656	9179.77
662.007	9200.11
662.358	9211.86
662.708	9110.4
663.059	9172.54
663.409	9110.62
663.76	9160.56
664.11	9144.29
664.461	9166.67
664.811	9147.01
665.161	9198.3
665.511	9153.56
665.862	9152.2
666.212	9227
666.562	9168.7
666.912	9184.07
667.262	9161.02
667.612	9194.91
667.962	9147.23
668.312	9170.51
668.662	9182.26
669.011	9135.25
669.361	9149.72
669.711	9163.05
670.06	9170.51
670.41	9132.54
670.76	9069.95
671.109	9176.16
671.459	9099.32
671.808	9085.99
672.157	9152.2
672.507	9012.55
672.856	9046.67
673.205	9048.7
673.554	9071.98
673.904	9089.15
674.253	9108.14
674.602	9063.39
674.951	8917.18
675.3	8982.26
675.649	9017.74
675.998	9062.71
676.346	9091.19
676.695	9104.97
677.044	8938.42
677.393	8991.08
677.741	9014.81
678.09	8987.69
678.438	8970.06
678.787	9005.09
679.135	8935.03
679.484	8972.55
679.832	8928.48
680.181	8879.22
680.529	8946.11
680.877	8928.48
681.225	8833.79
681.573	8883.74
681.922	8781.37
682.27	8741.82
682.618	8813.45
682.966	8766
683.314	8845.32
683.661	8772.55
684.009	8738.65
684.357	8745.89
684.705	8663.18
685.053	8692.33
685.4	8630.41
685.748	8636.06
686.095	8643.06
686.443	8623.63
686.79	8561.26
687.138	8580.69
687.485	8588.38
687.832	8549.96
688.18	8502.5
688.527	8531.65
688.874	8488.49
689.221	8466.12
689.568	8406.69
689.915	8421.6
690.262	8410.75
690.609	8377.99
690.956	8362.62
691.303	8369.62
691.65	8316.29
691.997	8296.18
692.344	8214.37
692.69	8206.47
693.037	8177.09
693.383	8176.86
693.73	8194.49
694.077	8133.47
694.423	8116.07
694.769	8101.38
695.116	8096.41
695.462	8049.41
695.808	8031.33
696.155	8072.68
696.501	7949.07
696.847	7973.25
697.193	7855.74
697.539	7845.57
697.885	7839.92
698.231	7835.85
698.577	7835.85
698.923	7831.56
699.269	7767.61
699.614	7736.65
699.96	7712.01
700.306	7731.22
700.651	7689.42
700.997	7639.93
701.342	7619.81
701.688	7583.2
702.033	7574.62
702.379	7590.66
702.724	7548.18
703.069	7505.01
703.415	7421.63
703.76	7433.6
704.105	7411.68
704.45	7422.3
704.795	7389.09
705.14	7349.76
705.485	7323.55
705.83	7296.88
706.175	7286.72
706.52	7304.79
706.865	7260.28
707.209	7268.18
707.554	7272.7
707.899	7267.73
708.243	7129.43
708.588	7194.51
708.932	7133.95
709.277	7113.39
709.621	7137.57
709.966	7087.85
710.31	7117.68
710.654	7076.78
710.998	7050.56
711.342	6996.55
711.687	7017.8
712.031	7012.82
712.375	6991.13
712.719	6968.76
713.063	7023.67
713.407	6971.92
713.75	6932.83
714.094	6901.64
714.438	6870.68
714.782	6921.3
715.125	6874.3
715.469	6876.78
715.812	6889.21
716.156	6763.57
716.499	6806.05
716.843	6858.7
717.186	6770.8
717.53	6792.94
717.873	6775.54
718.216	6758.37
718.559	6771.47
718.902	6680.4
719.246	6756.56
719.589	6731.25
719.932	6657.81
720.275	6654.42
720.617	6705.26
720.96	6679.73
721.303	6675.66
721.646	6642.89
721.989	6646.51
722.331	6606.96
722.674	6612.83
723.016	6616.9
723.359	6611.25
723.701	6557.92
724.044	6589.78
724.386	6533.74
724.729	6619.39
725.071	6548.88
725.413	6565.15
725.755	6572.61
726.097	6501.2
726.439	6490.8
726.782	6516.34
727.124	6561.54
727.465	6470.69
727.807	6580.52
728.149	6497.58
728.491	6471.37
728.833	6503.23
729.175	6457.13
729.516	6478.15
729.858	6464.82
730.199	6493.52
730.541	6460.97
730.882	6462.33
731.224	6465.95
731.565	6484.25
731.906	6489.9
732.248	6469.34
732.589	6426.62
732.93	6450.13
733.271	6444.25
733.612	6467.75
733.953	6483.12
734.294	6402.22
734.635	6406.74
734.976	6422.56
735.317	6393.86
735.658	6422.56
735.999	6414.42
736.339	6392.95
736.68	6446.51
737.021	6374.87
737.361	6409.68
737.702	6407.64
738.042	6458.94
738.383	6385.5
738.723	6493.74
739.063	6409.45
739.404	6467.53
739.744	6401.77
740.084	6383.69
740.424	6454.87
740.764	6460.52
741.104	6503.68
741.444	6474.76
741.784	6423.24
742.124	6505.94
742.464	6462.1
742.804	6447.42
743.143	6487.87
743.483	6524.93
743.823	6519.05
744.162	6449.45
744.502	6521.09
744.841	6576
745.181	6538.94
745.52	6579.16
745.86	6588.43
746.199	6631.37
746.538	6662.55
746.877	6658.03
747.216	6714.07
747.556	6707.07
747.895	6762.21
748.234	6738.71
748.573	6813.96
748.911	6773.51
749.25	6900.74
749.589	6872.04
749.928	6962.88
750.267	6941.41
750.605	6992.26
750.944	7017.57
751.283	6986.61
751.621	7153.16
751.96	7172.82
752.298	7234.97
752.636	7268.86
752.975	7300.73
753.313	7348.18
753.651	7406.03
753.989	7509.99
754.327	7502.98
754.666	7556.31
755.004	7687.16
755.342	7745.91
755.679	7817.77
756.017	7829.53
756.355	8002.85
756.693	8033.81
757.031	8143.64
757.368	8207.59
757.706	8226.13
758.044	8340.02
758.381	8444.88
758.719	8496.4
759.056	8608.49
759.394	8653.91
759.731	8722.16
760.068	8819.56
760.405	8965.09
760.743	9010.06
761.08	9119.44
761.417	9113.79
761.754	9292.54
762.091	9432.65
762.428	9478.97
762.765	9542.02
763.102	9628.35
763.438	9743.83
763.775	9777.05
764.112	9894.33
764.449	9986.98
764.785	10120.76
765.122	10079.86
765.458	10198.28
765.795	10299.74
766.131	10367.09
766.467	10415.9
766.804	10516.01
767.14	10474.43
767.476	10611.6
767.812	10660.64
768.148	10717.81
768.485	10809.79
768.821	10814.53
769.157	10886.39
769.492	10974.08
