Data from hue_30_FLMS001491_49.txt Node
Date: Mon Feb 06 15:05:23 GMT 2017
User: dcchb
Spectrometer: FLMS00149
Trigger mode: 0
Integration Time (sec): 2.000000E-2
Scans to average: 10
Electric dark correction enabled: true
Nonlinearity correction enabled: false
Boxcar width: 0
XAxis mode: Wavelengths
Number of Pixels in Spectrum: 2048
>>>>>Begin Spectral Data<<<<<
341.393	-8.87
341.776	-8.87
342.16	-8.87
342.543	-54.29
342.927	-63.56
343.31	-55.2
343.693	-63.56
344.077	-66.5
344.46	-59.72
344.843	-53.39
345.226	-39.6
345.61	-38.02
345.993	-23.33
346.376	-5.93
346.759	14.18
347.142	27.29
347.525	66.61
347.908	47.63
348.291	86.72
348.674	87.62
349.057	75.2
349.44	134.18
349.823	162.43
350.206	157.68
350.588	195.64
350.971	229.09
351.354	231.58
351.737	235.64
352.119	244.91
352.502	256.66
352.884	249.65
353.267	274.29
353.65	310.9
354.032	278.13
354.414	308.18
354.797	310.9
355.179	297.34
355.562	317.9
355.944	309.54
356.326	348.63
356.709	333.49
357.091	344.34
357.473	354.06
357.855	353.61
358.238	332.59
358.62	343.89
359.002	338.24
359.384	323.1
359.766	325.36
360.148	343.89
360.53	334.17
360.912	328.97
361.294	343.66
361.676	331.46
362.057	318.81
362.439	313.38
362.821	327.84
363.203	315.19
363.584	347.05
363.966	310.9
364.348	319.26
364.729	328.97
365.111	330.78
365.493	313.83
365.874	291.24
366.256	304.12
366.637	298.01
367.019	301.86
367.4	307.96
367.781	317.9
368.163	298.01
368.544	319.94
368.925	320.84
369.306	317
369.688	320.39
370.069	310.67
370.45	319.94
370.831	316.09
371.212	324.68
371.593	309.77
371.974	336.21
372.355	300.05
372.736	316.55
373.117	332.36
373.498	303.44
373.879	320.16
374.26	301.86
374.641	315.19
375.021	319.71
375.402	305.47
375.783	327.17
376.163	331.46
376.544	317.22
376.925	312.7
377.305	325.36
377.686	334.62
378.066	336.88
378.447	317.68
378.827	324.45
379.208	333.95
379.588	335.08
379.968	324
380.349	336.21
380.729	310.44
381.109	326.49
381.489	328.52
381.87	332.59
382.25	335.53
382.63	338.01
383.01	347.28
383.39	349.09
383.77	345.02
384.15	328.07
384.53	330.1
384.91	354.51
385.29	340.95
385.67	330.33
386.049	346.15
386.429	348.86
386.809	378.46
387.189	353.38
387.568	345.7
387.948	335.75
388.328	353.61
388.707	368.97
389.087	333.04
389.466	360.16
389.846	369.43
390.225	362.65
390.605	376.2
390.984	362.65
391.363	368.3
391.743	361.29
392.122	365.58
392.501	376.43
392.881	373.04
393.26	367.17
393.639	399.48
394.018	371.01
394.397	375.07
394.776	366.04
395.155	381.85
395.534	380.72
395.913	370.78
396.292	385.47
396.671	381.85
397.05	371.91
397.429	385.24
397.808	366.49
398.186	375.3
398.565	400.38
398.944	364.23
399.323	383.44
399.701	407.16
400.08	394.74
400.458	384.57
400.837	385.7
401.215	388.86
401.594	400.38
401.972	386.15
402.351	393.61
402.729	391.35
403.107	394.74
403.486	397.9
403.864	412.14
404.242	404.9
404.62	413.72
404.999	414.4
405.377	413.49
405.755	414.4
406.133	406.49
406.511	418.92
406.889	415.3
407.267	430.44
407.645	405.58
408.023	418.69
408.401	436.09
408.779	428.86
409.156	433.38
409.534	441.29
409.912	422.76
410.29	445.36
410.667	449.2
411.045	435.86
411.422	437.22
411.8	436.99
412.178	473.83
412.555	450.1
412.933	454.85
413.31	466.6
413.687	426.37
414.065	464.11
414.442	467.28
414.819	443.1
415.197	461.17
415.574	479.7
415.951	485.81
416.328	489.87
416.705	478.12
417.082	492.59
417.46	495.75
417.837	488.97
418.214	488.07
418.591	491.23
418.967	480.38
419.344	505.01
419.721	510.89
420.098	510.89
420.475	515.86
420.852	518.8
421.228	498.46
421.605	498.69
421.982	516.54
422.358	521.51
422.735	524.68
423.111	530.33
423.488	526.03
423.864	536.43
424.241	530.1
424.617	540.04
424.994	559.02
425.37	545.69
425.746	550.66
426.123	559.7
426.499	559.7
426.875	558.35
427.251	570.55
427.627	554.05
428.003	568.97
428.379	574.39
428.756	543.88
429.132	572.58
429.507	576.2
429.883	569.19
430.259	591.34
430.635	609.87
431.011	606.93
431.387	615.52
431.763	605.35
432.138	616.2
432.514	620.49
432.89	627.05
433.265	622.53
433.641	638.57
434.016	634.96
434.392	663.88
434.767	649.19
435.143	664.56
435.518	660.49
435.894	660.27
436.269	658.46
436.644	659.81
437.02	667.5
437.395	698.46
437.77	689.87
438.145	706.59
438.52	684.22
438.895	689.19
439.271	694.61
439.646	700.94
440.021	709.76
440.395	714.5
440.77	702.98
441.145	712.47
441.52	734.61
441.895	735.97
442.27	758.79
442.645	743.43
443.019	747.95
443.394	737.1
443.769	742.52
444.143	742.97
444.518	743.88
444.892	761.51
445.267	763.09
445.641	790.88
446.016	773.71
446.39	789.08
446.764	766.48
447.139	768.28
447.513	784.1
447.887	802.86
448.262	792.69
448.636	820.03
449.01	811.67
449.384	809.19
449.758	810.77
450.132	825.46
450.506	818.91
450.88	817.55
451.254	841.5
451.628	828.17
452.002	840.37
452.376	831.79
452.75	840.83
453.123	853.93
453.497	881.28
453.871	904.1
454.244	899.58
454.618	908.39
454.992	895.06
455.365	885.57
455.739	915.4
456.112	934.61
456.486	932.57
456.859	948.17
457.232	949.98
457.606	959.92
457.979	987.94
458.352	999.69
458.725	982.06
459.099	1007.15
459.472	996.08
459.845	1009.63
460.218	1034.49
460.591	1020.03
460.964	1023.87
461.337	1048.73
461.71	1079.69
462.083	1084.43
462.456	1093.02
462.829	1085.79
463.201	1109.74
463.574	1108.39
463.947	1133.47
464.32	1172.79
464.692	1148.61
465.065	1166.47
465.438	1180.7
465.81	1181.83
466.183	1214.15
466.555	1229.97
466.928	1230.42
467.3	1246.92
467.672	1253.92
468.045	1290.53
468.417	1290.31
468.789	1298.67
469.161	1341.38
469.534	1320.13
469.906	1354.71
470.278	1395.39
470.65	1382.73
471.022	1406.46
471.394	1428.38
471.766	1440.13
472.138	1478.32
472.51	1515.84
472.882	1535.04
473.253	1547.25
473.625	1582.27
473.997	1629.28
474.369	1590.86
474.74	1614.59
475.112	1674.02
475.484	1683.06
475.855	1766.9
476.227	1768.26
476.598	1819.78
476.97	1805.77
477.341	1878.31
477.713	1917.86
478.084	1901.14
478.455	1962.83
478.827	2028.82
479.198	2066.33
479.569	2061.58
479.94	2167.8
480.311	2164.63
480.682	2215.03
481.053	2292.54
481.424	2332.54
481.795	2360.33
482.166	2395.36
482.537	2450.95
482.908	2544.96
483.279	2550.61
483.65	2550.16
484.021	2649.14
484.391	2679.65
484.762	2730.72
485.133	2803.26
485.503	2819.3
485.874	2899.08
486.244	2922.58
486.615	3034.21
486.985	3051.16
487.356	3118.96
487.726	3164.61
488.097	3225.17
488.467	3299.29
488.837	3327.77
489.207	3419.74
489.578	3464.26
489.948	3521.66
490.318	3593.52
490.688	3620.41
491.058	3689.34
491.428	3763.46
491.798	3816.34
492.168	3917.58
492.538	3957.35
492.908	3988.99
493.278	4065.15
493.648	4088.65
494.017	4164.81
494.387	4217.01
494.757	4260.17
495.126	4329.77
495.496	4311.69
495.866	4410.67
496.235	4457.45
496.605	4533.38
496.974	4562.76
497.344	4590.56
497.713	4601.63
498.082	4692.02
498.452	4764.11
498.821	4747.39
499.19	4819.48
499.559	4865.58
499.928	4889.31
500.298	4928.4
500.667	4921.17
501.036	5018.79
501.405	5049.75
501.774	5057.89
502.143	5090.21
502.512	5178.34
502.88	5274.38
503.249	5223.99
503.618	5283.42
503.987	5303.53
504.356	5315.51
504.724	5388.28
505.093	5393.7
505.462	5420.37
505.83	5480.7
506.199	5514.6
506.567	5621.72
506.936	5571.32
507.304	5661.04
507.672	5675.27
508.041	5731.09
508.409	5783.97
508.777	5770.87
509.145	5820.36
509.514	5836.17
509.882	5892.22
510.25	5942.61
510.618	5973.12
510.986	5965.66
511.354	6009.05
511.722	6089.73
512.09	6114.13
512.458	6136.73
512.826	6205.66
513.193	6136.73
513.561	6199.78
513.929	6201.36
514.297	6265.09
514.664	6328.36
515.032	6345.54
515.4	6381.02
515.767	6367.23
516.135	6431.86
516.502	6376.5
516.869	6518.19
517.237	6523.61
517.604	6478.87
517.972	6568.36
518.339	6629.83
518.706	6638.64
519.073	6666.43
519.44	6690.16
519.808	6741.69
520.175	6755.02
520.542	6722.03
520.909	6853.1
521.276	6808.58
521.643	6862.59
522.009	6934.9
522.376	6959.53
522.743	6991.4
523.11	7030.49
523.477	7056.03
523.843	7102.81
524.21	7219.87
524.577	7231.62
524.943	7244.72
525.31	7284.95
525.676	7376.92
526.043	7406.98
526.409	7423.25
526.776	7430.71
527.142	7516.36
527.508	7529.24
527.874	7575.11
528.241	7545.28
528.607	7649.46
528.973	7718.16
529.339	7723.13
529.705	7819.62
530.071	7839.96
530.437	7817.37
530.803	7879.74
531.169	7927.87
531.535	7955.44
531.901	7887.19
532.267	8016.68
532.632	8112.72
532.998	8139.16
533.364	8200.18
533.73	8163.8
534.095	8240.4
534.461	8253.06
534.826	8262.55
535.192	8277.92
535.557	8433.17
535.923	8415.09
536.288	8420.74
536.653	8532.37
537.019	8520.4
537.384	8555.65
537.749	8597.23
538.114	8594.07
538.479	8613.5
538.845	8641.75
539.21	8621.64
539.575	8693.05
539.94	8782.54
540.305	8783.44
540.67	8827.96
541.034	8811.92
541.399	8894.85
541.764	8851.91
542.129	8963.55
542.494	8977.56
542.858	9002.64
543.223	9030.44
543.587	9100.72
543.952	9075.86
544.316	9171.45
544.681	9114.73
545.045	9202.64
545.41	9219.59
545.774	9271.11
546.138	9319.7
546.503	9395.18
546.867	9378.23
547.231	9466.59
547.595	9482.41
547.959	9495.74
548.324	9465.68
548.688	9497.55
549.052	9579.13
549.416	9646.24
549.779	9652.8
550.143	9690.54
550.507	9697.99
550.871	9762.4
551.235	9832.23
551.599	9884.88
551.962	9847.59
552.326	9896.41
552.689	9940.7
553.053	9876.75
553.417	9949.06
553.78	9984.09
554.143	10009.4
554.507	10089.17
554.87	10068.61
555.234	10237.64
555.597	10132.78
555.96	10122.84
556.323	10261.14
556.686	10268.6
557.05	10298.88
557.413	10261.82
557.776	10355.38
558.139	10381.59
558.502	10399.67
558.865	10419.56
559.228	10511.76
559.59	10554.24
559.953	10560.12
560.316	10657.06
560.679	10702.49
561.041	10695.71
561.404	10755.82
561.767	10839.66
562.129	10703.39
562.492	10882.6
562.854	10859.54
563.217	10868.13
563.579	10858.42
563.941	10978.41
564.304	10968.02
564.666	11092.53
565.028	11132.76
565.39	11126.43
565.753	11184.06
566.115	11212.53
566.477	11284.84
566.839	11269.48
567.201	11380.21
567.563	11320.1
567.925	11419.98
568.287	11455.01
568.648	11417.72
569.01	11534.78
569.372	11580.2
569.734	11601.9
570.095	11640.54
570.457	11795.34
570.819	11747.66
571.18	11789.92
571.542	11843.7
571.903	11933.87
572.265	11971.83
572.626	12020.19
572.987	12133.41
573.349	12227.42
573.71	12252.73
574.071	12293.41
574.432	12446.62
574.794	12500.63
575.155	12503.8
575.516	12511.48
575.877	12621.76
576.238	12647.29
576.599	12755.99
576.96	12835.09
577.32	12946.27
577.681	13017
578.042	13076.44
578.403	13149.65
578.763	13205.92
579.124	13310.78
579.485	13455.63
579.845	13607.95
580.206	13737.44
580.566	13813.82
580.927	14005.45
581.287	14130.19
581.648	14273.92
582.008	14458.55
582.368	14572.89
582.728	14702.83
583.089	14850.17
583.449	14981.7
583.809	15088.59
584.169	15336.49
584.529	15542.81
584.889	15791.84
585.249	15879.75
585.609	15983.25
585.969	16271.83
586.329	16405.16
586.688	16602.67
587.048	16841.53
587.408	17007.18
587.768	17237.46
588.127	17429.32
588.487	17646.03
588.846	18057.77
589.206	18092.35
589.565	18342.29
589.925	18695.95
590.284	18883.06
590.643	19082.15
591.003	19368.02
591.362	19618.41
591.721	19817.28
592.08	20066.53
592.44	20344.27
592.799	20563.24
593.158	20764.37
593.517	21149.67
593.876	21219.5
594.235	21546.04
594.593	21828.52
594.952	22079.36
595.311	22159.13
595.67	22488.84
596.029	22797.08
596.387	23078.66
596.746	23462.15
597.104	23516.84
597.463	23717.29
597.822	24121.12
598.18	24169.7
598.538	24436.59
598.897	24859.63
599.255	24923.36
599.613	25418.94
599.972	25468.65
600.33	25784.8
600.688	25833.39
601.046	26147.28
601.404	26549.08
601.762	26619.13
602.12	26938.44
602.478	27209.4
602.836	27461.37
603.194	27564.42
603.552	27801.47
603.91	27895.03
604.268	28287.11
604.625	28319.65
604.983	28622.02
605.341	28703.14
605.698	29017.26
606.056	29246.63
606.413	29388.55
606.771	29615.21
607.128	29850.46
607.485	29742.44
607.843	30008.65
608.2	30435.98
608.557	30623.09
608.914	30688.4
609.272	31023.08
609.629	31228.05
609.986	31427.37
610.343	31451.55
610.7	31720.69
611.057	31867.35
611.414	31845.66
611.771	32202.94
612.127	32265.08
612.484	32470.05
612.841	32720.89
613.198	32642.7
613.554	32836.59
613.911	33139.19
614.267	33251.95
614.624	33166.76
614.98	33503.92
615.337	33734.88
615.693	33678.15
616.05	33799.28
616.406	34098.03
616.762	34036.34
617.118	34103.68
617.475	34390.45
617.831	34541.18
618.187	34699.82
618.543	34688.07
618.899	34971.68
619.255	35003.09
619.611	35065.01
619.967	35181.62
620.323	35426.36
620.678	35383.65
621.034	35289.86
621.39	35379.13
621.746	35420.48
622.101	35822.05
622.457	35603.98
622.812	35886.68
623.168	36026.57
623.523	35838.1
623.879	36224.98
624.234	36056.4
624.589	36263.4
624.945	36299.55
625.3	36408.25
625.655	36487.35
626.01	36432.21
626.365	36591.52
626.72	36497.06
627.075	36599.43
627.43	36604.86
627.785	36698.19
628.14	36823.38
628.495	36734.57
628.85	36790.39
629.205	36788.13
629.559	36916.49
629.914	36791.74
630.269	36864.96
630.623	36890.27
630.978	36812.08
631.332	36948.35
631.687	37044.85
632.041	36946.99
632.396	36979.08
632.75	36871.97
633.104	36970.72
633.459	36975.69
633.813	36949.03
634.167	36984.28
634.521	36921.46
634.875	37016.6
635.229	37033.09
635.583	36834
635.937	37047.1
636.291	36874.23
636.645	36914.91
636.999	36903.61
637.352	36963.49
637.706	36740.9
638.06	36956.94
638.413	36960.55
638.767	36943.38
639.121	36994.23
639.474	36804.63
639.828	36758.75
640.181	36857.96
640.534	36778.64
640.888	36747.45
641.241	36702.71
641.594	36821.57
641.947	36867
642.301	36776.15
642.654	36777.73
643.007	36676.27
643.36	36720.79
643.713	36665.19
644.066	36733.44
644.419	36528.93
644.771	36309.05
645.124	35987.25
645.477	35957.64
645.83	35724.88
646.182	35646.92
646.535	35545
646.888	35591.32
647.24	35413.48
647.593	35729.17
647.945	35556.52
648.298	35438.56
648.65	35478.11
649.002	35296.19
649.355	35556.75
649.707	35288.06
650.059	35593.58
650.411	36062.95
650.763	36061.14
651.115	36295.94
651.467	36330.97
651.819	36276.05
652.171	36217.75
652.523	36085.55
652.875	36241.02
653.227	35956.74
653.578	36330.74
653.93	36074.25
654.282	36102.72
654.633	35950.64
654.985	36122.84
655.337	36025.66
655.688	36106.79
656.039	36179.33
656.391	35919.45
656.742	35826.57
657.094	36000.35
657.445	36107.47
657.796	36012.33
658.147	36010.52
658.498	35879.23
658.849	36019.11
659.2	36032.67
659.551	35817.76
659.902	36016.4
660.253	35847.36
660.604	35975.95
660.955	35748.16
661.306	35794.26
661.656	35842.39
662.007	35866.35
662.358	35773.69
662.708	35857.08
663.059	35794.26
663.409	35583.19
663.76	35847.81
664.11	35819.79
664.461	35801.26
664.811	35738.89
665.161	35726.24
665.511	35747.48
665.862	35660.47
666.212	36003.74
666.562	35790.87
666.912	35742.51
667.262	35701.83
667.612	35736.18
667.962	35726.69
668.312	35761.94
668.662	35863.86
669.011	35808.27
669.361	35671.77
669.711	35563.75
670.06	35679.01
670.41	35702.06
670.76	35621.15
671.109	35740.02
671.459	35586.35
671.808	35632.45
672.157	35697.99
672.507	35321.73
672.856	35486.69
673.205	35635.39
673.554	35662.73
673.904	35363.31
674.253	35548.61
674.602	35496.41
674.951	35016.2
675.3	34758.13
675.649	35353.36
675.998	35312.24
676.346	35203.99
676.695	35472.01
677.044	35237.89
677.393	35293.25
677.741	35390.43
678.09	35363.76
678.438	35107.95
678.787	35253.48
679.135	35286.93
679.484	34984.11
679.832	35172.58
680.181	34919.7
680.529	35127.16
680.877	35004.22
681.225	34934.62
681.573	35087.61
681.922	34664.12
682.27	34748.63
682.618	34818.24
682.966	34774.4
683.314	34771.01
683.661	34696.66
684.009	34579.83
684.357	34380.51
684.705	34293.73
685.053	34271.58
685.4	34362.43
685.748	34161.76
686.095	34127.18
686.443	34127.18
686.79	34070.69
687.138	34106.84
687.485	34180.06
687.832	33932.61
688.18	33982.78
688.527	33796.12
688.874	33775.1
689.221	33839.96
689.568	33641.09
689.915	33601.77
690.262	33610.59
690.609	33432.06
690.956	33436.35
691.303	33349.8
691.65	33259.63
691.997	33307.77
692.344	33140.77
692.69	33070.94
693.037	32999.53
693.383	32662.81
693.73	32964.5
694.077	32625.98
694.423	32589.37
694.769	32465.3
695.116	32537.17
695.462	32392.76
695.808	32269.83
696.155	32418.98
696.501	32052.43
696.847	32114.13
697.193	31809.05
697.539	32072.32
697.885	31741.93
698.231	31645.67
698.577	31672.56
698.923	31735.38
699.269	31502.39
699.614	31369.06
699.96	31270.99
700.306	31481.6
700.651	31169.52
700.997	31171.55
701.342	31030.09
701.688	30942.41
702.033	30904.44
702.379	30853.37
702.724	30845.23
703.069	30857.66
703.415	30551
703.76	30510.78
704.105	30561.63
704.45	30352.59
704.795	30185.82
705.14	30170.22
705.485	30209.77
705.83	30059.27
706.175	30119.83
706.52	29940.85
706.865	29846.62
707.209	29892.04
707.554	29803
707.899	29805.49
708.243	29713.51
708.588	29617.92
708.932	29428.1
709.277	29472.16
709.621	29398.27
709.966	29227.88
710.31	29337.25
710.654	29064.49
710.998	29095
711.342	29094.55
711.687	28981.1
712.031	29005.96
712.375	28802.12
712.719	28810.71
713.063	28788.11
713.407	28739.3
713.75	28649.13
714.094	28591.06
714.438	28519.42
714.782	28525.52
715.125	28317.62
715.469	28493.88
715.812	28304.51
716.156	28084.18
716.499	28276.49
716.843	28173.89
717.186	27961.02
717.53	28248.01
717.873	28100.45
718.216	28042.14
718.559	27793.34
718.902	27797.4
719.246	27802.6
719.589	27778.87
719.932	27564.19
720.275	27606.22
720.617	27712.89
720.96	27557.41
721.303	27544.53
721.646	27539.33
721.989	27302.73
722.331	27457.3
722.674	27406.45
723.016	27448.26
723.359	27338.66
723.701	27317.19
724.044	27116.74
724.386	26961.27
724.729	27040.59
725.071	27087.37
725.413	26960.14
725.755	26917.2
726.097	26780.03
726.439	26786.13
726.782	26750.65
727.124	26789.07
727.465	26740.71
727.807	26692.12
728.149	26609.64
728.491	26519.25
728.833	26736.87
729.175	26591.11
729.516	26484.22
729.858	26363.32
730.199	26421.17
730.541	26275.64
730.882	26340.04
731.224	26425.46
731.565	26284
731.906	26279.7
732.248	26234.06
732.589	26137.34
732.93	26051.24
733.271	26111.12
733.612	26086.72
733.953	26007.62
734.294	25976.66
734.635	26048.3
734.976	25972.14
735.317	25817.12
735.658	25782.09
735.999	25783.9
736.339	25817.34
736.68	25869.77
737.021	25715.88
737.361	25572.15
737.702	25768.08
738.042	25672.04
738.383	25508.88
738.723	25646.73
739.063	25573.06
739.404	25522.89
739.744	25453.29
740.084	25376
740.424	25415.77
740.764	25266.85
741.104	25353.18
741.444	25190.24
741.784	25178.94
742.124	25269.56
742.464	25156.34
742.804	25300.3
743.143	24974.43
743.483	25137.81
743.823	25048.32
744.162	24923.81
744.502	24995.44
744.841	24874.32
745.181	24941.43
745.52	24825.73
745.86	24888.1
746.199	24865.28
746.538	24650.37
746.877	24777.82
747.216	24828.9
747.556	24674.32
747.895	24755.22
748.234	24598.17
748.573	24586.87
748.911	24530.6
749.25	24638.84
749.589	24517.94
749.928	24532.86
750.267	24481.56
750.605	24382.81
750.944	24321.79
751.283	24294.45
751.621	24258.51
751.96	24207.89
752.298	24234.56
752.636	24174.45
752.975	24074.79
753.313	24013.78
753.651	24140.33
753.989	24064.17
754.327	23997.73
754.666	23756.61
755.004	23853.1
755.342	23892.42
755.679	23833.44
756.017	23726.33
756.355	23877.06
756.693	23649.72
757.031	23569.49
757.368	23438.2
757.706	23478.42
758.044	23402.94
758.381	23451.76
758.719	23362.72
759.056	23340.12
759.394	23293.57
