Data from hue_310_FLMS001491_25.txt Node
Date: Mon Feb 06 15:49:19 GMT 2017
User: dcchb
Spectrometer: FLMS00149
Trigger mode: 0
Integration Time (sec): 2.000000E-2
Scans to average: 10
Electric dark correction enabled: true
Nonlinearity correction enabled: false
Boxcar width: 0
XAxis mode: Wavelengths
Number of Pixels in Spectrum: 2048
>>>>>Begin Spectral Data<<<<<
341.393	-15.61
341.776	-15.61
342.16	-15.61
342.543	-60.8
342.927	-68.94
343.31	-65.32
343.693	-51.99
344.077	-54.48
344.46	-56.74
344.843	-49.73
345.226	-61.71
345.61	-36.4
345.993	-11.54
346.376	8.35
346.759	17.61
347.142	-2.05
347.525	34.34
347.908	45.18
348.291	83.83
348.674	77.72
349.057	122.92
349.44	125.41
349.823	139.19
350.206	152.3
350.588	181.9
350.971	205.4
351.354	236.14
351.737	241.34
352.119	251.28
352.502	277.27
352.884	295.35
353.267	282.24
353.65	280.88
354.032	321.11
354.414	318.17
354.797	317.04
355.179	318.62
355.562	313.42
355.944	329.02
356.326	342.8
356.709	340.09
357.091	337.83
357.473	340.99
357.855	350.03
358.238	350.03
358.62	340.09
359.002	320.66
359.384	336.7
359.766	340.32
360.148	334.89
360.53	343.48
360.912	340.99
361.294	328.11
361.676	340.77
362.057	329.69
362.439	318.85
362.821	322.69
363.203	318.85
363.584	351.16
363.966	317.27
364.348	321.33
364.729	333.08
365.111	316.59
365.493	311.84
365.874	322.92
366.256	328.79
366.637	306.64
367.019	315.68
367.4	323.82
367.781	281.56
368.163	318.17
368.544	329.92
368.925	324.27
369.306	332.63
369.688	293.54
370.069	312.07
370.45	314.33
370.831	302.8
371.212	307.55
371.593	307.1
371.974	300.54
372.355	320.2
372.736	318.17
373.117	334.21
373.498	328.11
373.879	313.42
374.26	301.45
374.641	302.58
375.021	303.25
375.402	316.14
375.783	305.74
376.163	328.56
376.544	343.03
376.925	326.3
377.305	343.48
377.686	320.66
378.066	357.94
378.447	326.08
378.827	338.51
379.208	334.44
379.588	339.19
379.968	321.11
380.349	327.89
380.729	330.6
381.109	339.86
381.489	322.69
381.87	341.22
382.25	339.86
382.63	362.91
383.01	330.82
383.39	351.16
383.77	318.17
384.15	338.28
384.53	366.3
384.91	350.26
385.29	367.43
385.67	360.88
386.049	373.31
386.429	357.72
386.809	350.26
387.189	372.41
387.568	372.18
387.948	342.35
388.328	345.74
388.707	384.16
389.087	359.98
389.466	367.43
389.846	363.37
390.225	361.11
390.605	362.69
390.984	359.52
391.363	368.11
391.743	372.18
392.122	364.5
392.501	363.82
392.881	371.05
393.26	379.86
393.639	364.72
394.018	378.96
394.397	387.09
394.776	373.31
395.155	404.04
395.534	395.68
395.913	378.96
396.292	391.84
396.671	395.23
397.05	379.64
397.429	390.71
397.808	374.44
398.186	420.99
398.565	390.48
398.944	406.3
399.323	398.17
399.701	377.83
400.08	407.43
400.458	413.76
400.837	419.86
401.215	393.2
401.594	425.06
401.972	423.25
402.351	433.87
402.729	419.64
403.107	428.68
403.486	424.83
403.864	435
404.242	431.16
404.62	444.49
404.999	438.17
405.377	436.13
405.755	427.55
406.133	439.07
406.511	443.82
406.889	456.92
407.267	453.76
407.645	437.49
408.023	445.85
408.401	477.71
408.779	475.45
409.156	466.64
409.534	487.2
409.912	483.36
410.29	471.84
410.667	500.09
411.045	504.15
411.422	516.81
411.8	499.63
412.178	546.64
412.555	532.85
412.933	540.08
413.31	529.46
413.687	549.8
414.065	556.81
414.442	533.08
414.819	568.33
415.197	585.96
415.574	561.78
415.951	594.09
416.328	614.66
416.705	619.86
417.082	606.3
417.46	590.93
417.837	611.27
418.214	619.63
418.591	627.77
418.967	633.19
419.344	657.37
419.721	682.91
420.098	663.25
420.475	652.4
420.852	696.92
421.228	691.49
421.605	692.17
421.982	704.15
422.358	702.11
422.735	689.01
423.111	705.28
423.488	735.33
423.864	746.63
424.241	759.51
424.617	742.11
424.994	749.8
425.37	763.13
425.746	758.84
426.123	766.29
426.499	769.23
426.875	794.99
427.251	826.63
427.627	821.21
428.003	814.65
428.379	847.42
428.756	825.5
429.132	843.58
429.507	858.72
429.883	864.37
430.259	874.77
430.635	889.91
431.011	895.56
431.387	910.7
431.763	940.98
432.138	947.31
432.514	935.78
432.89	949.79
433.265	964.71
433.641	965.61
434.016	971.94
434.392	981.65
434.767	992.5
435.143	1039.28
435.518	1040.41
435.894	1040.64
436.269	1032.73
436.644	1050.58
437.02	1049.9
437.395	1073.18
437.77	1073.18
438.145	1096.23
438.52	1080.41
438.895	1114.76
439.271	1121.09
439.646	1119.5
440.021	1121.99
440.395	1135.32
440.77	1127.64
441.145	1147.53
441.52	1195.43
441.895	1159.05
442.27	1175.77
442.645	1164.7
443.019	1194.98
443.394	1195.21
443.769	1205.15
444.143	1202.21
444.518	1183.68
444.892	1215.77
445.267	1218.94
445.641	1228.43
446.016	1232.72
446.39	1240.63
446.764	1231.82
447.139	1228.65
447.513	1225.49
447.887	1250.12
448.262	1238.6
448.636	1274.08
449.01	1266.17
449.384	1227.07
449.758	1291.48
450.132	1312.04
450.506	1292.61
450.88	1312.27
451.254	1300.74
451.628	1295.55
452.002	1292.61
452.376	1321.76
452.75	1341.87
453.123	1300.29
453.497	1341.65
453.871	1322.21
454.244	1356.33
454.618	1373.74
454.992	1368.99
455.365	1376.45
455.739	1423.23
456.112	1417.35
456.486	1428.42
456.859	1432.72
457.232	1428.2
457.606	1442.66
457.979	1490.12
458.352	1491.02
458.725	1481.3
459.099	1499.83
459.472	1497.57
459.845	1542.54
460.218	1513.17
460.591	1510
460.964	1532.15
461.337	1567.18
461.71	1581.19
462.083	1592.26
462.456	1593.39
462.829	1590.68
463.201	1617.57
463.574	1622.54
463.947	1591.36
464.32	1648.08
464.692	1670.68
465.065	1678.81
465.438	1718.58
465.81	1725.14
466.183	1720.84
466.555	1770.56
466.928	1745.48
467.3	1749.09
467.672	1761.3
468.045	1814.18
468.417	1784.8
468.789	1792.93
469.161	1810.79
469.534	1857.11
469.906	1882.87
470.278	1891.24
470.65	1899.82
471.022	1926.94
471.394	1956.32
471.766	1962.42
472.138	1976.88
472.51	1987.73
472.882	2021.63
473.253	2046.49
473.625	2046.26
473.997	2096.2
474.369	2086.03
474.74	2134.84
475.112	2154.73
475.484	2128.29
475.855	2168.97
476.227	2171
476.598	2227.95
476.97	2209.87
477.341	2267.04
477.713	2303.88
478.084	2316.08
478.455	2366.25
478.827	2362.41
479.198	2402.18
479.569	2401.5
479.94	2436.53
480.311	2429.75
480.682	2495.29
481.053	2552.46
481.424	2572.8
481.795	2566.25
482.166	2611.67
482.537	2586.13
482.908	2693.93
483.279	2685.11
483.65	2713.13
484.021	2781.38
484.391	2766.69
484.762	2813.92
485.133	2852.79
485.503	2868.61
485.874	2938.44
486.244	2906.35
486.615	2983.86
486.985	2943.64
487.356	3001.04
487.726	3012.11
488.097	3057.31
488.467	3053.69
488.837	3131.65
489.207	3112.67
489.578	3187.7
489.948	3206
490.318	3212.33
490.688	3196.29
491.058	3327.81
491.428	3306.11
491.798	3327.13
492.168	3386.56
492.538	3377.07
492.908	3405.77
493.278	3468.14
493.648	3445.32
494.017	3469.73
494.387	3462.95
494.757	3548.59
495.126	3559.67
495.496	3540.68
495.866	3568.25
496.235	3612.09
496.605	3635.14
496.974	3665.43
497.344	3680.79
497.713	3658.65
498.082	3660.45
498.452	3714.69
498.821	3714.46
499.19	3760.79
499.559	3762.15
499.928	3771.64
500.298	3816.16
500.667	3858.19
501.036	3818.87
501.405	3880.56
501.774	3836.95
502.143	3871.07
502.512	3944.74
502.88	3914.46
503.249	3906.1
503.618	3946.77
503.987	3978.19
504.356	3952.65
504.724	3928.24
505.093	4034.91
505.462	3996.49
505.83	4025.87
506.199	4019.09
506.567	4055.7
506.936	4104.28
507.304	4108.13
507.672	4095.47
508.041	4112.42
508.409	4115.13
508.777	4147.22
509.145	4163.04
509.514	4192.42
509.882	4220.67
510.25	4230.84
510.618	4212.98
510.986	4192.87
511.354	4223.6
511.722	4262.92
512.09	4302.47
512.458	4300.21
512.826	4293.43
513.193	4324.39
513.561	4308.35
513.929	4330.95
514.297	4405.52
514.664	4424.05
515.032	4372.3
515.4	4387.89
515.767	4417.27
516.135	4430.38
516.502	4409.81
516.869	4495.69
517.237	4421.34
517.604	4464.28
517.972	4453.65
518.339	4493.65
518.706	4506.08
519.073	4461.34
519.44	4512.64
519.808	4577.49
520.175	4579.3
520.542	4591.96
520.909	4599.64
521.276	4544.05
521.643	4603.93
522.009	4661.78
522.376	4680.54
522.743	4690.71
523.11	4728
523.477	4737.26
523.843	4751.27
524.21	4769.13
524.577	4785.85
524.943	4828.33
525.31	4819.97
525.676	4864.49
526.043	4878.73
526.409	4899.52
526.776	4985.17
527.142	4915.34
527.508	4913.53
527.874	5027.88
528.241	4977.26
528.607	5006.86
528.973	5078.95
529.339	5072.17
529.705	5078.72
530.071	5119.85
530.437	5148.1
530.803	5149.91
531.169	5203.46
531.535	5135.67
531.901	5195.56
532.267	5251.15
532.632	5238.72
532.998	5271.71
533.364	5302.45
533.73	5321.2
534.095	5291.15
534.461	5380.86
534.826	5393.06
535.192	5450.92
535.557	5462.22
535.923	5467.41
536.288	5487.53
536.653	5509.45
537.019	5511.03
537.384	5531.37
537.749	5568.88
538.114	5587.18
538.479	5583.34
538.845	5595.77
539.21	5612.72
539.575	5693.85
539.94	5661.08
540.305	5733.17
540.67	5695.88
541.034	5741.3
541.399	5755.77
541.764	5814.52
542.129	5868.08
542.494	5868.31
542.858	5849.55
543.223	5899.49
543.587	5924.58
543.952	5926.61
544.316	5952.6
544.681	5971.35
545.045	5960.96
545.41	6083.67
545.774	6076.66
546.138	6042.31
546.503	6059.71
546.867	6095.64
547.231	6209.54
547.595	6178.35
547.959	6226.71
548.324	6220.39
548.688	6195.53
549.052	6256.54
549.416	6257.67
549.779	6317.11
550.143	6351.46
550.507	6317.33
550.871	6318.01
551.235	6342.42
551.599	6412.92
551.962	6400.72
552.326	6382.19
552.689	6470.32
553.053	6425.35
553.417	6436.2
553.78	6530.66
554.143	6469.65
554.507	6529.76
554.87	6570.89
555.234	6625.57
555.597	6563.43
555.96	6583.54
556.323	6647.72
556.686	6624.22
557.05	6678
557.413	6703.54
557.776	6702.41
558.139	6730.43
558.502	6770.2
558.865	6768.4
559.228	6776.98
559.59	6804.33
559.953	6778.79
560.316	6869.18
560.679	6917.54
561.041	6904.21
561.404	6943.98
561.767	6970.65
562.129	6940.59
562.492	7006.13
562.854	7007.49
563.217	7030.08
563.579	7071.44
563.941	7093.81
564.304	7079.35
564.666	7112.57
565.028	7125
565.39	7199.8
565.753	7230.3
566.115	7226.24
566.477	7286.57
566.839	7256.52
567.201	7316.63
567.563	7348.04
567.925	7309.85
568.287	7371.32
568.648	7334.93
569.01	7449.73
569.372	7482.73
569.734	7447.02
570.095	7542.39
570.457	7495.38
570.819	7579.45
571.18	7583.29
571.542	7630.97
571.903	7658.32
572.265	7804.75
572.626	7717.07
572.987	7826.9
573.349	7824.86
573.71	7864.64
574.071	7955.26
574.432	7995.48
574.794	8057.4
575.155	8150.51
575.516	8105.31
575.877	8188.47
576.238	8288.36
576.599	8381.01
576.96	8386.66
577.32	8425.53
577.681	8536.94
578.042	8625.97
578.403	8721.79
578.763	8827.1
579.124	8918.62
579.485	9130.82
579.845	9121.55
580.206	9183.7
580.566	9385.5
580.927	9367.2
581.287	9629.56
581.648	9658.94
582.008	9917.24
582.368	9972.15
582.728	10166.05
583.089	10263.9
583.449	10422.08
583.809	10611.01
584.169	10802.64
584.529	10926.48
584.889	11213.7
585.249	11216.87
585.609	11410.53
585.969	11729.85
586.329	11953.57
586.688	12115.15
587.048	12338.64
587.408	12515.14
587.768	12744.51
588.127	12994.45
588.487	13182.92
588.846	13469.46
589.206	13638.5
589.565	13867.42
589.925	14251.14
590.284	14449.1
590.643	14713.95
591.003	14944.45
591.362	15261.51
591.721	15481.61
592.08	15827.14
592.44	16131.31
592.799	16463.73
593.158	16642.71
593.517	16903.72
593.876	17235.01
594.235	17505.74
594.593	17838.39
594.952	18125.38
595.311	18336.23
595.67	18627.29
596.029	19029.32
596.387	19310.66
596.746	19636.31
597.104	19807.15
597.463	20122.85
597.822	20401.26
598.18	20674.7
598.538	20914.01
598.897	21403.04
599.255	21456.6
599.613	22139.97
599.972	22099.07
600.33	22466.74
600.688	22760.29
601.046	23071.02
601.404	23377.68
601.762	23655.41
602.12	23942.41
602.478	24171.78
602.836	24466.46
603.194	24670.07
603.552	24851.31
603.91	25106.9
604.268	25470.28
604.625	25641.8
604.983	25963.37
605.341	26115.23
605.698	26399.29
606.056	26789.79
606.413	26949.79
606.771	27299.16
607.128	27511.8
607.485	27563.55
607.843	27784.34
608.2	28191.11
608.557	28443.98
608.914	28611.21
609.272	28911.32
609.629	29224.53
609.986	29503.16
610.343	29514.01
610.7	29941.8
611.057	30031.96
611.414	30161
611.771	30338.4
612.127	30671.72
612.484	30690.48
612.841	30981.09
613.198	31182.22
613.554	31397.8
613.911	31716.67
614.267	31714.41
614.624	31969.99
614.98	32061.06
615.337	32354.62
615.693	32467.83
616.05	32468.96
616.406	32852.68
616.762	32885.9
617.118	33036.41
617.475	33184.88
617.831	33381.71
618.187	33542.15
618.543	33719.55
618.899	33936.04
619.255	33971.07
619.611	34044.74
619.967	34344.39
620.323	34371.51
620.678	34495.12
621.034	34646.76
621.39	34629.36
621.746	34728.56
622.101	35106.86
622.457	34926.3
622.812	35043.81
623.168	35365.38
623.523	35374.87
623.879	35654.19
624.234	35399.96
624.589	35474.99
624.945	35716.56
625.3	35777.8
625.655	35820.74
626.01	35962.2
626.365	36057.12
626.72	36214.17
627.075	36157
627.43	36306.38
627.785	36160.39
628.14	36293.49
628.495	36415.3
628.85	36433.15
629.205	36302.76
629.559	36491.68
629.914	36582.75
630.269	36633.37
630.623	36533.26
630.978	36483.77
631.332	36701.85
631.687	36756.08
632.041	36833.37
632.396	37013.25
632.75	36745.01
633.104	37013.02
633.459	36670.89
633.813	36759.25
634.167	36877.89
634.521	36841.5
634.875	37032.01
635.229	37031.78
635.583	36918.11
635.937	36806.48
636.291	36850.32
636.645	36865.46
636.999	36887.15
637.352	36932.57
637.706	36700.26
638.06	37001.95
638.413	36868.85
638.767	36837.66
639.121	36945.91
639.474	36827.27
639.828	36761.96
640.181	36872.91
640.534	36927.83
640.888	36850.99
641.241	36699.59
641.594	36749.75
641.947	36927.6
642.301	36761.05
642.654	36766.93
643.007	36895.29
643.36	36754.73
643.713	36790.2
644.066	36854.61
644.419	36602.41
644.771	36525.58
645.124	36037.68
645.477	36087.17
645.83	35852.38
646.182	35602.44
646.535	35652.61
646.888	35742.55
647.24	35659.39
647.593	35805.15
647.945	35634.3
648.298	35613.51
648.65	35381.43
649.002	35437.7
649.355	35578.49
649.707	35486.06
650.059	35702.32
650.411	36115.42
650.763	36302.31
651.115	36552.47
651.467	36455.98
651.819	36377.11
652.171	36324.23
652.523	36316.77
652.875	36255.76
653.227	36088.3
653.578	36557.67
653.93	36375.75
654.282	36168.98
654.633	36074.29
654.985	36268.18
655.337	36264.34
655.688	36304.12
656.039	36456.88
656.391	36129.21
656.742	36171.92
657.094	36134.18
657.445	36128.3
657.796	36248.52
658.147	36063.9
658.498	36111.35
658.849	36167.4
659.2	35983.67
659.551	36049.66
659.902	36230.22
660.253	36190.45
660.604	36193.84
660.955	35934.63
661.306	36140.73
661.656	35935.31
662.007	36164.91
662.358	36053.28
662.708	35995.2
663.059	36029.55
663.409	35899.15
663.76	36046.04
664.11	35982.54
664.461	35982.77
664.811	36146.15
665.161	35849.66
665.511	35924.47
665.862	35922.21
666.212	36077.23
666.562	36046.04
666.912	35985.93
667.262	35965.59
667.612	36016.89
667.962	36075.87
668.312	35954.52
668.662	36064.8
669.011	35940.51
669.361	35885.37
669.711	35837.24
670.06	35815.99
670.41	35754.53
670.76	35741.87
671.109	35964.92
671.459	35954.29
671.808	35707.75
672.157	35865.03
672.507	35668.2
672.856	35602.89
673.205	35715.43
673.554	35790.23
673.904	35666.84
674.253	35910.68
674.602	35684.7
674.951	35279.28
675.3	35015.11
675.649	35724.02
675.998	35690.35
676.346	35574.42
676.695	35773.06
677.044	35501.65
677.393	35651.48
677.741	35701.19
678.09	35576.9
678.438	35573.97
678.787	35512.72
679.135	35606.96
679.484	35362.67
679.832	35587.07
680.181	35241.77
680.529	35333.97
680.877	35292.84
681.225	35218.72
681.573	35428.21
681.922	35200.19
682.27	35039.06
682.618	35058.05
682.966	35041.78
683.314	35131.94
683.661	34991.61
684.009	34744.38
684.357	34725.85
684.705	34715.46
685.053	34700.54
685.4	34710.71
685.748	34554.11
686.095	34428.01
686.443	34414.22
686.79	34308.24
687.138	34315.47
687.485	34432.53
687.832	34313.89
688.18	34193.44
688.527	34054.91
688.874	34049.03
689.221	34122.03
689.568	33998.87
689.915	33883.39
690.262	33937.4
690.609	33728.36
690.956	33717.97
691.303	33686.11
691.65	33541.93
691.997	33532.21
692.344	33351.65
692.69	33193.46
693.037	33259.68
693.383	33108.95
693.73	33174.93
694.077	33012.23
694.423	33094.93
694.769	32967.03
695.116	32846.13
695.462	32791.44
695.808	32715.28
696.155	32792.34
696.501	32580.15
696.847	32608.17
697.193	32217.67
697.539	32466.02
697.885	32182.64
698.231	32112.59
698.577	32133.6
698.923	32042.76
699.269	31793.5
699.614	31652.26
699.96	31700.17
700.306	31607.52
700.651	31545.6
700.997	31370.69
701.342	31458.37
701.688	31287.75
702.033	31328.65
702.379	31292.5
702.724	31109.68
703.069	31280.52
703.415	30793.53
703.76	30950.81
704.105	30915.78
704.45	30769.57
704.795	30771.61
705.14	30682.12
705.485	30578.16
705.83	30443.48
706.175	30410.03
706.52	30409.13
706.865	30293.65
707.209	30300.88
707.554	30205.97
707.899	30160.1
708.243	30058.63
708.588	30091.62
708.932	29722.82
709.277	29620.9
709.621	29797.39
709.966	29572.77
710.31	29648.25
710.654	29386.78
710.998	29524.86
711.342	29483.96
711.687	29375.71
712.031	29262.27
712.375	29129.16
712.719	29192.21
713.063	29073.57
713.407	29192.66
713.75	28931.43
714.094	29036.28
714.438	28988.15
714.782	28928.04
715.125	28738.67
715.469	28757.65
715.812	28735.28
716.156	28668.84
716.499	28606.69
716.843	28509.97
717.186	28484.43
717.53	28525.56
717.873	28495.51
718.216	28556.98
718.559	28415.28
718.902	28241.05
719.246	28191.34
719.589	28063.2
719.932	28082.64
720.275	28118.34
720.617	28119.92
720.96	28005.58
721.303	27960.61
721.646	27859.59
721.989	27728.07
722.331	27755.19
722.674	27734.4
723.016	27826.82
723.359	27589.77
723.701	27637.23
724.044	27472.94
724.386	27364.69
724.729	27488.75
725.071	27356.55
725.413	27387.97
725.755	27414.86
726.097	27260.06
726.439	27046.73
726.782	27121.31
727.124	27300.28
727.465	27044.7
727.807	27047.86
728.149	27055.09
728.491	27009.45
728.833	26930.13
729.175	26903.01
729.516	26843.35
729.858	26769.9
730.199	26861.88
730.541	26763.12
730.882	26771.49
731.224	26696.91
731.565	26573.52
731.906	26583.47
732.248	26603.13
732.589	26473.87
732.93	26354.1
733.271	26359.07
733.612	26500.53
733.953	26527.42
734.294	26250.14
734.635	26263.93
734.976	26371.27
735.317	26235.23
735.658	26183.7
735.999	26140.54
736.339	26120.43
736.68	26186.87
737.021	26021
737.361	26011.05
737.702	26143.25
738.042	25987.55
738.383	25918.4
738.723	25911.85
739.063	25823.49
739.404	25809.25
739.744	25818.52
740.084	25503.5
740.424	25766.54
740.764	25625.75
741.104	25771.29
741.444	25522.48
741.784	25502.37
742.124	25520.67
742.464	25535.13
742.804	25402.03
743.143	25444.74
743.483	25407.68
743.823	25223.05
744.162	25226.67
744.502	25300.11
744.841	25185.99
745.181	25259.89
745.52	25161.58
745.86	25129.49
746.199	25097.86
746.538	25130.85
746.877	25136.05
747.216	25008.59
747.556	24961.36
747.895	25024.86
748.234	24794.81
748.573	24824.64
748.911	24627.81
749.25	24748.94
749.589	24675.95
749.928	24635.5
750.267	24666.68
750.605	24629.17
750.944	24519.34
751.283	24440.7
751.621	24530.87
751.96	24479.12
752.298	24433.47
752.636	24336.07
752.975	24257.88
753.313	24185.34
753.651	24308.95
753.989	24153.7
754.327	24131.33
754.666	23917.55
755.004	23904.67
755.342	23973.37
755.679	23953.03
756.017	23776.54
756.355	23907.61
756.693	23722.75
757.031	23792.13
757.368	23573.83
757.706	23584.22
758.044	23520.27
758.381	23580.16
758.719	23400.73
759.056	23386.94
759.394	23265.59
759.731	23143.11
