Data from hue_300_FLMS001491_00050.txt Node
Date: Tue Feb 07 15:50:54 GMT 2017
User: dcchb
Spectrometer: FLMS00149
Trigger mode: 0
Integration Time (sec): 2.000000E-2
Scans to average: 10
Electric dark correction enabled: true
Nonlinearity correction enabled: false
Boxcar width: 0
XAxis mode: Wavelengths
Number of Pixels in Spectrum: 2048
>>>>>Begin Spectral Data<<<<<
341.393	4.05
341.776	4.05
342.16	4.05
342.543	-52.22
342.927	-78.43
343.31	-91.54
343.693	-73.01
344.077	-66
344.46	-62.16
344.843	-49.96
345.226	-18.09
345.61	-40.92
345.993	-21.48
346.376	-14.48
346.759	13.32
347.142	30.72
347.525	25.52
347.908	63.49
348.291	83.83
348.674	99.19
349.057	121.56
349.44	112.07
349.823	132.19
350.206	160.21
350.588	187.55
350.971	207.66
351.354	209.92
351.737	228.68
352.119	239.98
352.502	231.17
352.884	255.8
353.267	285.63
353.65	284.27
354.032	283.82
354.414	300.09
354.797	312.75
355.179	335.8
355.562	321.56
355.944	327.43
356.326	343.48
356.709	318.85
357.091	328.56
357.473	328.79
357.855	322.46
358.238	315.46
358.62	328.79
359.002	343.03
359.384	334.89
359.766	338.06
360.148	346.64
360.53	339.64
360.912	319.53
361.294	327.21
361.676	334.89
362.057	325.18
362.439	349.36
362.821	320.88
363.203	325.85
363.584	313.2
363.966	319.75
364.348	319.3
364.729	312.75
365.111	310.49
365.493	319.3
365.874	302.12
366.256	300.54
366.637	327.66
367.019	288.79
367.4	314.33
367.781	296.48
368.163	302.58
368.544	297.83
368.925	292.63
369.306	317.72
369.688	312.29
370.069	318.85
370.45	309.81
370.831	286.98
371.212	286.08
371.593	322.92
371.974	298.28
372.355	312.97
372.736	307.55
373.117	303.25
373.498	323.37
373.879	326.76
374.26	305.29
374.641	317.27
375.021	315.68
375.402	342.8
375.783	316.14
376.163	316.81
376.544	331.95
376.925	310.26
377.305	333.76
377.686	312.52
378.066	310.49
378.447	325.4
378.827	324.72
379.208	318.62
379.588	338.73
379.968	319.53
380.349	338.96
380.729	326.53
381.109	310.94
381.489	324.5
381.87	345.29
382.25	377.6
382.63	346.42
383.01	341.9
383.39	339.19
383.77	335.8
384.15	348.68
384.53	345.51
384.91	324.05
385.29	358.39
385.67	332.86
386.049	360.65
386.429	349.13
386.809	329.69
387.189	358.85
387.568	354.33
387.948	333.31
388.328	363.14
388.707	349.81
389.087	352.07
389.466	361.11
389.846	337.6
390.225	387.09
390.605	355.91
390.984	382.57
391.363	365.4
391.743	365.63
392.122	370.37
392.501	354.78
392.881	367.89
393.26	360.65
393.639	392.07
394.018	372.86
394.397	390.94
394.776	392.97
395.155	384.61
395.534	401.78
395.913	377.6
396.292	384.16
396.671	383.48
397.05	387.32
397.429	392.97
397.808	381.67
398.186	380.54
398.565	399.75
398.944	401.11
399.323	406.08
399.701	402.24
400.08	396.59
400.458	420.31
400.837	430.03
401.215	433.42
401.594	416.02
401.972	410.6
402.351	429.81
402.729	434.32
403.107	439.3
403.486	435.68
403.864	433.42
404.242	448.79
404.62	448.79
404.999	438.62
405.377	444.04
405.755	433.65
406.133	446.98
406.511	443.36
406.889	442.91
407.267	457.83
407.645	474.78
408.023	453.99
408.401	477.71
408.779	463.02
409.156	489.24
409.534	488.79
409.912	522.68
410.29	527.88
410.667	517.94
411.045	540.76
411.422	523.59
411.8	540.54
412.178	541.44
412.555	542.34
412.933	582.12
413.31	556.13
413.687	546.19
414.065	581.89
414.442	582.34
414.819	612.17
415.197	616.69
415.574	625.96
415.951	613.98
416.328	610.82
416.705	624.15
417.082	665.28
417.46	661.21
417.837	660.99
418.214	660.76
418.591	667.31
418.967	686.3
419.344	667.09
419.721	718.84
420.098	694.66
420.475	695.79
420.852	731.04
421.228	743.92
421.605	742.34
421.982	742.34
422.358	750.02
422.735	775.11
423.111	770.14
423.488	784.15
423.864	782.11
424.241	799.06
424.617	820.3
424.994	816.69
425.37	815.56
425.746	836.8
426.123	832.73
426.499	866.4
426.875	841.77
427.251	870.02
427.627	882.67
428.003	901.66
428.379	906.85
428.756	912.73
429.132	907.98
429.507	916.12
429.883	937.81
430.259	950.47
430.635	955.21
431.011	981.43
431.387	973.75
431.763	968.77
432.138	1029.34
432.514	1012.39
432.89	1030.47
433.265	1052.39
433.641	1050.13
434.016	1046.51
434.392	1090.8
434.767	1093.52
435.143	1108.21
435.518	1102.1
435.894	1105.49
436.269	1145.04
436.644	1132.39
437.02	1141.42
437.395	1152.95
437.77	1168.99
438.145	1203.8
438.52	1182.33
438.895	1201.08
439.271	1204.7
439.646	1222.33
440.021	1239.28
440.395	1241.54
440.77	1234.53
441.145	1242.21
441.52	1287.18
441.895	1252.16
442.27	1260.74
442.645	1289.9
443.019	1307.52
443.394	1272.49
443.769	1274.53
444.143	1310.91
444.518	1328.09
444.892	1298.03
445.267	1308.65
445.641	1322.66
446.016	1315.66
446.39	1350.46
446.764	1338.26
447.139	1324.7
447.513	1350.46
447.887	1328.54
448.262	1347.97
448.636	1342.1
449.01	1376.67
449.384	1408.08
449.758	1403.34
450.132	1413.73
450.506	1397.01
450.88	1399.72
451.254	1398.59
451.628	1409.21
452.002	1439.5
452.376	1436.56
452.75	1426.39
453.123	1438.14
453.497	1433.17
453.871	1453.51
454.244	1509.1
454.618	1485.37
454.992	1512.94
455.365	1495.09
455.739	1497.8
456.112	1548.65
456.486	1560.85
456.859	1565.37
457.232	1565.82
457.606	1543
457.979	1557.23
458.352	1583.67
458.725	1596.55
459.099	1584.58
459.472	1608.31
459.845	1652.82
460.218	1668.64
460.591	1644.69
460.964	1678.13
461.337	1679.94
461.71	1708.64
462.083	1718.81
462.456	1700.28
462.829	1709.55
463.201	1738.02
463.574	1717.45
463.947	1749.32
464.32	1783.89
464.692	1789.54
465.065	1779.15
465.438	1824.57
465.81	1790.45
466.183	1811.46
466.555	1865.93
466.928	1847.39
467.3	1890.33
467.672	1911.12
468.045	1922.42
468.417	1905.92
468.789	1919.26
469.161	1962.42
469.534	1970.56
469.906	1974.85
470.278	1991.35
470.65	2024.34
471.022	2055.07
471.394	2077.45
471.766	2032.02
472.138	2067.28
472.51	2111.34
472.882	2132.13
473.253	2160.38
473.625	2172.13
473.997	2159.03
474.369	2183.66
474.74	2233.83
475.112	2251.23
475.484	2280.83
475.855	2258.46
476.227	2256.65
476.598	2342.3
476.97	2367.83
477.341	2377.55
477.713	2403.09
478.084	2407.15
478.455	2460.49
478.827	2471.33
479.198	2544.78
479.569	2549.3
479.94	2556.75
480.311	2562.18
480.682	2602.4
481.053	2625.68
481.424	2652.57
481.795	2676.3
482.166	2726.47
482.537	2747.71
482.908	2745
483.279	2796.75
483.65	2829.74
484.021	2858.44
484.391	2881.27
484.762	2897.54
485.133	2898.44
485.503	2904.99
485.874	2978.66
486.244	2982.05
486.615	3020.7
486.985	3060.24
487.356	3102.96
487.726	3091.66
488.097	3196.29
488.467	3172.56
488.837	3194.25
489.207	3232.67
489.578	3253.69
489.948	3268.83
490.318	3297.07
490.688	3300.01
491.058	3326.45
491.428	3358.77
491.798	3369.16
492.168	3410.52
492.538	3438.99
492.908	3429.95
493.278	3480.8
493.648	3518.76
494.017	3525.54
494.387	3544.75
494.757	3543.85
495.126	3555.37
495.496	3553.56
495.866	3618.87
496.235	3620.23
496.605	3652.32
496.974	3657.29
497.344	3658.42
497.713	3657.06
498.082	3684.41
498.452	3752.43
498.821	3747.46
499.19	3742.03
499.559	3771.41
499.928	3826.33
500.298	3784.75
500.667	3820.68
501.036	3841.92
501.405	3853.67
501.774	3830.17
502.143	3882.6
502.512	3891.18
502.88	3924.18
503.249	3924.4
503.618	3925.53
503.987	3976.38
504.356	3930.96
504.724	3954.91
505.093	3936.61
505.462	3968.02
505.83	3994.68
506.199	4057.73
506.567	4056.38
506.936	4028.81
507.304	4095.47
507.672	4060.9
508.041	4076.04
508.409	4101.35
508.777	4107.45
509.145	4132.53
509.514	4163.27
509.882	4202.36
510.25	4152.65
510.618	4172.98
510.986	4196.49
511.354	4232.87
511.722	4229.93
512.09	4254.11
512.458	4251.85
512.826	4250.27
513.193	4247.56
513.561	4266.99
513.929	4297.27
514.297	4318.97
514.664	4333.21
515.032	4305.64
515.4	4327.78
515.767	4335.24
516.135	4381.57
516.502	4316.71
516.869	4339.76
517.237	4381.34
517.604	4342.02
517.972	4421.11
518.339	4391.96
518.706	4391.96
519.073	4380.89
519.44	4420.89
519.808	4458.63
520.175	4452.07
520.542	4489.81
520.909	4539.08
521.276	4476.48
521.643	4516.25
522.009	4588.79
522.376	4555.35
522.743	4575.46
523.11	4585.85
523.477	4632.86
523.843	4657.72
524.21	4664.72
524.577	4704.72
524.943	4705.85
525.31	4730.03
525.676	4723.93
526.043	4703.14
526.409	4786.98
526.776	4787.88
527.142	4851.84
527.508	4851.84
527.874	4861.55
528.241	4925.28
528.607	4890.93
528.973	4897.48
529.339	4949.01
529.705	4955.56
530.071	5017.71
530.437	5017.48
530.803	5077.82
531.169	5053.64
531.535	5021.1
531.901	5063.81
532.267	5079.85
532.632	5129.79
532.998	5150.81
533.364	5198.72
533.73	5198.27
534.095	5189.45
534.461	5256.34
534.826	5245.27
535.192	5254.54
535.557	5301.32
535.923	5288.89
536.288	5310.81
536.653	5407.08
537.019	5353.29
537.384	5383.12
537.749	5409.11
538.114	5438.03
538.479	5461.76
538.845	5504.7
539.21	5468.99
539.575	5522.55
539.94	5556
540.305	5616.56
540.67	5553.96
541.034	5677.8
541.399	5583.12
541.764	5665.15
542.129	5653.85
542.494	5680.06
542.858	5721.87
543.223	5700.17
543.587	5734.75
543.952	5789.89
544.316	5756.44
544.681	5805.48
545.045	5783.56
545.41	5860.62
545.774	5886.61
546.138	5867.18
546.503	5908.08
546.867	5913.28
547.231	5963.9
547.595	5939.94
547.959	6018.13
548.324	6030.79
548.688	6068.3
549.052	6061.52
549.416	6072.14
549.779	6091.58
550.143	6098.36
550.507	6134.74
550.871	6183.1
551.235	6189.43
551.599	6267.39
551.962	6249.54
552.326	6211.57
552.689	6285.7
553.053	6286.37
553.417	6272.59
553.78	6366.15
554.143	6343.77
554.507	6380.84
554.87	6381.29
555.234	6396.65
555.597	6422.64
555.96	6430.1
556.323	6455.41
556.686	6440.49
557.05	6555.29
557.413	6480.04
557.776	6509.42
558.139	6485.47
558.502	6593.03
558.865	6540.6
559.228	6592.13
559.59	6683.88
559.953	6604.11
560.316	6643.43
560.679	6669.42
561.041	6697.89
561.404	6725.23
561.767	6741.5
562.129	6739.7
562.492	6809.07
562.854	6804.55
563.217	6764.55
563.579	6861.05
563.941	6869.41
564.304	6868.51
564.666	6983.53
565.028	6953.48
565.39	7002.97
565.753	6978.56
566.115	6964.55
566.477	6974.72
566.839	7060.14
567.201	7082.74
567.563	7062.85
567.925	7107.37
568.287	7120.93
568.648	7191.66
569.01	7177.88
569.372	7232.79
569.734	7258.33
570.095	7289.06
570.457	7324.77
570.819	7374.48
571.18	7402.73
571.542	7434.82
571.903	7525.89
572.265	7515.72
572.626	7533.8
572.987	7563.18
573.349	7628.94
573.71	7683.4
574.071	7741.48
574.432	7785.32
574.794	7871.19
575.155	7931.3
575.516	7900.8
575.877	8014.92
576.238	8081.36
576.599	8166.55
576.96	8230.73
577.32	8352.99
577.681	8347.11
578.042	8403.83
578.403	8496.26
578.763	8678.63
579.124	8761.56
579.485	8775.57
579.845	8982.8
580.206	9057.37
580.566	9216.01
580.927	9282.68
581.287	9461.66
581.648	9470.92
582.008	9741.88
582.368	9898.48
582.728	10023
583.089	10158.81
583.449	10279.72
583.809	10513.61
584.169	10682.64
584.529	10862.53
584.889	11123.54
585.249	11223.65
585.609	11381.61
585.969	11711.32
586.329	11945.43
586.688	12124.64
587.048	12307.23
587.408	12568.24
587.768	12805.98
588.127	12897.95
588.487	13217.94
588.846	13555.11
589.206	13773.86
589.565	14001.43
589.925	14362.09
590.284	14647.06
590.643	14823.32
591.003	15191.22
591.362	15522.06
591.721	15737.65
592.08	16015.38
592.44	16382.15
592.799	16725.65
593.158	16969.48
593.517	17203.38
593.876	17564.04
594.235	17800.65
594.593	18068.66
594.952	18504.13
595.311	18731.24
595.67	18990
596.029	19458.91
596.387	19816.64
596.746	20071.55
597.104	20251.66
597.463	20626.11
597.822	20961.47
598.18	21188.58
598.538	21560.32
598.897	21926.41
599.255	22003.48
599.613	22491.15
599.972	22766.17
600.33	23053.39
600.688	23316.89
601.046	23652.7
601.404	23990.77
601.762	24212.23
602.12	24791.2
602.478	24979.89
602.836	25128.82
603.194	25333.11
603.552	25716.15
603.91	25844.96
604.268	26189.35
604.625	26406.52
604.983	26709.79
605.341	26852.16
605.698	27120.63
606.056	27520.62
606.413	27792.25
606.771	28092.35
607.128	28307.04
607.485	28433.36
607.843	28560.59
608.2	29028.83
608.557	29205.09
608.914	29328.71
609.272	29661.58
609.629	30009.59
609.986	30189.02
610.343	30280.09
610.7	30727.31
611.057	30827.2
611.414	31014.31
611.771	31213.85
612.127	31539.72
612.484	31662.66
612.841	31907.62
613.198	31917.11
613.554	32084.57
613.911	32529.75
614.267	32611.11
614.624	32782.85
614.98	32799.58
615.337	33226.91
615.693	33373.57
616.05	33293.12
616.406	33826.67
616.762	33601.14
617.118	33911.86
617.475	34048.81
617.831	34285.41
618.187	34427.78
618.543	34486.31
618.899	34942.34
619.255	34841.78
619.611	34934.43
619.967	35148.67
620.323	35307.31
620.678	35309.34
621.034	35405.16
621.39	35439.28
621.746	35603.34
622.101	35988.87
622.457	35815.09
622.812	35983.67
623.168	36137.11
623.523	36371.91
623.879	36331.69
624.234	36257.56
624.589	36533.94
624.945	36606.03
625.3	36733.26
625.655	36779.13
626.01	36932.12
626.365	36940.03
626.72	36970.99
627.075	37110.42
627.43	37036.07
627.785	37118.33
628.14	37084.21
628.495	37318.55
628.85	37300.02
629.205	37425.89
629.559	37559
629.914	37346.12
630.269	37446.46
630.623	37460.47
630.978	37420.92
631.332	37536.63
631.687	37633.8
632.041	37494.37
632.396	37530.52
632.75	37608.04
633.104	37619.11
633.459	37482.16
633.813	37585.21
634.167	37667.02
634.521	37624.08
634.875	37631.76
635.229	37572.56
635.583	37536.63
635.937	37497.76
636.291	37563.29
636.645	37587.7
636.999	37571.88
637.352	37627.47
637.706	37523.07
638.06	37824.75
638.413	37689.84
638.767	37628.15
639.121	37777.3
639.474	37529.62
639.828	37612.33
640.181	37690.52
640.534	37575.04
640.888	37565.55
641.241	37397.87
641.594	37556.74
641.947	37655.94
642.301	37591.77
642.654	37718.77
643.007	37622.5
643.36	37593.35
643.713	37473.12
644.066	37540.02
644.419	37338.21
644.771	37230.19
645.124	36884.89
645.477	36925.12
645.83	36592.24
646.182	36604.67
646.535	36618.91
646.888	36568.52
647.24	36402.42
647.593	36610.55
647.945	36596.09
648.298	36513.6
648.65	36429.08
649.002	36396.09
649.355	36491
649.707	36542.3
650.059	36609.64
650.411	37087.6
650.763	37129.41
651.115	37446.91
651.467	37363.75
651.819	37262.51
652.171	37276.97
652.523	37128.28
652.875	37323.98
653.227	37087.37
653.578	37330.3
653.93	37259.57
654.282	37131.44
654.633	37011.67
654.985	37046.92
655.337	37083.53
655.688	37103.19
656.039	37174.15
656.391	36905.91
656.742	37027.03
657.094	37010.09
657.445	37152.23
657.796	36898.22
658.147	37012.8
658.498	36995.17
658.849	37169.86
659.2	37033.59
659.551	36917.21
659.902	37081.95
660.253	37005.57
660.604	37100.03
660.955	36895.96
661.306	36945
661.656	36831.33
662.007	37135.96
662.358	36953.59
662.708	37060.03
663.059	36905.23
663.409	36677.67
663.76	36962.86
664.11	36813.48
664.461	36980.93
664.811	36959.47
665.161	36961.73
665.511	36841.5
665.862	36887.15
666.212	36911.78
666.562	37042.18
666.912	36980.26
667.262	36792.92
667.612	36870.65
667.962	36848.28
668.312	36887.38
668.662	36971.44
669.011	36860.03
669.361	36838.11
669.711	36732.13
670.06	36775.52
670.41	36620.04
670.76	36655.52
671.109	36823.2
671.459	36732.58
671.808	36552.7
672.157	36720.38
672.507	36522.19
672.856	36639.02
673.205	36555.18
673.554	36760.15
673.904	36604.45
674.253	36837.89
674.602	36577.56
674.951	36090.34
675.3	35833.39
675.649	36481.74
675.998	36533.26
676.346	36572.58
676.695	36584.79
677.044	36347.05
677.393	36490.1
677.741	36515.18
678.09	36337.79
678.438	36321.52
678.787	36520.83
679.135	36347.96
679.484	36091.47
679.832	36341.86
680.181	36074.29
680.529	36105.7
680.877	36164.68
681.225	35950
681.573	36255.08
681.922	35923.34
682.27	35959.72
682.618	36067.06
682.966	35794.98
683.314	35966.05
683.661	35750.91
684.009	35609.67
684.357	35552.5
684.705	35502.33
685.053	35573.97
685.4	35606.28
685.748	35528.77
686.095	35369.45
686.443	35222.79
686.79	35111.61
687.138	35276.8
687.485	35284.93
687.832	35038.39
688.18	35126.07
688.527	35013.75
688.874	34926.53
689.221	34851.27
689.568	34788.22
689.915	34661
690.262	34746.19
690.609	34473.66
690.956	34419.87
691.303	34497.38
691.65	34295.58
691.997	34402.25
692.344	34199.76
692.69	34186.66
693.037	34137.85
693.383	33919.32
693.73	34004.74
694.077	33781.92
694.423	33840.9
694.769	33645.65
695.116	33477.3
695.462	33516.84
695.808	33446.11
696.155	33413.8
696.501	33236.85
696.847	33190.07
697.193	33031.43
697.539	33117.08
697.885	33059.68
698.231	32841.61
698.577	32802.06
698.923	32649.3
699.269	32517.1
699.614	32425.8
699.96	32427.83
700.306	32447.04
700.651	32277.56
700.997	32158.46
701.342	32170.21
701.688	32112.81
702.033	32077.11
702.379	31845.25
702.724	31881.18
703.069	31922.31
703.415	31568.2
703.76	31577.23
704.105	31678.47
704.45	31435.77
704.795	31327.52
705.14	31194.65
705.485	31195.78
705.83	31126.85
706.175	31213.63
706.52	31000.75
706.865	30890.02
707.209	30976.12
707.554	30907.65
707.899	30757.6
708.243	30760.31
708.588	30732.74
708.932	30406.19
709.277	30463.14
709.621	30453.87
709.966	30298.85
710.31	30338.4
710.654	30168.01
710.998	30170.04
711.342	30202.36
711.687	30056.37
712.031	29864.96
712.375	29903.15
712.719	29846.21
713.063	29784.51
713.407	29830.16
713.75	29788.13
714.094	29617.06
714.438	29561.24
714.782	29472.88
715.125	29374.13
715.469	29506.55
715.812	29265.88
716.156	29232.21
716.499	29245.54
716.843	29350.85
717.186	29029.73
717.53	29194.47
717.873	29167.58
718.216	29066.57
718.559	28813.24
718.902	28814.6
719.246	28968.26
719.589	28675.39
719.932	28694.37
720.275	28575.96
720.617	28636.97
720.96	28568.5
721.303	28662.06
721.646	28569.86
721.989	28356.3
722.331	28425.68
722.674	28375.06
723.016	28374.38
723.359	28362.18
723.701	28402.4
724.044	28139.13
724.386	27979.36
724.729	28157.44
725.071	28040.83
725.413	27943.88
725.755	27946.14
726.097	27909.53
726.439	27724
726.782	27718.35
727.124	27884
727.465	27718.13
727.807	27708.64
728.149	27661.63
728.491	27586.38
728.833	27595.87
729.175	27520.39
729.516	27409.66
729.858	27526.04
730.199	27463.67
730.541	27469.55
730.882	27407.85
731.224	27530.79
731.565	27294.86
731.906	27183.9
732.248	27259.38
732.589	27020.52
732.93	26922.89
733.271	27172.38
733.612	27108.65
733.953	27178.71
734.294	27038.82
734.635	26956.34
734.976	26966.51
735.317	26827.53
735.658	26828.66
735.999	26818.04
736.339	26700.98
736.68	26776.91
737.021	26701.66
737.361	26629.57
737.702	26732.62
738.042	26554.99
738.383	26504.83
738.723	26551.38
739.063	26532.85
739.404	26550.47
739.744	26362.91
740.084	26405.17
740.424	26357.94
740.764	26416.24
741.104	26546.18
741.444	26222.12
741.784	26217.83
742.124	26329.24
742.464	26110.71
742.804	26125.63
743.143	26194.33
743.483	26131.05
743.823	25959.53
744.162	25939.42
744.502	25962.02
744.841	25957.27
745.181	26007.89
745.52	25873.43
745.86	25889.93
746.199	25828.91
746.538	25861.9
746.877	25897.61
747.216	25832.98
747.556	25750.5
747.895	25693.77
748.234	25655.36
748.573	25679.76
748.911	25497.39
749.25	25642.25
749.589	25484.51
749.928	25484.74
750.267	25513.44
750.605	25444.97
750.944	25374.23
751.283	25311.64
751.621	25416.27
751.96	25174.47
752.298	25212.88
752.636	25187.35
752.975	25154.13
753.313	25042.94
753.651	25128.36
753.989	25040.01
754.327	25018.09
754.666	24928.14
755.004	24975.83
755.342	25083.62
755.679	24896.05
756.017	24760.24
756.355	24816.28
756.693	24626.68
757.031	24764.53
757.368	24543.97
757.706	24575.61
758.044	24560.02
758.381	24554.59
758.719	24455.61
759.056	24476.86
759.394	24307.6
