Data from hue_330_FLMS001491_46.txt Node
Date: Mon Feb 06 15:45:27 GMT 2017
User: dcchb
Spectrometer: FLMS00149
Trigger mode: 0
Integration Time (sec): 2.000000E-2
Scans to average: 10
Electric dark correction enabled: true
Nonlinearity correction enabled: false
Boxcar width: 0
XAxis mode: Wavelengths
Number of Pixels in Spectrum: 2048
>>>>>Begin Spectral Data<<<<<
341.393	-0.9
341.776	-0.9
342.16	-0.9
342.543	-60.34
342.927	-62.82
343.31	-75.48
343.693	-95.59
344.077	-68.92
344.46	-73.22
344.843	-40.68
345.226	-39.77
345.61	-18.3
345.993	-24.18
346.376	-6.55
346.759	32.09
347.142	34.35
347.525	46.55
347.908	36.84
348.291	81.35
348.674	99.43
349.057	112.09
349.44	123.39
349.823	115.7
350.206	181.92
350.588	208.58
350.971	192.76
351.354	233.44
351.737	224.4
352.119	255.81
352.502	257.39
352.884	265.76
353.267	280.9
353.65	301.24
354.032	284.96
354.414	327
354.797	301.69
355.179	337.39
355.562	318.86
355.944	319.77
356.326	319.77
356.709	328.58
357.091	326.32
357.473	329.26
357.855	321.35
358.238	333.1
358.62	344.17
359.002	329.71
359.384	325.64
359.766	342.14
360.148	352.53
360.53	332.87
360.912	347.56
361.294	339.2
361.676	331.06
362.057	336.26
362.439	321.57
362.821	318.18
363.203	326.32
363.584	317.28
363.966	316.83
364.348	337.62
364.729	304.17
365.111	318.41
365.493	299.88
365.874	300.56
366.256	304.62
366.637	302.82
367.019	305.53
367.4	313.89
367.781	308.01
368.163	324.29
368.544	313.89
368.925	328.13
369.306	322.7
369.688	309.82
370.069	316.38
370.45	307.34
370.831	289.71
371.212	320.22
371.593	306.43
371.974	317.96
372.355	311.4
372.736	325.42
373.117	308.24
373.498	310.27
373.879	295.36
374.26	300.11
374.641	294.91
375.021	309.37
375.402	305.53
375.783	324.29
376.163	313.89
376.544	332.87
376.925	319.54
377.305	324.29
377.686	355.47
378.066	334.45
378.447	319.09
378.827	338.07
379.208	317.51
379.588	332.87
379.968	324.96
380.349	331.52
380.729	319.31
381.109	338.52
381.489	329.71
381.87	335.13
382.25	345.98
382.63	306.88
383.01	331.74
383.39	354.34
383.77	343.95
384.15	310.05
384.53	340.78
384.91	340.1
385.29	345.53
385.67	366.54
386.049	346.21
386.429	352.08
386.809	358.63
387.189	332.42
387.568	350.05
387.948	351.4
388.328	348.47
388.707	351.63
389.087	351.18
389.466	341.69
389.846	364.74
390.225	349.37
390.605	348.69
390.984	371.29
391.363	342.82
391.743	360.89
392.122	349.37
392.501	367
392.881	364.74
393.26	380.78
393.639	380.78
394.018	363.83
394.397	382.59
394.776	357.73
395.155	399.31
395.534	359.54
395.913	380.78
396.292	381.01
396.671	381.23
397.05	387.11
397.429	378.97
397.808	348.92
398.186	367.45
398.565	385.07
398.944	401.57
399.323	386.66
399.701	401.57
400.08	402.7
400.458	398.86
400.837	410.16
401.215	388.92
401.594	395.24
401.972	402.02
402.351	384.62
402.729	395.92
403.107	407.67
403.486	386.2
403.864	415.36
404.242	394.11
404.62	430.5
404.999	416.71
405.377	419.88
405.755	436.82
406.133	434.11
406.511	441.34
406.889	464.85
407.267	427.79
407.645	434.56
408.023	455.81
408.401	430.5
408.779	461
409.156	453.32
409.534	456.71
409.912	478.18
410.29	466.43
410.667	493.77
411.045	483.38
411.422	477.95
411.8	480.21
412.178	487.22
412.555	488.57
412.933	503.49
413.31	513.43
413.687	510.72
414.065	530.61
414.442	523.6
414.819	510.95
415.197	525.64
415.574	551.4
415.951	527.9
416.328	555.01
416.705	545.52
417.082	552.53
417.46	557.05
417.837	567.67
418.214	568.12
418.591	559.08
418.967	593.88
419.344	590.49
419.721	603.6
420.098	591.17
420.475	590.94
420.852	605.41
421.228	618.97
421.605	610.15
421.982	611.06
422.358	648.57
422.735	659.19
423.111	640.21
423.488	643.6
423.864	638.4
424.241	652.86
424.617	679.3
424.994	677.95
425.37	683.15
425.746	683.15
426.123	679.3
426.499	679.08
426.875	710.72
427.251	692.86
427.627	714.33
428.003	713.43
428.379	732.18
428.756	739.87
429.132	721.34
429.507	754.56
429.883	750.04
430.259	790.26
430.635	782.13
431.011	775.35
431.387	792.07
431.763	788.23
432.138	784.61
432.514	790.04
432.89	810.37
433.265	831.84
433.641	823.03
434.016	854.44
434.392	829.81
434.767	880.43
435.143	856.47
435.518	860.54
435.894	884.95
436.269	883.14
436.644	906.64
437.02	910.03
437.395	887.89
437.77	931.27
438.145	934.89
438.52	939.41
438.895	962.23
439.271	939.18
439.646	969.92
440.021	976.47
440.395	985.96
440.77	955.68
441.145	993.42
441.52	999.07
441.895	992.06
442.27	1011.27
442.645	976.47
443.019	1029.58
443.394	1023.48
443.769	1005.62
444.143	1012.85
444.518	1034.55
444.892	1021.89
445.267	1024.83
445.641	1045.62
446.016	1052.85
446.39	1031.84
446.764	1052.18
447.139	1070.03
447.513	1065.06
447.887	1049.24
448.262	1088.56
448.636	1112.51
449.01	1102.57
449.384	1084.49
449.758	1092.4
450.132	1076.81
450.506	1103.47
450.88	1122.68
451.254	1105.51
451.628	1121.33
452.002	1108.45
452.376	1135.34
452.75	1152.74
453.123	1150.7
453.497	1164.49
453.871	1151.83
454.244	1195.22
454.618	1169.46
454.992	1200.65
455.365	1194.09
455.739	1186.64
456.112	1215.11
456.486	1231.61
456.859	1210.36
457.232	1258.72
457.606	1245.62
457.979	1280.19
458.352	1276.35
458.725	1282.23
459.099	1293.98
459.472	1296.01
459.845	1315.9
460.218	1290.14
460.591	1324.26
460.964	1338.5
461.337	1371.04
461.71	1348.89
462.083	1380.75
462.456	1397.25
462.829	1387.08
463.201	1402.45
463.574	1399.06
463.947	1408.78
464.32	1442.67
464.692	1440.41
465.065	1480.87
465.438	1481.77
465.81	1487.42
466.183	1487.64
466.555	1513.18
466.928	1515.44
467.3	1516.57
467.672	1566.29
468.045	1579.85
468.417	1582.11
468.789	1613.74
469.161	1636.57
469.534	1635.66
469.906	1616
470.278	1658.49
470.65	1651.48
471.022	1684.25
471.394	1686.28
471.766	1729.67
472.138	1736
472.51	1751.82
472.882	1795.88
473.253	1816.22
473.625	1820.74
473.997	1845.83
474.369	1867.07
474.74	1883.57
475.112	1899.16
475.484	1936.67
475.855	1978.48
476.227	1964.02
476.598	1986.84
476.97	2006.27
477.341	2047.18
477.713	2095.99
478.084	2077.23
478.455	2147.51
478.827	2140.06
479.198	2186.16
479.569	2203.56
479.94	2243.1
480.311	2245.59
480.682	2320.84
481.053	2353.61
481.424	2358.58
481.795	2385.7
482.166	2419.15
482.537	2448.07
482.908	2449.2
483.279	2502.99
483.65	2508.41
484.021	2590.67
484.391	2605.36
484.762	2606.49
485.133	2617.56
485.503	2646.26
485.874	2697.1
486.244	2745.24
486.615	2777.33
486.985	2784.79
487.356	2852.35
487.726	2848.74
488.097	2932.8
488.467	2958.34
488.837	2980.03
489.207	2989.53
489.578	3037.66
489.948	3049.64
490.318	3054.38
490.688	3105.46
491.058	3131.9
491.428	3135.96
491.798	3186.13
492.168	3222.06
492.538	3263.87
492.908	3275.85
493.278	3367.82
493.648	3326.24
494.017	3370.98
494.387	3394.49
494.757	3402.4
495.126	3456.63
495.496	3441.72
495.866	3498.67
496.235	3512.45
496.605	3507.93
496.974	3548.16
497.344	3575.27
497.713	3580.7
498.082	3592.22
498.452	3654.82
498.821	3703.86
499.19	3667.7
499.559	3661.15
499.928	3751.99
500.298	3708.6
500.667	3755.38
501.036	3755.61
501.405	3746.57
501.774	3779.34
502.143	3795.38
502.512	3807.81
502.88	3869.95
503.249	3820.69
503.618	3887.58
503.987	3873.8
504.356	3917.86
504.724	3912.44
505.093	3976.62
505.462	3964.64
505.83	3967.81
506.199	3967.13
506.567	4026.11
506.936	3985.66
507.304	4075.37
507.672	4041.02
508.041	4072.44
508.409	4057.07
508.777	4096.84
509.145	4100.68
509.514	4120.12
509.882	4122.38
510.25	4177.07
510.618	4213
510.986	4175.94
511.354	4191.98
511.722	4247.8
512.09	4252.32
512.458	4286.44
512.826	4254.8
513.193	4260
513.561	4313.78
513.929	4333.67
514.297	4301.81
514.664	4325.31
515.032	4376.61
515.4	4397.4
515.767	4381.81
516.135	4401.24
516.502	4383.84
516.869	4420
517.237	4462.93
517.604	4423.16
517.972	4425.87
518.339	4460
518.706	4515.36
519.073	4461.13
519.44	4511.97
519.808	4544.06
520.175	4553.1
520.542	4540.45
520.909	4598.98
521.276	4576.6
521.643	4629.71
522.009	4642.36
522.376	4641.91
522.743	4664.06
523.11	4685.07
523.477	4747.22
523.843	4760.1
524.21	4750.84
524.577	4817.05
524.943	4777.95
525.31	4829.48
525.676	4849.59
526.043	4889.81
526.409	4893.2
526.776	4960.32
527.142	4956.71
527.508	4968.91
527.874	4994.44
528.241	5011.62
528.607	5048
528.973	5067.66
529.339	5048
529.705	5130.49
530.071	5148.34
530.437	5144.5
530.803	5185.85
531.169	5186.53
531.535	5240.99
531.901	5230.82
532.267	5216.81
532.632	5309.46
532.998	5337.94
533.364	5288.9
533.73	5313.76
534.095	5363.7
534.461	5396.47
534.826	5425.85
535.192	5434.89
535.557	5468.56
535.923	5437.82
536.288	5480.31
536.653	5548.78
537.019	5532.06
537.384	5551.27
537.749	5609.57
538.114	5645.73
538.479	5610.02
538.845	5629.91
539.21	5639.85
539.575	5693.64
539.94	5685.5
540.305	5718.72
540.67	5717.14
541.034	5737.25
541.399	5800.3
541.764	5828.32
542.129	5853.41
542.494	5846.63
542.858	5870.58
543.223	5934.53
543.587	5889.79
543.952	5931.82
544.316	5959.84
544.681	6012.27
545.045	6060.18
545.41	6026.96
545.774	6065.15
546.138	6088.65
546.503	6045.04
546.867	6106.05
547.231	6157.13
547.595	6197.8
547.959	6219.05
548.324	6221.53
548.688	6257.91
549.052	6273.06
549.416	6238.71
549.779	6312.15
550.143	6321.19
550.507	6344.47
550.871	6365.26
551.235	6356.67
551.599	6378.36
551.962	6394.63
552.326	6429.21
552.689	6482.54
553.053	6475.76
553.417	6512.6
553.78	6586.04
554.143	6550.79
554.507	6562.09
554.87	6571.8
555.234	6627.85
555.597	6595.08
555.96	6670.11
556.323	6688.86
556.686	6645.7
557.05	6710.56
557.413	6711.24
557.776	6740.61
558.139	6797.34
558.502	6765.02
558.865	6808.63
559.228	6837.11
559.59	6858.58
559.953	6787.17
560.316	6934.73
560.679	6919.37
561.041	6920.72
561.404	7014.28
561.767	7117.1
562.129	7042.53
562.492	7087.5
562.854	7041.4
563.217	7057.22
563.579	7121.17
563.941	7127.72
564.304	7158.68
564.666	7199.81
565.028	7167.95
565.39	7227.61
565.753	7304.21
566.115	7271.67
566.477	7338.11
566.839	7329.3
567.201	7311.45
567.563	7365.68
567.925	7437.32
568.287	7470.09
568.648	7402.97
569.01	7459.46
569.372	7594.38
569.734	7513.25
570.095	7532.23
570.457	7620.14
570.819	7605
571.18	7647.93
571.542	7746.01
571.903	7719.12
572.265	7756.41
572.626	7805.44
572.987	7887.25
573.349	7976.97
573.71	7954.59
574.071	8007.7
574.432	8079.56
574.794	8109.84
575.155	8135.38
575.516	8209.95
575.877	8257.86
576.238	8272.78
576.599	8341.7
576.96	8496.5
577.32	8505.99
577.681	8589.15
578.042	8708.47
578.403	8730.17
578.763	8856.72
579.124	8919.09
579.485	9063.04
579.845	9154.79
580.206	9174.45
580.566	9324.27
580.927	9397.72
581.287	9515.68
581.648	9650.37
582.008	9817.37
582.368	9922.45
582.728	10048.78
583.089	10218.71
583.449	10379.61
583.809	10554.98
584.169	10708.87
584.529	10852.82
584.889	11046.94
585.249	11164.9
585.609	11380.27
585.969	11615.97
586.329	11808.96
586.688	12033.13
587.048	12250.98
587.408	12409.84
587.768	12784.97
588.127	12857.52
588.487	13125.98
588.846	13426.77
589.206	13557.16
589.565	13821.78
589.925	14171.15
590.284	14260.87
590.643	14630.8
591.003	14817.69
591.362	15125.25
591.721	15337
592.08	15703.32
592.44	15899.69
592.799	16299.01
593.158	16447.03
593.517	16814.47
593.876	17175.14
594.235	17303.05
594.593	17671.63
594.952	17940.32
595.311	18147.09
595.67	18553.41
596.029	18889.45
596.387	19122.44
596.746	19500.96
597.104	19688.97
597.463	19932.36
597.822	20242.63
598.18	20465
598.538	20690.53
598.897	21133.23
599.255	21266.11
599.613	21826.09
599.972	22101.34
600.33	22335.91
600.688	22474.21
601.046	22873.75
601.404	23144.7
601.762	23429.21
602.12	23797.34
602.478	24050.67
602.836	24329.76
603.194	24376.08
603.552	24777.65
603.91	24845
604.268	25192.11
604.625	25324.31
604.983	25880
605.341	25970.84
605.698	26238.41
606.056	26625.29
606.413	26664.84
606.771	27023.24
607.128	27338.72
607.485	27442.67
607.843	27669.78
608.2	27964.46
608.557	28255.53
608.914	28376.2
609.272	28775.06
609.629	28972.8
609.986	29136.18
610.343	29176.41
610.7	29698.88
611.057	29753.57
611.414	30022.49
611.771	30140.22
612.127	30483.04
612.484	30652.08
612.841	30825.86
613.198	30929.81
613.554	31099.52
613.911	31388.55
614.267	31449.34
614.624	31701.54
614.98	31885.04
615.337	32165.93
615.693	32250.68
616.05	32244.35
616.406	32607.28
616.762	32665.81
617.118	32774.05
617.475	32793.71
617.831	33123.42
618.187	33261.95
618.543	33262.63
618.899	33755.95
619.255	33697.65
619.611	33804.99
619.967	33999.56
620.323	34183.51
620.678	34221.02
621.034	34137.63
621.39	34395.03
621.746	34329.94
622.101	34875.69
622.457	34755.24
622.812	34856.71
623.168	35070.94
623.523	35012.86
623.879	35251.05
624.234	35046.54
624.589	35426.64
624.945	35475.68
625.3	35606.52
625.655	35643.58
626.01	35626.41
626.365	35787.31
626.72	35703.69
627.075	35932.61
627.43	35893.29
627.785	35882.45
628.14	36046.06
628.495	36228.88
628.85	36124.02
629.205	36058.26
629.559	36343.9
629.914	36162.21
630.269	36345.26
630.623	36339.61
630.978	36247.18
631.332	36511.58
631.687	36431.81
632.041	36465.93
632.396	36503.22
632.75	36334.86
633.104	36543.22
633.459	36386.39
633.813	36465.26
634.167	36650.79
634.521	36548.64
634.875	36518.59
635.229	36556.1
635.583	36497.35
635.937	36580.28
636.291	36533.5
636.645	36505.93
636.999	36395.88
637.352	36549.77
637.706	36358.59
638.06	36644.91
638.413	36458.48
638.767	36368.31
639.121	36470.45
639.474	36386.84
639.828	36383.68
640.181	36489.21
640.534	36485.59
640.888	36423.9
641.241	36193.17
641.594	36523.56
641.947	36446.95
642.301	36404.01
642.654	36399.49
643.007	36423.22
643.36	36442.66
643.713	36408.76
644.066	36526.95
644.419	36328.54
644.771	36117.47
645.124	35826.4
645.477	35740.53
645.83	35542.57
646.182	35423.25
646.535	35425.74
646.888	35472.97
647.24	35234.1
647.593	35498.73
647.945	35333.08
648.298	35299.18
648.65	35204.05
649.002	35152.52
649.355	35375.34
649.707	35241.56
650.059	35282.91
650.411	35741.21
650.763	35750.7
651.115	36021.88
651.467	36045.83
651.819	36009.22
652.171	35959.96
652.523	35937.81
652.875	35903.24
653.227	35773.97
653.578	36104.36
653.93	35985.95
654.282	35780.98
654.633	35789.34
654.985	35881.32
655.337	35869.11
655.688	35750.25
656.039	35934.42
656.391	35704.82
656.742	35796.35
657.094	35733.98
657.445	35834.09
657.796	35719.96
658.147	35664.37
658.498	35849.68
658.849	35825.95
659.2	35843.13
659.551	35693.52
659.902	35877.93
660.253	35737.37
660.604	35761.09
660.955	35695.56
661.306	35738.5
661.656	35609.01
662.007	35645.84
662.358	35580.53
662.708	35672.06
663.059	35604.94
663.409	35412.63
663.76	35685.16
664.11	35777.36
664.461	35707.08
664.811	35578.95
665.161	35556.58
665.511	35494.66
665.862	35580.53
666.212	35736.24
666.562	35768.78
666.912	35502.12
667.262	35544.15
667.612	35614.43
667.962	35621.66
668.312	35497.6
668.662	35571.27
669.011	35474.1
669.361	35396.81
669.711	35452.18
670.06	35549.57
670.41	35468.22
670.76	35407.66
671.109	35496.24
671.459	35437.71
671.808	35324.49
672.157	35601.1
672.507	35251.5
672.856	35336.25
673.205	35466.64
673.554	35394.1
673.904	35323.59
674.253	35501.21
674.602	35323.59
674.951	34900.33
675.3	34600.45
675.649	35245.85
675.998	35171.05
676.346	35305.51
676.695	35309.58
677.044	35076.59
677.393	35205.18
677.741	35186.87
678.09	35114.1
678.438	34977.84
678.787	35114.56
679.135	35199.3
679.484	34872.76
679.832	35044.95
680.181	34740.33
680.529	34923.83
680.877	34772.65
681.225	34696.71
681.573	34928.8
681.922	34617.17
682.27	34552.76
682.618	34671.4
682.966	34577.17
683.314	34574.01
683.661	34518.41
684.009	34287.01
684.357	34170.85
684.705	34295.6
685.053	34187.58
685.4	34195.49
685.748	33994.59
686.095	34034.36
686.443	34018.99
686.79	33898.54
687.138	33958.2
687.485	33995.49
687.832	33938.77
688.18	33854.93
688.527	33689.28
688.874	33747.59
689.221	33645.22
689.568	33588.72
689.915	33433.47
690.262	33524.32
690.609	33327.26
690.956	33160.26
691.303	33264.89
691.65	33103.31
691.997	33064.89
692.344	32815.86
692.69	32853.37
693.037	32852.7
693.383	32633.27
693.73	32683.89
694.077	32563.44
694.423	32609.09
694.769	32327.51
695.116	32350.79
695.462	32493.16
695.808	32316.66
696.155	32398.47
696.501	31997.8
696.847	31928.2
697.193	31843.46
697.539	32000.51
697.885	31720.52
698.231	31593.52
698.577	31758.04
698.923	31679.62
699.269	31269.91
699.614	31316.69
699.96	31371.15
700.306	31442.79
700.651	31144.27
700.997	31081.22
701.342	30967.77
701.688	30906.76
702.033	30873.99
702.379	30794.9
702.724	30584.28
703.069	30784.95
703.415	30463.83
703.76	30490.27
704.105	30467.45
704.45	30377.28
704.795	30280.33
705.14	30074.24
705.485	30157.17
705.83	30001.92
706.175	30146.78
706.52	29857.97
706.865	29764.19
707.209	29833.57
707.554	29707.92
707.899	29812.78
708.243	29591.31
708.588	29501.82
708.932	29353.35
709.277	29477.87
709.621	29396.97
709.966	29106.35
710.31	29400.13
710.654	28971.44
710.998	29132.57
711.342	28973.25
711.687	29029.07
712.031	28869.07
712.375	28818.45
712.719	28831.78
713.063	28792.01
713.407	28784.78
713.75	28535.52
714.094	28672.69
714.438	28461.17
714.782	28546.59
715.125	28390.67
715.469	28432.92
715.812	28258.24
716.156	28161.52
716.499	28176.66
716.843	28097.34
717.186	28031.81
717.53	28053.73
717.873	28116.32
718.216	27972.82
718.559	27906.16
718.902	27726.05
719.246	27747.29
719.589	27711.81
719.932	27705.71
720.275	27546.62
720.617	27623
720.96	27640.18
721.303	27595.88
721.646	27504.81
721.989	27357.02
722.331	27444.02
722.674	27343.91
723.016	27336
723.359	27249.9
723.701	27192.51
724.044	27010.82
724.386	26909.12
724.729	27135.11
725.071	26999.06
725.413	26934.43
725.755	26946.86
726.097	26906.19
726.439	26703.7
726.782	26725.17
727.124	26774.44
727.465	26631.16
727.807	26789.35
728.149	26591.17
728.491	26496.03
728.833	26613.09
729.175	26482.69
729.516	26493.09
729.858	26308.46
730.199	26476.59
730.541	26334.45
730.882	26389.14
731.224	26246.09
731.565	26066.89
731.906	26166.54
732.248	26119.99
732.589	26101.91
732.93	26116.83
733.271	26012.2
733.612	26048.35
733.953	26022.59
734.294	25892.88
734.635	25854.01
734.976	25849.94
735.317	25718.19
735.658	25647.01
735.999	25635.94
736.339	25654.01
736.68	25702.38
737.021	25571.98
737.361	25389.61
737.702	25615.37
738.042	25518.88
738.383	25498.76
738.723	25484.98
739.063	25396.85
739.404	25456.73
739.744	25408.6
740.084	25266.45
740.424	25276.17
740.764	25208.6
741.104	25313.01
741.444	25016.07
741.784	25048.83
742.124	25145.55
742.464	24976.52
742.804	24976.74
743.143	24949.4
743.483	24988.95
743.823	24915.05
744.162	24833.02
744.502	24797.31
744.841	24791.21
745.181	24898.55
745.52	24735.39
745.86	24722.74
746.199	24666.7
746.538	24531.78
746.877	24667.83
747.216	24658.79
747.556	24535.17
747.895	24655.85
748.234	24459.24
748.573	24403.88
748.911	24354.39
749.25	24449.75
749.589	24321.85
749.928	24271.68
750.267	24358.46
750.605	24214.5
750.944	24160.04
751.283	24041.18
751.621	24087.73
751.96	23827.62
752.298	23904.91
752.636	23859.26
752.975	23842.54
753.313	23642.54
753.651	23828.07
753.989	23663.78
754.327	23698.59
754.666	23569.32
755.004	23525.94
755.342	23568.42
755.679	23426.05
756.017	23361.42
756.355	23456.11
756.693	23358.48
757.031	23367.3
757.368	23174.53
757.706	23241.42
758.044	23004.82
758.381	23088.21
758.719	23033.52
759.056	23090.24
759.394	22839.4
759.731	22748.1
760.068	22737.26
760.405	22758.72
