Data from hue_20_FLMS001491_24.txt Node
Date: Mon Feb 06 15:33:49 GMT 2017
User: dcchb
Spectrometer: FLMS00149
Trigger mode: 0
Integration Time (sec): 2.000000E-2
Scans to average: 10
Electric dark correction enabled: true
Nonlinearity correction enabled: false
Boxcar width: 0
XAxis mode: Wavelengths
Number of Pixels in Spectrum: 2048
>>>>>Begin Spectral Data<<<<<
341.393	-5.37
341.776	-5.37
342.16	-5.37
342.543	-63.9
342.927	-66.38
343.31	-78.81
343.693	-78.36
344.077	-61.41
344.46	-47.85
344.843	-55.99
345.226	-45.14
345.61	-39.72
345.993	-27.51
346.376	-10.34
346.759	4.35
347.142	24.46
347.525	57.68
347.908	61.3
348.291	78.47
348.674	95.65
349.057	123.22
349.44	149.21
349.823	128.87
350.206	146.72
350.588	188.75
350.971	214.29
351.354	228.07
351.737	249.32
352.119	243.44
352.502	266.94
352.884	286.6
353.267	284.79
353.65	298.13
354.032	304.46
354.414	313.49
354.797	328.86
355.179	325.02
355.562	319.82
355.944	322.76
356.326	319.82
356.709	325.02
357.091	337.45
357.473	351.46
357.855	336.32
358.238	353.95
358.62	351.01
359.002	350.33
359.384	368.18
359.766	340.61
360.148	351.91
360.53	326.38
360.912	314.85
361.294	325.47
361.676	330.44
362.057	341.52
362.439	329.54
362.821	330.44
363.203	337
363.584	314.17
363.966	340.16
364.348	336.77
364.729	324.12
365.111	315.53
365.493	321.4
365.874	320.27
366.256	320.73
366.637	333.16
367.019	315.3
367.4	309.88
367.781	324.12
368.163	327.05
368.544	317.79
368.925	322.76
369.306	317.11
369.688	320.5
370.069	305.36
370.45	333.38
370.831	310.33
371.212	294.06
371.593	329.31
371.974	320.73
372.355	291.57
372.736	312.36
373.117	320.27
373.498	328.64
373.879	322.53
374.26	325.47
374.641	316.43
375.021	322.08
375.402	340.61
375.783	333.38
376.163	330.22
376.544	330.22
376.925	318.69
377.305	333.38
377.686	326.6
378.066	329.31
378.447	339.93
378.827	328.86
379.208	351.23
379.588	327.05
379.968	346.04
380.349	340.16
380.729	342.65
381.109	333.16
381.489	353.72
381.87	338.8
382.25	344.45
382.63	333.61
383.01	353.27
383.39	349.65
383.77	358.01
384.15	347.17
384.53	351.46
384.91	332.93
385.29	332.7
385.67	338.35
386.049	351.91
386.429	339.93
386.809	340.84
387.189	365.47
387.568	377
387.948	349.88
388.328	332.03
388.707	354.85
389.087	358.47
389.466	366.6
389.846	370.44
390.225	356.66
390.605	364.11
390.984	382.42
391.363	384
391.743	373.83
392.122	349.2
392.501	355.75
392.881	387.62
393.26	381.52
393.639	375.41
394.018	360.05
394.397	379.48
394.776	351.91
395.155	387.84
395.534	371.35
395.913	365.92
396.292	359.6
396.671	388.97
397.05	381.29
397.429	370.89
397.808	391.46
398.186	407.28
398.565	384.91
398.944	394.62
399.323	382.42
399.701	380.61
400.08	384.23
400.458	388.75
400.837	401.4
401.215	395.53
401.594	388.29
401.972	374.28
402.351	392.14
402.729	398.69
403.107	404.34
403.486	394.17
403.864	384
404.242	405.24
404.62	405.92
404.999	382.19
405.377	416.54
405.755	407.5
406.133	400.5
406.511	407.28
406.889	420.16
407.267	426.94
407.645	436.43
408.023	428.07
408.401	436.43
408.779	415.64
409.156	439.14
409.534	422.87
409.912	448.63
410.29	422.87
410.667	424.9
411.045	429.2
411.422	446.6
411.8	448.41
412.178	437.56
412.555	439.59
412.933	441.85
413.31	451.8
413.687	468.07
414.065	467.39
414.442	470.1
414.819	477.78
415.197	482.53
415.574	494.51
415.951	493.15
416.328	476.88
416.705	495.64
417.082	476.65
417.46	489.99
417.837	500.16
418.214	487.5
418.591	512.81
418.967	491.34
419.344	494.28
419.721	511.23
420.098	510.1
420.475	493.6
420.852	517.56
421.228	519.82
421.605	513.49
421.982	496.54
422.358	546.93
422.735	513.04
423.111	526.14
423.488	513.94
423.864	531.79
424.241	538.57
424.617	540.16
424.994	529.31
425.37	522.08
425.746	535.41
426.123	548.52
426.499	544.45
426.875	541.96
427.251	540.16
427.627	569.31
428.003	566.37
428.379	556.88
428.756	579.93
429.132	576.99
429.507	579.93
429.883	593.71
430.259	565.47
430.635	602.3
431.011	581.51
431.387	616.54
431.763	604.11
432.138	603.88
432.514	621.51
432.89	626.25
433.265	631.45
433.641	648.63
434.016	637.33
434.392	618.35
434.767	615.63
435.143	634.16
435.518	644.56
435.894	667.38
436.269	647.05
436.644	690.43
437.02	651.79
437.395	657.21
437.77	667.84
438.145	664.45
438.52	683.43
438.895	702.41
439.271	711.68
439.646	676.42
440.021	688.17
440.395	698.8
440.77	728.4
441.145	705.35
441.52	712.13
441.895	740.6
442.27	732.69
442.645	717.55
443.019	721.17
443.394	714.84
443.769	725.69
444.143	726.37
444.518	734.95
444.892	734.05
445.267	753.48
445.641	762.97
446.016	732.01
446.39	757.32
446.764	767.27
447.139	762.97
447.513	771.11
447.887	777.44
448.262	786.93
448.636	793.26
449.01	788.96
449.384	789.41
449.758	784.67
450.132	782.63
450.506	816.31
450.88	821.96
451.254	792.13
451.628	817.66
452.002	826.48
452.376	819.47
452.75	824.44
453.123	810.88
453.497	841.39
453.871	846.36
454.244	859.24
454.618	893.14
454.992	871.9
455.365	859.69
455.739	875.51
456.112	913.03
456.486	925.91
456.859	938.11
457.232	951.44
457.606	936.53
457.979	935.4
458.352	945.79
458.725	948.73
459.099	951.9
459.472	966.13
459.845	995.06
460.218	991.89
460.591	984.44
460.964	1003.65
461.337	1012.91
461.71	1011.1
462.083	1037.77
462.456	1066.47
462.829	1046.36
463.201	1068.95
463.574	1068.28
463.947	1088.16
464.32	1098.11
464.692	1083.87
465.065	1135.39
465.438	1127.94
465.81	1122.29
466.183	1165.45
466.555	1177.43
466.928	1180.82
467.3	1207.26
467.672	1202.06
468.045	1216.3
468.417	1265.11
468.789	1228.95
469.161	1261.27
469.534	1252
469.906	1315.95
470.278	1310.3
470.65	1337.42
471.022	1352.56
471.394	1369.74
471.766	1400.47
472.138	1387.14
472.51	1443.63
472.882	1447.7
473.253	1479.34
473.625	1480.47
473.997	1521.6
474.369	1544.42
474.74	1554.37
475.112	1579.22
475.484	1614.93
475.855	1618.09
476.227	1644.76
476.598	1738.09
476.97	1725.21
477.341	1778.54
477.713	1786
478.084	1796.17
478.455	1845.88
478.827	1854.7
479.198	1917.52
479.569	1932.21
479.94	1979.21
480.311	2026.22
480.682	2066.89
481.053	2127.91
481.424	2157.51
481.795	2170.39
482.166	2218.3
482.537	2245.2
482.908	2333.55
483.279	2342.59
483.65	2364.51
484.021	2433.21
484.391	2491.97
484.762	2502.59
485.133	2576.49
485.503	2575.13
485.874	2656.03
486.244	2664.17
486.615	2749.59
486.985	2787.55
487.356	2837.95
487.726	2832.75
488.097	2897.61
488.467	2953.2
488.837	3019.41
489.207	3023.93
489.578	3091.95
489.948	3125.17
490.318	3188.45
490.688	3198.84
491.058	3239.52
491.428	3336.69
491.798	3360.19
492.168	3383.02
492.538	3453.53
492.908	3476.12
493.278	3560.41
493.648	3588.89
494.017	3600.87
494.387	3609.23
494.757	3675.21
495.126	3701.43
495.496	3769.9
495.866	3782.33
496.235	3786.17
496.605	3870.46
496.974	3907.98
497.344	3912.27
497.713	3968.54
498.082	3967.18
498.452	4042.66
498.821	4077.24
499.19	4091.93
499.559	4147.52
499.928	4084.24
500.298	4125.6
500.667	4188.87
501.036	4179.38
501.405	4255.76
501.774	4244.92
502.143	4270.45
502.512	4294.41
502.88	4311.13
503.249	4390.45
503.618	4402.2
503.987	4404.23
504.356	4450.11
504.724	4415.76
505.093	4485.14
505.462	4473.84
505.83	4524.46
506.199	4563.33
506.567	4626.38
506.936	4577.11
507.304	4660.05
507.672	4653.72
508.041	4665.24
508.409	4728.07
508.777	4764.68
509.145	4738.91
509.514	4785.24
509.882	4787.5
510.25	4837.9
510.618	4840.61
510.986	4809.42
511.354	4838.35
511.722	4907.05
512.09	4936.65
512.458	4905.01
512.826	4914.05
513.193	4950.21
513.561	5020.04
513.929	4979.36
514.297	5104.78
514.664	5066.14
515.032	5080.15
515.4	5097.1
515.767	5107.72
516.135	5140.94
516.502	5111.33
516.869	5169.19
517.237	5170.32
517.604	5161.95
517.972	5222.07
518.339	5218.68
518.706	5198.56
519.073	5231.56
519.44	5237.66
519.808	5258.45
520.175	5274.04
520.542	5322.4
520.909	5338.22
521.276	5363.76
521.643	5406.92
522.009	5425.45
522.376	5431.1
522.743	5524.66
523.11	5532.79
523.477	5590.64
523.843	5586.58
524.21	5588.61
524.577	5588.16
524.943	5638.1
525.31	5641.72
525.676	5701.83
526.043	5733.01
526.409	5758.78
526.776	5778.66
527.142	5814.37
527.508	5858.66
527.874	5858.89
528.241	5885.78
528.607	5929.84
528.973	5990.41
529.339	5947.02
529.705	6038.99
530.071	6065.66
530.437	6030.86
530.803	6116.96
531.169	6149.5
531.535	6088.71
531.901	6126.68
532.267	6158.09
532.632	6170.29
532.998	6278.08
533.364	6251.64
533.73	6194.7
534.095	6330.96
534.461	6330.96
534.826	6342.26
535.192	6366.67
535.557	6450.73
535.923	6412.09
536.288	6452.99
536.653	6539.09
537.019	6456.16
537.384	6569.38
537.749	6570.73
538.114	6602.82
538.479	6577.51
538.845	6629.03
539.21	6585.19
539.575	6694.34
539.94	6764.62
540.305	6742.25
540.67	6746.09
541.034	6781.57
541.399	6833.1
541.764	6858.86
542.129	6853.89
542.494	6901.57
542.858	6950.83
543.223	6939.76
543.587	6965.98
543.952	6969.82
544.316	7025.63
544.681	7019.53
545.045	7042.13
545.41	7116.25
545.774	7162.13
546.138	7128.91
546.503	7190.15
546.867	7198.74
547.231	7206.42
547.595	7266.31
547.959	7322.58
548.324	7296.14
548.688	7306.98
549.052	7344.95
549.416	7393.53
549.779	7376.59
550.143	7437.38
550.507	7499.97
550.871	7508.56
551.235	7514.66
551.599	7590.37
551.962	7582.91
552.326	7562.57
552.689	7616.13
553.053	7604.15
553.417	7657.71
553.78	7730.02
554.143	7730.7
554.507	7738.61
554.87	7742.45
555.234	7860.64
555.597	7852.96
555.96	7824.71
556.323	7877.82
556.686	7888.89
557.05	7914.42
557.413	7908.1
557.776	7970.69
558.139	8030.58
558.502	8069
558.865	8068.32
559.228	8097.7
559.59	8106.28
559.953	8096.11
560.316	8262.21
560.679	8190.35
561.041	8272.61
561.404	8258.82
561.767	8289.33
562.129	8286.62
562.492	8397.8
562.854	8360.97
563.217	8339.72
563.579	8406.84
563.941	8470.57
564.304	8479.16
564.666	8464.47
565.028	8453.62
565.39	8525.71
565.753	8607.51
566.115	8567.74
566.477	8692.03
566.839	8673.95
567.201	8652.94
567.563	8677.79
567.925	8829.2
568.287	8762.54
568.648	8756.66
569.01	8890.67
569.372	8868.98
569.734	8938.8
570.095	8953.27
570.457	8985.58
570.819	9047.95
571.18	9097.67
571.542	9122.75
571.903	9114.39
572.265	9238.23
572.626	9235.52
572.987	9306.03
573.349	9382.63
573.71	9415.4
574.071	9418.11
574.432	9567.94
574.794	9593.25
575.155	9594.38
575.516	9615.62
575.877	9716.41
576.238	9768.84
576.599	9916.63
576.96	9984.2
577.32	10026.01
577.681	10193.91
578.042	10306.23
578.403	10368.37
578.763	10418.77
579.124	10505.54
579.485	10633.9
579.845	10779.66
580.206	10903.05
580.566	11003.61
580.927	11148.92
581.287	11338.06
581.648	11396.59
582.008	11667.32
582.368	11787.54
582.728	11931.49
583.089	11997.26
583.449	12280.41
583.809	12451.71
584.169	12657.12
584.529	12879.04
584.889	13120.16
585.249	13273.15
585.609	13495.29
585.969	13751.56
586.329	13969.41
586.688	14184.99
587.048	14522.84
587.408	14627.47
587.768	14988.14
588.127	15240.79
588.487	15543.83
588.846	15940.2
589.206	16063.81
589.565	16415.44
589.925	16825.6
590.284	17062.66
590.643	17460.84
591.003	17663.55
591.362	18084.1
591.721	18438.67
592.08	18733.35
592.44	18986.22
592.799	19366.55
593.158	19739.88
593.517	19987.78
593.876	20462.57
594.235	20849.68
594.593	21116.56
594.952	21599.94
595.311	21907.05
595.67	22237.44
596.029	22704.54
596.387	23121.71
596.746	23515.37
597.104	23776.83
597.463	24154.45
597.822	24523.93
598.18	24871.49
598.538	25218.6
598.897	25688.65
599.255	25741.07
599.613	26469.87
599.972	26698.34
600.33	27015.62
600.688	27331.09
601.046	27699.89
601.404	28210.61
601.762	28576.71
602.12	28999.07
602.478	29236.35
602.836	29608.32
603.194	29831.59
603.552	30213.27
603.91	30436.09
604.268	30953.82
604.625	31155.4
604.983	31624.54
605.341	31731.88
605.698	32212.99
606.056	32605.53
606.413	32820.89
606.771	33219.3
607.128	33427.65
607.485	33577.93
607.843	33903.57
608.2	34271.92
608.557	34626.04
608.914	34810.21
609.272	35251.33
609.629	35563.64
609.986	35999.56
610.343	35939.9
610.7	36490.4
611.057	36688.13
611.414	36856.49
611.771	36997.95
612.127	37405.85
612.484	37645.17
612.841	37911.38
613.198	38023.46
613.554	38326.96
613.911	38698.25
614.267	38935.98
614.624	38888.07
614.98	39196.54
615.337	39585.68
615.693	39818.44
616.05	39883.08
616.406	40053.47
616.762	40189.51
617.118	40407.36
617.475	40554.92
617.831	40799.44
618.187	40987.91
618.543	41064.74
618.899	41542.92
619.255	41559.42
619.611	41738.85
619.967	41775.46
620.323	42166.41
620.678	42220.64
621.034	42219.51
621.39	42394.87
621.746	42378.38
622.101	42909.89
622.457	42661.08
622.812	42897.91
623.168	43111.69
623.523	43285.25
623.879	43494.28
624.234	43254.74
624.589	43398.92
624.945	43561.17
625.3	43775.63
625.655	43711.9
626.01	43913.03
626.365	43966.13
626.72	44076.41
627.075	44140.36
627.43	44095.17
627.785	44087.48
628.14	44229.18
628.495	44442.96
628.85	44387.59
629.205	44247.93
629.559	44713.68
629.914	44453.12
630.269	44596.17
630.623	44583.74
630.978	44484.76
631.332	44720.46
631.687	44818.77
632.041	44711.2
632.396	44942.6
632.75	44617.87
633.104	44851.31
633.459	44689.05
633.813	44707.58
634.167	44776.73
634.521	44783.51
634.875	44793.23
635.229	44886.11
635.583	44802.04
635.937	44936.73
636.291	44809.73
636.645	44817.64
636.999	44790.29
637.352	44959.1
637.706	44737.19
638.06	44936.73
638.413	44899.67
638.767	44816.28
639.121	44809.95
639.474	44677.53
639.828	44626.45
640.181	44819.67
640.534	44845.43
640.888	44792.78
641.241	44522.05
641.594	44731.08
641.947	44679.33
642.301	44651.76
642.654	44719.78
643.007	44649.96
643.36	44566.79
643.713	44732.89
644.066	44781.93
644.419	44549.85
644.771	44299.23
645.124	43977.66
645.477	43916.42
645.83	43704.9
646.182	43555.52
646.535	43484.79
646.888	43570.89
647.24	43450.21
647.593	43576.54
647.945	43520.27
648.298	43319.14
648.65	43379.03
649.002	43239.6
649.355	43389.42
649.707	43445.92
650.059	43473.49
650.411	43979.24
650.763	44023.98
651.115	44515.27
651.467	44321.38
651.819	44261.72
652.171	44223.07
652.523	44066.69
652.875	44133.59
653.227	44058.56
653.578	44301.04
653.93	44229.63
654.282	43965.23
654.633	43894.95
654.985	44134.72
655.337	44089.97
655.688	43997.32
656.039	44252.68
656.391	43809.3
656.742	43871.67
657.094	43991.67
657.445	44125.22
657.796	43899.02
658.147	43926.81
658.498	43920.48
658.849	43993.25
659.2	44009.97
659.551	43759.58
659.902	44067.6
660.253	43847.04
660.604	43922.52
660.955	43765.01
661.306	43838.9
661.656	43734.5
662.007	43686.14
662.358	43747.15
662.708	43755.52
663.059	43661.96
663.409	43498.57
663.76	43868.96
664.11	43796.19
664.461	43825.12
664.811	43736.76
665.161	43673.71
665.511	43695.18
665.862	43689.76
666.212	43932.23
666.562	43753.48
666.912	43729.3
667.262	43712.13
667.612	43742.18
667.962	43809.98
668.312	43641.39
668.662	43903.53
669.011	43746.02
669.361	43737.44
669.711	43668.96
670.06	43582.41
670.41	43403.21
670.76	43396.43
671.109	43648.85
671.459	43577.44
671.808	43464
672.157	43660.83
672.507	43262.2
672.856	43436.88
673.205	43424.45
673.554	43558.01
673.904	43440.5
674.253	43603.2
674.602	43519.36
674.951	42875.09
675.3	42783.79
675.649	43264.91
675.998	43221.52
676.346	43432.81
676.695	43262.2
677.044	43043.9
677.393	43213.61
677.741	43296.32
678.09	43146.94
678.438	43045.93
678.787	43158.47
679.135	43092.71
679.484	42804.35
679.832	43044.35
680.181	42784.47
680.529	42888.19
680.877	42665.83
681.225	42695.43
681.573	42921.64
681.922	42814.3
682.27	42630.8
682.618	42618.82
682.966	42440.3
683.314	42610.69
683.661	42541.31
684.009	42292.05
684.357	42137.03
684.705	42037.6
685.053	42198.04
685.4	42127.76
685.748	41855.91
686.095	41878.96
686.443	41713.54
686.79	41800.77
687.138	41900.88
687.485	41740.43
687.832	41718.96
688.18	41642.35
688.527	41462.92
688.874	41408.46
689.221	41420.21
689.568	41188.13
689.915	41174.79
690.262	41118.75
690.609	41110.84
690.956	41029.49
691.303	40853.67
691.65	40758.53
691.997	40797.4
692.344	40503.85
692.69	40460.69
693.037	40466.79
693.383	40138.89
693.73	40308.38
694.077	40063.18
694.423	39954.94
694.769	39952.9
695.116	39876.97
695.462	39849.18
695.808	39664.32
696.155	39640.37
696.501	39434.27
696.847	39437.21
697.193	39160.38
697.539	39244
697.885	38989.09
698.231	38786.16
698.577	38962.65
698.923	38917.45
699.269	38735.31
699.614	38562.21
699.96	38530.79
700.306	38535.77
700.651	38322.66
700.997	38197.92
701.342	38145.72
701.688	38072.05
702.033	37980.75
702.379	37889.68
702.724	37893.52
703.069	37969.45
703.415	37457.15
703.76	37511.84
704.105	37506.64
704.45	37354.1
704.795	37264.39
705.14	37120.21
705.485	37106.88
705.83	36994.56
706.175	36988.01
706.52	36893.1
706.865	36730.84
707.209	36590.05
707.554	36600.22
707.899	36643.16
708.243	36535.82
708.588	36404.52
708.932	36188.71
709.277	36188.03
709.621	36203.4
709.966	36059.67
710.31	36067.58
710.654	35855.16
710.998	35888.6
711.342	35773.58
711.687	35648.61
712.031	35412.23
712.375	35463.53
712.719	35558.67
713.063	35458.79
713.407	35527.03
713.75	35214.95
714.094	35278.9
714.438	35147.15
714.782	35105.57
715.125	34930.44
715.469	35029.42
715.812	34847.28
716.156	34769.99
716.499	34712.82
716.843	34815.41
717.186	34438.25
717.53	34630.11
717.873	34635.98
718.216	34454.29
718.559	34411.36
718.902	34203.9
719.246	34271.92
719.589	34220.4
719.932	34053.17
720.275	34127.75
720.617	34050.01
720.96	34005.04
721.303	33968.88
721.646	34007.07
721.989	33676.91
722.331	33878.71
722.674	33789.68
723.016	33689.57
723.359	33614.54
723.701	33570.02
724.044	33373.19
724.386	33360.08
724.729	33373.87
725.071	33264.49
725.413	33304.72
725.755	33233.53
726.097	33056.59
726.439	32910.15
726.782	32965.52
727.124	33047.78
727.465	32827.22
727.807	32798.97
728.149	32770.04
728.491	32743.15
728.833	32756.71
729.175	32597.84
729.516	32507
729.858	32416.38
730.199	32580.67
730.541	32424.74
730.882	32405.98
731.224	32491.18
731.565	32256.16
731.906	32316.72
732.248	32294.12
732.589	32157.4
732.93	32107.69
733.271	32104.52
733.612	32077.63
733.953	32146.33
734.294	31920.8
734.635	31874.47
734.976	32027.24
735.317	31768.26
735.658	31867.69
735.999	31825.43
736.339	31624.54
736.68	31890.97
737.021	31635.83
737.361	31592.67
737.702	31685.33
738.042	31656.4
738.383	31519.45
738.723	31590.41
739.063	31347.25
739.404	31453.24
739.744	31304.77
740.084	31212.34
740.424	31241.27
740.764	31182.06
741.104	31360.14
741.444	31007.6
741.784	30972.35
742.124	30928.06
742.464	30943.42
742.804	30890.09
743.143	30854.16
743.483	30925.35
743.823	30608.74
744.162	30794.73
744.502	30674.96
744.841	30679.48
745.181	30735.29
745.52	30519.48
745.86	30559.93
746.199	30414.4
746.538	30432.48
746.877	30520.84
747.216	30514.28
747.556	30491.46
747.895	30394.51
748.234	30325.13
748.573	30276.1
748.911	30223.22
749.25	30182.54
749.589	30093.95
749.928	30035.65
750.267	29981.42
750.605	29964.47
750.944	29909.1
751.283	29769.67
751.621	29878.14
751.96	29761.31
752.298	29643.12
752.636	29732.16
752.975	29600.41
753.313	29540.07
753.651	29698.48
753.989	29528.77
754.327	29629.56
754.666	29299.4
755.004	29338.49
755.342	29303.24
755.679	29366.06
756.017	29148.22
756.355	29227.54
756.693	29185.28
757.031	29081.55
757.368	28832.07
757.706	28864.16
758.044	28821.9
758.381	28773.76
758.719	28821.45
759.056	28761.11
759.394	28573.99
759.731	28453.77
760.068	28371.97
760.405	28375.13
760.743	28188.47
