Data from hue_90_FLMS001491_14.txt Node
Date: Mon Feb 06 15:24:45 GMT 2017
User: dcchb
Spectrometer: FLMS00149
Trigger mode: 0
Integration Time (sec): 2.000000E-2
Scans to average: 10
Electric dark correction enabled: true
Nonlinearity correction enabled: false
Boxcar width: 0
XAxis mode: Wavelengths
Number of Pixels in Spectrum: 2048
>>>>>Begin Spectral Data<<<<<
341.393	0.45
341.776	0.45
342.16	0.45
342.543	-47.91
342.927	-45.42
343.31	-61.47
343.693	-67.34
344.077	-78.87
344.46	-53.33
344.843	-47.91
345.226	-66.21
345.61	-34.12
345.993	-20.34
346.376	-5.65
346.759	0.45
347.142	31.86
347.525	40.22
347.908	72.54
348.291	86.55
348.674	95.36
349.057	108.25
349.44	135.82
349.823	127
350.206	171.97
350.588	189.83
350.971	206.77
351.354	212.42
351.737	226.66
352.119	241.58
352.502	273.67
352.884	271.41
353.267	287.68
353.65	290.39
354.032	299.65
354.414	293.55
354.797	298.07
355.179	302.82
355.562	317.73
355.944	319.09
356.326	310.95
356.709	339.2
357.091	340.56
357.473	336.94
357.855	348.69
358.238	346.43
358.62	332.42
359.002	353.44
359.384	343.49
359.766	327.22
360.148	336.26
360.53	324.74
360.912	351.63
361.294	338.75
361.676	323.38
362.057	319.77
362.439	330.84
362.821	331.97
363.203	336.04
363.584	307.56
363.966	306.43
364.348	343.04
364.729	323.83
365.111	312.31
365.493	322.25
365.874	307.79
366.256	325.19
366.637	313.44
367.019	313.89
367.4	317.28
367.781	329.93
368.163	335.36
368.544	305.75
368.925	316.83
369.306	321.12
369.688	309.6
370.069	317.96
370.45	307.34
370.831	305.98
371.212	298.98
371.593	304.4
371.974	315.02
372.355	315.92
372.736	335.36
373.117	313.89
373.498	323.38
373.879	317.05
374.26	301.46
374.641	315.92
375.021	296.94
375.402	316.83
375.783	324.51
376.163	324.51
376.544	318.64
376.925	345.3
377.305	335.13
377.686	334
378.066	330.39
378.447	319.09
378.827	319.09
379.208	316.15
379.588	323.83
379.968	328.13
380.349	344.62
380.729	350.73
381.109	334.91
381.489	324.06
381.87	338.97
382.25	333.1
382.63	333.1
383.01	338.97
383.39	341.69
383.77	322.48
384.15	328.35
384.53	336.94
384.91	336.04
385.29	334.23
385.67	324.96
386.049	330.61
386.429	359.99
386.809	341.23
387.189	352.76
387.568	357.5
387.948	361.12
388.328	339.2
388.707	380.78
389.087	354.79
389.466	352.31
389.846	367
390.225	348.24
390.605	350.05
390.984	364.51
391.363	377.62
391.743	363.15
392.122	365.19
392.501	365.19
392.881	380.1
393.26	361.35
393.639	367.22
394.018	367
394.397	376.71
394.776	355.92
395.155	364.06
395.534	402.93
395.913	363.83
396.292	376.71
396.671	365.41
397.05	377.84
397.429	382.59
397.808	389.82
398.186	386.43
398.565	370.61
398.944	388.01
399.323	404.06
399.701	400.22
400.08	395.7
400.458	378.75
400.837	389.14
401.215	381.46
401.594	379.65
401.972	409.48
402.351	388.46
402.729	413.77
403.107	394.79
403.486	413.1
403.864	417.84
404.242	396.37
404.62	407.45
404.999	382.14
405.377	409.25
405.755	418.75
406.133	420.1
406.511	430.05
406.889	433.89
407.267	412.42
407.645	435.02
408.023	455.13
408.401	422.36
408.779	437.73
409.156	451.97
409.534	423.94
409.912	440.44
410.29	416.94
410.667	446.09
411.045	451.97
411.422	441.12
411.8	452.42
412.178	456.71
412.555	461.91
412.933	470.04
413.31	463.94
413.687	469.59
414.065	471.63
414.442	456.71
414.819	469.37
415.197	485.41
415.574	463.94
415.951	503.72
416.328	486.99
416.705	484.73
417.082	485.18
417.46	480.67
417.837	492.64
418.214	495.58
418.591	496.71
418.967	507.78
419.344	502.59
419.721	491.29
420.098	520.44
420.475	494.45
420.852	510.5
421.228	513.66
421.605	529.48
421.982	508.69
422.358	516.6
422.735	536.26
423.111	540.1
423.488	538.74
423.864	542.13
424.241	545.75
424.617	560.44
424.994	548.01
425.37	544.39
425.746	566.09
426.123	570.38
426.499	577.39
426.875	580.32
427.251	585.75
427.627	604.28
428.003	566.09
428.379	604.05
428.756	577.84
429.132	595.24
429.507	620.77
429.883	608.8
430.259	617.16
430.635	610.61
431.011	614
431.387	623.26
431.763	628.91
432.138	628.91
432.514	639.53
432.89	616.71
433.265	643.82
433.641	665.07
434.016	634.56
434.392	655.35
434.767	692.19
435.143	662.13
435.518	661.45
435.894	663.49
436.269	673.88
436.644	692.41
437.02	705.52
437.395	686.08
437.77	719.76
438.145	720.43
438.52	718.17
438.895	716.37
439.271	720.43
439.646	733.09
440.021	742.13
440.395	739.19
440.77	716.59
441.145	738.29
441.52	762.24
441.895	777.38
442.27	772.41
442.645	779.19
443.019	778.51
443.394	773.54
443.769	776.93
444.143	819.41
444.518	818.74
444.892	799.98
445.267	793.88
445.641	778.96
446.016	792.3
446.39	832.29
446.764	828.68
447.139	819.41
447.513	860.32
447.887	835.46
448.262	833.65
448.636	851.95
449.01	850.6
449.384	868.23
449.758	855.34
450.132	870.49
450.506	874.1
450.88	893.99
451.254	872.29
451.628	896.7
452.002	882.01
452.376	920.2
452.75	900.99
453.123	924.95
453.497	914.33
453.871	943.03
454.244	957.04
454.618	971.5
454.992	973.76
455.365	962.46
455.739	1002.23
456.112	1010.82
456.486	1014.21
456.859	1020.54
457.232	1029.58
457.606	1023.7
457.979	1039.97
458.352	1053.76
458.725	1062.8
459.099	1063.02
459.472	1110.25
459.845	1100.76
460.218	1123.13
460.591	1142.79
460.964	1128.11
461.337	1147.31
461.71	1169.91
462.083	1209.23
462.456	1202.45
462.829	1209.01
463.201	1218.27
463.574	1209.23
463.947	1240.42
464.32	1269.35
464.692	1269.57
465.065	1271.83
465.438	1343.69
465.81	1332.17
466.183	1333.52
466.555	1375.78
466.928	1416.46
467.3	1391.83
467.672	1434.76
468.045	1490.36
468.417	1465.05
468.789	1462.33
469.161	1496.01
469.534	1540.75
469.906	1576.68
470.278	1585.04
470.65	1594.76
471.022	1640.63
471.394	1672.95
471.766	1695.55
472.138	1712.05
472.51	1780.97
472.882	1801.08
473.253	1848.54
473.625	1866.17
473.997	1941.64
474.369	1929.89
474.74	2001.98
475.112	1986.84
475.484	2061.64
475.855	2134.63
476.227	2155.42
476.598	2198.59
476.97	2268.19
477.341	2322.2
477.713	2388.64
478.084	2424.57
478.455	2486.94
478.827	2545.47
479.198	2637.22
479.569	2684.68
479.94	2748.63
480.311	2848.96
480.682	2893.71
481.053	2985.23
481.424	3050.99
481.795	3083.76
482.166	3259.8
482.537	3287.37
482.908	3416.41
483.279	3496.18
483.65	3555.16
484.021	3679
484.391	3770.97
484.762	3816.17
485.133	3906.34
485.503	4017.75
485.874	4153.11
486.244	4233.79
486.615	4348.81
486.985	4477.85
487.356	4571.63
487.726	4660.67
488.097	4787.22
488.467	4864.05
488.837	5026.31
489.207	5161.9
489.578	5258.39
489.948	5360.76
490.318	5514.88
490.688	5552.62
491.058	5713.97
491.428	5829.68
491.798	5943.35
492.168	6128.43
492.538	6193.06
492.908	6286.39
493.278	6442.54
493.648	6553.73
494.017	6672.82
494.387	6731.12
494.757	6925.47
495.126	7044.79
495.496	7022.19
495.866	7266.93
496.235	7280.26
496.605	7435.06
496.974	7567.48
497.344	7657.43
497.713	7776.07
498.082	7921.83
498.452	8019.45
498.821	8111.2
499.19	8117.3
499.559	8242.5
499.928	8418.31
500.298	8500.34
500.667	8590.73
501.036	8613.78
501.405	8740.34
501.774	8739.88
502.143	8875.02
502.512	8952.53
502.88	9055.13
503.249	9106.88
503.618	9198.18
503.987	9239.08
504.356	9282.24
504.724	9428.9
505.093	9538.05
505.462	9528.34
505.83	9616.47
506.199	9719.74
506.567	9825.05
506.936	9784.6
507.304	9957.7
507.672	10019.62
508.041	10110.02
508.409	10143.01
508.777	10206.74
509.145	10260.97
509.514	10323.57
509.882	10433.85
510.25	10408.99
510.618	10453.06
510.986	10479.72
511.354	10660.28
511.722	10688.08
512.09	10797.68
512.458	10736.67
512.826	10860.73
513.193	10905.93
513.561	10949.77
513.929	11006.04
514.297	10984.34
514.664	11077.22
515.032	11074.74
515.4	11180.27
515.767	11192.02
516.135	11267.27
516.502	11164.68
516.869	11350.44
517.237	11417.78
517.604	11288.29
517.972	11389.08
518.339	11538.23
518.706	11433.82
519.073	11460.04
519.44	11499.58
519.808	11704.78
520.175	11606.02
520.542	11758.11
520.909	11741.84
521.276	11678.79
521.643	11764.21
522.009	11888.5
522.376	11824.32
522.743	11861.16
523.11	11935.73
523.477	12132.56
523.843	12044.2
524.21	12092.56
524.577	12215.27
524.943	12175.05
525.31	12166.23
525.676	12260.92
526.043	12277.19
526.409	12241.03
526.776	12420.69
527.142	12255.72
527.508	12289.39
527.874	12452.1
528.241	12459.11
528.607	12456.4
528.973	12465.89
529.339	12426.57
529.705	12437.19
530.071	12580.91
530.437	12558.09
530.803	12598.99
531.169	12588.6
531.535	12494.36
531.901	12507.02
532.267	12501.14
532.632	12574.36
532.998	12561.03
533.364	12487.58
533.73	12512.89
534.095	12581.59
534.461	12493.68
534.826	12539.78
535.192	12538.88
535.557	12592.89
535.923	12562.38
536.288	12561.25
536.653	12532.55
537.019	12490.52
537.384	12546.79
537.749	12414.14
538.114	12421.82
538.479	12352.44
538.845	12435.61
539.21	12308.6
539.575	12282.84
539.94	12279.9
540.305	12372.1
540.67	12196.52
541.034	12211.66
541.399	12277.42
541.764	12229.51
542.129	12224.76
542.494	12161.49
542.858	12175.5
543.223	12161.04
543.587	12127.14
543.952	12075.84
544.316	12143.86
544.681	12004.2
545.045	11969.18
545.41	12102.51
545.774	11982.74
546.138	12013.47
546.503	11976.41
546.867	11981.15
547.231	11938.22
547.595	11999.46
547.959	11872.23
548.324	11804.44
548.688	11868.39
549.052	11890.08
549.416	11803.08
549.779	11705.23
550.143	11701.16
550.507	11751.1
550.871	11672.91
551.235	11683.08
551.599	11719.69
551.962	11615.06
552.326	11693.03
552.689	11647.38
553.053	11583.2
553.417	11577.1
553.78	11737.54
554.143	11577.32
554.507	11602.63
554.87	11548.62
555.234	11568.96
555.597	11478.79
555.96	11514.05
556.323	11603.99
556.686	11458.91
557.05	11568.96
557.413	11497.78
557.776	11513.6
558.139	11492.35
558.502	11540.26
558.865	11513.37
559.228	11477.89
559.59	11522.41
559.953	11484.67
560.316	11525.8
560.679	11561.05
561.041	11554.95
561.404	11600.6
561.767	11508.4
562.129	11523.99
562.492	11594.72
562.854	11517.66
563.217	11498.45
563.579	11639.69
563.941	11660.26
564.304	11587.94
564.666	11663.65
565.028	11535.52
565.39	11607.15
565.753	11683.99
566.115	11700.03
566.477	11686.7
566.839	11683.31
567.201	11717.88
567.563	11649.41
567.925	11832.46
568.287	11716.08
568.648	11688.28
569.01	11816.19
569.372	11817.54
569.734	11781.84
570.095	11861.83
570.457	11856.19
570.819	11859.12
571.18	11794.04
571.542	11844.21
571.903	11887.6
572.265	11897.77
572.626	11892.34
572.987	11918.1
573.349	11935.51
573.71	11968.27
574.071	11940.7
574.432	11913.13
574.794	11971.21
575.155	11983.87
575.516	11918.33
575.877	11985
576.238	11960.14
576.599	12078.55
576.96	11961.95
577.32	11993.36
577.681	12017.09
578.042	12085.33
578.403	11982.06
578.763	12047.37
579.124	12016.63
579.485	12060.25
579.845	12088.95
580.206	12048.5
580.566	12053.92
580.927	12033.58
581.287	12107.7
581.648	11941.61
582.008	12046.91
582.368	12048.04
582.728	12015.05
583.089	12045.78
583.449	12092.34
583.809	12022.28
584.169	12027.25
584.529	12023.19
584.889	12121.94
585.249	11942.74
585.609	11936.18
585.969	12026.12
586.329	12033.36
586.688	11938.9
587.048	11997.65
587.408	11955.17
587.768	12002.62
588.127	11924.21
588.487	11952
588.846	11938.67
589.206	11946.58
589.565	11825.23
589.925	11948.16
590.284	11872
590.643	11924.21
591.003	11873.13
591.362	11961.95
591.721	11914.04
592.08	11885.56
592.44	11938.44
592.799	11876.3
593.158	11828.62
593.517	11885.34
593.876	11877.43
594.235	11846.47
594.593	11840.82
594.952	11867.03
595.311	11804.66
595.67	11875.17
596.029	11858.22
596.387	11908.16
596.746	11888.95
597.104	11882.63
597.463	11871.33
597.822	11868.39
598.18	11825
598.538	11778
598.897	11902.74
599.255	11741.39
599.613	11883.53
599.972	11846.92
600.33	11862.06
600.688	11804.89
601.046	11799.69
601.404	11873.59
601.762	11799.92
602.12	11814.38
602.478	11836.52
602.836	11872.46
603.194	11748.39
603.552	11778
603.91	11782.29
604.268	11829.97
604.625	11806.7
604.983	11823.19
605.341	11778.22
605.698	11845.11
606.056	11840.59
606.413	11835.62
606.771	11820.93
607.128	11912.23
607.485	11815.73
607.843	11779.58
608.2	11806.92
608.557	12008.95
608.914	11915.62
609.272	11951.32
609.629	11906.81
609.986	11952.23
610.343	11890.08
610.7	12018.67
611.057	12035.16
611.414	11936.86
611.771	11971.66
612.127	12003.3
612.484	11969.85
612.841	12006.92
613.198	11975.28
613.554	12026.12
613.911	12054.37
614.267	12055.95
614.624	12026.35
614.98	12038.55
615.337	12076.74
615.693	12096.41
616.05	11998.1
616.406	12067.03
616.762	12066.8
617.118	12124.88
617.475	12176.63
617.831	12130.08
618.187	12078.78
618.543	12208.49
618.899	12183.18
619.255	12178.21
619.611	12073.58
619.967	12150.19
620.323	12217.31
620.678	12227.25
621.034	12159.45
621.39	12170.08
621.746	12029.29
622.101	12267.25
622.457	12165.1
622.812	12184.76
623.168	12245.78
623.523	12141.83
623.879	12294.37
624.234	12080.13
624.589	12194.48
624.945	12096.86
625.3	12229.28
625.655	12205.1
626.01	12200.58
626.365	12189.96
626.72	12132.11
627.075	12225.44
627.43	12151.09
627.785	12129.62
628.14	12150.64
628.495	12223.18
628.85	12211.2
629.205	12166.91
629.559	12224.54
629.914	12030.87
630.269	12088.5
630.623	12066.8
630.978	12059.8
631.332	12103.18
631.687	12065.67
632.041	12013.7
632.396	12101.83
632.75	12035.16
633.104	12006.69
633.459	11955.39
633.813	11948.61
634.167	11954.26
634.521	12032.68
634.875	11938.9
635.229	11924.43
635.583	11892.12
635.937	11779.58
636.291	11832.91
636.645	11846.47
636.999	11854.83
637.352	11863.87
637.706	11829.07
638.06	11880.82
638.413	11849.86
638.767	11729.18
639.121	11846.47
639.474	11746.58
639.828	11831.78
640.181	11726.92
640.534	11748.84
640.888	11726.7
641.241	11689.86
641.594	11789.52
641.947	11773.93
642.301	11643.31
642.654	11698.68
643.007	11705.68
643.36	11628.85
643.713	11671.56
644.066	11637.66
644.419	11640.6
644.771	11539.58
645.124	11455.07
645.477	11393.6
645.83	11351.57
646.182	11298.46
646.535	11297.56
646.888	11284.9
647.24	11187.5
647.593	11324.22
647.945	11225.47
648.298	11119.93
648.65	11186.6
649.002	11161.51
649.355	11251.46
649.707	11211.91
650.059	11280.83
650.411	11394.28
650.763	11469.3
651.115	11580.49
651.467	11568.28
651.819	11513.82
652.171	11540.26
652.523	11515.4
652.875	11514.05
653.227	11489.87
653.578	11540.26
653.93	11504.33
654.282	11450.09
654.633	11419.36
654.985	11482.18
655.337	11439.47
655.688	11489.87
656.039	11583.88
656.391	11422.07
656.742	11526.48
657.094	11459.36
657.445	11439.47
657.796	11408.74
658.147	11388.4
658.498	11485.35
658.849	11496.87
659.2	11441.73
659.551	11388.63
659.902	11458.46
660.253	11484.22
660.604	11456.42
660.955	11366.48
661.306	11515.86
661.656	11524.67
662.007	11485.57
662.358	11525.57
662.708	11470.66
663.059	11481.73
663.409	11420.49
663.76	11507.27
664.11	11555.85
664.461	11527.61
664.811	11522.41
665.161	11506.59
665.511	11504.33
665.862	11538.45
666.212	11529.64
666.562	11542.97
666.912	11500.04
667.262	11504.1
667.612	11543.43
667.962	11512.24
668.312	11499.58
668.662	11540.04
669.011	11488.29
669.361	11494.61
669.711	11504.33
670.06	11446.03
670.41	11410.32
670.76	11436.99
671.109	11484.9
671.459	11456.65
671.808	11471.11
672.157	11495.06
672.507	11449.19
672.856	11436.31
673.205	11384.11
673.554	11445.12
673.904	11407.38
674.253	11449.19
674.602	11398.34
674.951	11192.93
675.3	11168.29
675.649	11421.85
675.998	11333.26
676.346	11337.56
676.695	11434.05
677.044	11221.63
677.393	11281.74
677.741	11288.29
678.09	11351.57
678.438	11261.85
678.787	11307.05
679.135	11230.44
679.484	11192.47
679.832	11275.18
680.181	11193.83
680.529	11247.84
680.877	11153.15
681.225	11233.38
681.573	11147.05
681.922	11083.78
682.27	11118.8
682.618	11070.44
682.966	11080.84
683.314	11065.25
683.661	11058.24
684.009	10931.69
684.357	10974.4
684.705	10903.89
685.053	10896.89
685.4	10912.71
685.748	10776.67
686.095	10878.58
686.443	10869.32
686.79	10763.78
687.138	10798.81
687.485	10792.48
687.832	10727.18
688.18	10739.15
688.527	10627.29
688.874	10638.36
689.221	10621.42
689.568	10602.66
689.915	10475.2
690.262	10547.97
690.609	10542.55
690.956	10497.35
691.303	10483.11
691.65	10404.02
691.997	10399.05
692.344	10269.56
692.69	10342.1
693.037	10351.37
693.383	10249.67
693.73	10261.43
694.077	10160.86
694.423	10141.65
694.769	10241.54
695.116	10078.15
695.462	10055.1
695.808	10000.87
696.155	10027.76
696.501	9990.7
696.847	9901.21
697.193	9865.5
697.539	9909.12
697.885	9791.38
698.231	9829.57
698.577	9875.67
698.923	9730.37
699.269	9707.77
699.614	9669.35
699.96	9653.08
700.306	9669.12
700.651	9572.63
700.997	9522.69
701.342	9498.96
701.688	9444.72
702.033	9374.44
702.379	9413.31
702.724	9362.24
703.069	9428
703.415	9267.55
703.76	9296.93
704.105	9297.83
704.45	9179.87
704.795	9219.42
705.14	9180.32
705.485	9103.26
705.83	9178.97
706.175	9100.55
706.52	9093.32
706.865	9021.23
707.209	9037.5
707.554	8939.65
707.899	8976.49
708.243	8891.74
708.588	8931.74
708.932	8882.93
709.277	8868.24
709.621	8872.31
709.966	8797.96
710.31	8867.11
710.654	8728.36
710.998	8714.35
711.342	8743.27
711.687	8745.76
712.031	8710.96
712.375	8607.23
712.719	8621.47
713.063	8633.9
713.407	8708.47
713.75	8609.94
714.094	8593.9
714.438	8566.33
714.782	8582.83
715.125	8547.8
715.469	8484.97
715.812	8494.24
716.156	8472.09
716.499	8487.69
716.843	8492.66
717.186	8403.39
717.53	8459.66
717.873	8436.39
718.216	8426.9
718.559	8382.38
718.902	8336.28
719.246	8360.46
719.589	8318.88
719.932	8258.54
720.275	8316.84
720.617	8316.17
720.96	8335.37
721.303	8324.3
721.646	8251.53
721.989	8248.37
722.331	8224.64
722.674	8277.97
723.016	8271.65
723.359	8261.25
723.701	8225.32
724.044	8146.45
724.386	8165.21
724.729	8166.34
725.071	8231.42
725.413	8139
725.755	8110.3
726.097	8120.69
726.439	8143.51
726.782	8128.83
727.124	8170.18
727.465	8084.99
727.807	8089.28
728.149	8078.66
728.491	8093.12
728.833	8120.92
729.175	8015.38
729.516	8052.22
729.858	8020.13
730.199	8108.71
730.541	8066.23
730.882	8031.2
731.224	8089.28
731.565	8095.83
731.906	8063.06
732.248	8070.3
732.589	8023.52
732.93	8013.57
733.271	8064.19
733.612	8031.65
733.953	8050.18
734.294	7987.36
734.635	7979.9
734.976	8027.81
735.317	8024.65
735.658	7961.82
735.999	8044.31
736.339	7978.32
736.68	8088.15
737.021	8071.2
737.361	7983.29
737.702	8068.94
738.042	8068.71
738.383	8040.01
738.723	8082.27
739.063	8107.36
739.404	8081.14
739.744	8057.42
740.084	8041.14
740.424	8099.67
740.764	8086.12
741.104	8065.1
741.444	8080.92
741.784	8126.57
742.124	8149.39
742.464	8145.77
742.804	8165.66
743.143	8183.06
743.483	8191.42
743.823	8163.4
744.162	8215.38
744.502	8249.73
744.841	8262.16
745.181	8305.77
745.52	8313.45
745.86	8357.75
746.199	8388.48
746.538	8391.19
746.877	8469.16
747.216	8518.42
747.556	8529.49
747.895	8522.49
748.234	8559.77
748.573	8606.55
748.911	8652.88
749.25	8725.65
749.589	8722.48
749.928	8804.29
750.267	8896.49
750.605	8947.56
750.944	8956.37
751.283	8997.5
751.621	9067.78
751.96	9124.96
752.298	9231.85
752.636	9319.3
752.975	9334.22
753.313	9384.61
753.651	9529.01
753.989	9601.78
754.327	9741.21
754.666	9757.48
755.004	9916.8
755.342	10040.64
755.679	10181.88
756.017	10219.39
756.355	10366.28
756.693	10442.44
757.031	10578.7
757.368	10650.34
757.706	10819.38
758.044	10866.83
758.381	11058.24
758.719	11181.17
759.056	11311.12
759.394	11425.91
759.731	11517.89
760.068	11595.63
760.405	11760.82
