Data from hue_10_FLMS001491_38.txt Node
Date: Mon Feb 06 15:31:49 GMT 2017
User: dcchb
Spectrometer: FLMS00149
Trigger mode: 0
Integration Time (sec): 2.000000E-2
Scans to average: 10
Electric dark correction enabled: true
Nonlinearity correction enabled: false
Boxcar width: 0
XAxis mode: Wavelengths
Number of Pixels in Spectrum: 2048
>>>>>Begin Spectral Data<<<<<
341.393	7.74
341.776	7.74
342.16	7.74
342.543	-57.12
342.927	-68.42
343.31	-58.25
343.693	-63.9
344.077	-62.31
344.46	-66.38
344.843	-59.38
345.226	-40.85
345.61	-25.48
345.993	-19.83
346.376	-3.33
346.759	5.03
347.142	27.17
347.525	35.76
347.908	47.74
348.291	70.11
348.674	103.1
349.057	110.79
349.44	124.35
349.823	143.33
350.206	149.43
350.588	179.94
350.971	198.02
351.354	207.28
351.737	235.98
352.119	232.14
352.502	257.22
352.884	288.64
353.267	269.65
353.65	272.59
354.032	291.57
354.414	289.77
354.797	307.62
355.179	325.02
355.562	303.1
355.944	316.88
356.326	321.4
356.709	310.78
357.091	310.78
357.473	327.28
357.855	333.38
358.238	348.75
358.62	344.91
359.002	329.77
359.384	334.74
359.766	342.42
360.148	308.97
360.53	325.47
360.912	342.65
361.294	326.83
361.676	313.95
362.057	327.05
362.439	325.02
362.821	319.14
363.203	320.05
363.584	285.92
363.966	310.1
364.348	310.56
364.729	315.75
365.111	324.34
365.493	316.88
365.874	295.87
366.256	305.36
366.637	313.95
367.019	289.54
367.4	307.17
367.781	322.08
368.163	298.81
368.544	302.2
368.925	289.77
369.306	313.27
369.688	318.24
370.069	290.22
370.45	298.81
370.831	299.94
371.212	310.56
371.593	305.13
371.974	314.62
372.355	301.29
372.736	290.9
373.117	290.9
373.498	300.16
373.879	322.08
374.26	315.75
374.641	276.89
375.021	305.59
375.402	318.01
375.783	280.95
376.163	322.99
376.544	310.56
376.925	322.99
377.305	299.71
377.686	316.66
378.066	308.3
378.447	322.99
378.827	326.15
379.208	313.27
379.588	320.27
379.968	320.73
380.349	323.66
380.729	323.21
381.109	328.18
381.489	304.23
381.87	318.24
382.25	344.68
382.63	331.57
383.01	333.16
383.39	323.66
383.77	320.27
384.15	341.06
384.53	332.7
384.91	355.75
385.29	327.96
385.67	332.7
386.049	339.48
386.429	324.12
386.809	335.41
387.189	337.45
387.568	333.83
387.948	332.93
388.328	337.45
388.707	341.97
389.087	332.25
389.466	320.05
389.846	334.28
390.225	331.12
390.605	355.3
390.984	353.04
391.363	343.78
391.743	336.32
392.122	331.57
392.501	356.21
392.881	377.22
393.26	357.56
393.639	353.27
394.018	354.17
394.397	362.76
394.776	362.08
395.155	351.91
395.534	369.31
395.913	364.79
396.292	361.63
396.671	356.88
397.05	377.67
397.429	343.55
397.808	353.04
398.186	362.31
398.565	359.37
398.944	381.74
399.323	381.06
399.701	358.69
400.08	375.87
400.458	368.86
400.837	374.28
401.215	375.64
401.594	385.13
401.972	378.35
402.351	388.07
402.729	359.37
403.107	371.57
403.486	388.97
403.864	377
404.242	373.15
404.62	376.09
404.999	375.64
405.377	405.47
405.755	389.42
406.133	391.01
406.511	389.42
406.889	431.46
407.267	415.41
407.645	397.33
408.023	412.7
408.401	410.67
408.779	418.35
409.156	446.15
409.534	415.86
409.912	422.42
410.29	416.99
410.667	441.63
411.045	426.94
411.422	442.76
411.8	435.07
412.178	440.95
412.555	435.75
412.933	447.95
413.31	443.21
413.687	448.41
414.065	445.24
414.442	426.49
414.819	449.76
415.197	453.6
415.574	464
415.951	458.8
416.328	453.38
416.705	484.11
417.082	467.84
417.46	447.73
417.837	485.02
418.214	465.35
418.591	472.36
418.967	469.42
419.344	484.79
419.721	478.91
420.098	485.02
420.475	481.17
420.852	489.99
421.228	478.24
421.605	492.92
421.982	490.21
422.358	492.47
422.735	493.83
423.111	495.64
423.488	485.92
423.864	507.39
424.241	514.17
424.617	522.08
424.994	508.52
425.37	509.2
425.746	514.39
426.123	521.4
426.499	518.91
426.875	522.53
427.251	507.16
427.627	539.03
428.003	551
428.379	552.81
428.756	558.01
429.132	566.37
429.507	538.57
429.883	565.24
430.259	568.63
430.635	557.33
431.011	575.18
431.387	584.67
431.763	554.62
432.138	565.24
432.514	568.86
432.89	587.39
433.265	583.54
433.641	590.55
434.016	595.52
434.392	612.47
434.767	592.13
435.143	619.02
435.518	650.43
435.894	631
436.269	615.86
436.644	634.39
437.02	644.33
437.395	649.3
437.77	643.66
438.145	644.79
438.52	666.48
438.895	631.9
439.271	671
439.646	663.99
440.021	654.73
440.395	662.86
440.77	681.85
441.145	674.84
441.52	693.37
441.895	669.64
442.27	679.13
442.645	680.04
443.019	677.1
443.394	700.83
443.769	672.81
444.143	693.15
444.518	704.44
444.892	683.43
445.267	709.19
445.641	694.5
446.016	725.01
446.39	722.52
446.764	711.68
447.139	729.3
447.513	699.93
447.887	714.16
448.262	731.34
448.636	724.33
449.01	755.74
449.384	760.71
449.758	765.69
450.132	738.34
450.506	773.82
450.88	771.11
451.254	769.75
451.628	752.81
452.002	762.3
452.376	779.25
452.75	770.88
453.123	800.04
453.497	804.1
453.871	818.79
454.244	819.7
454.618	805.91
454.992	826.02
455.365	835.74
455.739	851.79
456.112	847.49
456.486	861.95
456.859	894.72
457.232	865.34
457.606	885.68
457.979	866.93
458.352	891.33
458.725	897.89
459.099	889.75
459.472	916.19
459.845	907.6
460.218	959.13
460.591	933.59
460.964	948.05
461.337	946.47
461.71	973.82
462.083	970.2
462.456	992.57
462.829	993.7
463.201	970.65
463.574	1021.05
463.947	989.86
464.32	997.09
464.692	1004.55
465.065	1052.01
465.438	1048.62
465.81	1051.33
466.183	1092.91
466.555	1098.33
466.928	1109.86
467.3	1090.2
467.672	1116.64
468.045	1133.59
468.417	1157.09
468.789	1173.36
469.161	1147.14
469.534	1166.35
469.906	1210.19
470.278	1204.32
470.65	1226.46
471.022	1239.12
471.394	1248.61
471.766	1298.33
472.138	1282.73
472.51	1324.77
472.882	1317.54
473.253	1368.16
473.625	1331.32
473.997	1421.94
474.369	1396.63
474.74	1397.76
475.112	1422.39
475.484	1467.81
475.855	1496.97
476.227	1516.4
476.598	1509.85
476.97	1535.84
477.341	1586.68
477.713	1625.78
478.084	1649.28
478.455	1671.88
478.827	1683.85
479.198	1741.71
479.569	1732.21
479.94	1783.29
480.311	1773.57
480.682	1818.31
481.053	1881.14
481.424	1935.15
481.795	1937.63
482.166	1986.22
482.537	1985.77
482.908	2030.51
483.279	2040.45
483.65	2101.7
484.021	2155.48
484.391	2198.19
484.762	2229.38
485.133	2251.97
485.503	2249.04
485.874	2298.3
486.244	2322.48
486.615	2392.31
486.985	2423.95
487.356	2465.53
487.726	2518.86
488.097	2547.56
488.467	2562.7
488.837	2606.09
489.207	2637.28
489.578	2666.2
489.948	2696.71
490.318	2741.68
490.688	2817.84
491.058	2833.88
491.428	2856.25
491.798	2877.27
492.168	2946.42
492.538	2969.7
492.908	3003.37
493.278	3077.04
493.648	3052.18
494.017	3119.07
494.387	3105.29
494.757	3179.86
495.126	3193.42
495.496	3256.47
495.866	3266.64
496.235	3295.34
496.605	3327.65
496.974	3328.1
497.344	3350.93
497.713	3369.69
498.082	3425.05
498.452	3485.39
498.821	3521.32
499.19	3505.95
499.559	3551.15
499.928	3571.94
500.298	3609.23
500.667	3649
501.036	3624.59
501.405	3638.6
501.774	3649.23
502.143	3670.24
502.512	3733.74
502.88	3755.89
503.249	3759.05
503.618	3780.75
503.987	3776.91
504.356	3844.93
504.724	3834.98
505.093	3851.03
505.462	3865.49
505.83	3893.97
506.199	3957.47
506.567	3958.37
506.936	3979.61
507.304	4015.09
507.672	3975.09
508.041	4057.12
508.409	4037.92
508.777	4058.71
509.145	4133.28
509.514	4107.75
509.882	4134.19
510.25	4103.68
510.618	4164.01
510.986	4202.66
511.354	4188.87
511.722	4251.02
512.09	4225.93
512.458	4240.17
512.826	4307.51
513.193	4298.93
513.561	4305.48
513.929	4357.46
514.297	4387.74
514.664	4369.21
515.032	4423.89
515.4	4395.42
515.767	4382.54
516.135	4446.49
516.502	4448.3
516.869	4477.9
517.237	4530.11
517.604	4498.47
517.972	4558.81
518.339	4575.76
518.706	4553.16
519.073	4557.22
519.44	4597.9
519.808	4626.83
520.175	4608.3
520.542	4686.94
520.909	4702.08
521.276	4709.54
521.643	4737.56
522.009	4795.41
522.376	4809.87
522.743	4770.78
523.11	4811.46
523.477	4850.78
523.843	4865.47
524.21	4953.82
524.577	4952.47
524.943	4944.79
525.31	4980.94
525.676	5065.91
526.043	5003.99
526.409	5100.26
526.776	5105.68
527.142	5098.23
527.508	5104.33
527.874	5149.07
528.241	5234.5
528.607	5209.19
528.973	5246.47
529.339	5257.55
529.705	5314.94
530.071	5344.55
530.437	5364.21
530.803	5357.66
531.169	5425
531.535	5403.3
531.901	5427.26
532.267	5461.38
532.632	5494.38
532.998	5511.78
533.364	5579.34
533.73	5554.03
534.095	5634.03
534.461	5619.57
534.826	5626.8
535.192	5704.31
535.557	5697.76
535.923	5670.64
536.288	5732.79
536.653	5784.09
537.019	5787.02
537.384	5813.91
537.749	5809.4
538.114	5839.22
538.479	5844.65
538.845	5857.08
539.21	5858.21
539.575	5891.43
539.94	5889.39
540.305	5951.09
540.67	5968.26
541.034	5981.59
541.399	6025.43
541.764	6050.74
542.129	6005.77
542.494	6133.45
542.858	6137.97
543.223	6218.65
543.587	6130.74
543.952	6185.88
544.316	6245.09
544.681	6233.34
545.045	6288.25
545.41	6289.16
545.774	6316.5
546.138	6306.78
546.503	6345.43
546.867	6367.8
547.231	6391.07
547.595	6446.44
547.959	6449.15
548.324	6502.03
548.688	6485.99
549.052	6538.42
549.416	6552.65
549.779	6540
550.143	6560.79
550.507	6613.44
550.871	6640.56
551.235	6650.5
551.599	6679.88
551.962	6684.4
552.326	6745.64
552.689	6739.09
553.053	6763.72
553.417	6700.9
553.78	6829.03
554.143	6795.58
554.507	6854.11
554.87	6849.59
555.234	6917.84
555.597	6894.34
555.96	6928.91
556.323	6955.81
556.686	6933.21
557.05	6996.03
557.413	6979.99
557.776	7055.24
558.139	7047.1
558.502	7117.16
558.865	7137.04
559.228	7149.7
559.59	7145.41
559.953	7189.25
560.316	7297.94
560.679	7232.18
561.041	7310.6
561.404	7290.03
561.767	7353.76
562.129	7300.2
562.492	7299.07
562.854	7436.25
563.217	7413.19
563.579	7466.75
563.941	7492.74
564.304	7552.63
564.666	7535
565.028	7561.89
565.39	7558.73
565.753	7658.84
566.115	7591.95
566.477	7702.45
566.839	7677.82
567.201	7704.03
567.563	7781.55
567.925	7783.81
568.287	7814.77
568.648	7840.53
569.01	7854.31
569.372	7922.56
569.734	7930.02
570.095	7960.3
570.457	7978.38
570.819	8044.14
571.18	8014.99
571.542	8068.77
571.903	8131.59
572.265	8119.17
572.626	8156.9
572.987	8310.57
573.349	8316.22
573.71	8346.73
574.071	8422.89
574.432	8473.28
574.794	8530.23
575.155	8582.2
575.516	8545.59
575.877	8597.34
576.238	8706.49
576.599	8747.85
576.96	8714.63
577.32	8862.65
577.681	8967.28
578.042	9023.55
578.403	9030.78
578.763	9156.43
579.124	9175.63
579.485	9361.39
579.845	9447.04
580.206	9540.14
580.566	9603.65
580.927	9678.67
581.287	9831.44
581.648	9870.76
582.008	10021.49
582.368	10129.51
582.728	10288.83
583.089	10398.43
583.449	10516.16
583.809	10706.22
584.169	10818.98
584.529	10951.63
584.889	11233.21
585.249	11311.4
585.609	11417.16
585.969	11714.55
586.329	11753.19
586.688	12058.95
587.048	12144.82
587.408	12364.03
587.768	12583.45
588.127	12772.6
588.487	12959.04
588.846	13324
589.206	13412.59
589.565	13623.43
589.925	13930.99
590.284	14203.98
590.643	14462.73
591.003	14640.35
591.362	14999.89
591.721	15276.04
592.08	15403.04
592.44	15782.24
592.799	15982.24
593.158	16203.47
593.517	16541.32
593.876	16767.75
594.235	16931.59
594.593	17358.47
594.952	17644.56
595.311	17845.91
595.67	18158.22
596.029	18469.4
596.387	18763.86
596.746	18991.65
597.104	19225.99
597.463	19549.15
597.822	20012.41
598.18	20202.24
598.538	20482.91
598.897	20738.49
599.255	20959.73
599.613	21479.72
599.972	21675.42
600.33	21840.61
600.688	22093.03
601.046	22530.76
601.404	22875.84
601.762	23008.49
602.12	23435.15
602.478	23787.23
602.836	23925.53
603.194	24062.93
603.552	24356.03
603.91	24551.5
604.268	25003.01
604.625	25179.28
604.983	25506.5
605.341	25578.59
605.698	26047.73
606.056	26258.58
606.413	26537.44
606.771	26707.6
607.128	27109.17
607.485	27149.17
607.843	27382.16
608.2	27629.84
608.557	28028.47
608.914	28117.28
609.272	28538.97
609.629	28787.1
609.986	28950.48
610.343	29072.29
610.7	29356.8
611.057	29484.25
611.414	29867.75
611.771	29937.12
612.127	30217.34
612.484	30319.71
612.841	30545.92
613.198	30764.9
613.554	30919.02
613.911	31304.77
614.267	31373.69
614.624	31354.49
614.98	31656.85
615.337	31991.08
615.693	31921.48
616.05	32236.27
616.406	32432.65
616.762	32431.75
617.118	32693.89
617.475	32926.65
617.831	33036.48
618.187	33262.23
618.543	33309.46
618.899	33609.79
619.255	33787.87
619.611	33834.87
619.967	33977.24
620.323	34087.52
620.678	34029.22
621.034	34264.92
621.39	34297.23
621.746	34321.19
622.101	34810.67
622.457	34772.48
622.812	34759.59
623.168	35063.32
623.523	35061.28
623.879	35241.39
624.234	34992.36
624.589	35242.75
624.945	35341.05
625.3	35514.38
625.655	35569.06
626.01	35569.74
626.365	35713.24
626.72	35699.91
627.075	35838.44
627.43	35826.01
627.785	35890.86
628.14	35904.88
628.495	36012.44
628.85	36200.23
629.205	36102.38
629.559	36202.27
629.914	36191.2
630.269	36419.44
630.623	36216.28
630.978	36114.59
631.332	36553.9
631.687	36539.43
632.041	36334.24
632.396	36501.7
632.75	36580.79
633.104	36591.86
633.459	36385.31
633.813	36372.66
634.167	36417.86
634.521	36522.49
634.875	36393.22
635.229	36553.22
635.583	36307.35
635.937	36415.14
636.291	36503.5
636.645	36527.91
636.999	36416.95
637.352	36630.73
637.706	36460.79
638.06	36484.52
638.413	36490.62
638.767	36510.73
639.121	36524.29
639.474	36400.68
639.828	36433.22
640.181	36545.08
640.534	36518.42
640.888	36405.2
641.241	36414.92
641.594	36268.48
641.947	36546.21
642.301	36379.66
642.654	36493.56
643.007	36490.4
643.36	36418.76
643.713	36401.36
644.066	36568.81
644.419	36276.84
644.771	36098.77
645.124	35845.44
645.477	35685.45
645.83	35463.98
646.182	35424.44
646.535	35336.98
646.888	35400.48
647.24	35250.43
647.593	35392.57
647.945	35358.9
648.298	35179.24
648.65	35144.67
649.002	34976.99
649.355	35301.95
649.707	35134.27
650.059	35211.56
650.411	35762.96
650.763	35676.86
651.115	36281.14
651.467	35953.24
651.819	35971.54
652.171	35865.1
652.523	35949.85
652.875	36071.42
653.227	35763.18
653.578	36068.71
653.93	35892.9
654.282	35890.86
654.633	35656.97
654.985	35722.73
655.337	35790.98
655.688	35783.75
656.039	35901.94
656.391	35564.77
656.742	35669.4
657.094	35721.15
657.445	35877.31
657.796	35875.5
658.147	35695.16
658.498	35708.95
658.849	35717.08
659.2	35662.62
659.551	35601.15
659.902	35757.31
660.253	35665.56
660.604	35729.96
660.955	35652
661.306	35748.95
661.656	35564.55
662.007	35645.67
662.358	35558.22
662.708	35616.3
663.059	35534.26
663.409	35382.18
663.76	35789.4
664.11	35545.79
664.461	35692.45
664.811	35657.65
665.161	35652
665.511	35460.14
665.862	35493.36
666.212	35625.33
666.562	35582.4
666.912	35577.2
667.262	35572.45
667.612	35561.83
667.962	35564.32
668.312	35475.06
668.662	35580.82
669.011	35428.73
669.361	35496.75
669.711	35328.17
670.06	35343.53
670.41	35445.45
670.76	35396.64
671.109	35423.31
671.459	35264.44
671.808	35221.28
672.157	35459.92
672.507	35231.22
672.856	35292.46
673.205	35233.25
673.554	35335.17
673.904	35278
674.253	35421.5
674.602	35301.73
674.951	34712.14
675.3	34582.65
675.649	35084.33
675.998	35184.22
676.346	35223.76
676.695	35212.92
677.044	34905.13
677.393	35118.46
677.741	35088.85
678.09	35004.33
678.438	34876.43
678.787	34940.15
679.135	34932.47
679.484	34846.82
679.832	34891.57
680.181	34765.24
680.529	34668.52
680.877	34736.32
681.225	34487.51
681.573	34896.99
681.922	34667.17
682.27	34448.19
682.618	34488.87
682.966	34408.42
683.314	34390.34
683.661	34364.8
684.009	34214.3
684.357	34252.26
684.705	34218.37
685.053	34228.08
685.4	34288.87
685.748	34005.94
686.095	34127.52
686.443	33869.67
686.79	33740.86
687.138	33926.4
687.485	33789.45
687.832	33775.21
688.18	33841.43
688.527	33452.28
688.874	33568.89
689.221	33527.31
689.568	33468.33
689.915	33395.11
690.262	33476.92
690.609	33287.77
690.956	33072.41
691.303	33073.09
691.65	32840.32
691.997	32934.33
692.344	32701.8
692.69	32768.46
693.037	32808.01
693.383	32508.81
693.73	32711.96
694.077	32495.47
694.423	32456.15
694.769	32221.36
695.116	32263.61
695.462	32179.32
695.808	32036.05
696.155	32136.39
696.501	31853.23
696.847	31914.47
697.193	31698.21
697.539	31850.52
697.885	31579.79
698.231	31427.93
698.577	31411.89
698.923	31436.52
699.269	31236.07
699.614	31250.31
699.96	31193.36
700.306	31202.17
700.651	30931.67
700.997	30688.74
701.342	30789.08
701.688	30820.94
702.033	30709.76
702.379	30680.83
702.724	30662.08
703.069	30551.57
703.415	30210.11
703.76	30329.65
704.105	30362.65
704.45	30196.1
704.795	29994.75
705.14	30020.28
705.485	30054.41
705.83	29762.21
706.175	29886.73
706.52	29691.25
706.865	29674.3
707.209	29586.17
707.554	29494.65
707.899	29588.66
708.243	29408.32
708.588	29464.59
708.932	29149.35
709.277	29104.6
709.621	29198.84
709.966	29028.9
710.31	29093.53
710.654	28849.69
710.998	28920.88
711.342	28960.65
711.687	28705.97
712.031	28725.85
712.375	28578.06
712.719	28715.69
713.063	28528.57
713.407	28580.55
713.75	28496.93
714.094	28444.05
714.438	28329.26
714.782	28349.37
715.125	28282.02
715.469	28188.24
715.812	28135.81
716.156	27909.38
716.499	27945.31
716.843	28017.62
717.186	27779.44
717.53	27996.61
717.873	27882.26
718.216	27922.03
718.559	27807.46
718.902	27528.15
719.246	27641.14
719.589	27648.6
719.932	27405.44
720.275	27405.89
720.617	27511.65
720.96	27282.95
721.303	27338.32
721.646	27397.53
721.989	27038.22
722.331	27250.41
722.674	27141.04
723.016	27157.08
723.359	27093.13
723.701	27093.13
724.044	26988.27
724.386	26882.06
724.729	26992.34
725.071	26793.93
725.413	26892.46
725.755	26879.8
726.097	26649.75
726.439	26477.1
726.782	26571.11
727.124	26696.3
727.465	26477.55
727.807	26419.25
728.149	26546.48
728.491	26275.75
728.833	26379.93
729.175	26321.62
729.516	26271.46
729.858	26223.1
730.199	26234.39
730.541	26091.8
730.882	26090.44
731.224	26198.46
731.565	26075.3
731.906	25959.83
732.248	26028.52
732.589	25838.25
732.93	25675.54
733.271	25854.52
733.612	25884.8
733.953	25894.74
734.294	25737.46
734.635	25696.78
734.976	25854.07
735.317	25564.81
735.658	25674.86
735.999	25616.56
736.339	25619.04
736.68	25650.91
737.021	25470.12
737.361	25388.54
737.702	25594.64
738.042	25431.25
738.383	25386.96
738.723	25442.1
739.063	25359.39
739.404	25320.29
739.744	25281.88
740.084	25108.55
740.424	25183.35
740.764	25004.82
741.104	25250.24
741.444	25040.08
741.784	24928.89
742.124	24983.13
742.464	25061.32
742.804	25057.7
743.143	24930.47
743.483	24945.39
743.823	24767.09
744.162	24717.82
744.502	24747.2
744.841	24614.32
745.181	24816.58
745.52	24735.45
745.86	24753.3
746.199	24574.33
746.538	24523.48
746.877	24648.9
747.216	24583.82
747.556	24566.87
747.895	24480.09
748.234	24391.05
748.573	24335.69
748.911	24438.96
749.25	24334.11
749.589	24180.89
749.928	24226.99
750.267	24332.75
750.605	24176.14
750.944	24122.36
751.283	24024.51
751.621	24041.46
751.96	23971.4
752.298	23970.73
752.636	24041.91
752.975	23915.59
753.313	23721.01
753.651	23930.05
753.989	23640.34
754.327	23722.14
754.666	23556.27
755.004	23632.2
755.342	23674.01
755.679	23492.32
756.017	23455.26
756.355	23565.76
756.693	23484.86
757.031	23348.14
757.368	23288.71
757.706	23242.61
758.044	23197.19
758.381	23240.58
758.719	23054.59
759.056	23149.96
759.394	22981.83
759.731	22839
760.068	22944.31
760.405	22835.16
760.743	22824.77
761.08	22726.69
761.417	22646.01
