Data from hue_130_FLMS001491_00091.txt Node
Date: Tue Feb 07 16:58:20 GMT 2017
User: dcchb
Spectrometer: FLMS00149
Trigger mode: 0
Integration Time (sec): 2.000000E-2
Scans to average: 10
Electric dark correction enabled: true
Nonlinearity correction enabled: false
Boxcar width: 0
XAxis mode: Wavelengths
Number of Pixels in Spectrum: 2048
>>>>>Begin Spectral Data<<<<<
341.393	-25.86
341.776	-25.86
342.16	-25.86
342.543	-56.82
342.927	-57.05
343.31	-68.8
343.693	-66.54
344.077	-71.28
344.46	-71.51
344.843	-54.79
345.226	-57.05
345.61	-31.74
345.993	-15.47
346.376	10.3
346.759	13.91
347.142	41.93
347.525	36.51
347.908	55.72
348.291	83.97
348.674	95.72
349.057	99.11
349.44	133
349.823	167.81
350.206	154.02
350.588	174.36
350.971	207.13
351.354	217.3
351.737	228.6
352.119	248.26
352.502	258.65
352.884	262.95
353.267	271.08
353.65	279.44
354.032	300.46
354.414	300.91
354.797	300.91
355.179	304.07
355.562	301.81
355.944	317.63
356.326	354.47
356.709	333.9
357.091	315.37
357.473	334.81
357.855	330.51
358.238	345.88
358.62	333.68
359.002	325.54
359.384	343.85
359.766	337.07
360.148	342.49
360.53	338.88
360.912	337.29
361.294	305.88
361.676	324.19
362.057	331.19
362.439	330.74
362.821	331.19
363.203	330.97
363.584	327.12
363.966	341.59
364.348	326.22
364.729	310.63
365.111	324.41
365.493	317.63
365.874	305.2
366.256	303.4
366.637	310.63
367.019	312.89
367.4	291.87
367.781	305.66
368.163	305.2
368.544	275.37
368.925	305.88
369.306	303.4
369.688	309.05
370.069	318.31
370.45	303.4
370.831	302.27
371.212	296.62
371.593	311.98
371.974	294.58
372.355	303.62
372.736	331.42
373.117	301.14
373.498	308.14
373.879	298.65
374.26	317.63
374.641	322.83
375.021	305.66
375.402	333.9
375.783	331.87
376.163	316.28
376.544	320.34
376.925	321.02
377.305	323.73
377.686	339.33
378.066	306.56
378.447	321.47
378.827	325.77
379.208	315.37
379.588	317.63
379.968	309.95
380.349	323.06
380.729	316.05
381.109	341.14
381.489	322.83
381.87	343.85
382.25	334.58
382.63	335.03
383.01	324.19
383.39	325.99
383.77	329.84
384.15	340.23
384.53	317.41
384.91	338.42
385.29	340.23
385.67	345.43
386.049	350.17
386.429	339.78
386.809	347.91
387.189	339.33
387.568	335.03
387.948	350.85
388.328	355.6
388.707	364.64
389.087	355.37
389.466	347.01
389.846	346.33
390.225	335.49
390.605	348.59
390.984	332.55
391.363	336.39
391.743	353.79
392.122	390.63
392.501	360.8
392.881	353.34
393.26	341.59
393.639	356.5
394.018	349.27
394.397	377.74
394.776	361.93
395.155	360.34
395.534	377.29
395.913	364.86
396.292	375.71
396.671	365.99
397.05	372.09
397.429	361.47
397.808	358.31
398.186	379.78
398.565	387.69
398.944	395.6
399.323	374.35
399.701	379.55
400.08	381.13
400.458	383.85
400.837	384.52
401.215	359.21
401.594	393.79
401.972	390.63
402.351	377.74
402.729	380
403.107	403.05
403.486	403.28
403.864	403.96
404.242	406.9
404.62	418.87
404.999	403.05
405.377	425.65
405.755	413.68
406.133	397.63
406.511	413
406.889	429.72
407.267	421.36
407.645	428.82
408.023	433.34
408.401	417.97
408.779	418.87
409.156	421.58
409.534	440.34
409.912	426.56
410.29	431.75
410.667	439.66
411.045	434.47
411.422	410.51
411.8	443.05
412.178	444.64
412.555	471.53
412.933	462.04
413.31	455.03
413.687	458.87
414.065	449.38
414.442	466.33
414.819	460.45
415.197	486.89
415.574	468.36
415.951	478.08
416.328	488.48
416.705	481.92
417.082	489.83
417.46	469.49
417.837	490.96
418.214	504.75
418.591	495.93
418.967	488.25
419.344	504.07
419.721	507.91
420.098	479.21
420.475	497.29
420.852	503.39
421.228	496.16
421.605	502.94
421.982	521.02
422.358	522.83
422.735	512.43
423.111	547.01
423.488	531.86
423.864	533.45
424.241	535.93
424.617	518.53
424.994	535.03
425.37	548.59
425.746	526.44
426.123	528.25
426.499	556.72
426.875	564.18
427.251	577.51
427.627	596.72
428.003	570.06
428.379	558.53
428.756	562.6
429.132	586.1
429.507	603.5
429.883	587.68
430.259	598.76
430.635	598.76
431.011	601.92
431.387	625.2
431.763	635.36
432.138	602.6
432.514	612.54
432.89	625.65
433.265	637.85
433.641	622.26
434.016	653.22
434.392	654.35
434.767	646.21
435.143	659.54
435.518	636.72
435.894	662.26
436.269	670.17
436.644	695.93
437.02	675.82
437.395	688.92
437.77	674.01
438.145	695.25
438.52	695.93
438.895	672.2
439.271	711.07
439.646	722.82
440.021	727.11
440.395	739.09
440.77	715.81
441.145	728.7
441.52	750.62
441.895	753.55
442.27	736.6
442.645	760.33
443.019	741.12
443.394	767.79
443.769	792.2
444.143	754.01
444.518	775.7
444.892	762.37
445.267	787.23
445.641	788.81
446.016	769.82
446.39	794
446.764	805.98
447.139	803.04
447.513	821.12
447.887	812.76
448.262	834.46
448.636	829.26
449.01	819.54
449.384	838.07
449.758	859.77
450.132	850.73
450.506	828.58
450.88	878.3
451.254	858.86
451.628	865.42
452.002	875.13
452.376	910.39
452.75	885.53
453.123	894.79
453.497	895.02
453.871	905.64
454.244	942.02
454.618	944.06
454.992	931.4
455.365	934.34
455.739	986.54
456.112	975.24
456.486	962.36
456.859	1006.43
457.232	1003.72
457.606	985.19
457.979	1007.56
458.352	1012.76
458.725	1060.21
459.099	1066.54
459.472	1088.23
459.845	1073.55
460.218	1061.12
460.591	1116.71
460.964	1086.65
461.337	1134.56
461.71	1153.32
462.083	1181.56
462.456	1190.6
462.829	1129.59
463.201	1176.37
463.574	1175.01
463.947	1202.58
464.32	1245.97
464.692	1239.19
465.065	1264.05
465.438	1287.1
465.81	1317.61
466.183	1339.75
466.555	1347.66
466.928	1354.44
467.3	1347.44
467.672	1383.37
468.045	1435.57
468.417	1418.62
468.789	1457.94
469.161	1500.88
469.534	1502.46
469.906	1549.24
470.278	1565.51
470.65	1579.52
471.022	1600.99
471.394	1662.91
471.766	1673.76
472.138	1688.67
472.51	1747.2
472.882	1778.84
473.253	1825.39
473.625	1888.67
473.997	1880.76
474.369	1925.5
474.74	1967.31
475.112	2005.95
475.484	2069.9
475.855	2073.97
476.227	2148.32
476.598	2204.36
476.97	2245.27
477.341	2318.26
477.713	2383.34
478.084	2412.04
478.455	2516.45
478.827	2544.69
479.198	2629.66
479.569	2694.29
479.94	2793.27
480.311	2840.05
480.682	2899.03
481.053	2969.09
481.424	3111.01
481.795	3155.98
482.166	3248.4
482.537	3355.97
482.908	3443.88
483.279	3514.38
483.65	3630.31
484.021	3759.8
484.391	3856.52
484.762	3901.04
485.133	3998.89
485.503	4101.04
485.874	4214.93
486.244	4348.71
486.615	4481.82
486.985	4534.02
487.356	4701.02
487.726	4753
488.097	4940.79
488.467	5064.4
488.837	5176.71
489.207	5272.53
489.578	5409.7
489.948	5588.23
490.318	5710.49
490.688	5813.53
491.058	5936.92
491.428	6145.95
491.798	6161.55
492.168	6403.35
492.538	6450.35
492.908	6632.5
493.278	6769.44
493.648	6830.46
494.017	6943.67
494.387	7140.05
494.757	7248.3
495.126	7433.83
495.496	7514.51
495.866	7593.83
496.235	7698.23
496.605	7864.1
496.974	7976.87
497.344	8115.85
497.713	8225.67
498.082	8320.81
498.452	8387.03
498.821	8502.05
499.19	8601.03
499.559	8759.67
499.928	8851.19
500.298	8933.9
500.667	9095.03
501.036	9115.59
501.405	9229.49
501.774	9290.5
502.143	9379.32
502.512	9465.87
502.88	9597.61
503.249	9590.84
503.618	9812.3
503.987	9841.22
504.356	9883.94
504.724	10018.39
505.093	10064.5
505.462	10171.39
505.83	10194.44
506.199	10342.68
506.567	10500.42
506.936	10426.52
507.304	10584.03
507.672	10635.33
508.041	10722.11
508.409	10795.32
508.777	10851.14
509.145	10952.83
509.514	10960.97
509.882	11066.5
510.25	11016.33
510.618	11120.06
510.986	11188.08
511.354	11277.34
511.722	11381.97
512.09	11375.87
512.458	11361.18
512.826	11467.17
513.193	11529.09
513.561	11614.06
513.929	11638.69
514.297	11640.5
514.664	11742.87
515.032	11824
515.4	11807.95
515.767	11902.64
516.135	11906.93
516.502	11813.6
516.869	11995.29
517.237	12040.49
517.604	11898.12
517.972	12042.3
518.339	12106.93
518.706	12072.8
519.073	12099.02
519.44	12204.55
519.808	12243.87
520.175	12196.87
520.542	12370.88
520.909	12335.17
521.276	12375.17
521.643	12426.47
522.009	12494.26
522.376	12486.13
522.743	12579.46
523.11	12565.9
523.477	12656.97
523.843	12603.64
524.21	12748.27
524.577	12784.42
524.943	12841.6
525.31	12738.32
525.676	12819.45
526.043	12814.48
526.409	12872.78
526.776	12971.54
527.142	12911.43
527.508	12918.88
527.874	12992.78
528.241	12958.88
528.607	13010.63
528.973	13084.3
529.339	12954.36
529.705	12981.71
530.071	13019.22
530.437	13081.82
530.803	13127.01
531.169	13053.34
531.535	12944.65
531.901	12997.75
532.267	13037.52
532.632	12955.49
532.998	13014.02
533.364	13021.03
533.73	12957.98
534.095	13117.75
534.461	12999.11
534.826	12929.05
535.192	12926.79
535.557	12981.71
535.923	12921.14
536.288	12896.29
536.653	12984.42
537.019	12844.54
537.384	12852.44
537.749	12855.61
538.114	12800.02
538.479	12725.89
538.845	12805.67
539.21	12676.86
539.575	12727.02
539.94	12656.29
540.305	12638.21
540.67	12605.67
541.034	12593.02
541.399	12552.11
541.764	12589.17
542.129	12555.73
542.494	12561.6
542.858	12455.17
543.223	12430.99
543.587	12472.12
543.952	12318
544.316	12380.82
544.681	12306.47
545.045	12342.4
545.41	12394.15
545.774	12226.47
546.138	12193.7
546.503	12258.11
546.867	12178.79
547.231	12118.68
547.595	12111.9
547.959	12170.65
548.324	12023.77
548.688	12026.03
549.052	12087.27
549.416	11949.19
549.779	11982.18
550.143	11958.23
550.507	11945.35
550.871	11880.49
551.235	11822.42
551.599	11926.37
551.962	11888.18
552.326	11745.58
552.689	11804.56
553.053	11676.88
553.417	11671.23
553.78	11780.38
554.143	11690.89
554.507	11760.04
554.87	11602.08
555.234	11704.45
555.597	11580.84
555.96	11612.25
556.323	11565.25
556.686	11529.54
557.05	11650.44
557.413	11541.74
557.776	11549.88
558.139	11606.6
558.502	11518.02
558.865	11485.25
559.228	11603.89
559.59	11565.25
559.953	11478.92
560.316	11583.33
560.679	11497.23
561.041	11586.72
561.404	11534.74
561.767	11640.95
562.129	11498.81
562.492	11635.53
562.854	11528.41
563.217	11541.74
563.579	11509.88
563.941	11545.59
564.304	11548.52
564.666	11615.64
565.028	11660.39
565.39	11624
565.753	11548.98
566.115	11690.44
566.477	11644.11
566.839	11593.27
567.201	11736.99
567.563	11680.72
567.925	11744.68
568.287	11659.93
568.648	11704.68
569.01	11791.91
569.372	11724.11
569.734	11731.12
570.095	11811.34
570.457	11799.36
570.819	11804.79
571.18	11737.9
571.542	11746.48
571.903	11794.85
572.265	11844.56
572.626	11801.62
572.987	11871.68
573.349	11809.76
573.71	11795.52
574.071	11894.05
574.432	11791.91
574.794	11925.01
575.155	11943.99
575.516	11789.87
575.877	11920.04
576.238	11863.32
576.599	11822.42
576.96	11871.91
577.32	11905.12
577.681	11885.46
578.042	11943.99
578.403	11947.38
578.763	11888.4
579.124	11901.74
579.485	11979.7
579.845	12031.68
580.206	11906.93
580.566	11969.76
580.927	11978.34
581.287	11962.07
581.648	11915.75
582.008	11995.29
582.368	11876.43
582.728	12000.72
583.089	11894.96
583.449	11831.68
583.809	11937.67
584.169	11918.01
584.529	11806.6
584.889	11871.45
585.249	11795.98
585.609	11753.49
585.969	11875.97
586.329	11845.69
586.688	11797.33
587.048	11864.22
587.408	11831.23
587.768	11814.28
588.127	11789.65
588.487	11743.32
588.846	11867.16
589.206	11669.65
589.565	11758.01
589.925	11830.32
590.284	11715.98
590.643	11725.24
591.003	11770.89
591.362	11733.38
591.721	11724.56
592.08	11727.95
592.44	11736.32
592.799	11733.15
593.158	11722.98
593.517	11613.83
593.876	11663.32
594.235	11713.04
594.593	11649.31
594.952	11677.33
595.311	11644.34
595.67	11630.1
596.029	11705.81
596.387	11646.83
596.746	11724.79
597.104	11622.87
597.463	11651.35
597.822	11704.68
598.18	11574.06
598.538	11586.72
598.897	11732.25
599.255	11563.21
599.613	11689.31
599.972	11679.14
600.33	11740.38
600.688	11604.57
601.046	11654.74
601.404	11736.09
601.762	11671.23
602.12	11629.88
602.478	11682.53
602.836	11763.66
603.194	11625.81
603.552	11601.63
603.91	11580.16
604.268	11677.56
604.625	11624.23
604.983	11621.97
605.341	11588.3
605.698	11639.14
606.056	11609.99
606.413	11614.06
606.771	11629.88
607.128	11690.89
607.485	11571.57
607.843	11654.96
608.2	11683.21
608.557	11718.24
608.914	11742.42
609.272	11767.95
609.629	11707.39
609.986	11722.98
610.343	11642.31
610.7	11796.88
611.057	11775.41
611.414	11768.63
611.771	11721.17
612.127	11814.05
612.484	11776.77
612.841	11819.93
613.198	11773.38
613.554	11780.83
613.911	11826.71
614.267	11847.73
614.624	11897.67
614.98	11880.72
615.337	11840.95
615.693	11843.88
616.05	11909.64
616.406	11967.27
616.762	11831.68
617.118	11878.68
617.475	11941.73
617.831	11944.9
618.187	11937.67
618.543	11895.63
618.899	11987.38
619.255	11922.07
619.611	11941.51
619.967	11936.54
620.323	12007.72
620.678	11955.07
621.034	11942.19
621.39	11943.99
621.746	11970.66
622.101	12038.68
622.457	11992.13
622.812	11997.55
623.168	12003.65
623.523	11952.58
623.879	12033.93
624.234	11989.42
624.589	11929.08
624.945	12018.34
625.3	12023.31
625.655	11969.08
626.01	11953.71
626.365	11984.22
626.72	12017.21
627.075	11948.74
627.43	11887.27
627.785	11866.48
628.14	11909.87
628.495	11899.7
628.85	11914.84
629.205	11870.32
629.559	11938.34
629.914	11955.52
630.269	11962.75
630.623	11927.95
630.978	11802.75
631.332	11922.98
631.687	11922.07
632.041	11827.16
632.396	11866.71
632.75	11743.55
633.104	11829.19
633.459	11725.02
633.813	11695.41
634.167	11696.09
634.521	11734.51
634.875	11745.58
635.229	11794.62
635.583	11703.77
635.937	11725.69
636.291	11652.25
636.645	11633.95
636.999	11620.16
637.352	11720.04
637.706	11600.5
638.06	11640.05
638.413	11590.56
638.767	11533.61
639.121	11634.4
639.474	11537.22
639.828	11499.26
640.181	11541.97
640.534	11560.28
640.888	11496.32
641.241	11417.68
641.594	11461.07
641.947	11537.9
642.301	11499.26
642.654	11491.12
643.007	11500.62
643.36	11481.63
643.713	11435.08
644.066	11539.94
644.419	11483.22
644.771	11418.13
645.124	11298.14
645.477	11218.14
645.83	11245.71
646.182	11221.08
646.535	11111.02
646.888	11192.15
647.24	11048.65
647.593	11125.48
647.945	11086.39
648.298	11040.06
648.65	11031.25
649.002	10960.06
649.355	11036.67
649.707	10995.77
650.059	11139.72
650.411	11261.75
650.763	11237.35
651.115	11347.85
651.467	11333.84
651.819	11372.71
652.171	11373.39
652.523	11254.52
652.875	11289.1
653.227	11265.37
653.578	11344.91
653.93	11302.88
654.282	11271.92
654.633	11278.93
654.985	11343.56
655.337	11251.58
655.688	11334.74
656.039	11308.53
656.391	11262.66
656.742	11270.79
657.094	11322.32
657.445	11341.75
657.796	11288.87
658.147	11309.43
658.498	11368.87
658.849	11374.29
659.2	11326.38
659.551	11235.54
659.902	11347.17
660.253	11295.65
660.604	11383.56
660.955	11267.4
661.306	11385.82
661.656	11335.42
662.007	11332.26
662.358	11327.51
662.708	11397.57
663.059	11403.9
663.409	11250.45
663.76	11385.59
664.11	11437.57
664.461	11341.3
664.811	11360.73
665.161	11396.21
665.511	11289.1
665.862	11385.59
666.212	11415.19
666.562	11400.28
666.912	11343.56
667.262	11362.31
667.612	11371.81
667.962	11402.09
668.312	11362.99
668.662	11419.94
669.011	11386.49
669.361	11352.6
669.711	11310.56
670.06	11393.95
670.41	11332.26
670.76	11317.34
671.109	11348.98
671.459	11282.99
671.808	11309.21
672.157	11360.96
672.507	11224.46
672.856	11361.18
673.205	11314.18
673.554	11298.14
673.904	11271.47
674.253	11346.04
674.602	11273.73
674.951	11119.61
675.3	11096.56
675.649	11261.75
675.998	11196.22
676.346	11227.4
676.695	11239.15
677.044	11187.86
677.393	11269.21
677.741	11149.21
678.09	11125.94
678.438	11108.31
678.787	11141.53
679.135	11167.07
679.484	11051.81
679.832	11122.55
680.181	10990.57
680.529	11077.12
680.877	11127.07
681.225	11053.17
681.573	11101.3
681.922	11034.87
682.27	10962.32
682.618	10956.45
682.966	10939.27
683.314	10944.47
683.661	10946.28
684.009	10850.01
684.357	10842.55
684.705	10759.17
685.053	10804.81
685.4	10786.06
685.748	10725.04
686.095	10716
686.443	10746.29
686.79	10656.8
687.138	10728.21
687.485	10718.72
687.832	10577.48
688.18	10610.7
688.527	10541.54
688.874	10587.42
689.221	10506.07
689.568	10532.51
689.915	10458.38
690.262	10423.36
690.609	10427.88
690.956	10379.97
691.303	10384.49
691.65	10329.35
691.997	10314.43
692.344	10269.46
692.69	10185.4
693.037	10202.12
693.383	10131.39
693.73	10205.06
694.077	10070.14
694.423	10045.74
694.769	10098.62
695.116	9991.95
695.462	9970.49
695.808	9960.77
696.155	9909.7
696.501	9878.51
696.847	9911.28
697.193	9746.09
697.539	9833.54
697.885	9711.28
698.231	9702.92
698.577	9672.19
698.923	9603.26
699.269	9644.85
699.614	9567.11
699.96	9510.84
700.306	9527.56
700.651	9452.99
700.997	9439.88
701.342	9372.99
701.688	9387.22
702.033	9380.22
702.379	9349.94
702.724	9304.97
703.069	9278.08
703.415	9172.09
703.76	9177.96
704.105	9253.22
704.45	9093.67
704.795	9056.39
705.14	9070.62
705.485	9069.72
705.83	8927.8
706.175	9004.86
706.52	8943.85
706.865	8949.5
707.209	8921.93
707.554	8912.89
707.899	8911.08
708.243	8848.26
708.588	8843.96
708.932	8756.73
709.277	8773.23
709.621	8713.8
709.966	8655.04
710.31	8703.85
710.654	8567.36
710.998	8692.78
711.342	8606.23
711.687	8646
712.031	8657.07
712.375	8510.86
712.719	8576.4
713.063	8573.69
713.407	8578.88
713.75	8507.93
714.094	8483.07
714.438	8509.51
714.782	8513.35
715.125	8408.49
715.469	8453.46
715.812	8419.11
716.156	8376.86
716.499	8340.7
716.843	8366.69
717.186	8339.57
717.53	8356.29
717.873	8306.8
718.216	8326.91
718.559	8307.25
718.902	8285.78
719.246	8215.28
719.589	8302.96
719.932	8163.75
720.275	8191.32
720.617	8221.83
720.96	8206.92
721.303	8249.4
721.646	8217.31
721.989	8113.36
722.331	8189.06
722.674	8154.26
723.016	8175.05
723.359	8133.25
723.701	8142.96
724.044	8079.01
724.386	8084.21
724.729	8041.5
725.071	8133.7
725.413	8035.62
725.755	8077.43
726.097	8084.89
726.439	8023.42
726.782	8023.64
727.124	8064.55
727.465	8007.83
727.807	8024.55
728.149	8041.05
728.491	7967.83
728.833	8042.4
729.175	8020.48
729.516	8022.74
729.858	7999.92
730.199	8001.72
730.541	8008.05
730.882	7961.95
731.224	8001.5
731.565	7932.12
731.906	8000.37
732.248	8008.96
732.589	7982.97
732.93	7927.6
733.271	7935.29
733.612	8023.19
733.953	7991.1
734.294	7911.56
734.635	7943.65
734.976	8038.79
735.317	7919.69
735.658	7976.19
735.999	8010.76
736.339	8050.54
736.68	8020.26
737.021	7990.43
737.361	7929.18
737.702	8054.6
738.042	7960.6
738.383	7977.54
738.723	8031.1
739.063	7994.27
739.404	8025
739.744	8023.42
740.084	8022.06
740.424	8032.23
740.764	8037.2
741.104	8108.16
741.444	8031.55
741.784	8093.02
742.124	8142.96
742.464	8122.4
742.804	8125.34
743.143	8124.43
743.483	8249.18
743.823	8167.6
744.162	8224.54
744.502	8258.22
744.841	8246.24
745.181	8326.91
745.52	8349.51
745.86	8344.99
746.199	8372.11
746.538	8465.44
746.877	8474.71
747.216	8518.1
747.556	8581.14
747.895	8636.51
748.234	8653.46
748.573	8672.44
748.911	8664.76
749.25	8847.35
749.589	8894.13
749.928	8949.72
750.267	8974.81
750.605	9044.64
750.944	9105.42
751.283	9159.21
751.621	9323.27
751.96	9283.27
752.298	9490.27
752.636	9521.23
752.975	9541.35
753.313	9676.26
753.651	9820.66
753.989	9868.79
754.327	9975.68
754.666	10092.74
755.004	10193.08
755.342	10296.58
755.679	10436.46
756.017	10613.41
756.355	10696.8
756.693	10779.28
757.031	10958.03
757.368	11045.26
757.706	11157.12
758.044	11347.4
758.381	11525.7
758.719	11658.8
759.056	11809.08
759.394	11958.68
759.731	11957.78
760.068	12183.99
