Data from hue_110_FLMS001491_00052.txt Node
Date: Tue Feb 07 17:01:31 GMT 2017
User: dcchb
Spectrometer: FLMS00149
Trigger mode: 0
Integration Time (sec): 2.000000E-2
Scans to average: 10
Electric dark correction enabled: true
Nonlinearity correction enabled: false
Boxcar width: 0
XAxis mode: Wavelengths
Number of Pixels in Spectrum: 2048
>>>>>Begin Spectral Data<<<<<
341.393	-22.61
341.776	-22.61
342.16	-22.61
342.543	-71.65
342.927	-72.55
343.31	-49.73
343.693	-91.54
344.077	-77.98
344.46	-61.26
344.843	-51.76
345.226	-63.29
345.61	-28.26
345.993	-14.93
346.376	-0.47
346.759	1.79
347.142	25.3
347.525	59.42
347.908	44.5
348.291	77.95
348.674	108.23
349.057	122.02
349.44	120.66
349.823	132.19
350.206	172.64
350.588	198.85
350.971	209.7
351.354	223.71
351.737	221
352.119	267.32
352.502	257.38
352.884	263.03
353.267	268.68
353.65	290.15
354.032	305.29
354.414	299.19
354.797	299.86
355.179	304.16
355.562	337.83
355.944	306.87
356.326	337.6
356.709	333.08
357.091	337.83
357.473	337.15
357.855	345.74
358.238	331.05
358.62	330.6
359.002	330.15
359.384	339.86
359.766	358.17
360.148	341.45
360.53	334.44
360.912	339.41
361.294	325.18
361.676	325.63
362.057	317.27
362.439	341.22
362.821	328.11
363.203	323.14
363.584	315.01
363.966	308.23
364.348	334.89
364.729	324.27
365.111	315.01
365.493	261.67
365.874	296.25
366.256	319.3
366.637	287.66
367.019	309.13
367.4	303.71
367.781	309.58
368.163	307.55
368.544	327.43
368.925	309.36
369.306	333.99
369.688	299.86
370.069	298.74
370.45	293.09
370.831	319.98
371.212	316.81
371.593	303.03
371.974	307.1
372.355	306.19
372.736	290.37
373.117	313.65
373.498	310.71
373.879	287.21
374.26	307.55
374.641	300.54
375.021	307.77
375.402	307.32
375.783	301.45
376.163	315.46
376.544	318.17
376.925	313.65
377.305	312.75
377.686	305.97
378.066	329.24
378.447	328.11
378.827	308.68
379.208	324.95
379.588	328.79
379.968	321.56
380.349	315.01
380.729	330.82
381.109	306.19
381.489	322.69
381.87	317.49
382.25	311.62
382.63	348.45
383.01	293.76
383.39	328.56
383.77	335.8
384.15	343.25
384.53	323.37
384.91	346.87
385.29	332.41
385.67	346.42
386.049	331.95
386.429	331.73
386.809	362.24
387.189	368.11
387.568	351.16
387.948	358.85
388.328	343.48
388.707	363.59
389.087	358.39
389.466	330.6
389.846	354.1
390.225	377.38
390.605	335.12
390.984	362.69
391.363	359.3
391.743	365.63
392.122	373.54
392.501	356.59
392.881	373.31
393.26	367.89
393.639	363.59
394.018	359.52
394.397	377.6
394.776	348.45
395.155	368.11
395.534	368.11
395.913	369.92
396.292	369.24
396.671	361.11
397.05	352.07
397.429	362.24
397.808	365.63
398.186	369.02
398.565	372.63
398.944	389.81
399.323	390.26
399.701	411.05
400.08	375.12
400.458	388.45
400.837	392.52
401.215	394.78
401.594	405.4
401.972	384.16
402.351	401.78
402.729	407.66
403.107	405.4
403.486	393.87
403.864	415.57
404.242	412.18
404.62	407.21
404.999	411.27
405.377	409.92
405.755	416.25
406.133	414.66
406.511	413.99
406.889	408.79
407.267	441.1
407.645	407.43
408.023	425.96
408.401	431.16
408.779	439.52
409.156	437.71
409.534	428
409.912	434.78
410.29	432.06
410.667	427.09
411.045	445.85
411.422	429.13
411.8	463.7
412.178	445.17
412.555	464.38
412.933	459.18
413.31	466.41
413.687	462.57
414.065	470.26
414.442	450.6
414.819	475.68
415.197	492.18
415.574	465.96
415.951	489.46
416.328	475.68
416.705	484.72
417.082	486.53
417.46	480.65
417.837	483.81
418.214	488.56
418.591	507.54
418.967	488.33
419.344	500.31
419.721	512.06
420.098	509.13
420.475	505.74
420.852	531.27
421.228	529.92
421.605	529.01
421.982	539.41
422.358	504.83
422.735	507.32
423.111	507.32
423.488	544.15
423.864	535.34
424.241	537.37
424.617	523.81
424.994	554.55
425.37	536.02
425.746	562
426.123	535.34
426.499	547.32
426.875	564.94
427.251	572.85
427.627	576.92
428.003	559.29
428.379	606.75
428.756	580.08
429.132	599.29
429.507	589.12
429.883	605.62
430.259	631.61
430.635	606.52
431.011	603.59
431.387	613.53
431.763	644.71
432.138	617.14
432.514	623.7
432.89	631.16
433.265	647.2
433.641	642
434.016	641.78
434.392	675.67
434.767	660.53
435.143	679.74
435.518	662.79
435.894	696.46
436.269	679.29
436.644	691.72
437.02	695.33
437.395	689.23
437.77	698.05
438.145	682.91
438.52	691.49
438.895	701.44
439.271	741.21
439.646	732.4
440.021	749.8
440.395	760.42
440.77	733.53
441.145	733.3
441.52	725.39
441.895	750.7
442.27	761.55
442.645	754.54
443.019	775.78
443.394	773.52
443.769	757.03
444.143	791.83
444.518	806.07
444.892	784.37
445.267	792.73
445.641	787.54
446.016	791.6
446.39	807.2
446.764	813.3
447.139	784.6
447.513	836.35
447.887	829.34
448.262	816.91
448.636	822.11
449.01	846.52
449.384	842
449.758	843.81
450.132	863.01
450.506	854.65
450.88	874.54
451.254	880.87
451.628	921.54
452.002	881.32
452.376	884.93
452.75	910.47
453.123	921.54
453.497	902.79
453.871	943.46
454.244	938.04
454.618	952.96
454.992	955.67
455.365	954.99
455.739	967.64
456.112	973.52
456.486	1007.87
456.859	991.15
457.232	1007.64
457.606	1025.95
457.979	1042.44
458.352	1083.35
458.725	1041.99
459.099	1058.72
459.472	1093.29
459.845	1130.58
460.218	1112.95
460.591	1114.31
460.964	1124.93
461.337	1178.03
461.71	1161.54
462.083	1169.45
462.456	1198.15
462.829	1187.98
463.201	1218.71
463.574	1237.92
463.947	1251.48
464.32	1280.4
464.692	1294.64
465.065	1287.41
465.438	1287.64
465.81	1314.53
466.183	1325.6
466.555	1389.33
466.928	1364.47
467.3	1405.37
467.672	1434.3
468.045	1457.35
468.417	1455.54
468.789	1493.73
469.161	1500.06
469.534	1540.51
469.906	1570.57
470.278	1584.13
470.65	1629.77
471.022	1627.06
471.394	1660.73
471.766	1684.69
472.138	1745.48
472.51	1780.28
472.882	1806.49
473.253	1849.43
473.625	1902.99
473.997	1945.02
474.369	1958.8
474.74	1991.57
475.112	2029.31
475.484	2075.41
475.855	2166.71
476.227	2176.2
476.598	2246.93
476.97	2287.84
477.341	2340.26
477.713	2453.48
478.084	2456.19
478.455	2519.92
478.827	2609.63
479.198	2695.28
479.569	2715.39
479.94	2800.36
480.311	2902.73
480.682	2961.72
481.053	3046.69
481.424	3155.38
481.795	3257.75
482.166	3323.29
482.537	3372.78
482.908	3500.68
483.279	3542.49
483.65	3662.04
484.021	3810.96
484.391	3894.35
484.762	3944.74
485.133	4076.49
485.503	4158.29
485.874	4289.36
486.244	4414.79
486.615	4518.74
486.985	4619.07
487.356	4779.3
487.726	4902.91
488.097	5026.07
488.467	5101.09
488.837	5286.4
489.207	5378.6
489.578	5536.34
489.948	5654.3
490.318	5759.61
490.688	5842.77
491.058	6044.57
491.428	6154.17
491.798	6254.06
492.168	6417.44
492.538	6608.17
492.908	6679.13
493.278	6822.86
493.648	6936.07
494.017	7027.15
494.387	7187.59
494.757	7300.58
495.126	7445.21
495.496	7510.75
495.866	7638.88
496.235	7781.93
496.605	7962.04
496.974	8097.4
497.344	8188.47
497.713	8292.42
498.082	8439.31
498.452	8511.17
498.821	8690.6
499.19	8721.11
499.559	8846.98
499.928	8898.06
500.298	9021.9
500.667	9234.09
501.036	9182.12
501.405	9304.83
501.774	9432.51
502.143	9501.43
502.512	9575.1
502.88	9700.52
503.249	9819.61
503.618	9883.34
503.987	9961.31
504.356	10008.99
504.724	10072.04
505.093	10165.14
505.462	10204.46
505.83	10288.75
506.199	10385.25
506.567	10554.96
506.936	10537.79
507.304	10682.64
507.672	10679.71
508.041	10849.64
508.409	10891.45
508.777	10969.19
509.145	10984.1
509.514	11061.16
509.882	11114.04
510.25	11172.57
510.618	11225.23
510.986	11266.36
511.354	11290.31
511.722	11452.57
512.09	11453.02
512.458	11443.53
512.826	11573.01
513.193	11660.92
513.561	11608.72
513.929	11760.58
514.297	11818.66
514.664	11873.12
515.032	11899.56
515.4	11984.53
515.767	12078.99
516.135	12078.54
516.502	11977.75
516.869	12196.28
517.237	12183.17
517.604	12117.63
517.972	12241.02
518.339	12286.89
518.706	12259.78
519.073	12320.79
519.44	12313.33
519.808	12441.47
520.175	12410.28
520.542	12535.48
520.909	12599.88
521.276	12484.86
521.643	12644.63
522.009	12671.52
522.376	12698.18
522.743	12732.98
523.11	12742.7
523.477	12819.31
523.843	12811.85
524.21	12925.52
524.577	12935.46
524.943	13024.28
525.31	13061.79
525.676	13031.51
526.043	13074.67
526.409	13069.02
526.776	13096.59
527.142	13137.27
527.508	13163.48
527.874	13268.11
528.241	13229.69
528.607	13161.67
528.973	13233.54
529.339	13226.08
529.705	13311.27
530.071	13269.24
530.437	13357.15
530.803	13346.08
531.169	13304.95
531.535	13255.91
531.901	13354.66
532.267	13309.47
532.632	13311.95
532.998	13333.65
533.364	13311.27
533.73	13332.06
534.095	13351.5
534.461	13261.33
534.826	13356.7
535.192	13289.58
535.557	13365.74
535.923	13316.25
536.288	13233.08
536.653	13276.25
537.019	13215.46
537.384	13189.47
537.749	13137.49
538.114	13102.69
538.479	13111.73
538.845	13080.55
539.21	13041.22
539.575	13003.26
539.94	12990.6
540.305	13074.67
540.67	13003.71
541.034	12907.67
541.399	12943.15
541.764	12959.19
542.129	12887.33
542.494	12844.85
542.858	12815.02
543.223	12808.46
543.587	12805.3
543.952	12791.97
544.316	12767.33
544.681	12719.43
545.045	12689.14
545.41	12708.35
545.774	12723.95
546.138	12550.62
546.503	12596.49
546.867	12569.37
547.231	12587
547.595	12527.79
547.959	12418.87
548.324	12465.87
548.688	12408.47
549.052	12392.43
549.416	12360.56
549.779	12363.5
550.143	12307.68
550.507	12289.83
550.871	12281.02
551.235	12257.74
551.599	12287.12
551.962	12135.03
552.326	12194.69
552.689	12195.15
553.053	12076.05
553.417	12114.47
553.78	12222.26
554.143	11999.22
554.507	12092.78
554.87	12098.42
555.234	12144.3
555.597	12074.47
555.96	12033.34
556.323	12060.46
556.686	11933.46
557.05	11958.99
557.413	11992.66
557.776	11923.74
558.139	11974.81
558.502	11964.42
558.865	11869.96
559.228	11953.12
559.59	11980.91
559.953	11935.72
560.316	11997.41
560.679	11991.99
561.041	12018.65
561.404	12015.49
561.767	12067.24
562.129	11951.99
562.492	12095.71
562.854	12000.8
563.217	11899.11
563.579	12034.02
563.941	12082.15
564.304	12001.03
564.666	12083.51
565.028	12089.61
565.39	12082.61
565.753	12149.27
566.115	12107.92
566.477	12157.86
566.839	12190.63
567.201	12195.6
567.563	12130.29
567.925	12210.29
568.287	12149.04
568.648	12219.33
569.01	12217.97
569.372	12266.1
569.734	12232.88
570.095	12287.57
570.457	12350.85
570.819	12282.37
571.18	12280.11
571.542	12362.15
571.903	12281.92
572.265	12358.98
572.626	12337.74
572.987	12307.01
573.349	12392.88
573.71	12406.44
574.071	12415.03
574.432	12376.61
574.794	12456.16
575.155	12452.77
575.516	12364.18
575.877	12358.53
576.238	12372.32
576.599	12398.08
576.96	12422.48
577.32	12390.85
577.681	12384.97
578.042	12483.5
578.403	12437.17
578.763	12407.8
579.124	12440.34
579.485	12512.88
579.845	12553.1
580.206	12487.79
580.566	12530.05
580.927	12458.87
581.287	12504.74
581.648	12411.18
582.008	12511.97
582.368	12361.47
582.728	12482.6
583.089	12391.52
583.449	12423.16
583.809	12394.91
584.169	12447.79
584.529	12396.72
584.889	12459.77
585.249	12412.54
585.609	12364.18
585.969	12423.39
586.329	12411.86
586.688	12386.1
587.048	12279.44
587.408	12365.31
587.768	12345.42
588.127	12268.82
588.487	12301.36
588.846	12415.93
589.206	12298.87
589.565	12250.74
589.925	12278.53
590.284	12246.22
590.643	12211.87
591.003	12225.2
591.362	12274.47
591.721	12233.11
592.08	12193.11
592.44	12241.47
592.799	12199.44
593.158	12272.88
593.517	12238.53
593.876	12176.39
594.235	12099.1
594.593	12141.14
594.952	12238.31
595.311	12136.39
595.67	12205.54
596.029	12236.95
596.387	12273.11
596.746	12245.77
597.104	12203.05
597.463	12175.71
597.822	12266.1
598.18	12146.11
598.538	12154.92
598.897	12172.1
599.255	12079.22
599.613	12301.81
599.972	12184.3
600.33	12200.12
600.688	12165.99
601.046	12107.24
601.404	12202.6
601.762	12197.86
602.12	12267.69
602.478	12193.11
602.836	12180.68
603.194	12215.71
603.552	12186.78
603.91	12154.92
604.268	12159.67
604.625	12123.28
604.983	12185.65
605.341	12068.82
605.698	12211.42
606.056	12213.68
606.413	12176.61
606.771	12166.67
607.128	12199.21
607.485	12147.24
607.843	12171.64
608.2	12221.13
608.557	12306.1
608.914	12255.03
609.272	12289.83
609.629	12242.83
609.986	12291.41
610.343	12224.98
610.7	12353.79
611.057	12261.58
611.414	12307.23
611.771	12289.61
612.127	12322.6
612.484	12337.74
612.841	12266.1
613.198	12354.24
613.554	12327.57
613.911	12382.26
614.267	12403.28
614.624	12396.72
614.98	12387.23
615.337	12414.8
615.693	12427
616.05	12402.82
616.406	12467.45
616.762	12379.32
617.118	12446.44
617.475	12451.86
617.831	12515.81
618.187	12411.41
618.543	12472.43
618.899	12527.34
619.255	12573.89
619.611	12568.47
619.967	12553.55
620.323	12613.44
620.678	12564.4
621.034	12501.13
621.39	12542.93
621.746	12513.33
622.101	12611.18
622.457	12580.22
622.812	12545.42
623.168	12551.52
623.523	12544.97
623.879	12577.28
624.234	12507.23
624.589	12563.72
624.945	12552.88
625.3	12526.66
625.655	12437.4
626.01	12524.85
626.365	12582.71
626.72	12462.48
627.075	12499.09
627.43	12535.25
627.785	12443.73
628.14	12475.14
628.495	12464.06
628.85	12499.32
629.205	12425.2
629.559	12447.34
629.914	12454.8
630.269	12462.03
630.623	12456.38
630.978	12457.29
631.332	12425.2
631.687	12479.21
632.041	12470.84
632.396	12445.76
632.75	12439.21
633.104	12408.93
633.459	12259.1
633.813	12381.36
634.167	12343.39
634.521	12314.69
634.875	12290.06
635.229	12324.41
635.583	12245.99
635.937	12228.14
636.291	12283.05
636.645	12219.55
636.999	12195.37
637.352	12227.69
637.706	12181.81
638.06	12227.01
638.413	12187.01
638.767	12169.61
639.121	12174.13
639.474	12151.98
639.828	12070.85
640.181	12245.99
640.534	12095.94
640.888	12032.89
641.241	12011.65
641.594	12081.7
641.947	12099.78
642.301	12068.6
642.654	12074.02
643.007	12044.19
643.36	12039.67
643.713	12033.79
644.066	12054.36
644.419	11947.24
644.771	11930.52
645.124	11833.8
645.477	11752.45
645.83	11736.4
646.182	11620.7
646.535	11655.5
646.888	11701.15
647.24	11646.69
647.593	11633.58
647.945	11593.58
648.298	11597.65
648.65	11597.65
649.002	11549.06
649.355	11564.43
649.707	11618.89
650.059	11715.16
650.411	11765.33
650.763	11767.59
651.115	11922.16
651.467	11904.98
651.819	11904.76
652.171	11910.63
652.523	11833.8
652.875	11857.98
653.227	11750.86
653.578	11891.65
653.93	11834.25
654.282	11837.87
654.633	11786.12
654.985	11787.7
655.337	11875.83
655.688	11862.05
656.039	11889.84
656.391	11814.82
656.742	11845.55
657.094	11806.23
657.445	11912.67
657.796	11888.03
658.147	11838.32
658.498	11834.93
658.849	11836.28
659.2	11888.26
659.551	11855.49
659.902	11904.31
660.253	11887.58
660.604	11897.07
660.955	11806.23
661.306	11875.61
661.656	11829.73
662.007	11841.48
662.358	11803.97
662.708	11802.84
663.059	11864.31
663.409	11852.56
663.76	11978.2
664.11	11838.54
664.461	11921.48
664.811	11914.93
665.161	11959.9
665.511	11776.17
665.862	11956.96
666.212	11925.32
666.562	11963.97
666.912	11914.7
667.262	11914.25
667.612	11905.21
667.962	11967.13
668.312	11912.22
668.662	11913.57
669.011	11929.62
669.361	11886.9
669.711	11881.03
670.06	11880.35
670.41	11798.55
670.76	11830.18
671.109	11882.16
671.459	11808.26
671.808	11910.41
672.157	11865.44
672.507	11740.47
672.856	11844.19
673.205	11739.79
673.554	11825.89
673.904	11740.24
674.253	11830.64
674.602	11760.13
674.951	11647.59
675.3	11521.26
675.649	11711.09
675.998	11714.48
676.346	11821.6
676.695	11823.63
677.044	11734.59
677.393	11768.04
677.741	11753.12
678.09	11722.16
678.438	11664.31
678.787	11738.66
679.135	11642.62
679.484	11592.9
679.832	11693.01
680.181	11586.8
680.529	11610.53
680.877	11580.47
681.225	11513.13
681.573	11587.25
681.922	11519.46
682.27	11477.2
682.618	11463.41
682.966	11499.34
683.314	11435.62
683.661	11420.93
684.009	11359.24
684.357	11371.66
684.705	11337.09
685.053	11370.08
685.4	11339.12
685.748	11251.67
686.095	11118.34
686.443	11180.03
686.79	11224.78
687.138	11231.1
687.485	11218.45
687.832	11134.16
688.18	11173.7
688.527	10999.24
688.874	11029.98
689.221	11026.14
689.568	10999.7
689.915	10919.92
690.262	10967.16
690.609	10924.9
690.956	10902.52
691.303	10824.79
691.65	10787.72
691.997	10765.35
692.344	10699.82
692.69	10682.42
693.037	10712.7
693.383	10533.72
693.73	10611.91
694.077	10524.23
694.423	10467.96
694.769	10518.13
695.116	10476.77
695.462	10456.66
695.808	10365.14
696.155	10378.24
696.501	10301.64
696.847	10326.49
697.193	10243.56
697.539	10314.74
697.885	10165.14
698.231	10124.01
698.577	10103.22
698.923	10049.21
699.269	10037.24
699.614	10082.88
699.96	9936.45
700.306	9965.15
700.651	9879.05
700.997	9827.07
701.342	9809.22
701.688	9821.87
702.033	9839.28
702.379	9697.81
702.724	9749.56
703.069	9677.25
703.415	9622.78
703.76	9584.14
704.105	9608.09
704.45	9512.05
704.795	9542.56
705.14	9471.6
705.485	9446.29
705.83	9432.96
706.175	9450.81
706.52	9437.03
706.865	9411.49
707.209	9426.86
707.554	9341.66
707.899	9337.59
708.243	9260.53
708.588	9174.21
708.932	9207.65
709.277	9184.83
709.621	9158.39
709.966	9144.6
710.31	9123.59
710.654	9045.17
710.998	9049.01
711.342	9076.58
711.687	9010.6
712.031	8946.42
712.375	8984.38
712.719	8933.76
713.063	8873.88
713.407	8924.05
713.75	8936.47
714.094	8859.87
714.438	8839.53
714.782	8824.39
715.125	8811.73
715.469	8820.54
715.812	8714.11
716.156	8743.71
716.499	8734.22
716.843	8783.94
717.186	8705.52
717.53	8725.63
717.873	8727.89
718.216	8712.07
718.559	8660.55
718.902	8597.95
719.246	8672.3
719.589	8615.13
719.932	8567.67
720.275	8570.38
720.617	8636.59
720.96	8499.2
721.303	8641.34
721.646	8577.16
721.989	8542.81
722.331	8567.67
722.674	8524.51
723.016	8635.92
723.359	8566.31
723.701	8489.25
724.044	8481.34
724.386	8460.78
724.729	8518.18
725.071	8500.78
725.413	8452.87
725.755	8465.75
726.097	8442.02
726.439	8441.8
726.782	8439.31
727.124	8430.5
727.465	8467.33
727.807	8390.73
728.149	8394.34
728.491	8292.65
728.833	8360.22
729.175	8459.42
729.516	8373.55
729.858	8332.65
730.199	8398.86
730.541	8340.78
730.882	8334
731.224	8335.81
731.565	8343.95
731.906	8353.21
732.248	8367.45
732.589	8263.05
732.93	8290.84
733.271	8362.03
733.612	8348.47
733.953	8363.16
734.294	8370.39
734.635	8279.09
734.976	8331.07
735.317	8348.24
735.658	8331.74
735.999	8308.92
736.339	8340.11
736.68	8349.82
737.021	8357.05
737.361	8326.77
737.702	8366.09
738.042	8407
738.383	8332.2
738.723	8377.62
739.063	8377.84
739.404	8427.79
739.744	8437.96
740.084	8483.6
740.424	8444.74
740.764	8426.2
741.104	8448.8
741.444	8457.39
741.784	8453.1
742.124	8522.7
742.464	8526.09
742.804	8481.34
743.143	8511.4
743.483	8583.04
743.823	8555.47
744.162	8509.82
744.502	8650.61
744.841	8583.26
745.181	8672.07
745.52	8666.88
745.86	8721.79
746.199	8687.22
746.538	8807.44
746.877	8894.22
747.216	8911.84
747.556	8941.45
747.895	8953.42
748.234	9081.55
748.573	9102.8
748.911	9166.98
749.25	9237.71
749.589	9205.62
749.928	9406.07
750.267	9418.04
750.605	9378.95
750.944	9499.62
751.283	9589.11
751.621	9658.94
751.96	9695.55
752.298	9836.11
752.636	9970.12
752.975	9981.87
753.313	10034.98
753.651	10156.55
753.989	10310.45
754.327	10344.57
754.666	10443.78
755.004	10607.16
755.342	10684.68
755.679	10847.61
756.017	11006.02
756.355	11070.88
756.693	11215.51
757.031	11335.28
757.368	11414.6
757.706	11566.46
758.044	11746.12
758.381	11895.94
758.719	11998.31
759.056	12200.8
759.394	12385.65
759.731	12424.97
