Data from hue_24_FLMS001491_00099.txt Node
Date: Tue Feb 07 17:13:01 GMT 2017
User: dcchb
Spectrometer: FLMS00149
Trigger mode: 0
Integration Time (sec): 2.000000E-2
Scans to average: 10
Electric dark correction enabled: true
Nonlinearity correction enabled: false
Boxcar width: 0
XAxis mode: Wavelengths
Number of Pixels in Spectrum: 2048
>>>>>Begin Spectral Data<<<<<
341.393	-15.15
341.776	-15.15
342.16	-15.15
342.543	-59.45
342.927	-64.42
343.31	-49.96
343.693	-54.02
344.077	-59.45
344.46	-74.59
344.843	-53.57
345.226	-49.73
345.61	-33.46
345.993	-18.54
346.376	-11.54
346.759	3.15
347.142	24.17
347.525	39.76
347.908	52.19
348.291	82.02
348.674	88.8
349.057	114.79
349.44	132.19
349.823	142.36
350.206	163.37
350.588	218.51
350.971	215.35
351.354	224.84
351.737	244.73
352.119	259.64
352.502	275.01
352.884	283.82
353.267	274.55
353.65	304.16
354.032	290.37
354.414	309.13
354.797	304.61
355.179	338.28
355.562	315.01
355.944	330.82
356.326	327.21
356.709	354.55
357.091	348.45
357.473	348.45
357.855	363.59
358.238	348.45
358.62	352.97
359.002	354.1
359.384	351.16
359.766	349.58
360.148	351.39
360.53	336.93
360.912	332.86
361.294	340.77
361.676	347.32
362.057	328.56
362.439	319.98
362.821	334.89
363.203	332.86
363.584	355
363.966	340.09
364.348	369.02
364.729	325.85
365.111	326.3
365.493	336.47
365.874	319.75
366.256	332.86
366.637	326.08
367.019	319.75
367.4	336.47
367.781	307.1
368.163	318.17
368.544	340.54
368.925	324.95
369.306	316.14
369.688	321.33
370.069	336.02
370.45	329.47
370.831	331.95
371.212	350.71
371.593	335.34
371.974	327.66
372.355	328.11
372.736	336.93
373.117	328.56
373.498	340.77
373.879	344.61
374.26	328.56
374.641	328.11
375.021	335.57
375.402	329.24
375.783	351.39
376.163	349.58
376.544	357.04
376.925	338.28
377.305	323.14
377.686	343.93
378.066	331.28
378.447	357.04
378.827	336.7
379.208	348.9
379.588	335.8
379.968	344.61
380.349	334.89
380.729	364.5
381.109	330.37
381.489	369.47
381.87	372.18
382.25	368.11
382.63	345.97
383.01	355.91
383.39	381.22
383.77	383.7
384.15	385.51
384.53	372.63
384.91	369.69
385.29	365.4
385.67	352.97
386.049	378.51
386.429	395.91
386.809	362.24
387.189	375.34
387.568	373.08
387.948	387.55
388.328	392.74
388.707	384.83
389.087	379.18
389.466	390.03
389.846	393.65
390.225	423.7
390.605	374.21
390.984	387.09
391.363	399.3
391.743	406.08
392.122	409.01
392.501	372.41
392.881	425.51
393.26	406.98
393.639	387.32
394.018	417.15
394.397	409.01
394.776	413.08
395.155	402.24
395.534	409.24
395.913	426.19
396.292	412.4
396.671	420.31
397.05	416.92
397.429	435.68
397.808	435.91
398.186	411.73
398.565	445.17
398.944	428.22
399.323	405.4
399.701	431.39
400.08	429.35
400.458	449.69
400.837	454.21
401.215	439.97
401.594	465.51
401.972	456.25
402.351	449.24
402.729	457.83
403.107	434.55
403.486	438.17
403.864	470.03
404.242	462.12
404.62	464.15
404.999	467.32
405.377	478.17
405.755	465.06
406.133	482.23
406.511	460.09
406.889	473.42
407.267	481.56
407.645	487.88
408.023	517.03
408.401	492.63
408.779	527.66
409.156	505.28
409.534	529.24
409.912	524.94
410.29	521.1
410.667	527.88
411.045	533.08
411.422	538.05
411.8	538.73
412.178	538.5
412.555	561.55
412.933	572.17
413.31	534.44
413.687	544.15
414.065	572.85
414.442	541.67
414.819	547.09
415.197	562.68
415.574	571.72
415.951	572.17
416.328	580.31
416.705	572.63
417.082	576.92
417.46	604.04
417.837	583.25
418.214	608.56
418.591	601.78
418.967	598.16
419.344	612.63
419.721	623.25
420.098	627.54
420.475	613.98
420.852	620.31
421.228	640.2
421.605	626.64
421.982	628.67
422.358	629.57
422.735	664.15
423.111	645.84
423.488	674.77
423.864	656.69
424.241	655.34
424.617	652.85
424.994	688.1
425.37	689.69
425.746	664.38
426.123	694.2
426.499	691.27
426.875	716.58
427.251	714.77
427.627	681.32
428.003	721.32
428.379	732.85
428.756	703.47
429.132	740.76
429.507	753.64
429.883	752.28
430.259	743.92
430.635	780.08
431.011	787.99
431.387	779.4
431.763	792.96
432.138	779.63
432.514	797.93
432.89	802.68
433.265	815.33
433.641	854.43
434.016	826.63
434.392	822.11
434.767	865.95
435.143	841.55
435.518	859.17
435.894	855.78
436.269	875.44
436.644	872.96
437.02	900.98
437.395	892.39
437.77	886.52
438.145	898.27
438.52	916.8
438.895	915.67
439.271	893.3
439.646	944.14
440.021	946.85
440.395	962.22
440.77	938.94
441.145	928.32
441.52	967.42
441.895	975.1
442.27	983.69
442.645	978.72
443.019	1000.19
443.394	1016.23
443.769	1015.78
444.143	1021.88
444.518	1033.86
444.892	993.86
445.267	1036.12
445.641	1034.08
446.016	1024.37
446.39	1053.74
446.764	1047.87
447.139	1048.09
447.513	1052.39
447.887	1061.2
448.262	1067.3
448.636	1082.44
449.01	1074.76
449.384	1079.05
449.758	1100.52
450.132	1136
450.506	1138.94
450.88	1108.88
451.254	1142.1
451.628	1147.3
452.002	1166.28
452.376	1140.07
452.75	1162.67
453.123	1165.6
453.497	1187.75
453.871	1193.17
454.244	1213.06
454.618	1229.56
454.992	1229.33
455.365	1219.84
455.739	1242.21
456.112	1268.2
456.486	1321.53
456.859	1284.02
457.232	1322.66
457.606	1317.24
457.979	1349.78
458.352	1382.55
458.725	1363.57
459.099	1395.2
459.472	1419.61
459.845	1404.69
460.218	1402.21
460.591	1443.11
460.964	1454.64
461.337	1486.95
461.71	1516.78
462.083	1532.15
462.456	1550.91
462.829	1522.66
463.201	1544.13
463.574	1582.09
463.947	1607.85
464.32	1632.26
464.692	1601.98
465.065	1649.66
465.438	1675.87
465.81	1692.14
466.183	1690.34
466.555	1737.34
466.928	1730.11
467.3	1756.78
467.672	1778.7
468.045	1847.39
468.417	1849.43
468.789	1831.58
469.161	1886.94
469.534	1951.57
469.906	1922.42
470.278	1951.12
470.65	1990.44
471.022	2022.31
471.394	2015.3
471.766	2090.1
472.138	2081.29
472.51	2147.5
472.882	2154.28
473.253	2199.7
473.625	2196.99
473.997	2300.94
474.369	2310.21
474.74	2315.18
475.112	2342.3
475.484	2431.33
475.855	2441.5
476.227	2478.11
476.598	2559.24
476.97	2564.21
477.341	2648.96
477.713	2652.8
478.084	2674.49
478.455	2750.87
478.827	2806.47
479.198	2910.87
479.569	2908.61
479.94	2989.29
480.311	2996.07
480.682	3090.53
481.053	3163.52
481.424	3220.92
481.795	3225.66
482.166	3311.54
482.537	3334.14
482.908	3415.04
483.279	3476.5
483.65	3567.12
484.021	3618.87
484.391	3655.48
484.762	3719.89
485.133	3746.33
485.503	3801.24
485.874	3922.37
486.244	3973.44
486.615	4063.61
486.985	4066.55
487.356	4160.1
487.726	4186.77
488.097	4313.09
488.467	4337.95
488.837	4402.58
489.207	4470.38
489.578	4541.79
489.948	4633.76
490.318	4717.6
490.688	4724.38
491.058	4737.71
491.428	4845.28
491.798	4956.24
492.168	5016.58
492.538	5068.1
492.908	5138.61
493.278	5191.49
493.648	5239.17
494.017	5252.96
494.387	5315.1
494.757	5370.24
495.126	5431.93
495.496	5506.96
495.866	5546.05
496.235	5587.64
496.605	5659.5
496.974	5700.63
497.344	5744.69
497.713	5774.07
498.082	5864.69
498.452	5887.06
498.821	5996.44
499.19	5950.79
499.559	6036.89
499.928	6057.45
500.298	6097.23
500.667	6136.55
501.036	6169.32
501.405	6263.1
501.774	6248.86
502.143	6296.09
502.512	6289.54
502.88	6397.33
503.249	6439.36
503.618	6471.68
503.987	6487.27
504.356	6498.35
504.724	6619.92
505.093	6596.2
505.462	6654.73
505.83	6711.67
506.199	6703.76
506.567	6831.22
506.936	6783.31
507.304	6891.1
507.672	6927.71
508.041	6923.42
508.409	6994.83
508.777	7024.43
509.145	7070.99
509.514	7039.12
509.882	7117.99
510.25	7165
510.618	7159.57
510.986	7235.5
511.354	7269.17
511.722	7276.86
512.09	7414.71
512.458	7364.31
512.826	7441.82
513.193	7457.64
513.561	7571.09
513.929	7518.66
514.297	7636.17
514.664	7718.2
515.032	7690.18
515.4	7744.42
515.767	7791.87
516.135	7818.31
516.502	7770.18
516.869	7852.66
517.237	7960.45
517.604	7919.1
517.972	7943.05
518.339	8049.27
518.706	7997.06
519.073	8027.12
519.44	8100.56
519.808	8127.68
520.175	8200
520.542	8330.61
520.909	8272.08
521.276	8313.67
521.643	8331.07
522.009	8426.2
522.376	8467.79
522.743	8543.49
523.11	8617.16
523.477	8665.97
523.843	8714.11
524.21	8728.8
524.577	8866.42
524.943	8885.63
525.31	8885.18
525.676	8994.1
526.043	9002.46
526.409	9059.63
526.776	9111.61
527.142	9204.49
527.508	9233.64
527.874	9265.96
528.241	9364.71
528.607	9325.62
528.973	9446.52
529.339	9420.76
529.705	9493.3
530.071	9631.6
530.437	9653.74
530.803	9613.07
531.169	9753.4
531.535	9748.88
531.901	9791.82
532.267	9797.47
532.632	9941.87
532.998	9898.93
533.364	10038.82
533.73	10040.85
534.095	10134.86
534.461	10145.03
534.826	10140.06
535.192	10246.27
535.557	10278.81
535.923	10281.3
536.288	10325.14
536.653	10466.6
537.019	10416.44
537.384	10529.2
537.749	10478.58
538.114	10583.21
538.479	10544.79
538.845	10649.42
539.21	10614.4
539.575	10671.8
539.94	10727.39
540.305	10836.31
540.67	10810.78
541.034	10853.71
541.399	10877.67
541.764	10924.22
542.129	11044.44
542.494	11096.87
542.858	11098
543.223	11086.25
543.587	11170.99
543.952	11186.13
544.316	11254.83
544.681	11294.15
545.045	11304.77
545.41	11425.22
545.774	11472.68
546.138	11452.11
546.503	11469.06
546.867	11538.44
547.231	11570.08
547.595	11564.65
547.959	11692.79
548.324	11676.29
548.688	11752.45
549.052	11720.81
549.416	11818.43
549.779	11897.3
550.143	11801.48
550.507	12015.26
550.871	12047.58
551.235	11956.28
551.599	12130.97
551.962	12097.97
552.326	12209.16
552.689	12208.93
553.053	12180.46
553.417	12253.9
553.78	12460.45
554.143	12356.05
554.507	12374.12
554.87	12433.11
555.234	12571.63
555.597	12553.78
555.96	12570.95
556.323	12715.81
556.686	12702.02
557.05	12669.26
557.413	12760.33
557.776	12739.99
558.139	12871.96
558.502	12864.28
558.865	12820.89
559.228	12986.31
559.59	13099.08
559.953	13084.39
560.316	13194.22
560.679	13231.28
561.041	13283.7
561.404	13352.63
561.767	13409.8
562.129	13442.34
562.492	13483.25
562.854	13517.82
563.217	13476.92
563.579	13504.72
563.941	13636.46
564.304	13743.13
564.666	13752.17
565.028	13807.08
565.39	13873.97
565.753	13935.66
566.115	13945.38
566.477	14007.53
566.839	14064.02
567.201	14122.33
567.563	14217.92
567.925	14260.63
568.287	14285.49
568.648	14218.82
569.01	14404.8
569.372	14466.5
569.734	14395.31
570.095	14509.21
570.457	14567.96
570.819	14651.58
571.18	14694.29
571.542	14874.62
571.903	14856.54
572.265	14888.41
572.626	14968.63
572.987	15033.71
573.349	15088.85
573.71	15106.71
574.071	15189.87
574.432	15312.13
574.794	15470.54
575.155	15465.34
575.516	15479.8
575.877	15588.5
576.238	15684.77
576.599	15774.26
576.96	15874.6
577.32	15909.17
577.681	16138.77
578.042	16207.7
578.403	16182.61
578.763	16358.2
579.124	16540.57
579.485	16622.83
579.845	16785.08
580.206	16915.25
580.566	16959.77
580.927	17066.43
581.287	17387.55
581.648	17455.8
582.008	17700.76
582.368	17719.52
582.728	17931.49
583.089	18108.44
583.449	18271.37
583.809	18375.77
584.169	18607.86
584.529	18763.33
584.889	19080.39
585.249	19155.19
585.609	19322.87
585.969	19650.32
586.329	19737.09
586.688	20183.86
587.048	20333.91
587.408	20507.7
587.768	20803.96
588.127	21021.13
588.487	21332.76
588.846	21717.83
589.206	21860.88
589.565	22162.12
589.925	22606.4
590.284	22753.29
590.643	23074.18
591.003	23419.71
591.362	23841.84
591.721	24114.38
592.08	24388.27
592.44	24838.2
592.799	25029.16
593.158	25277.74
593.517	25695.81
593.876	26072.29
594.235	26326.07
594.593	26710.47
594.952	27038.37
595.311	27275.88
595.67	27669.54
596.029	28221.62
596.387	28559.69
596.746	28896.18
597.104	29135.72
597.463	29504.07
597.822	29993.1
598.18	30085.97
598.538	30518.28
598.897	31009.34
599.255	31087.98
599.613	31887.51
599.972	32120.5
600.33	32513.48
600.688	32635.29
601.046	33049.29
601.404	33604.53
601.762	33804.52
602.12	34225.07
602.478	34708
602.836	34917.03
603.194	35036.8
603.552	35525.15
603.91	35716.33
604.268	36143.22
604.625	36376.2
604.983	36820.26
605.341	36919.69
605.698	37469.51
606.056	37884.64
606.413	37972.55
606.771	38374.57
607.128	38684.84
607.485	38836.03
607.843	39099.07
608.2	39568.44
608.557	39801.88
608.914	40072.38
609.272	40584.46
609.629	40712.81
609.986	41141.05
610.343	41185.34
610.7	41567.25
611.057	41826.91
611.414	42066.9
611.771	42342.38
612.127	42599.32
612.484	42873.66
612.841	43137.83
613.198	43073.88
613.554	43514.1
613.911	43841.32
614.267	43880.41
614.624	43936.46
614.98	44277.69
615.337	44695.31
615.693	44680.17
616.05	44839.26
616.406	45197.67
616.762	45303.65
617.118	45308.85
617.475	45584.32
617.831	45883.53
618.187	46008.27
618.543	46131.2
618.899	46566.45
619.255	46558.76
619.611	46591.98
619.967	46960.78
620.323	47018.18
620.678	47036.26
621.034	47070.16
621.39	47140.22
621.746	47212.3
622.101	47737.94
622.457	47476.7
622.812	47732.52
623.168	47916.24
623.523	47902.46
623.879	48178.15
624.234	48086.41
624.589	48241.43
624.945	48341.99
625.3	48397.81
625.655	48470.8
626.01	48587.18
626.365	48684.58
626.72	48669.67
627.075	48670.12
627.43	48710.12
627.785	48745.37
628.14	48935.2
628.495	49177.68
628.85	48919.15
629.205	48936.33
629.559	49186.49
629.914	49064.91
630.269	49162.08
630.623	49132.03
630.978	49089.32
631.332	49333.15
631.687	49473.71
632.041	49277.79
632.396	49330.89
632.75	49289.99
633.104	49416.77
633.459	49336.99
633.813	49453.6
634.167	49326.6
634.521	49418.12
634.875	49495.63
635.229	49496.54
635.583	49450.44
635.937	49365.02
636.291	49351
636.645	49463.54
636.999	49383.09
637.352	49378.57
637.706	49336.09
638.06	49474.84
638.413	49361.85
638.767	49334.06
639.121	49488.85
639.474	49230.1
639.828	49178.13
640.181	49242.76
640.534	49322.08
640.888	49251.57
641.241	49195.08
641.594	49191.23
641.947	49341.51
642.301	49264.68
642.654	49354.85
643.007	49277.11
643.36	49266.04
643.713	49179.94
644.066	49386.03
644.419	49166.83
644.771	48911.92
645.124	48675.99
645.477	48627.18
645.83	48298.15
646.182	48219.51
646.535	48183.13
646.888	48269.68
647.24	48147.87
647.593	48275.55
647.945	48195.33
648.298	48032.62
648.65	48005.96
649.002	47927.31
649.355	47926.41
649.707	48017.03
650.059	48151.71
650.411	48616.33
650.763	48559.61
651.115	49059.26
651.467	48879.83
651.819	48916.44
652.171	48776.56
652.523	48658.82
652.875	48814.75
653.227	48539.95
653.578	48918.25
653.93	48817.46
654.282	48651.81
654.633	48620.85
654.985	48615.66
655.337	48708.76
655.688	48725.03
656.039	48855.88
656.391	48572.27
656.742	48690.91
657.094	48657.92
657.445	48875.08
657.796	48663.57
658.147	48562.78
658.498	48484.13
658.849	48737.01
659.2	48653.4
659.551	48419.96
659.902	48480.52
660.253	48532.72
660.604	48508.77
660.955	48427.19
661.306	48502.44
661.656	48478.94
662.007	48523
662.358	48577.47
662.708	48505.38
663.059	48497.02
663.409	48205.27
663.76	48514.42
664.11	48469.45
664.461	48556
664.811	48432.84
665.161	48446.85
665.511	48400.52
665.862	48510.35
666.212	48568.43
666.562	48458.82
666.912	48376.57
667.262	48407.98
667.612	48362.56
667.962	48435.55
668.312	48233.75
668.662	48473.06
669.011	48291.82
669.361	48408.43
669.711	48210.02
670.06	48240.3
670.41	48145.61
670.76	48188.1
671.109	48264.48
671.459	48227.64
671.808	48184.26
672.157	48201.43
672.507	48122.11
672.856	48077.59
673.205	48166.63
673.554	48326.4
673.904	48068.55
674.253	48300.86
674.602	48083.92
674.951	47622.46
675.3	47374.79
675.649	48061.1
675.998	48054.32
676.346	47936.35
676.695	48130.47
677.044	47831.95
677.393	47958.72
677.741	47986.29
678.09	47881.21
678.438	47730.71
678.787	47885.73
679.135	47963.02
679.484	47700.88
679.832	47700.88
680.181	47528.23
680.529	47724.15
680.877	47570.49
681.225	47397.84
681.573	47664.95
681.922	47450.26
682.27	47284.62
682.618	47497.72
682.966	47172.3
683.314	47314
683.661	47163.04
684.009	46943.38
684.357	46974.12
684.705	46979.77
685.053	46964.63
685.4	46958.98
685.748	46715.37
686.095	46810.96
686.443	46530.29
686.79	46613.22
687.138	46562.6
687.485	46490.29
687.832	46439.67
688.18	46537.52
688.527	46273.57
688.874	46252.33
689.221	46172.11
689.568	46168.49
689.915	46015.5
690.262	46058.21
690.609	45738.67
690.956	45702.51
691.303	45644.44
691.65	45542.74
691.997	45419.13
692.344	45167.16
692.69	45238.34
693.037	45076.31
693.383	45008.75
693.73	44912.03
694.077	44869.31
694.423	44863.21
694.769	44713.84
695.116	44602.65
695.462	44472.71
695.808	44428.65
696.155	44572.37
696.501	44004.25
696.847	44136.68
697.193	43931.94
697.539	43985.5
697.885	43618.05
698.231	43778.5
698.577	43762.9
698.923	43710.47
699.269	43499.41
699.614	43291.28
699.96	43084.73
700.306	43186.65
700.651	43026.65
700.997	42924.05
701.342	42956.37
701.688	42798.18
702.033	42652.65
702.379	42516.38
702.724	42546.44
703.069	42698.3
703.415	42143.28
703.76	42282.04
704.105	42295.37
704.45	42099.9
704.795	41761.83
705.14	41840.69
705.485	41846.57
705.83	41560.93
706.175	41703.3
706.52	41532
706.865	41316.41
707.209	41362.97
707.554	41289.75
707.899	41291.33
708.243	41056.53
708.588	41017.21
708.932	40746.94
709.277	40761.85
709.621	40764.56
709.966	40393.5
710.31	40579.94
710.654	40258.59
710.998	40300.4
711.342	40207.06
711.687	40166.16
712.031	40065.6
712.375	39878.94
712.719	40001.42
713.063	39797.81
713.407	40011.59
713.75	39621.32
714.094	39646.63
714.438	39528.66
714.782	39617.7
715.125	39439.17
715.469	39475.11
715.812	39444.6
716.156	39004.38
716.499	39132.52
716.843	39181.1
717.186	38896.82
717.53	39043.25
717.873	39022.69
718.216	38913.31
718.559	38775.24
718.902	38560.1
719.246	38590.16
719.589	38539.54
719.932	38291.63
720.275	38436.94
720.617	38424.74
720.96	38141.36
721.303	38281.69
721.646	38218.19
721.989	38015.26
722.331	38131.64
722.674	38074.24
723.016	37957.41
723.359	37899.33
723.701	37993.34
724.044	37630.86
724.386	37606.45
724.729	37726.23
725.071	37646.91
725.413	37577.75
725.755	37478.77
726.097	37372.34
726.439	37169.63
726.782	37100.71
727.124	37381.6
727.465	37102.06
727.807	37095.28
728.149	36981.39
728.491	36930.99
728.833	36951.33
729.175	36841.28
729.516	36877.43
729.858	36766.7
730.199	36821.62
730.541	36740.04
730.882	36669.98
731.224	36732.81
731.565	36493.04
731.906	36641.51
732.248	36448.52
732.589	36250.78
732.93	36118.81
733.271	36186.61
733.612	36239.94
733.953	36194.97
734.294	36031.58
734.635	35957.01
734.976	35961.53
735.317	35968.53
735.658	35834.52
735.999	35872.94
736.339	35784.36
736.68	35906.61
737.021	35696.22
737.361	35567.41
737.702	35758.59
738.042	35578.94
738.383	35604.7
738.723	35646.51
739.063	35524.48
739.404	35625.49
739.744	35444.25
740.084	35315.89
740.424	35383.01
740.764	35132.62
741.104	35346.63
741.444	35131.72
741.784	35067.31
742.124	35230.02
742.464	35044.04
742.804	34960.87
743.143	34830.93
743.483	34896.02
743.823	34635.91
744.162	34621.9
744.502	34718.4
744.841	34577.38
745.181	34630.49
745.52	34489.93
745.86	34501.68
746.199	34564.27
746.538	34290.16
746.877	34516.82
747.216	34428.01
747.556	34348.46
747.895	34268.92
748.234	34203.38
748.573	34234.34
748.911	34021.92
749.25	34139.65
749.589	33955.93
749.928	33974.46
750.267	34079.09
750.605	33860.11
750.944	33820.57
751.283	33616.05
751.621	33760
751.96	33533.79
752.298	33525.88
752.636	33585.32
752.975	33362.27
753.313	33321.14
753.651	33361.37
753.989	33240.02
754.327	33140.36
754.666	32982.17
755.004	32990.53
755.342	33007.03
755.679	33080.92
756.017	32685.68
756.355	32922.06
756.693	32564.33
757.031	32760.03
757.368	32463.54
757.706	32520.03
