Data from hue_270_FLMS001491_00020.txt Node
Date: Tue Feb 07 15:56:51 GMT 2017
User: dcchb
Spectrometer: FLMS00149
Trigger mode: 0
Integration Time (sec): 2.000000E-2
Scans to average: 10
Electric dark correction enabled: true
Nonlinearity correction enabled: false
Boxcar width: 0
XAxis mode: Wavelengths
Number of Pixels in Spectrum: 2048
>>>>>Begin Spectral Data<<<<<
341.393	-17.03
341.776	-17.03
342.16	-17.03
342.543	-72.85
342.927	-68.11
343.31	-76.92
343.693	-78.73
344.077	-83.02
344.46	-55.45
344.843	-58.84
345.226	-37.15
345.61	-38.5
345.993	6.24
346.376	0.37
346.759	15.51
347.142	26.13
347.525	58.22
347.908	59.8
348.291	67.48
348.674	86.92
349.057	107.94
349.44	131.89
349.823	127.82
350.206	146.8
350.588	173.7
350.971	220.02
351.354	212.34
351.737	224.09
352.119	233.81
352.502	272.22
352.884	270.19
353.267	269.51
353.65	289.17
354.032	296.86
354.414	300.25
354.797	307.93
355.179	301.38
355.562	330.53
355.944	325.56
356.326	334.14
356.709	328.49
357.091	308.16
357.473	317.65
357.855	324.88
358.238	328.04
358.62	324.65
359.002	340.7
359.384	332.34
359.766	329.17
360.148	317.2
360.53	314.94
360.912	305.44
361.294	319.23
361.676	301.15
362.057	327.14
362.439	331.43
362.821	311.55
363.203	332.11
363.584	326.91
363.966	303.41
364.348	309.74
364.729	291.88
365.111	337.08
365.493	325.33
365.874	315.39
366.256	318.78
366.637	316.52
367.019	304.09
367.4	289.85
367.781	305.44
368.163	313.81
368.544	311.09
368.925	307.25
369.306	321.71
369.688	323.52
370.069	296.4
370.45	298.89
370.831	308.83
371.212	304.77
371.593	304.31
371.974	317.42
372.355	327.82
372.736	309.51
373.117	290.08
373.498	304.09
373.879	326.69
374.26	304.31
374.641	304.99
375.021	295.05
375.402	336.4
375.783	333.24
376.163	319.45
376.544	344.76
376.925	330.08
377.305	317.42
377.686	328.04
378.066	325.78
378.447	324.2
378.827	340.7
379.208	323.07
379.588	328.49
379.968	329.17
380.349	348.61
380.729	343.18
381.109	330.75
381.489	325.33
381.87	336.63
382.25	351.77
382.63	342.05
383.01	343.18
383.39	328.72
383.77	332.79
384.15	345.67
384.53	313.35
384.91	343.41
385.29	340.02
385.67	346.12
386.049	352.22
386.429	330.3
386.809	354.03
387.189	344.99
387.568	355.84
387.948	347.48
388.328	340.7
388.707	351.09
389.087	356.06
389.466	358.32
389.846	365.56
390.225	397.64
390.605	348.38
390.984	357.65
391.363	372.33
391.743	384.76
392.122	368.27
392.501	393.13
392.881	375.27
393.26	374.14
393.639	391.32
394.018	391.32
394.397	393.13
394.776	385.44
395.155	396.29
395.534	383.41
395.913	390.41
396.292	400.36
396.671	381.37
397.05	389.96
397.429	414.14
397.808	396.51
398.186	412.79
398.565	396.51
398.944	385.22
399.323	419.34
399.701	399.68
400.08	409.4
400.458	408.04
400.837	423.18
401.215	424.08
401.594	413.69
401.972	415.5
402.351	416.18
402.729	424.54
403.107	407.81
403.486	407.81
403.864	450.07
404.242	435.38
404.62	450.3
404.999	450.98
405.377	449.39
405.755	457.3
406.133	469.06
406.511	458.21
406.889	471.09
407.267	464.76
407.645	456.85
408.023	468.38
408.401	485.78
408.779	495.95
409.156	506.79
409.534	495.72
409.912	493.91
410.29	495.95
410.667	496.63
411.045	497.3
411.422	521.71
411.8	514.7
412.178	526
412.555	556.51
412.933	547.02
413.31	551.09
413.687	560.13
414.065	577.08
414.442	576.85
414.819	611.88
415.197	578.88
415.574	597.87
415.951	616.17
416.328	622.95
416.705	611.88
417.082	620.92
417.46	635.15
417.837	631.99
418.214	647.13
418.591	655.49
418.967	660.46
419.344	630.41
419.721	669.5
420.098	659.11
420.475	686.9
420.852	688.03
421.228	696.39
421.605	719.9
421.982	710.18
422.358	707.24
422.735	762.16
423.111	741.59
423.488	752.21
423.864	786.79
424.241	790.4
424.617	778.2
424.994	792.89
425.37	811.65
425.746	823.17
426.123	849.16
426.499	843.06
426.875	869.27
427.251	848.48
427.627	884.64
428.003	857.52
428.379	895.48
428.756	900.46
429.132	930.29
429.507	933.68
429.883	920.34
430.259	952.88
430.635	972.77
431.011	968.93
431.387	1008.25
431.763	992.88
432.138	1008.7
432.514	1024.3
432.89	1052.99
433.265	1053.9
433.641	1064.52
434.016	1069.27
434.392	1128.02
434.767	1106.33
435.143	1130.06
435.518	1148.81
435.894	1172.09
436.269	1197.4
436.644	1188.36
437.02	1226.78
437.395	1224.52
437.77	1216.61
438.145	1238.53
438.52	1273.78
438.895	1282.14
439.271	1310.62
439.646	1348.13
440.021	1325.08
440.395	1368.24
440.77	1332.76
441.145	1394.45
441.52	1345.64
441.895	1374.12
442.27	1401.23
442.645	1404.4
443.019	1421.35
443.394	1414.57
443.769	1467.67
444.143	1439.88
444.518	1484.4
444.892	1495.47
445.267	1506.99
445.641	1500.67
446.016	1476.03
446.39	1537.28
446.764	1537.28
447.139	1543.6
447.513	1532.98
447.887	1546.99
448.262	1561.68
448.636	1585.41
449.01	1568.01
449.384	1606.2
449.758	1634.45
450.132	1635.58
450.506	1632.64
450.88	1665.63
451.254	1638.74
451.628	1656.37
452.002	1698.18
452.376	1673.77
452.75	1682.58
453.123	1716.03
453.497	1705.18
453.871	1758.29
454.244	1802.13
454.618	1797.61
454.992	1791.73
455.365	1810.94
455.739	1835.35
456.112	1846.19
456.486	1874.44
456.859	1837.83
457.232	1913.54
457.606	1918.06
457.979	1897.72
458.352	1955.12
458.725	2004.83
459.099	2007.32
459.472	2011.84
459.845	2042.8
460.218	2072.86
460.591	2081.67
460.964	2062.91
461.337	2097.94
461.71	2136.81
462.083	2167.54
462.456	2171.61
462.829	2153.08
463.201	2224.72
463.574	2218.16
463.947	2186.52
464.32	2294.09
464.692	2295.45
465.065	2322.11
465.438	2335
465.81	2359.63
466.183	2362.34
466.555	2404.15
466.928	2385.62
467.3	2386.29
467.672	2451.38
468.045	2514.43
468.417	2483.24
468.789	2492.51
469.161	2542.67
469.534	2604.59
469.906	2633.74
470.278	2658.83
470.65	2665.83
471.022	2718.26
471.394	2754.19
471.766	2769.33
472.138	2793.29
472.51	2841.87
472.882	2861.99
473.253	2885.94
473.625	2946.73
473.997	3004.81
474.369	2984.02
474.74	3012.04
475.112	3047.97
475.484	3111.47
475.855	3134.3
476.227	3170.68
476.598	3278.93
476.97	3241.19
477.341	3275.31
477.713	3299.72
478.084	3335.42
478.455	3442.31
478.827	3436.21
479.198	3600.05
479.569	3561.63
479.94	3667.39
480.311	3648.86
480.682	3708.52
481.053	3763.66
481.424	3758.23
481.795	3843.66
482.166	3868.97
482.537	3884.33
482.908	3984.44
483.279	4004.78
483.65	4078.23
484.021	4116.42
484.391	4141.73
484.762	4204.1
485.133	4195.51
485.503	4275.51
485.874	4324.1
486.244	4360.93
486.615	4403.87
486.985	4496.75
487.356	4507.82
487.726	4553.69
488.097	4684.09
488.467	4661.26
488.837	4780.58
489.207	4750.3
489.578	4833.01
489.948	4852.89
490.318	4840.69
490.688	4873.69
491.058	4968.82
491.428	5038.43
491.798	5077.52
492.168	5101.48
492.538	5169.27
492.908	5186.22
493.278	5195.48
493.648	5224.41
494.017	5320
494.387	5315.26
494.757	5329.72
495.126	5425.08
495.496	5400.68
495.866	5449.72
496.235	5504.86
496.605	5516.61
496.974	5598.19
497.344	5603.84
497.713	5604.06
498.082	5660.56
498.452	5707.56
498.821	5749.14
499.19	5717.28
499.559	5732.65
499.928	5767.67
500.298	5804.96
500.667	5847.45
501.036	5804.96
501.405	5850.83
501.774	5896.94
502.143	5867.56
502.512	5934
502.88	5957.05
503.249	5998.85
503.618	5952.53
503.987	6009.7
504.356	6009.25
504.724	6046.76
505.093	6048.57
505.462	6066.87
505.83	6044.05
506.199	6119.75
506.567	6185.52
506.936	6154.56
507.304	6251.05
507.672	6222.12
508.041	6266.19
508.409	6294.66
508.777	6307.32
509.145	6294.44
509.514	6308.45
509.882	6356.81
510.25	6351.84
510.618	6342.12
510.986	6401.78
511.354	6377.15
511.722	6452.4
512.09	6491.95
512.458	6453.76
512.826	6501.44
513.193	6569.01
513.561	6514.09
513.929	6509.8
514.297	6534.43
514.664	6580.53
515.032	6576.01
515.4	6587.31
515.767	6644.94
516.135	6637.25
516.502	6599.97
516.869	6656.46
517.237	6684.49
517.604	6628.89
517.972	6675.45
518.339	6720.87
518.706	6719.74
519.073	6717.93
519.44	6707.31
519.808	6801.32
520.175	6765.39
520.542	6793.86
520.909	6830.92
521.276	6814.2
521.643	6857.59
522.009	6860.75
522.376	6938.49
522.743	6886.74
523.11	6934.87
523.477	6991.14
523.843	6996.79
524.21	7035.21
524.577	7040.86
524.943	7050.58
525.31	7046.96
525.676	7127.19
526.043	7139.39
526.409	7128.32
526.776	7232.04
527.142	7202.21
527.508	7234.3
527.874	7241.76
528.241	7266.84
528.607	7227.3
528.973	7273.85
529.339	7227.97
529.705	7315.66
530.071	7378.48
530.437	7376.22
530.803	7383.68
531.169	7420.51
531.535	7391.36
531.901	7378.7
532.267	7445.82
532.632	7483.79
532.998	7451.7
533.364	7467.06
533.73	7518.59
534.095	7553.16
534.461	7609.43
534.826	7576.44
535.192	7531.24
535.557	7557.23
535.923	7546.38
536.288	7616.66
536.653	7535.08
537.019	7526.72
537.384	7631.58
537.749	7593.84
538.114	7629.55
538.479	7611.24
538.845	7601.07
539.21	7608.53
539.575	7582.54
539.94	7644.23
540.305	7665.93
540.67	7662.99
541.034	7710
541.399	7683.56
541.764	7659.6
542.129	7744.8
542.494	7721.97
542.858	7747.28
543.223	7704.12
543.587	7733.95
543.952	7747.06
544.316	7705.25
544.681	7715.64
545.045	7761.97
545.41	7740.5
545.774	7725.14
546.138	7720.84
546.503	7743.21
546.867	7773.04
547.231	7789.99
547.595	7810.78
547.959	7807.62
548.324	7809.2
548.688	7771.24
549.052	7813.95
549.416	7825.92
549.779	7818.01
550.143	7844
550.507	7873.38
550.871	7810.11
551.235	7876.54
551.599	7839.26
551.962	7897.11
552.326	7893.04
552.689	7867.73
553.053	7924.9
553.417	7888.75
553.78	7978.24
554.143	7954.73
554.507	7972.36
554.87	7957.9
555.234	8048.29
555.597	7940.95
555.96	7976.2
556.323	8050.33
556.686	8028.63
557.05	8065.47
557.413	8027.95
557.776	8015.98
558.139	8122.64
558.502	8098.91
558.865	8074.28
559.228	8152.7
559.59	8142.07
559.953	8130.32
560.316	8253.71
560.679	8229.98
561.041	8255.97
561.404	8269.53
561.767	8290.77
562.129	8272.01
562.492	8339.81
562.854	8348.85
563.217	8354.27
563.579	8375.29
563.941	8429.98
564.304	8407.38
564.666	8502.97
565.028	8474.72
565.39	8500.48
565.753	8524.66
566.115	8553.81
566.477	8554.04
566.839	8655.28
567.201	8689.4
567.563	8636.07
567.925	8709.97
568.287	8739.12
568.648	8710.65
569.01	8726.69
569.372	8794.03
569.734	8835.84
570.095	8852.11
570.457	8895.95
570.819	8885.11
571.18	8926.46
571.542	8986.8
571.903	8942.05
572.265	9046.01
572.626	9017.53
572.987	9039.9
573.349	9126.68
573.71	9125.78
574.071	9084.65
574.432	9204.64
574.794	9230.18
575.155	9211.2
575.516	9275.15
575.877	9292.55
576.238	9255.94
576.599	9305.21
576.96	9308.82
577.32	9394.02
577.681	9457.07
578.042	9482.6
578.403	9421.14
578.763	9470.17
579.124	9478.08
579.485	9495.03
579.845	9583.62
580.206	9601.92
580.566	9630.62
580.927	9672.43
581.287	9634.92
581.648	9689.6
582.008	9796.95
582.368	9702.26
582.728	9777.06
583.089	9777.96
583.449	9819.09
583.809	9871.52
584.169	9937.51
584.529	9849.15
584.889	9974.12
585.249	9964.85
585.609	9921.24
585.969	10011.4
586.329	10057.28
586.688	10059.54
587.048	10136.82
587.408	10051.63
587.768	10045.07
588.127	10074.9
588.487	10064.06
588.846	10255.01
589.206	10224.51
589.565	10195.35
589.925	10288.01
590.284	10304.05
590.643	10297.5
591.003	10343.37
591.362	10322.36
591.721	10318.06
592.08	10415.69
592.44	10406.87
592.799	10377.27
593.158	10465.18
593.517	10476.02
593.876	10451.62
594.235	10500.43
594.593	10471.28
594.952	10525.74
595.311	10459.75
595.67	10548.11
596.029	10626.3
596.387	10654.1
596.746	10658.17
597.104	10564.38
597.463	10624.27
597.822	10706.75
598.18	10624.95
598.538	10629.01
598.897	10752.63
599.255	10667.21
599.613	10852.06
599.972	10726.19
600.33	10807.09
600.688	10853.19
601.046	10837.6
601.404	10902.45
601.762	10874.66
602.12	10824.72
602.478	10903.13
602.836	10908.78
603.194	10803.92
603.552	10863.13
603.91	10804.6
604.268	10921.44
604.625	10899.97
604.983	10900.65
605.341	10874.43
605.698	10979.06
606.056	10982.9
606.413	11003.47
606.771	10958.27
607.128	11045.95
607.485	10918.05
607.843	10969.12
608.2	10956.46
608.557	11077.14
608.914	11077.14
609.272	11144.25
609.629	11087.99
609.986	11164.37
610.343	11082.56
610.7	11130.92
611.057	11242.33
611.414	11140.87
611.771	11144.93
612.127	11274.42
612.484	11219.06
612.841	11238.94
613.198	11167.31
613.554	11199.85
613.911	11329.56
614.267	11313.52
614.624	11190.81
614.98	11290.47
615.337	11357.13
615.693	11364.36
616.05	11276.68
616.406	11265.38
616.762	11264.03
617.118	11335.66
617.475	11262.67
617.831	11370.24
618.187	11304.93
618.543	11410.91
618.899	11364.59
619.255	11381.08
619.611	11388.77
619.967	11475.55
620.323	11463.79
620.678	11370.24
621.034	11353.06
621.39	11393.51
621.746	11374.53
622.101	11536.34
622.457	11361.2
622.812	11440.97
623.168	11471.25
623.523	11459.73
623.879	11476.22
624.234	11458.37
624.589	11506.73
624.945	11467.64
625.3	11455.21
625.655	11489.1
626.01	11448.88
626.365	11446.62
626.72	11414.76
627.075	11349.67
627.43	11482.78
627.785	11335.21
628.14	11374.31
628.495	11456.56
628.85	11416.79
629.205	11282.33
629.559	11337.02
629.914	11448.65
630.269	11340.63
630.623	11386.96
630.978	11367.07
631.332	11338.6
631.687	11354.42
632.041	11295.89
632.396	11289.34
632.75	11272.16
633.104	11254.99
633.459	11245.5
633.813	11159.4
634.167	11199.85
634.521	11208.66
634.875	11206.85
635.229	11306.06
635.583	11203.01
635.937	11255.21
636.291	11178.15
636.645	11238.04
636.999	11243.46
637.352	11205.5
637.706	11095.67
638.06	11159.62
638.413	11154.42
638.767	11095.22
639.121	11179.73
639.474	11071.04
639.828	11036.91
640.181	11016.8
640.534	11117.14
640.888	11013.86
641.241	10911.49
641.594	10933.87
641.947	11069.23
642.301	10962.79
642.654	11030.36
643.007	10933.64
643.36	10887.76
643.713	10974.77
644.066	10935.45
644.419	10944.26
644.771	10832.85
645.124	10788.78
645.477	10761.89
645.83	10711.05
646.182	10655.23
646.535	10671.05
646.888	10612.97
647.24	10543.82
647.593	10673.31
647.945	10561.45
648.298	10556.25
648.65	10586.53
649.002	10469.47
649.355	10509.02
649.707	10591.73
650.059	10597.15
650.411	10750.82
650.763	10715.79
651.115	10791.72
651.467	10842.34
651.819	10791.27
652.171	10790.37
652.523	10812.51
652.875	10740.42
653.227	10704.72
653.578	10854.32
653.93	10818.16
654.282	10729.8
654.633	10663.82
654.985	10772.97
655.337	10762.34
655.688	10733.42
656.039	10824.04
656.391	10695.91
656.742	10783.81
657.094	10747.2
657.445	10817.71
657.796	10759.86
658.147	10807.54
658.498	10767.09
658.849	10767.99
659.2	10814.09
659.551	10800.76
659.902	10834.66
660.253	10773.64
660.604	10778.39
660.955	10735.9
661.306	10725.51
661.656	10753.3
662.007	10807.77
662.358	10822.68
662.708	10749.24
663.059	10743.81
663.409	10718.96
663.76	10831.95
664.11	10719.41
664.461	10764.38
664.811	10784.94
665.161	10768.45
665.511	10780.42
665.862	10838.95
666.212	10812.96
666.562	10825.17
666.912	10835.34
667.262	10792.85
667.612	10787.43
667.962	10850.25
668.312	10743.59
668.662	10766.64
669.011	10751.27
669.361	10760.76
669.711	10753.3
670.06	10796.69
670.41	10735.23
670.76	10751.27
671.109	10743.59
671.459	10680.54
671.808	10741.55
672.157	10659.07
672.507	10657.94
672.856	10618.85
673.205	10732.29
673.554	10655.45
673.904	10635.12
674.253	10743.36
674.602	10702.23
674.951	10488.68
675.3	10372.07
675.649	10636.7
675.998	10680.54
676.346	10666.53
676.695	10690.48
677.044	10522.35
677.393	10619.3
677.741	10603.93
678.09	10617.49
678.438	10514.44
678.787	10557.83
679.135	10533.65
679.484	10473.31
679.832	10522.8
680.181	10457.72
680.529	10476.48
680.877	10449.13
681.225	10337.27
681.573	10414.33
681.922	10435.8
682.27	10362.13
682.618	10346.08
682.966	10363.94
683.314	10362.35
683.661	10253.66
684.009	10325.52
684.357	10252.98
684.705	10252.08
685.053	10215.24
685.4	10253.66
685.748	10176.37
686.095	10196.94
686.443	10156.26
686.79	10116.26
687.138	10143.6
687.485	10152.42
687.832	10063.61
688.18	10087.56
688.527	9985.87
688.874	9992.42
689.221	9997.39
689.568	9900.22
689.915	9833.55
690.262	9858.41
690.609	9789.26
690.956	9808.47
691.303	9857.74
691.65	9772.99
691.997	9769.83
692.344	9677.85
692.69	9658.64
693.037	9675.14
693.383	9563.05
693.73	9597.4
694.077	9532.77
694.423	9530.74
694.769	9480.57
695.116	9430.18
695.462	9497.52
695.808	9476.95
696.155	9446.45
696.501	9360.57
696.847	9341.14
697.193	9227.24
697.539	9294.13
697.885	9216.85
698.231	9137.3
698.577	9177.98
698.923	9133.23
699.269	9061.6
699.614	9017.08
699.96	8956.29
700.306	9061.6
700.651	8994.03
700.997	8979.34
701.342	8987.7
701.688	8902.96
702.033	8875.16
702.379	8865.22
702.724	8796.75
703.069	8836.29
703.415	8658.44
703.76	8746.13
704.105	8706.8
704.45	8648.28
704.795	8596.53
705.14	8628.61
705.485	8633.13
705.83	8502.06
706.175	8541.39
706.52	8473.59
706.865	8503.65
707.209	8483.53
707.554	8438.56
707.899	8413.48
708.243	8418
708.588	8428.85
708.932	8354.5
709.277	8295.29
709.621	8343.65
709.966	8264.33
710.31	8278.34
710.654	8245.35
710.998	8184.56
711.342	8224.56
711.687	8200.38
712.031	8209.42
712.375	8187.95
712.719	8138.23
713.063	8118.57
713.407	8105.69
713.75	8041.96
714.094	8017.56
714.438	8107.72
714.782	8044.68
715.125	7997.9
715.469	8013.72
715.812	8011.23
716.156	7881.29
716.499	7969.88
716.843	7973.94
717.186	7929.2
717.53	7943.66
717.873	7968.07
718.216	7905.24
718.559	7814.85
718.902	7878.35
719.246	7869.54
719.589	7839.94
719.932	7763.1
720.275	7814.4
720.617	7783.89
720.96	7755.42
721.303	7756.32
721.646	7760.62
721.989	7715.42
722.331	7742.31
722.674	7715.42
723.016	7706.61
723.359	7704.8
723.701	7710.22
724.044	7696.66
724.386	7620.05
724.729	7682.65
725.071	7670
725.413	7683.56
725.755	7650.11
726.097	7670
726.439	7575.76
726.782	7622.09
727.124	7697.34
727.465	7621.64
727.807	7623.44
728.149	7655.08
728.491	7625.25
728.833	7581.64
729.175	7572.15
729.516	7528.76
729.858	7524.46
730.199	7589.55
730.541	7537.34
730.882	7536.67
731.224	7575.31
731.565	7504.12
731.906	7586.61
732.248	7600.39
732.589	7510
732.93	7573.05
733.271	7524.01
733.612	7567.4
733.953	7540.51
734.294	7486.05
734.635	7495.76
734.976	7560.39
735.317	7535.76
735.658	7500.28
735.999	7586.83
736.339	7534.63
736.68	7576.21
737.021	7565.82
737.361	7516.1
737.702	7592.03
738.042	7543.9
738.383	7550.23
738.723	7603.78
739.063	7556.78
739.404	7561.75
739.744	7582.54
740.084	7609.88
740.424	7582.31
740.764	7690.79
741.104	7642.43
741.444	7634.29
741.784	7597.68
742.124	7630
742.464	7677.23
742.804	7661.86
743.143	7655.99
743.483	7713.16
743.823	7672.48
744.162	7620.28
744.502	7766.04
744.841	7749.54
745.181	7811.01
745.52	7770.56
745.86	7894.4
746.199	7896.43
746.538	7915.64
746.877	7940.05
747.216	8048.29
747.556	8036.31
747.895	8045.35
748.234	8055.75
748.573	8102.08
748.911	8166.71
749.25	8240.38
749.589	8229.76
749.928	8281.51
750.267	8403.54
750.605	8378.9
750.944	8475.62
751.283	8551.1
751.621	8620.03
751.96	8664.32
752.298	8715.62
752.636	8879.91
752.975	8894.37
753.313	8942.96
753.651	9127.58
753.989	9179.56
754.327	9250.07
754.666	9372.1
755.004	9497.74
755.342	9591.3
755.679	9721.24
756.017	9794.46
756.355	9941.35
756.693	9975.7
757.031	10184.96
757.368	10325.75
757.706	10456.82
758.044	10545.4
758.381	10759.41
758.719	10970.02
759.056	10990.81
759.394	11111.04
759.731	11178.6
760.068	11444.81
760.405	11529.33
760.743	11697.01
761.08	11841.19
761.417	11943.78
761.754	12121.18
762.091	12276.43
762.428	12393.94
762.765	12445.46
763.102	12759.81
763.438	12865.57
