Data from hue_240_FLMS001491_00047.txt Node
Date: Tue Feb 07 16:35:32 GMT 2017
User: dcchb
Spectrometer: FLMS00149
Trigger mode: 0
Integration Time (sec): 2.000000E-2
Scans to average: 10
Electric dark correction enabled: true
Nonlinearity correction enabled: false
Boxcar width: 0
XAxis mode: Wavelengths
Number of Pixels in Spectrum: 2048
>>>>>Begin Spectral Data<<<<<
341.393	-4.04
341.776	-4.04
342.16	-4.04
342.543	-49.24
342.927	-83.59
343.31	-62.57
343.693	-84.94
344.077	-56.69
344.46	-53.08
344.843	-56.24
345.226	-37.94
345.61	-19.18
345.993	-24.83
346.376	-10.82
346.759	5.23
347.142	28.28
347.525	46.81
347.908	53.36
348.291	81.83
348.674	80.93
349.057	109.86
349.44	122.51
349.823	146.92
350.206	175.39
350.588	185.33
350.971	198.67
351.354	203.86
351.737	253.13
352.119	250.64
352.502	251.32
352.884	257.87
353.267	262.17
353.65	284.31
354.032	295.84
354.414	284.31
354.797	314.37
355.179	315.73
355.562	310.08
355.944	322.73
356.326	308.72
356.709	350.3
357.091	318.66
357.473	308.49
357.855	338.32
358.238	315.27
358.62	324.77
359.002	304.43
359.384	330.42
359.766	316.63
360.148	321.6
360.53	331.09
360.912	335.61
361.294	326.35
361.676	312.79
362.057	299
362.439	335.61
362.821	303.98
363.203	300.59
363.584	313.47
363.966	304.88
364.348	307.36
364.729	302.39
365.111	319.34
365.493	309.85
365.874	308.72
366.256	296.97
366.637	333.13
367.019	289.06
367.4	299
367.781	317.76
368.163	327.93
368.544	317.53
368.925	303.75
369.306	299
369.688	288.83
370.069	302.39
370.45	309.85
370.831	293.35
371.212	317.76
371.593	297.42
371.974	326.12
372.355	293.58
372.736	310.3
373.117	316.4
373.498	318.44
373.879	302.85
374.26	327.93
374.641	305.56
375.021	315.05
375.402	300.59
375.783	316.4
376.163	299.91
376.544	319.34
376.925	310.3
377.305	326.57
377.686	320.7
378.066	322.28
378.447	319.34
378.827	314.37
379.208	334.71
379.588	317.53
379.968	324.99
380.349	320.92
380.729	314.6
381.109	292.45
381.489	338.1
381.87	318.44
382.25	326.8
382.63	327.7
383.01	346.69
383.39	341.94
383.77	329.06
384.15	330.64
384.53	333.13
384.91	339.91
385.29	339.45
385.67	342.39
386.049	338.78
386.429	336.29
386.809	341.94
387.189	339.23
387.568	349.4
387.948	336.97
388.328	346.69
388.707	364.76
389.087	355.73
389.466	337.42
389.846	338.32
390.225	345.33
390.605	361.83
390.984	366.8
391.363	345.78
391.743	351.21
392.122	364.09
392.501	337.65
392.881	354.82
393.26	387.59
393.639	385.55
394.018	361.15
394.397	377.87
394.776	367.7
395.155	350.98
395.534	388.49
395.913	373.58
396.292	383.07
396.671	369.74
397.05	380.36
397.429	395.5
397.808	388.72
398.186	372.45
398.565	393.01
398.944	391.66
399.323	379
399.701	406.12
400.08	379.68
400.458	393.92
400.837	387.14
401.215	397.53
401.594	401.6
401.972	405.22
402.351	412.9
402.729	399.11
403.107	399.57
403.486	421.71
403.864	406.8
404.242	416.06
404.62	424.2
404.999	436.63
405.377	439.11
405.755	425.78
406.133	436.85
406.511	436.63
406.889	441.15
407.267	451.09
407.645	448.38
408.023	454.93
408.401	480.47
408.779	475.27
409.156	467.59
409.534	483.63
409.912	478.43
410.29	500.58
410.667	513.24
411.045	478.66
411.422	488.15
411.8	510.75
412.178	512.78
412.555	517.98
412.933	513.91
413.31	529.05
413.687	564.76
414.065	532.44
414.442	537.87
414.819	545.55
415.197	559.34
415.574	579.9
415.951	554.36
416.328	579
416.705	575.15
417.082	598.88
417.46	592.33
417.837	583.29
418.214	597.3
418.591	628.03
418.967	579.9
419.344	626.9
419.721	629.62
420.098	627.36
420.475	626
420.852	633.46
421.228	668.26
421.605	662.84
421.982	651.76
422.358	675.49
422.735	700.57
423.111	675.26
423.488	716.39
423.864	697.19
424.241	722.72
424.617	747.58
424.994	738.09
425.37	772.89
425.746	766.56
426.123	764.53
426.499	766.11
426.875	783.51
427.251	784.64
427.627	813.11
428.003	820.8
428.379	809.72
428.756	852.66
429.132	821.7
429.507	849.27
429.883	835.26
430.259	860.57
430.635	877.97
431.011	888.14
431.387	893.79
431.763	902.6
432.138	919.33
432.514	920.46
432.89	960.23
433.265	948.25
433.641	976.05
434.016	979.66
434.392	991.19
434.767	1009.95
435.143	1023.28
435.518	1042.71
435.894	1051.53
436.269	1043.62
436.644	1076.16
437.02	1087.91
437.395	1116.16
437.77	1124.52
438.145	1131.75
438.52	1135.14
438.895	1174.69
439.271	1150.96
439.646	1188.7
440.021	1209.04
440.395	1209.71
440.77	1205.19
441.145	1207.68
441.52	1233.22
441.895	1269.83
442.27	1265.31
442.645	1276.6
443.019	1281.12
443.394	1289.94
443.769	1305.08
444.143	1300.56
444.518	1352.54
444.892	1329.48
445.267	1353.66
445.641	1367.22
446.016	1372.87
446.39	1376.49
446.764	1378.75
447.139	1432.98
447.513	1414.23
447.887	1416.04
448.262	1446.09
448.636	1418.97
449.01	1443.61
449.384	1480.89
449.758	1464.17
450.132	1484.96
450.506	1476.15
450.88	1486.32
451.254	1482.25
451.628	1551.17
452.002	1550.5
452.376	1559.08
452.75	1552.98
453.123	1554.11
453.497	1573.77
453.871	1598.18
454.244	1631.4
454.618	1644.28
454.992	1661.91
455.365	1666.2
455.739	1668.68
456.112	1705.75
456.486	1746.2
456.859	1739.19
457.232	1781.45
457.606	1740.77
457.979	1781
458.352	1803.37
458.725	1842.69
459.099	1832.97
459.472	1840.21
459.845	1893.09
460.218	1889.02
460.591	1910.26
460.964	1912.97
461.337	1982.57
461.71	2004.95
462.083	2019.18
462.456	2021.9
462.829	2062.57
463.201	2085.17
463.574	2069.35
463.947	2099.63
464.32	2158.39
464.692	2144.38
465.065	2164.27
465.438	2169.01
465.81	2222.12
466.183	2247.2
466.555	2303.7
466.928	2319.52
467.3	2276.8
467.672	2339.4
468.045	2381.43
468.417	2378.95
468.789	2381.21
469.161	2407.87
469.534	2470.25
469.906	2494.43
470.278	2520.41
470.65	2596.8
471.022	2577.14
471.394	2648.77
471.766	2620.75
472.138	2694.87
472.51	2727.87
472.882	2761.31
473.253	2790.24
473.625	2817.58
473.997	2859.84
474.369	2883.12
474.74	2912.72
475.112	2974.87
475.484	3002.89
475.855	3021.19
476.227	3018.03
476.598	3099.38
476.97	3174.18
477.341	3218.47
477.713	3249.43
478.084	3300.28
478.455	3348.41
478.827	3381.41
479.198	3465.02
479.569	3484.91
479.94	3526.94
480.311	3579.14
480.682	3634.96
481.053	3726.26
481.424	3765.13
481.795	3771.68
482.166	3848.74
482.537	3932.58
482.908	3938.46
483.279	3976.42
483.65	4033.14
484.021	4142.97
484.391	4159.01
484.762	4164.89
485.133	4202.86
485.503	4250.31
485.874	4303.87
486.244	4355.85
486.615	4483.07
486.985	4472
487.356	4576.63
487.726	4564.65
488.097	4656.85
488.467	4648.49
488.837	4757.64
489.207	4777.98
489.578	4855.95
489.948	4889.39
490.318	4949.28
490.688	4967.13
491.058	5008.48
491.428	5095.94
491.798	5166.9
492.168	5245.99
492.538	5238.08
492.908	5283.05
493.278	5319.21
493.648	5333
494.017	5455.25
494.387	5419.09
494.757	5492.09
495.126	5496.15
495.496	5482.37
495.866	5549.26
496.235	5633.1
496.605	5637.62
496.974	5693.21
497.344	5728.01
497.713	5773.21
498.082	5789.25
498.452	5829.71
498.821	5835.58
499.19	5884.62
499.559	5859.76
499.928	5943.15
500.298	6011.62
500.667	5984.05
501.036	5976.59
501.405	6042.58
501.774	6044.84
502.143	6080.09
502.512	6103.14
502.88	6134.78
503.249	6142.69
503.618	6179.98
503.987	6213.2
504.356	6239.19
504.724	6266.08
505.093	6311.27
505.462	6285.74
505.83	6300.2
506.199	6329.35
506.567	6443.93
506.936	6361.22
507.304	6432.18
507.672	6451.38
508.041	6492.74
508.409	6530.7
508.777	6531.61
509.145	6556.47
509.514	6553.98
509.882	6605.05
510.25	6655.9
510.618	6632.85
510.986	6658.16
511.354	6723.02
511.722	6723.69
512.09	6769.57
512.458	6720.76
512.826	6763.69
513.193	6791.49
513.561	6794.65
513.929	6846.4
514.297	6816.35
514.664	6864.71
515.032	6874.2
515.4	6904.25
515.767	6943.12
516.135	6969.11
516.502	6920.3
516.869	7014.53
517.237	7000.75
517.604	6947.19
517.972	7025.83
518.339	7093.85
518.706	7080.52
519.073	7055.66
519.44	7103.57
519.808	7126.85
520.175	7132.95
520.542	7138.15
520.909	7171.82
521.276	7210.69
521.643	7246.84
522.009	7253.4
522.376	7272.83
522.743	7258.37
523.11	7342.66
523.477	7332.26
523.843	7388.31
524.21	7437.35
524.577	7393.28
524.943	7448.65
525.31	7487.51
525.676	7508.53
526.043	7552.6
526.409	7549.89
526.776	7514.63
527.142	7562.09
527.508	7574.97
527.874	7554.18
528.241	7591.02
528.607	7564.58
528.973	7624.69
529.339	7675.08
529.705	7636.89
530.071	7689.77
530.437	7673.95
530.803	7689.77
531.169	7734.51
531.535	7682.99
531.901	7631.92
532.267	7743.55
532.632	7726.15
532.998	7730.45
533.364	7765.47
533.73	7723.44
534.095	7772.71
534.461	7781.29
534.826	7761.18
535.192	7729.32
535.557	7781.97
535.923	7697
536.288	7754.63
536.653	7762.31
537.019	7740.16
537.384	7750.11
537.749	7814.74
538.114	7746.04
538.479	7680.73
538.845	7785.36
539.21	7649.32
539.575	7694.52
539.94	7744.68
540.305	7773.16
540.67	7724.57
541.034	7737.9
541.399	7730.45
541.764	7710.79
542.129	7728.19
542.494	7704.46
542.858	7731.8
543.223	7670.56
543.587	7694.29
543.952	7661.07
544.316	7738.36
544.681	7641.41
545.045	7701.52
545.41	7661.52
545.774	7633.05
546.138	7657
546.503	7656.32
546.867	7625.36
547.231	7675.98
547.595	7682.99
547.959	7717.57
548.324	7625.82
548.688	7646.83
549.052	7681.41
549.416	7642.31
549.779	7640.51
550.143	7611.58
550.507	7712.82
550.871	7654.97
551.235	7551.02
551.599	7591.24
551.962	7623.33
552.326	7572.48
552.689	7588.3
553.053	7597.12
553.417	7613.61
553.78	7615.2
554.143	7583.11
554.507	7558.25
554.87	7590.56
555.234	7628.98
555.597	7605.93
555.96	7605.48
556.323	7647.06
556.686	7641.64
557.05	7599.6
557.413	7638.7
557.776	7654.74
558.139	7634.18
558.502	7645.7
558.865	7660.17
559.228	7671.46
559.59	7685.93
559.953	7657
560.316	7641.86
560.679	7684.35
561.041	7715.76
561.404	7716.21
561.767	7748.53
562.129	7712.59
562.492	7825.36
562.854	7793.27
563.217	7762.08
563.579	7793.72
563.941	7812.48
564.304	7826.94
564.666	7853.16
565.028	7872.14
565.39	7884.57
565.753	7899.26
566.115	7923.89
566.477	7984.45
566.839	7958.46
567.201	8036.88
567.563	7973.83
567.925	8074.62
568.287	8068.06
568.648	8033.72
569.01	8034.85
569.372	8131.34
569.734	8059.25
570.095	8136.54
570.457	8179.25
570.819	8183.99
571.18	8166.59
571.542	8202.07
571.903	8198.68
572.265	8174.73
572.626	8226.7
572.987	8202.98
573.349	8305.35
573.71	8266.25
574.071	8299.92
574.432	8354.38
574.794	8344.44
575.155	8348.06
575.516	8293.14
575.877	8339.47
576.238	8388.73
576.599	8407.94
576.96	8409.98
577.32	8438.45
577.681	8463.99
578.042	8484.1
578.403	8521.16
578.763	8528.39
579.124	8485.23
579.485	8497.43
579.845	8545.34
580.206	8529.3
580.566	8559.35
580.927	8617.2
581.287	8605.68
581.648	8609.07
582.008	8694.49
582.368	8667.37
582.728	8682.06
583.089	8652.91
583.449	8669.63
583.809	8654.04
584.169	8716.41
584.529	8673.47
584.889	8749.85
585.249	8694.26
585.609	8699.69
585.969	8780.59
586.329	8728.16
586.688	8784.88
587.048	8739.23
587.408	8722.06
587.768	8809.74
588.127	8795.28
588.487	8820.36
588.846	8868.27
589.206	8791.89
589.565	8798.21
589.925	8937.42
590.284	8790.31
590.643	8775.84
591.003	8882.73
591.362	8944.65
591.721	8873.24
592.08	8929.06
592.44	8897.42
592.799	8932
593.158	8914.82
593.517	8911.21
593.876	8869.17
594.235	8917.99
594.593	8896.97
594.952	8984.2
595.311	8973.8
595.67	8991.2
596.029	8992.56
596.387	8957.08
596.746	9043.41
597.104	9001.83
597.463	8961.37
597.822	9054.93
598.18	8999.57
598.538	8988.72
598.897	9060.35
599.255	8987.81
599.613	9149.17
599.972	9028.04
600.33	9081.37
600.688	9004.31
601.046	8982.39
601.404	9133.35
601.762	9074.37
602.12	9121.37
602.478	9124.31
602.836	9102.16
603.194	9001.37
603.552	9086.34
603.91	9103.07
604.268	9090.64
604.625	9075.5
604.983	9084.08
605.341	9066
605.698	9163.63
606.056	9153.91
606.413	9147.81
606.771	9121.82
607.128	9222.16
607.485	9125.89
607.843	9090.86
608.2	9186.45
608.557	9143.29
608.914	9159.34
609.272	9187.81
609.629	9231.2
609.986	9211.09
610.343	9209.96
610.7	9200.69
611.057	9235.49
611.414	9236.17
611.771	9265.1
612.127	9324.98
612.484	9244.76
612.841	9346.9
613.198	9263.06
613.554	9253.8
613.911	9296.51
614.267	9368.14
614.624	9332.21
614.98	9295.83
615.337	9378.31
615.693	9337.64
616.05	9355.94
616.406	9391.87
616.762	9371.53
617.118	9364.53
617.475	9329.05
617.831	9364.3
618.187	9380.8
618.543	9365.66
618.899	9432.32
619.255	9482.94
619.611	9407.24
619.967	9468.93
620.323	9452.21
620.678	9479.33
621.034	9402.94
621.39	9420.12
621.746	9461.93
622.101	9526.56
622.457	9473.23
622.812	9482.26
623.168	9453.79
623.523	9533.56
623.879	9510.51
624.234	9403.85
624.589	9474.81
624.945	9494.69
625.3	9460.34
625.655	9510.06
626.01	9477.07
626.365	9469.38
626.72	9445.2
627.075	9454.02
627.43	9428.25
627.785	9413.79
628.14	9433.23
628.495	9537.4
628.85	9422.83
629.205	9340.12
629.559	9426.22
629.914	9412.21
630.269	9429.38
630.623	9438.2
630.978	9392.1
631.332	9388.71
631.687	9360.23
632.041	9381.02
632.396	9334.25
632.75	9304.42
633.104	9371.76
633.459	9284.53
633.813	9294.02
634.167	9327.92
634.521	9306.9
634.875	9285.89
635.229	9263.74
635.583	9154.59
635.937	9261.48
636.291	9216.96
636.645	9128.6
636.999	9190.52
637.352	9235.27
637.706	9134.7
638.06	9183.52
638.413	9193.91
638.767	9131.54
639.121	9173.35
639.474	9095.38
639.828	9136.06
640.181	9099.45
640.534	9102.16
640.888	9110.75
641.241	9066.68
641.594	9098.32
641.947	9113.69
642.301	9089.96
642.654	9098.77
643.007	9016.06
643.36	9056.29
643.713	8987.59
644.066	9073.69
644.419	9039.34
644.771	8925.22
645.124	8888.83
645.477	8826.91
645.83	8826.46
646.182	8777.65
646.535	8831.21
646.888	8741.04
647.24	8689.29
647.593	8754.83
647.945	8636.19
648.298	8684.32
648.65	8656.75
649.002	8645.68
649.355	8697.65
649.707	8660.59
650.059	8708.05
650.411	8815.84
650.763	8837.99
651.115	8957.53
651.467	8934.26
651.819	8926.35
652.171	8879.34
652.523	8904.88
652.875	8877.76
653.227	8794.6
653.578	8915.95
653.93	8836.63
654.282	8871.21
654.633	8819.91
654.985	8825.56
655.337	8841.15
655.688	8866.91
656.039	8861.04
656.391	8828.95
656.742	8833.02
657.094	8854.48
657.445	8848.61
657.796	8802.73
658.147	8808.84
658.498	8768.16
658.849	8928.83
659.2	8794.15
659.551	8836.41
659.902	8796.41
660.253	8861.04
660.604	8853.13
660.955	8823.75
661.306	8844.99
661.656	8860.59
662.007	8816.97
662.358	8876.63
662.708	8859.91
663.059	8849.97
663.409	8794.6
663.76	8797.99
664.11	8847.48
664.461	8843.41
664.811	8858.55
665.161	8865.33
665.511	8806.35
665.862	8842.06
666.212	8870.98
666.562	8865.56
666.912	8892.45
667.262	8803.64
667.612	8829.4
667.962	8879.12
668.312	8777.88
668.662	8820.59
669.011	8848.61
669.361	8809.74
669.711	8787.82
670.06	8837.54
670.41	8768.61
670.76	8757.99
671.109	8806.58
671.459	8858.33
671.808	8845.9
672.157	8788.27
672.507	8728.16
672.856	8763.19
673.205	8749.4
673.554	8757.31
673.904	8741.49
674.253	8813.58
674.602	8769.06
674.951	8629.18
675.3	8593.93
675.649	8750.53
675.998	8704.66
676.346	8713.92
676.695	8723.41
677.044	8709.4
677.393	8680.03
677.741	8668.73
678.09	8682.96
678.438	8653.13
678.787	8659.69
679.135	8623.08
679.484	8615.39
679.832	8578.33
680.181	8569.52
680.529	8574.94
680.877	8623.76
681.225	8577.88
681.573	8580.37
681.922	8539.69
682.27	8520.26
682.618	8554.38
682.966	8458.34
683.314	8526.58
683.661	8489.97
684.009	8412.46
684.357	8411.33
684.705	8350.09
685.053	8384.67
685.4	8347.15
685.748	8341.5
686.095	8341.05
686.443	8289.3
686.79	8237.1
687.138	8287.27
687.485	8257.21
687.832	8274.16
688.18	8258.79
688.527	8269.19
688.874	8190.1
689.221	8229.64
689.568	8160.04
689.915	8204.11
690.262	8144.9
690.609	8145.12
690.956	8011.79
691.303	8081.17
691.65	8057.67
691.997	8069.65
692.344	8031
692.69	7976.32
693.037	7954.4
693.383	7863.55
693.73	7949.2
694.077	7817
694.423	7835.98
694.769	7790.78
695.116	7713.5
695.462	7719.37
695.808	7738.81
696.155	7723.22
696.501	7675.98
696.847	7657.23
697.193	7559.15
697.539	7647.06
697.885	7577.68
698.231	7541.3
698.577	7504.01
698.923	7533.16
699.269	7454.3
699.614	7493.84
699.96	7393.05
700.306	7459.95
700.651	7413.84
700.997	7392.83
701.342	7375.88
701.688	7289.1
702.033	7284.13
702.379	7266.73
702.724	7318.03
703.069	7243.45
703.415	7217.24
703.76	7184.92
704.105	7197.35
704.45	7129.33
704.795	7099.28
705.14	7073.06
705.485	7050.92
705.83	7040.75
706.175	7033.52
706.52	7057.47
706.865	7018.6
707.209	6971.6
707.554	7017.02
707.899	6974.76
708.243	6911.26
708.588	6876.23
708.932	6837.59
709.277	6810.02
709.621	6864.48
709.966	6808.89
710.31	6818.61
710.654	6734.54
710.998	6749.68
711.342	6728.89
711.687	6753.97
712.031	6689.12
712.375	6702.68
712.719	6668.1
713.063	6660.19
713.407	6710.36
713.75	6685.5
714.094	6684.6
714.438	6623.81
714.782	6616.13
715.125	6583.81
715.469	6612.96
715.812	6537.71
716.156	6585.17
716.499	6576.13
716.843	6609.35
717.186	6516.24
717.53	6517.82
717.873	6515.79
718.216	6506.07
718.559	6528.9
718.902	6435.11
719.246	6533.42
719.589	6484.15
719.932	6518.95
720.275	6382.46
720.617	6478.73
720.96	6438.95
721.303	6454.1
721.646	6363.93
721.989	6384.49
722.331	6394.89
722.674	6435.34
723.016	6396.92
723.359	6386.75
723.701	6429.46
724.044	6280.54
724.386	6340.65
724.729	6389.92
725.071	6351.27
725.413	6356.7
725.755	6317.15
726.097	6317.6
726.439	6241.67
726.782	6315.79
727.124	6308.79
727.465	6267.43
727.807	6316.02
728.149	6289.81
728.491	6282.57
728.833	6273.76
729.175	6262.69
729.516	6314.89
729.858	6243.71
730.199	6250.03
730.541	6278.28
730.882	6247.32
731.224	6281.67
731.565	6232.63
731.906	6228.79
732.248	6280.99
732.589	6245.74
732.93	6199.19
733.271	6256.36
733.612	6233.54
733.953	6218.17
734.294	6220.2
734.635	6278.28
734.976	6226.53
735.317	6209.58
735.658	6203.48
735.999	6190.15
736.339	6191.5
736.68	6276.25
737.021	6168.45
737.361	6177.94
737.702	6198.96
738.042	6250.94
738.383	6198.06
738.723	6254.55
739.063	6143.37
739.404	6215.68
739.744	6225.85
740.084	6270.82
740.424	6252.52
740.764	6264.72
741.104	6249.13
741.444	6254.1
741.784	6210.71
742.124	6320.09
742.464	6307.66
742.804	6305.85
743.143	6343.82
743.483	6329.35
743.823	6330.48
744.162	6346.3
744.502	6406.41
744.841	6361.22
745.181	6447.54
745.52	6396.7
745.86	6473.98
746.199	6402.35
746.538	6449.35
746.877	6551.49
747.216	6561.21
747.556	6551.95
747.895	6534.09
748.234	6572.74
748.573	6614.77
748.911	6638.05
749.25	6683.24
749.589	6719.63
749.928	6790.36
750.267	6786.29
750.605	6854.99
750.944	6912.61
751.283	6882.56
751.621	7014.08
751.96	7044.81
752.298	7029.67
752.636	7150.8
752.975	7137.92
753.313	7199.39
753.651	7348.76
753.989	7363.45
754.327	7389.66
754.666	7438.02
755.004	7524.12
755.342	7610.22
755.679	7686.61
756.017	7752.82
756.355	7835.98
756.693	7904
757.031	8033.94
757.368	8092.7
757.706	8168.18
758.044	8227.16
758.381	8365.91
758.719	8473.7
759.056	8522.06
759.394	8606.36
759.731	8655.62
760.068	8765.9
760.405	8772.9
760.743	8926.8
761.08	9013.35
761.417	9116.85
761.754	9237.98
762.091	9320.46
762.428	9370.18
762.765	9456.73
763.102	9600
763.438	9643.84
763.775	9661.7
764.112	9796.15
764.449	9920.45
764.785	9969.26
765.122	10023.27
765.458	10068.01
765.795	10180.1
766.131	10292.41
766.467	10378.06
766.804	10368.8
767.14	10430.04
767.476	10607.21
767.812	10583.7
768.148	10749.35
768.485	10690.82
768.821	10807.65
769.157	10819.18
769.492	10945.73
769.828	10980.53
770.164	10987.99
