Data from hue_260_FLMS001491_00077.txt Node
Date: Tue Feb 07 15:59:34 GMT 2017
User: dcchb
Spectrometer: FLMS00149
Trigger mode: 0
Integration Time (sec): 2.000000E-2
Scans to average: 10
Electric dark correction enabled: true
Nonlinearity correction enabled: false
Boxcar width: 0
XAxis mode: Wavelengths
Number of Pixels in Spectrum: 2048
>>>>>Begin Spectral Data<<<<<
341.393	-24.58
341.776	-24.58
342.16	-24.58
342.543	-62.09
342.927	-65.03
343.31	-79.49
343.693	-60.51
344.077	-69.77
344.46	-62.99
344.843	-70.68
345.226	-55.76
345.61	-18.7
345.993	-37
346.376	8.87
346.759	18.59
347.142	38.25
347.525	53.39
347.908	69.43
348.291	79.83
348.674	94.97
349.057	91.58
349.44	142.43
349.823	144.23
350.206	157.34
350.588	180.16
350.971	205.7
351.354	222.88
351.737	221.52
352.119	235.3
352.502	243.89
352.884	267.85
353.267	253.38
353.65	273.95
354.032	293.83
354.414	291.8
354.797	293.38
355.179	292.7
355.562	317.56
355.944	333.38
356.326	314.85
356.709	338.13
357.091	331.8
357.473	341.29
357.855	338.8
358.238	338.58
358.62	335.19
359.002	335.19
359.384	323.66
359.766	329.54
360.148	328.41
360.53	340.16
360.912	324.79
361.294	320.27
361.676	324.12
362.057	311.69
362.439	334.28
362.821	324.12
363.203	314.17
363.584	309.88
363.966	312.82
364.348	304.91
364.729	315.98
365.111	318.01
365.493	321.18
365.874	304
366.256	307.62
366.637	306.94
367.019	299.94
367.4	300.61
367.781	316.43
368.163	294.06
368.544	317.34
368.925	297.68
369.306	301.74
369.688	302.42
370.069	295.87
370.45	303.33
370.831	318.24
371.212	300.61
371.593	315.3
371.974	306.04
372.355	314.17
372.736	295.42
373.117	321.63
373.498	315.75
373.879	306.94
374.26	311.23
374.641	311.46
375.021	298.58
375.402	313.27
375.783	304
376.163	326.83
376.544	331.8
376.925	310.56
377.305	308.97
377.686	334.06
378.066	344.91
378.447	334.06
378.827	323.89
379.208	307.39
379.588	329.77
379.968	331.57
380.349	311.91
380.729	333.16
381.109	339.93
381.489	325.25
381.87	318.92
382.25	339.71
382.63	342.65
383.01	332.48
383.39	360.5
383.77	340.16
384.15	361.85
384.53	346.94
384.91	350.33
385.29	349.2
385.67	325.7
386.049	329.54
386.429	361.18
386.809	342.42
387.189	344.23
387.568	347.17
387.948	331.57
388.328	369.76
388.707	344.45
389.087	359.14
389.466	361.85
389.846	339.26
390.225	348.3
390.605	355.98
390.984	355.53
391.363	365.24
391.743	375.64
392.122	371.8
392.501	373.83
392.881	381.06
393.26	379.03
393.639	366.6
394.018	373.38
394.397	380.16
394.776	358.24
395.155	379.71
395.534	382.19
395.913	387.84
396.292	405.02
396.671	388.52
397.05	390.1
397.429	396.88
397.808	393.49
398.186	399.37
398.565	399.59
398.944	399.59
399.323	412.7
399.701	398.01
400.08	410.67
400.458	414.06
400.837	426.26
401.215	430.33
401.594	413.15
401.972	419.93
402.351	428.97
402.729	434.62
403.107	431.01
403.486	409.09
403.864	431.91
404.242	438.24
404.62	442.98
404.999	426.71
405.377	448.86
405.755	444.79
406.133	451.57
406.511	455.86
406.889	476.43
407.267	473.49
407.645	469.87
408.023	484.79
408.401	484.34
408.779	485.92
409.156	504.68
409.534	489.31
409.912	508.52
410.29	513.04
410.667	508.07
411.045	518.23
411.422	525.01
411.8	529.76
412.178	527.5
412.555	555.52
412.933	585.35
413.31	552.13
413.687	560.72
414.065	593.94
414.442	566.37
414.819	570.21
415.197	578.57
415.574	583.77
415.951	631.9
416.328	615.41
416.705	615.63
417.082	613.6
417.46	649.98
417.837	639.14
418.214	635.07
418.591	642.07
418.967	659.7
419.344	651.56
419.721	689.98
420.098	669.87
420.475	655.63
420.852	687.27
421.228	717.78
421.605	690.43
421.982	730.66
422.358	743.99
422.735	733.37
423.111	747.16
423.488	757.55
423.864	769.08
424.241	777.21
424.617	779.92
424.994	810.2
425.37	821.96
425.746	827.83
426.123	832.58
426.499	818.79
426.875	853.59
427.251	892.91
427.627	877.55
428.003	879.13
428.379	871.67
428.756	903.08
429.132	930.2
429.507	949.64
429.883	937.43
430.259	974.49
430.635	973.14
431.011	971.33
431.387	965.68
431.763	991.22
432.138	995.74
432.514	1031.22
432.89	1025.79
433.265	1066.7
433.641	1064.89
434.016	1063.98
434.392	1085
434.767	1141.27
435.143	1130.87
435.518	1149.18
435.894	1147.14
436.269	1179.46
436.644	1205.9
437.02	1200.25
437.395	1214.04
437.77	1237.76
438.145	1274.15
438.52	1284.54
438.895	1299.46
439.271	1309.4
439.646	1341.26
440.021	1369.06
440.395	1369.96
440.77	1352.34
441.145	1377.87
441.52	1399.79
441.895	1397.76
442.27	1434.82
442.645	1447.02
443.019	1440.47
443.394	1452.22
443.769	1469.4
444.143	1468.49
444.518	1517.08
444.892	1474.14
445.267	1519.79
445.641	1526.57
446.016	1553.69
446.39	1549.17
446.764	1540.35
447.139	1552.33
447.513	1608.6
447.887	1602.05
448.262	1579.68
448.636	1604.99
449.01	1620.13
449.384	1651.31
449.758	1654.25
450.132	1701.03
450.506	1680.92
450.88	1691.54
451.254	1722.72
451.628	1723.18
452.002	1721.82
452.376	1723.85
452.75	1786.45
453.123	1767.92
453.497	1767.02
453.871	1818.77
454.244	1846.79
454.618	1842.72
454.992	1844.75
455.365	1915.03
455.739	1929.27
456.112	1922.04
456.486	1973.11
456.859	1974.69
457.232	1969.72
457.606	1976.73
457.979	2000.46
458.352	2037.97
458.725	2073.9
459.099	2050.85
459.472	2073.67
459.845	2157.51
460.218	2152.77
460.591	2139.89
460.964	2173.11
461.337	2197.51
461.71	2254.69
462.083	2276.38
462.456	2261.01
462.829	2281.35
463.201	2313.44
463.574	2327.68
463.947	2369.03
464.32	2399.09
464.692	2435.92
465.065	2429.15
465.438	2458.07
465.81	2480.44
466.183	2503.04
466.555	2555.47
466.928	2585.3
467.3	2549.37
467.672	2577.62
468.045	2659.42
468.417	2687.22
468.789	2682.25
469.161	2718.86
469.534	2758.85
469.906	2807.67
470.278	2822.36
470.65	2821
471.022	2919.3
471.394	2914.78
471.766	2979.64
472.138	3009.24
472.51	3045.17
472.882	3101.22
473.253	3104.16
473.625	3117.49
473.997	3206.53
474.369	3203.36
474.74	3222.8
475.112	3325.17
475.484	3330.36
475.855	3369.91
476.227	3406.07
476.598	3494.2
476.97	3513.41
477.341	3579.4
477.713	3614.2
478.084	3657.14
478.455	3728.32
478.827	3756.57
479.198	3822.33
479.569	3850.12
479.94	3965.15
480.311	3992.72
480.682	4042.21
481.053	4111.13
481.424	4162.66
481.795	4210.57
482.166	4266.16
482.537	4287.63
482.908	4402.2
483.279	4440.84
483.65	4537.34
484.021	4537.11
484.391	4609.2
484.762	4641.06
485.133	4688.07
485.503	4734.62
485.874	4791.12
486.244	4803.55
486.615	4887.39
486.985	4948.63
487.356	4985.91
487.726	5050.09
488.097	5140.03
488.467	5166.02
488.837	5234.72
489.207	5288.51
489.578	5346.81
489.948	5394.49
490.318	5435.39
490.688	5432.46
491.058	5534.37
491.428	5549.52
491.798	5633.58
492.168	5751.09
492.538	5690.98
492.908	5808.94
493.278	5815.04
493.648	5851.43
494.017	5909.96
494.387	5904.31
494.757	5993.12
495.126	6017.3
495.496	6057.98
495.866	6123.74
496.235	6144.75
496.605	6228.37
496.974	6171.87
497.344	6274.47
497.713	6294.13
498.082	6367.57
498.452	6368.25
498.821	6359.89
499.19	6373.9
499.559	6471.98
499.928	6479.89
500.298	6476.95
500.667	6549.04
501.036	6494.35
501.405	6576.38
501.774	6551.75
502.143	6635.59
502.512	6647.34
502.88	6665.87
503.249	6654.57
503.618	6638.07
503.987	6729.37
504.356	6745.19
504.724	6791.29
505.093	6809.59
505.462	6845.98
505.83	6884.62
506.199	6887.11
506.567	6961.91
506.936	6899.08
507.304	6960.33
507.672	6973.21
508.041	7022.92
508.409	7002.36
508.777	7120.55
509.145	7121.68
509.514	7072.86
509.882	7143.82
510.25	7139.08
510.618	7192.18
510.986	7148.57
511.354	7207.55
511.722	7267.89
512.09	7313.99
512.458	7229.92
512.826	7274.89
513.193	7274.22
513.561	7292.52
513.929	7337.04
514.297	7417.94
514.664	7351.5
515.032	7345.85
515.4	7432.18
515.767	7437.15
516.135	7426.3
516.502	7347.21
516.869	7504.04
517.237	7470.82
517.604	7453.87
517.972	7529.12
518.339	7544.04
518.706	7502.68
519.073	7619.52
519.44	7561.21
519.808	7642.12
520.175	7577.26
520.542	7678.27
520.909	7660.19
521.276	7686.18
521.643	7690.48
522.009	7695.45
522.376	7756.69
522.743	7758.72
523.11	7834.65
523.477	7842.34
523.843	7815.67
524.21	7912.62
524.577	7937.02
524.943	7951.03
525.31	7893.41
525.676	7947.87
526.043	7975.67
526.409	7973.18
526.776	8022.9
527.142	8022.9
527.508	8061.77
527.874	8083.69
528.241	8134.31
528.607	8010.69
528.973	8121.42
529.339	8069.9
529.705	8094.76
530.071	8129.56
530.437	8209.11
530.803	8158.49
531.169	8132.27
531.535	8172.27
531.901	8200.97
532.267	8152.84
532.632	8204.81
532.998	8137.02
533.364	8221.99
533.73	8178.82
534.095	8203.91
534.461	8208.88
534.826	8203.68
535.192	8240.52
535.557	8230.8
535.923	8174.53
536.288	8245.94
536.653	8165.27
537.019	8140.18
537.384	8144.25
537.749	8163.91
538.114	8188.77
538.479	8167.98
538.845	8213.63
539.21	8152.16
539.575	8139.73
539.94	8117.36
540.305	8187.64
540.67	8181.54
541.034	8140.63
541.399	8177.92
541.764	8193.06
542.129	8183.8
542.494	8113.74
542.858	8154.42
543.223	8096.57
543.587	8117.13
543.952	8171.82
544.316	8056.79
544.681	8096.57
545.045	8099.28
545.41	8150.35
545.774	8168.43
546.138	8098.15
546.503	8107.64
546.867	8092.5
547.231	8106.96
547.595	8122.55
547.959	8087.98
548.324	8094.08
548.688	8064.7
549.052	8056.12
549.416	8078.71
549.779	8016.34
550.143	8053.86
550.507	8041.88
550.871	8036.68
551.235	8007.08
551.599	8098.6
551.962	8069.67
552.326	8072.61
552.689	8065.16
553.053	8009.11
553.417	7997.13
553.78	8116.45
554.143	8044.36
554.507	8054.31
554.87	8024.7
555.234	8113.52
555.597	7993.07
555.96	8105.15
556.323	8060.64
556.686	8059.96
557.05	8153.29
557.413	8083.91
557.776	8148.54
558.139	8133.18
558.502	8096.34
558.865	8111.93
559.228	8142.89
559.59	8165.04
559.953	8157.58
560.316	8196.45
560.679	8172.95
561.041	8191.48
561.404	8246.17
561.767	8237.35
562.129	8200.97
562.492	8340.85
562.854	8285.94
563.217	8271.93
563.579	8298.82
563.941	8358.71
564.304	8326.17
564.666	8407.07
565.028	8367.07
565.39	8402.77
565.753	8445.48
566.115	8395.09
566.477	8472.38
566.839	8534.07
567.201	8504.92
567.563	8526.84
567.925	8580.62
568.287	8603.45
568.648	8560.96
569.01	8587.85
569.372	8660.62
569.734	8598.02
570.095	8649.77
570.457	8664.46
570.819	8709.66
571.18	8732.48
571.542	8728.87
571.903	8742.88
572.265	8748.75
572.626	8807.28
572.987	8820.84
573.349	8893.16
573.71	8875.3
574.071	8872.59
574.432	8870.78
574.794	8927.73
575.155	8947.17
575.516	8949.65
575.877	8978.35
576.238	8956.66
576.599	9036.88
576.96	9045.69
577.32	9058.12
577.681	9058.35
578.042	9094.05
578.403	9068.07
578.763	9125.69
579.124	9124.34
579.485	9198.23
579.845	9232.13
580.206	9216.54
580.566	9293.6
580.927	9272.81
581.287	9330.21
581.648	9267.84
582.008	9363.2
582.368	9259.7
582.728	9421.73
583.089	9339.47
583.449	9321.62
583.809	9331.79
584.169	9379.7
584.529	9443.42
584.889	9448.85
585.249	9396.65
585.609	9456.76
585.969	9436.19
586.329	9487.72
586.688	9525.23
587.048	9487.72
587.408	9442.97
587.768	9501.05
588.127	9480.49
588.487	9501.73
588.846	9594.83
589.206	9636.19
589.565	9596.19
589.925	9638.22
590.284	9559.58
590.643	9605.91
591.003	9661.05
591.362	9639.13
591.721	9681.16
592.08	9710.08
592.44	9746.92
592.799	9649.52
593.158	9761.83
593.517	9705.34
593.876	9737.65
594.235	9731.1
594.593	9754.15
594.952	9810.87
595.311	9781.04
595.67	9783.53
596.029	9845.22
596.387	9800.02
596.746	9891.55
597.104	9826.46
597.463	9869.18
597.822	9842.51
598.18	9891.1
598.538	9861.72
598.897	9940.36
599.255	9845.67
599.613	9991.43
599.972	9973.35
600.33	9976.97
600.688	9915.28
601.046	9969.29
601.404	9944.2
601.762	10000.7
602.12	10030.98
602.478	9981.26
602.836	9998.44
603.194	9967.48
603.552	9978.55
603.91	9964.09
604.268	10010.64
604.625	10005.22
604.983	10028.95
605.341	9911.66
605.698	9996.4
606.056	10070.75
606.413	10023.97
606.771	10066.46
607.128	10131.54
607.485	10007.93
607.843	10010.19
608.2	10071.88
608.557	10128.38
608.914	10075.72
609.272	10159.11
609.629	10113.69
609.986	10207.92
610.343	10131.77
610.7	10219.45
611.057	10229.62
611.414	10161.15
611.771	10219.45
612.127	10202.95
612.484	10124.99
612.841	10183.07
613.198	10278.66
613.554	10262.16
613.911	10303.29
614.267	10262.16
614.624	10287.7
614.98	10201.14
615.337	10336.28
615.693	10320.92
616.05	10256.51
616.406	10381.93
616.762	10326.11
617.118	10303.51
617.475	10310.97
617.831	10389.61
618.187	10333.12
618.543	10374.92
618.899	10438.2
619.255	10431.42
619.611	10425.09
619.967	10394.36
620.323	10402.49
620.678	10435.71
621.034	10402.72
621.39	10401.82
621.746	10369.05
622.101	10465.09
622.457	10389.16
622.812	10393.91
623.168	10480.68
623.523	10474.13
623.879	10421.7
624.234	10404.75
624.589	10433.45
624.945	10374.92
625.3	10407.01
625.655	10452.89
626.01	10398.65
626.365	10362.5
626.72	10386.9
627.075	10400.01
627.43	10447.69
627.785	10388.03
628.14	10348.71
628.495	10357.07
628.85	10381.48
629.205	10342.61
629.559	10433.45
629.914	10335.6
630.269	10366.79
630.623	10379.44
630.978	10315.04
631.332	10292.67
631.687	10364.76
632.041	10325.66
632.396	10344.19
632.75	10239.11
633.104	10374.92
633.459	10196.4
633.813	10228.26
634.167	10274.81
634.521	10237.08
634.875	10303.51
635.229	10188.49
635.583	10231.88
635.937	10144.2
636.291	10195.72
636.645	10159.11
636.999	10148.26
637.352	10164.31
637.706	10067.36
638.06	10162.73
638.413	10045.67
638.767	10100.81
639.121	10122.73
639.474	10011.32
639.828	10004.99
640.181	9981.26
640.534	10015.61
640.888	10044.54
641.241	9996.63
641.594	9977.65
641.947	10033.46
642.301	9964.09
642.654	9927.25
643.007	10046.8
643.36	10017.19
643.713	10023.07
644.066	9987.14
644.419	9938.78
644.771	9882.73
645.124	9805.22
645.477	9797.76
645.83	9667.15
646.182	9666.92
646.535	9587.6
646.888	9600.03
647.24	9574.49
647.593	9669.41
647.945	9626.47
648.298	9595.06
648.65	9542.18
649.002	9501.28
649.355	9630.99
649.707	9584.66
650.059	9630.09
650.411	9724.32
650.763	9741.95
651.115	9799.8
651.467	9806.35
651.819	9782.4
652.171	9748.27
652.523	9685
652.875	9736.07
653.227	9813.13
653.578	9787.82
653.93	9799.12
654.282	9708.73
654.633	9718.45
654.985	9771.32
655.337	9801.83
655.688	9819.23
656.039	9814.71
656.391	9734.26
656.742	9800.02
657.094	9750.08
657.445	9850.64
657.796	9864.66
658.147	9802.06
658.498	9803.19
658.849	9823.75
659.2	9821.04
659.551	9799.35
659.902	9813.58
660.253	9790.76
660.604	9845.45
660.955	9733.36
661.306	9791.21
661.656	9851.32
662.007	9807.26
662.358	9824.2
662.708	9792.12
663.059	9768.39
663.409	9736.3
663.76	9858.78
664.11	9801.61
664.461	9773.13
664.811	9837.99
665.161	9811.55
665.511	9714.6
665.862	9810.42
666.212	9822.17
666.562	9854.49
666.912	9820.36
667.262	9808.39
667.612	9835.96
667.962	9742.63
668.312	9705.11
668.662	9858.55
669.011	9748.5
669.361	9723.64
669.711	9838.22
670.06	9726.81
670.41	9722.29
670.76	9736.75
671.109	9724.32
671.459	9769.97
671.808	9699.91
672.157	9740.59
672.507	9627.37
672.856	9662.63
673.205	9644.77
673.554	9743.98
673.904	9679.12
674.253	9650.65
674.602	9670.76
674.951	9551.67
675.3	9499.02
675.649	9644.55
675.998	9702.17
676.346	9641.84
676.695	9645.9
677.044	9585.34
677.393	9636.41
677.741	9595.28
678.09	9550.99
678.438	9549.86
678.787	9546.7
679.135	9570.2
679.484	9486.13
679.832	9536.98
680.181	9462.63
680.529	9554.38
680.877	9500.37
681.225	9495.85
681.573	9510.09
681.922	9411.79
682.27	9382.41
682.618	9452.92
682.966	9392.13
683.314	9452.01
683.661	9340.83
684.009	9400.49
684.357	9287.95
684.705	9310.77
685.053	9302.86
685.4	9243.2
685.748	9169.98
686.095	9233.03
686.443	9189.65
686.79	9084.34
687.138	9132.47
687.485	9182.87
687.832	9163.21
688.18	9090.89
688.527	9092.25
688.874	9036.88
689.221	9059.25
689.568	9009.09
689.915	9006.83
690.262	8984.45
690.609	8947.84
690.956	8880.27
691.303	8901.52
691.65	8888.64
691.997	8866.72
692.344	8746.72
692.69	8742.43
693.037	8787.62
693.383	8708.3
693.73	8703.33
694.077	8633.73
694.423	8674.86
694.769	8645.03
695.116	8619.04
695.462	8602.09
695.808	8527.74
696.155	8570.9
696.501	8532.49
696.847	8478.93
697.193	8400.29
697.539	8393.73
697.885	8368.42
698.231	8395.99
698.577	8326.62
698.923	8256.34
699.269	8219.95
699.614	8177.02
699.96	8178.6
700.306	8190.8
700.651	8153.06
700.997	8111.03
701.342	8125.27
701.688	8088.21
702.033	8019.73
702.379	8083.01
702.724	7948.1
703.069	7984.93
703.415	7883.47
703.76	7878.49
704.105	7870.58
704.45	7927.08
704.795	7815.22
705.14	7818.61
705.485	7835.1
705.83	7800.3
706.175	7768.67
706.52	7738.16
706.865	7707.65
707.209	7672.62
707.554	7630.59
707.899	7656.58
708.243	7621.1
708.588	7629.01
708.932	7535.23
709.277	7536.36
709.621	7527.09
709.966	7470.37
710.31	7587.65
710.654	7450.71
710.998	7430.6
711.342	7422.23
711.687	7400.09
712.031	7418.84
712.375	7372.97
712.719	7322.8
713.063	7351.5
713.407	7370.71
713.75	7313.08
714.094	7301.33
714.438	7324.61
714.782	7326.64
715.125	7250.04
715.469	7315.12
715.812	7251.84
716.156	7251.17
716.499	7235.8
716.843	7256.59
717.186	7200.09
717.53	7190.15
717.873	7153.54
718.216	7173.65
718.559	7108.57
718.902	7119.42
719.246	7070.15
719.589	7099.53
719.932	7095.92
720.275	7062.47
720.617	7084.16
720.96	7099.08
721.303	7064.5
721.646	6990.61
721.989	7071.06
722.331	7047.1
722.674	6993.09
723.016	7043.04
723.359	7033.77
723.701	7017.95
724.044	6983.15
724.386	6935.24
724.729	7001
725.071	6958.52
725.413	6982.92
725.755	6975.92
726.097	6942.92
726.439	6890.5
726.782	6931.85
727.124	6944.05
727.465	6896.15
727.807	6885.75
728.149	6900.21
728.491	6886.2
728.833	6942.02
729.175	6904.28
729.516	6828.8
729.858	6860.22
730.199	6919.87
730.541	6859.99
730.882	6899.99
731.224	6875.36
731.565	6870.16
731.906	6800.78
732.248	6891.85
732.589	6865.64
732.93	6799.65
733.271	6830.39
733.612	6860.67
733.953	6877.84
734.294	6824.06
734.635	6756.71
734.976	6844.4
735.317	6843.27
735.658	6820.22
735.999	6835.13
736.339	6849.37
736.68	6811.63
737.021	6867.22
737.361	6758.3
737.702	6883.27
738.042	6822.02
738.383	6799.88
738.723	6801.91
739.063	6781.12
739.404	6846.66
739.744	6862.47
740.084	6803.04
740.424	6838.52
740.764	6838.75
741.104	6914.22
741.444	6865.86
741.784	6856.83
742.124	6895.69
742.464	6909.71
742.804	6936.6
743.143	6898.63
743.483	6945.18
743.823	6956.03
744.162	6918.29
744.502	6939.99
744.841	6982.7
745.181	7008.91
745.52	7054.79
745.86	7084.16
746.199	7108.57
746.538	7091.17
746.877	7192.86
747.216	7190.38
747.556	7188.34
747.895	7286.19
748.234	7283.25
748.573	7250.49
748.911	7375.46
749.25	7358.96
749.589	7428.11
749.928	7468.33
750.267	7519.63
750.605	7619.07
750.944	7640.76
751.283	7659.52
751.621	7727.54
751.96	7763.69
752.298	7900.41
752.636	7900.64
752.975	7994.87
753.313	8059.28
753.651	8170.01
753.989	8267.18
754.327	8309.22
754.666	8366.39
755.004	8453.62
755.342	8547.4
755.679	8611.13
756.017	8645.48
756.355	8859.26
756.693	8920.73
757.031	9045.69
757.368	9094.28
757.706	9282.3
758.044	9346.03
758.381	9529.07
758.719	9585.12
759.056	9734.94
759.394	9823.53
759.731	9926.12
760.068	10061.26
760.405	10171.77
760.743	10297.86
761.08	10454.47
761.417	10488.14
761.754	10736.05
762.091	10774.69
762.428	10881.35
762.765	10986.89
763.102	11143.94
763.438	11252.42
763.775	11371.96
764.112	11541.9
764.449	11704.38
764.785	11776.47
765.122	11863.25
765.458	11987.31
765.795	12107.31
766.131	12290.81
766.467	12343.01
766.804	12356.57
