Data from hue_160_FLMS001491_00053.txt Node
Date: Tue Feb 07 16:51:22 GMT 2017
User: dcchb
Spectrometer: FLMS00149
Trigger mode: 0
Integration Time (sec): 2.000000E-2
Scans to average: 10
Electric dark correction enabled: true
Nonlinearity correction enabled: false
Boxcar width: 0
XAxis mode: Wavelengths
Number of Pixels in Spectrum: 2048
>>>>>Begin Spectral Data<<<<<
341.393	-39.82
341.776	-39.82
342.16	-39.82
342.543	-57.44
342.927	-63.09
343.31	-73.94
343.693	-79.14
344.077	-58.8
344.46	-71
344.843	-61.96
345.226	-35.75
345.61	-29.87
345.993	2.22
346.376	9
346.759	9.45
347.142	39.96
347.525	40.18
347.908	39.96
348.291	55.32
348.674	87.64
349.057	126.73
349.44	117.02
349.823	139.84
350.206	150.01
350.588	186.17
350.971	208.77
351.354	232.72
351.737	214.87
352.119	228.2
352.502	271.81
352.884	279.05
353.267	306.39
353.65	299.16
354.032	314.53
354.414	323.11
354.797	297.35
355.179	285.15
355.562	306.62
355.944	303.23
356.326	320.18
356.709	315.88
357.091	343.9
357.473	338.48
357.855	339.61
358.238	320.63
358.62	304.81
359.002	320.85
359.384	358.59
359.766	333.51
360.148	340.06
360.53	331.7
360.912	342.32
361.294	363.34
361.676	338.93
362.057	332.38
362.439	335.54
362.821	314.07
363.203	316.33
363.584	310.91
363.966	299.38
364.348	318.14
364.729	322.89
365.111	308.88
365.493	295.54
365.874	328.76
366.256	299.38
366.637	306.16
367.019	316.56
367.4	326.95
367.781	297.35
368.163	320.63
368.544	304.81
368.925	319.27
369.306	328.76
369.688	307.97
370.069	302.77
370.45	307.29
370.831	304.36
371.212	320.85
371.593	301.19
371.974	325.6
372.355	331.02
372.736	319.95
373.117	305.71
373.498	310.91
373.879	310.01
374.26	328.08
374.641	312.72
375.021	328.76
375.402	320.4
375.783	297.35
376.163	323.79
376.544	320.85
376.925	322.66
377.305	309.78
377.686	307.29
378.066	310.91
378.447	318.37
378.827	322.44
379.208	314.98
379.588	350.68
379.968	339.16
380.349	312.27
380.729	317.46
381.109	353.62
381.489	330.8
381.87	320.63
382.25	347.07
382.63	308.42
383.01	331.25
383.39	347.29
383.77	340.29
384.15	337.58
384.53	362.89
384.91	341.64
385.29	343.9
385.67	342.55
386.049	339.38
386.429	347.97
386.809	331.7
387.189	357.24
387.568	349.33
387.948	363.56
388.328	343
388.707	351.13
389.087	374.41
389.466	358.82
389.846	352.04
390.225	337.12
390.605	363.11
390.984	335.54
391.363	353.17
391.743	345.03
392.122	361.76
392.501	355.2
392.881	382.55
393.26	366.95
393.639	358.82
394.018	377.8
394.397	360.63
394.776	346.62
395.155	375.09
395.534	372.6
395.913	385.48
396.292	387.07
396.671	364.47
397.05	380.96
397.429	376.44
397.808	374.64
398.186	404.92
398.565	394.3
398.944	359.04
399.323	391.59
399.701	396.11
400.08	425.26
400.458	377.8
400.837	402.43
401.215	393.17
401.594	392.49
401.972	413.51
402.351	388.87
402.729	406.27
403.107	432.04
403.486	416.22
403.864	404.69
404.242	390.91
404.62	393.85
404.999	409.44
405.377	422.09
405.755	424.58
406.133	426.84
406.511	408.99
406.889	429.1
407.267	438.59
407.645	443.11
408.023	418.48
408.401	411.92
408.779	444.47
409.156	430.23
409.534	445.14
409.912	429.55
410.29	466.61
410.667	439.04
411.045	472.94
411.422	455.54
411.8	444.01
412.178	479.72
412.555	472.71
412.933	472.49
413.31	463.9
413.687	465.03
414.065	491.24
414.442	475.2
414.819	471.36
415.197	501.64
415.574	509.77
415.951	487.85
416.328	470.23
416.705	506.16
417.082	498.48
417.46	493.5
417.837	500.51
418.214	512.94
418.591	519.04
418.967	481.98
419.344	518.36
419.721	534.86
420.098	521.53
420.475	501.64
420.852	538.25
421.228	521.07
421.605	535.08
421.982	548.19
422.358	541.19
422.735	541.86
423.111	543.22
423.488	543.67
423.864	580.51
424.241	578.25
424.617	575.99
424.994	593.39
425.37	569.66
425.746	563.78
426.123	581.86
426.499	582.09
426.875	590.45
427.251	617.79
427.627	583.9
428.003	616.44
428.379	615.31
428.756	614.18
429.132	634.29
429.507	630.45
429.883	617.79
430.259	622.77
430.635	629.77
431.011	634.97
431.387	650.34
431.763	663.67
432.138	669.54
432.514	663.22
432.89	693.5
433.265	680.39
433.641	678.36
434.016	694.63
434.392	713.84
434.767	696.21
435.143	722.65
435.518	731.01
435.894	728.07
436.269	745.47
436.644	750.9
437.02	750.67
437.395	751.35
437.77	758.58
438.145	795.87
438.52	766.72
438.895	780.73
439.271	774.17
439.646	780.95
440.021	789.54
440.395	815.98
440.77	824.12
441.145	805.81
441.52	830.67
441.895	841.74
442.27	841.74
442.645	840.61
443.019	825.92
443.394	855.53
443.769	846.49
444.143	852.14
444.518	865.7
444.892	870.44
445.267	869.99
445.641	885.81
446.016	888.97
446.39	891.23
446.764	910.67
447.139	869.54
447.513	914.28
447.887	917.22
448.262	930.78
448.636	913.15
449.01	939.37
449.384	968.07
449.758	930.78
450.132	946.83
450.506	955.19
450.88	956.32
451.254	961.29
451.628	985.47
452.002	994.28
452.376	1009.2
452.75	1015.75
453.123	1008.74
453.497	1032.02
453.871	1027.05
454.244	1015.98
454.618	1052.59
454.992	1069.76
455.365	1089.19
455.739	1079.25
456.112	1133.26
456.486	1121.06
456.859	1127.39
457.232	1142.07
457.606	1149.53
457.979	1170.1
458.352	1186.59
458.725	1199.7
459.099	1225.46
459.472	1242.41
459.845	1241.05
460.218	1279.47
460.591	1253.26
460.964	1272.69
461.337	1329.64
461.71	1322.18
462.083	1341.84
462.456	1352.24
462.829	1325.8
463.201	1394.05
463.574	1398.79
463.947	1427.72
464.32	1436.53
464.692	1424.33
465.065	1494.38
465.438	1502.52
465.81	1515.85
466.183	1540.48
466.555	1575.28
466.928	1568.28
467.3	1604.21
467.672	1596.98
468.045	1681.5
468.417	1627.26
468.789	1721.49
469.161	1747.71
469.534	1751.32
469.906	1768.27
470.278	1813.24
470.65	1867.03
471.022	1869.29
471.394	1931.88
471.766	1952.45
472.138	1947.25
472.51	2063.18
472.882	2090.07
473.253	2103.63
473.625	2114.7
473.997	2228.37
474.369	2221.82
474.74	2285.1
475.112	2310.86
475.484	2412.1
475.855	2434.24
476.227	2490.97
476.598	2552.66
476.97	2606.22
477.341	2690.73
477.713	2752.65
478.084	2806.89
478.455	2897.06
478.827	2937.73
479.198	3108.8
479.569	3095.7
479.94	3243.26
480.311	3266.99
480.682	3389.92
481.053	3458.17
481.424	3557.83
481.795	3603.48
482.166	3703.82
482.537	3825.62
482.908	3942.9
483.279	4006.86
483.65	4101.09
484.021	4239.39
484.391	4312.84
484.762	4399.84
485.133	4524.81
485.503	4643.45
485.874	4775.65
486.244	4846.38
486.615	4930.22
486.985	5098.81
487.356	5230.1
487.726	5341.06
488.097	5479.14
488.467	5522.98
488.837	5736.3
489.207	5859.46
489.578	6026.24
489.948	6129.29
490.318	6303.29
490.688	6373.35
491.058	6525.44
491.428	6656.28
491.798	6734.92
492.168	6935.37
492.538	7016.27
492.908	7122.48
493.278	7283.16
493.648	7406.54
494.017	7535.8
494.387	7658.29
494.757	7773.09
495.126	7900.31
495.496	7983.93
495.866	8122.68
496.235	8216.46
496.605	8363.13
496.974	8484.48
497.344	8528.32
497.713	8656.68
498.082	8760.63
498.452	8921.3
498.821	8964.24
499.19	9016.44
499.559	9126.95
499.928	9264.35
500.298	9307.74
500.667	9461.63
501.036	9565.13
501.405	9608.07
501.774	9620.72
502.143	9784.79
502.512	9791.79
502.88	10009.19
503.249	10005.8
503.618	10022.97
503.987	10144.1
504.356	10249.41
504.724	10317.43
505.093	10408.5
505.462	10388.84
505.83	10489.4
506.199	10647.36
506.567	10694.59
506.936	10686
507.304	10785.66
507.672	10850.29
508.041	10916.28
508.409	10964.87
508.777	11078.31
509.145	11170.96
509.514	11221.58
509.882	11250.28
510.25	11191.53
510.618	11321.92
510.986	11341.81
511.354	11462.71
511.722	11492.76
512.09	11596.71
512.458	11579.31
512.826	11566.89
513.193	11708.12
513.561	11732.76
513.929	11743.6
514.297	11829.03
514.664	11865.63
515.032	11900.66
515.4	11962.13
515.767	11940.21
516.135	12100.66
516.502	11879.65
516.869	12185.17
517.237	12133.2
517.604	12118.51
517.972	12229.92
518.339	12264.72
518.706	12253.65
519.073	12254.32
519.44	12301.56
519.808	12392.85
520.175	12349.01
520.542	12503.58
520.909	12496.35
521.276	12494.77
521.643	12483.92
522.009	12567.76
522.376	12621.77
522.743	12647.76
523.11	12728.89
523.477	12694.99
523.843	12762.11
524.21	12805.72
524.577	12899.28
524.943	12855.21
525.31	12862.44
525.676	12852.28
526.043	12875.1
526.409	12952.84
526.776	12999.39
527.142	13013.4
527.508	13008.2
527.874	13048.2
528.241	13020.86
528.607	13039.61
528.973	13150.35
529.339	12996.9
529.705	13013.63
530.071	13136.79
530.437	13148.09
530.803	13139.73
531.169	13160.52
531.535	13011.59
531.901	13023.8
532.267	13059.5
532.632	13079.84
532.998	13029.22
533.364	13082.78
533.73	13097.01
534.095	13181.98
534.461	13098.82
534.826	13097.69
535.192	13041.42
535.557	13093.62
535.923	12978.15
536.288	13045.72
536.653	13040.74
537.019	12927.53
537.384	12895.89
537.749	12863.57
538.114	12875.55
538.479	12906.51
538.845	12821.77
539.21	12713.97
539.575	12768.44
539.94	12751.03
540.305	12768.66
540.67	12636.46
541.034	12699.28
541.399	12652.05
541.764	12602.56
542.129	12594.88
542.494	12641.21
542.858	12484.83
543.223	12488.22
543.587	12458.16
543.952	12411.61
544.316	12338.39
544.681	12295.23
545.045	12379.29
545.41	12307.2
545.774	12326.87
546.138	12258.17
546.503	12214.55
546.867	12141.33
547.231	12232.63
547.595	12190.6
547.959	12145.85
548.324	12085.06
548.688	12066.98
549.052	12058.17
549.416	11952.19
549.779	11986.99
550.143	11944.5
550.507	11988.34
550.871	11970.04
551.235	11771.85
551.599	11900.21
551.962	11802.59
552.326	11844.39
552.689	11832.64
553.053	11705.64
553.417	11667.9
553.78	11812.08
554.143	11696.37
554.507	11654.34
554.87	11692.08
555.234	11769.82
555.597	11632.19
555.96	11529.6
556.323	11585.87
556.686	11608.47
557.05	11590.16
557.413	11571.63
557.776	11532.31
558.139	11588.13
558.502	11497.96
558.865	11475.14
559.228	11525.08
559.59	11469.49
559.953	11444.85
560.316	11592.65
560.679	11546.09
561.041	11590.84
561.404	11610.73
561.767	11538.86
562.129	11499.99
562.492	11619.09
562.854	11634.68
563.217	11612.53
563.579	11562.59
563.941	11556.04
564.304	11651.63
564.666	11667.22
565.028	11596.49
565.39	11651.4
565.753	11641.46
566.115	11608.47
566.477	11686.88
566.839	11647.79
567.201	11686.2
567.563	11626.32
567.925	11688.24
568.287	11685.3
568.648	11564.63
569.01	11686.88
569.372	11803.94
569.734	11687.33
570.095	11726.2
570.457	11669.93
570.819	11754.22
571.18	11753.77
571.542	11870.83
571.903	11809.82
572.265	11835.35
572.626	11822.25
572.987	11824.51
573.349	11841.23
573.71	11850.04
574.071	11855.24
574.432	11871.06
574.794	11945.86
575.155	11959.87
575.516	11838.29
575.877	11883.71
576.238	11921
576.599	11942.92
576.96	11886.65
577.32	11948.34
577.681	11895.46
578.042	11856.82
578.403	11895.01
578.763	11941.34
579.124	11860.89
579.485	12030.6
579.845	12010.04
580.206	11896.37
580.566	11896.37
580.927	11903.15
581.287	11968
581.648	11906.76
582.008	11965.29
582.368	11842.36
582.728	11906.99
583.089	11879.65
583.449	11846.65
583.809	11954.67
584.169	11934.11
584.529	11844.84
584.889	11984.5
585.249	11787.44
585.609	11771.4
585.969	11850.95
586.329	11872.19
586.688	11823.15
587.048	11832.41
587.408	11840.55
587.768	11775.92
588.127	11801.46
588.487	11787.67
588.846	11833.54
589.206	11716.49
589.565	11716.26
589.925	11804.62
590.284	11785.86
590.643	11717.84
591.003	11721.91
591.362	11741.8
591.721	11750.38
592.08	11686.66
592.44	11773.21
592.799	11728.46
593.158	11655.47
593.517	11645.98
593.876	11659.09
594.235	11689.82
594.593	11715.58
594.952	11667
595.311	11657.5
595.67	11675.81
596.029	11750.84
596.387	11659.76
596.746	11689.37
597.104	11638.52
597.463	11707.22
597.822	11705.86
598.18	11665.87
598.538	11669.48
598.897	11684.17
599.255	11604.4
599.613	11751.97
599.972	11656.6
600.33	11683.49
600.688	11652.31
601.046	11655.24
601.404	11703.38
601.762	11625.19
602.12	11687.33
602.478	11699.09
602.836	11750.84
603.194	11584.96
603.552	11649.82
603.91	11549.71
604.268	11652.53
604.625	11553.1
604.983	11632.87
605.341	11559.43
605.698	11632.87
606.056	11632.87
606.413	11636.49
606.771	11694.11
607.128	11647.56
607.485	11596.71
607.843	11637.62
608.2	11647.56
608.557	11691.63
608.914	11677.39
609.272	11714.45
609.629	11775.47
609.986	11784.05
610.343	11749.93
610.7	11793.09
611.057	11813.21
611.414	11776.37
611.771	11786.77
612.127	11795.13
612.484	11781.34
612.841	11794
613.198	11770.5
613.554	11756.26
613.911	11858.18
614.267	11867.89
614.624	11815.01
614.98	11761.68
615.337	11891.62
615.693	11776.82
616.05	11849.59
616.406	11910.6
616.762	11811.17
617.118	11806.2
617.475	11799.2
617.831	11879.87
618.187	11844.84
618.543	11969.36
618.899	11968.68
619.255	11965.97
619.611	11951.28
619.967	11992.41
620.323	12029.02
620.678	11984.28
621.034	11888.68
621.39	11882.81
621.746	12001.9
622.101	11993.09
622.457	11978.4
622.812	12017.49
623.168	11999.42
623.523	12009.81
623.879	12056.36
624.234	11987.44
624.589	12014.11
624.945	11966.2
625.3	12017.49
625.655	11965.74
626.01	12027.44
626.365	12050.49
626.72	11960.1
627.075	11972.98
627.43	11987.44
627.785	11942.92
628.14	11988.12
628.495	11945.41
628.85	11882.81
629.205	11885.07
629.559	12003.71
629.914	11872.19
630.269	11885.52
630.623	11764.39
630.978	11897.5
631.332	11922.13
631.687	11949.93
632.041	11870.61
632.396	11836.71
632.75	11846.2
633.104	11914.45
633.459	11775.02
633.813	11792.42
634.167	11756.94
634.521	11786.09
634.875	11828.57
635.229	11697.05
635.583	11665.19
635.937	11670.39
636.291	11667.9
636.645	11691.4
636.999	11650.72
637.352	11718.52
637.706	11691.18
638.06	11638.07
638.413	11505.42
638.767	11543.16
639.121	11584.29
639.474	11526.66
639.828	11594.46
640.181	11632.19
640.534	11594.46
640.888	11532.76
641.241	11495.47
641.594	11497.96
641.947	11518.98
642.301	11556.49
642.654	11498.41
643.007	11500.9
643.36	11556.49
643.713	11476.72
644.066	11483.72
644.419	11433.33
644.771	11327.8
645.124	11307.68
645.477	11274.46
645.83	11193.79
646.182	11102.72
646.535	11074.69
646.888	11115.15
647.24	11072.21
647.593	11089.16
647.945	11081.7
648.298	11076.28
648.65	11037.18
649.002	11007.8
649.355	11084.19
649.707	11051.19
650.059	11091.19
650.411	11290.96
650.763	11281.47
651.115	11373.67
651.467	11356.5
651.819	11305.88
652.171	11377.06
652.523	11296.16
652.875	11342.26
653.227	11280.79
653.578	11380.68
653.93	11357.63
654.282	11342.48
654.633	11153.11
654.985	11268.14
655.337	11290.06
655.688	11365.08
656.039	11346.55
656.391	11215.03
656.742	11313.78
657.094	11324.18
657.445	11322.6
657.796	11293.45
658.147	11267.68
658.498	11280.34
658.849	11280.11
659.2	11333.44
659.551	11362.82
659.902	11345.87
660.253	11350.85
660.604	11287.12
660.955	11371.41
661.306	11314.46
661.656	11326.67
662.007	11292.54
662.358	11264.52
662.708	11413.89
663.059	11337.06
663.409	11217.29
663.76	11368.47
664.11	11350.62
664.461	11394.69
664.811	11352.65
665.161	11318.53
665.511	11349.26
665.862	11309.94
666.212	11366.66
666.562	11357.17
666.912	11374.8
667.262	11335.03
667.612	11343.61
667.962	11339.09
668.312	11318.3
668.662	11378.87
669.011	11352.2
669.361	11391.97
669.711	11335.03
670.06	11371.18
670.41	11394.91
670.76	11355.82
671.109	11387
671.459	11404.63
671.808	11317.17
672.157	11401.47
672.507	11315.37
672.856	11345.2
673.205	11288.93
673.554	11286.67
673.904	11356.72
674.253	11393.78
674.602	11217.06
674.951	11149.04
675.3	11042.83
675.649	11210.06
675.998	11198.76
676.346	11140
676.695	11208.25
677.044	11070.4
677.393	11168.48
677.741	11135.48
678.09	11199.89
678.438	11141.81
678.787	11109.27
679.135	11104.98
679.484	11068.37
679.832	11135.48
680.181	11013.68
680.529	11106.56
680.877	10992.66
681.225	10982.49
681.573	11080.12
681.922	10986.34
682.27	10863.85
682.618	10966.67
682.966	10874.93
683.314	10876.28
683.661	10900.46
684.009	10828.15
684.357	10802.39
684.705	10736.85
685.053	10784.76
685.4	10731.43
685.748	10702.28
686.095	10698.43
686.443	10732.33
686.79	10645.55
687.138	10655.27
687.485	10670.86
687.832	10642.84
688.18	10591.54
688.527	10569.17
688.874	10476.97
689.221	10531.43
689.568	10468.38
689.915	10469.51
690.262	10443.07
690.609	10446.01
690.956	10378.67
691.303	10352
691.65	10267.48
691.997	10234.04
692.344	10180.93
692.69	10129.86
693.037	10208.5
693.383	10024.78
693.73	10160.59
694.077	10079.69
694.423	10060.94
694.769	9964.67
695.116	9986.59
695.462	9954.05
695.808	9903.43
696.155	9942.75
696.501	9839.25
696.847	9832.02
697.193	9773.71
697.539	9825.01
697.885	9660.49
698.231	9724.22
698.577	9696.43
698.923	9665.01
699.269	9602.42
699.614	9525.58
699.96	9566.03
700.306	9509.54
700.651	9417.34
700.997	9381.18
701.342	9388.64
701.688	9442.42
702.033	9339.83
702.379	9296.21
702.724	9265.25
703.069	9320.16
703.415	9143.45
703.76	9190.22
704.105	9140.06
704.45	9138.25
704.795	9136.89
705.14	9026.84
705.485	9044.01
705.83	9053.5
706.175	9019.16
706.52	8899.61
706.865	8914.75
707.209	8933.06
707.554	8886.96
707.899	8889.89
708.243	8802.66
708.588	8764.02
708.932	8724.93
709.277	8673.85
709.621	8733.97
709.966	8705.49
710.31	8640.63
710.654	8592.05
710.998	8645.61
711.342	8583.23
711.687	8533.29
712.031	8534.2
712.375	8517.7
712.719	8471.37
713.063	8446.97
713.407	8485.84
713.75	8487.87
714.094	8462.79
714.438	8460.75
714.782	8415.33
715.125	8393.41
715.469	8423.69
715.812	8338.04
716.156	8314.32
716.499	8330.13
716.843	8324.71
717.186	8282
717.53	8298.04
717.873	8373.3
718.216	8274.99
718.559	8265.73
718.902	8220.31
719.246	8193.19
719.589	8199.29
719.932	8207.2
720.275	8181.44
720.617	8228.44
720.96	8220.53
721.303	8210.59
721.646	8209.46
721.989	8108.9
722.331	8126.98
722.674	8139.63
723.016	8194.54
723.359	8128.11
723.701	8105.96
724.044	8113.64
724.386	8029.8
724.729	8065.51
725.071	8076.13
725.413	8091.72
725.755	8089.91
726.097	8062.34
726.439	8012.18
726.782	7984.83
727.124	8094.21
727.465	8032.74
727.807	7991.16
728.149	8010.37
728.491	7999.07
728.833	7995.91
729.175	8063.02
729.516	7969.92
729.858	7989.35
730.199	7980.54
730.541	7959.75
730.882	7905.06
731.224	7987.77
731.565	7994.32
731.906	8002.69
732.248	7958.39
732.589	7926.98
732.93	7909.81
733.271	7953.65
733.612	7946.64
733.953	8015.57
734.294	7955.23
734.635	7890.6
734.976	7952.97
735.317	7957.26
735.658	7956.13
735.999	7930.37
736.339	7964.27
736.68	7992.29
737.021	7954.32
737.361	7973.76
737.702	8016.7
738.042	7974.21
738.383	7968.34
738.723	8011.05
739.063	8024.38
739.404	8003.36
739.744	8001.56
740.084	7979.86
740.424	8013.98
740.764	8002.69
741.104	8057.82
741.444	8039.97
741.784	8049.24
742.124	8072.97
742.464	8098.05
742.804	8123.81
743.143	8152.96
743.483	8136.24
743.823	8146.41
744.162	8124.94
744.502	8236.58
744.841	8234.77
745.181	8267.31
745.52	8250.59
745.86	8299.85
746.199	8374.65
746.538	8318.38
746.877	8405.39
747.216	8483.35
747.556	8484.93
747.895	8512.95
748.234	8528.32
748.573	8584.82
748.911	8682.89
749.25	8706.62
749.589	8792.72
749.928	8848.76
750.267	8909.55
750.605	8981.87
750.944	9060.28
751.283	9034.75
751.621	9230
751.96	9280.17
752.298	9354.97
752.636	9496.21
752.975	9539.59
753.313	9607.84
753.651	9776.2
753.989	9852.35
754.327	9919.47
754.666	9963.31
755.004	10116.98
755.342	10309.74
755.679	10357.43
756.017	10538.89
756.355	10622.05
756.693	10708.6
757.031	10924.42
757.368	11042.38
757.706	11098.42
758.044	11191.3
758.381	11449.15
758.719	11598.75
759.056	11670.61
759.394	11891.85
759.731	11902.24
