Data from hue_250_FLMS001491_00039.txt Node
Date: Tue Feb 07 16:00:54 GMT 2017
User: dcchb
Spectrometer: FLMS00149
Trigger mode: 0
Integration Time (sec): 2.000000E-2
Scans to average: 10
Electric dark correction enabled: true
Nonlinearity correction enabled: false
Boxcar width: 0
XAxis mode: Wavelengths
Number of Pixels in Spectrum: 2048
>>>>>Begin Spectral Data<<<<<
341.393	8.01
341.776	8.01
342.16	8.01
342.543	-54.81
342.927	-64.08
343.31	-55.27
343.693	-84.19
344.077	-81.48
344.46	-65.21
344.843	-52.56
345.226	-41.71
345.61	-23.18
345.993	-4.65
346.376	17.05
346.759	17.73
347.142	8.69
347.525	34.22
347.908	56.14
348.291	74.9
348.674	89.59
349.057	109.93
349.44	134.33
349.823	125.97
350.206	176.37
350.588	189.47
350.971	199.64
351.354	195.8
351.737	236.02
352.119	252.97
352.502	255.01
352.884	259.75
353.267	267.89
353.65	275.12
354.032	292.75
354.414	292.75
354.797	307.21
355.179	309.24
355.562	306.98
355.944	314.44
356.326	315.8
356.709	339.98
357.091	321.45
357.473	335.68
357.855	336.81
358.238	327.32
358.62	347.89
359.002	328
359.384	316.7
359.766	318.51
360.148	345.63
360.53	333.88
360.912	328
361.294	317.38
361.676	327.1
362.057	326.87
362.439	327.1
362.821	318.06
363.203	314.89
363.584	316.93
363.966	320.09
364.348	314.89
364.729	331.84
365.111	321.22
365.493	317.83
365.874	298.62
366.256	330.71
366.637	309.92
367.019	310.83
367.4	306.53
367.781	328.68
368.163	304.05
368.544	312.18
368.925	285.52
369.306	301.79
369.688	308.34
370.069	299.07
370.45	312.86
370.831	323.25
371.212	313.08
371.593	301.56
371.974	305.18
372.355	324.16
372.736	325.74
373.117	312.63
373.498	292.07
373.879	314.67
374.26	296.59
374.641	286.87
375.021	302.92
375.402	297.27
375.783	300.2
376.163	308.34
376.544	308.11
376.925	315.57
377.305	321.9
377.686	308.57
378.066	324.16
378.447	342.46
378.827	325.97
379.208	313.08
379.588	328.9
379.968	329.36
380.349	301.33
380.729	331.39
381.109	327.77
381.489	326.42
381.87	326.64
382.25	330.94
382.63	335.46
383.01	325.51
383.39	332.07
383.77	302.01
384.15	324.61
384.53	318.51
384.91	346.98
385.29	336.14
385.67	351.05
386.049	353.31
386.429	323.93
386.809	331.39
387.189	356.7
387.568	354.89
387.948	350.6
388.328	351.73
388.707	341.56
389.087	327.77
389.466	370.26
389.846	354.89
390.225	370.26
390.605	362.8
390.984	354.67
391.363	363.03
391.743	343.14
392.122	360.54
392.501	374.55
392.881	384.04
393.26	381.56
393.639	376.59
394.018	386.3
394.397	364.16
394.776	380.88
395.155	352.18
395.534	372.52
395.913	370.26
396.292	403.25
396.671	387.21
397.05	373.87
397.429	387.43
397.808	393.53
398.186	374.33
398.565	389.02
398.944	384.27
399.323	382.91
399.701	400.77
400.08	394.21
400.458	394.89
400.837	419.07
401.215	405.51
401.594	403.25
401.972	418.17
402.351	433.31
402.729	422.23
403.107	430.37
403.486	433.99
403.864	424.04
404.242	425.85
404.62	433.76
404.999	433.53
405.377	424.72
405.755	451.39
406.133	431.5
406.511	438.73
406.889	439.86
407.267	472.85
407.645	447.77
408.023	465.85
408.401	484.38
408.779	457.94
409.156	470.59
409.534	482.12
409.912	496.81
410.29	483.93
410.667	499.52
411.045	489.8
411.422	520.09
411.8	511.72
412.178	529.12
412.555	523.7
412.933	546.07
413.31	524.15
413.687	531.16
414.065	562.57
414.442	570.03
414.819	576.58
415.197	589.91
415.574	579.07
415.951	601.89
416.328	602.57
416.705	607.54
417.082	614.77
417.46	596.69
417.837	621.33
418.214	633.08
418.591	608.44
418.967	612.51
419.344	647.77
419.721	651.61
420.098	661.1
420.475	652.96
420.852	679.63
421.228	662
421.605	671.49
421.982	678.5
422.358	680.31
422.735	723.7
423.111	739.51
423.488	740.42
423.864	742.45
424.241	743.81
424.617	771.38
424.994	759.17
425.37	770.25
425.746	770.47
426.123	790.59
426.499	771.6
426.875	806.18
427.251	813.64
427.627	827.2
428.003	844.37
428.379	846.18
428.756	856.12
429.132	875.78
429.507	878.49
429.883	895.22
430.259	927.08
430.635	908.55
431.011	916.23
431.387	954.42
431.763	974.31
432.138	956.01
432.514	970.92
432.89	974.08
433.265	992.39
433.641	1014.31
434.016	991.49
434.392	1030.58
434.767	1067.87
435.143	1081.43
435.518	1060.18
435.894	1069.68
436.269	1114.65
436.644	1094.08
437.02	1114.87
437.395	1139.5
437.77	1170.69
438.145	1152.16
438.52	1216.34
438.895	1184.25
439.271	1224.93
439.646	1253.85
440.021	1265.15
440.395	1284.81
440.77	1255.21
441.145	1300.86
441.52	1328.43
441.895	1317.35
442.27	1352.83
442.645	1349.22
443.019	1330.69
443.394	1330.91
443.769	1343.34
444.143	1366.62
444.518	1398.93
444.892	1388.76
445.267	1424.02
445.641	1422.21
446.016	1421.98
446.39	1435.54
446.764	1446.16
447.139	1445.71
447.513	1466.95
447.887	1483.68
448.262	1523.45
448.636	1506.5
449.01	1509.89
449.384	1532.49
449.758	1505.14
450.132	1547.63
450.506	1534.75
450.88	1565.03
451.254	1548.08
451.628	1590.57
452.002	1617.91
452.376	1632.15
452.75	1657.91
453.123	1641.64
453.497	1658.59
453.871	1703.1
454.244	1708.98
454.618	1734.29
454.992	1717.34
455.365	1710.79
455.739	1783.55
456.112	1773.84
456.486	1813.16
456.859	1836.43
457.232	1828.53
457.606	1852.93
457.979	1870.56
458.352	1911.46
458.725	1917.11
459.099	1939.93
459.472	1964.12
459.845	1992.36
460.218	2001.63
460.591	1982.19
460.964	2025.58
461.337	2043.89
461.71	2059.71
462.083	2111
462.456	2115.98
462.829	2129.76
463.201	2150.1
463.574	2195.52
463.947	2207.72
464.32	2245.24
464.692	2239.14
465.065	2279.13
465.438	2310.32
465.81	2340.15
466.183	2352.58
466.555	2385.57
466.928	2388.96
467.3	2425.35
467.672	2446.59
468.045	2442.07
468.417	2466.93
468.789	2499.24
469.161	2513.93
469.534	2602.06
469.906	2635.06
470.278	2625.79
470.65	2645.91
471.022	2717.09
471.394	2747.6
471.766	2773.59
472.138	2786.01
472.51	2854.71
472.882	2870.53
473.253	2931.32
473.625	2942.62
473.997	2993.92
474.369	3035.5
474.74	3055.84
475.112	3121.15
475.484	3120.24
475.855	3206.57
476.227	3214.03
476.598	3283.4
476.97	3314.81
477.341	3379.67
477.713	3379.67
478.084	3430.52
478.455	3476.62
478.827	3520.23
479.198	3622.15
479.569	3593.22
479.94	3676.84
480.311	3742.83
480.682	3770.62
481.053	3865.31
481.424	3940.33
481.795	3941.24
482.166	3992.08
482.537	4019.43
482.908	4122.48
483.279	4137.39
483.65	4218.29
484.021	4291.06
484.391	4307.78
484.762	4317.5
485.133	4360.21
485.503	4428.91
485.874	4537.15
486.244	4543.93
486.615	4577.61
486.985	4685.85
487.356	4740.54
487.726	4771.72
488.097	4830.71
488.467	4882.91
488.837	4957.71
489.207	4985.5
489.578	5064.15
489.948	5095.56
490.318	5146.18
490.688	5181.21
491.058	5232.28
491.428	5279.06
491.798	5315.89
492.168	5426.62
492.538	5460.97
492.908	5476.57
493.278	5527.86
493.648	5564.92
494.017	5606.51
494.387	5651.48
494.757	5676.11
495.126	5765.6
495.496	5771.92
495.866	5875.65
496.235	5847.63
496.605	5871.36
496.974	5922.2
497.344	5950.68
497.713	5992.03
498.082	6018.25
498.452	6061.86
498.821	6049.88
499.19	6080.84
499.559	6108.64
499.928	6154.29
500.298	6172.82
500.667	6237.67
501.036	6224.12
501.405	6286.26
501.774	6285.36
502.143	6334.85
502.512	6364.23
502.88	6363.55
503.249	6364.45
503.618	6443.77
503.987	6410.78
504.356	6478.57
504.724	6447.16
505.093	6512.24
505.462	6502.3
505.83	6504.56
506.199	6626.37
506.567	6632.47
506.936	6610.32
507.304	6692.8
507.672	6673.37
508.041	6742.75
508.409	6769.64
508.777	6750.2
509.145	6809.41
509.514	6777.1
509.882	6863.2
510.25	6872.01
510.618	6898.9
510.986	6892.35
511.354	6931.44
511.722	6936.19
512.09	6986.58
512.458	7021.84
512.826	7028.16
513.193	7021.84
513.561	7068.39
513.929	7116.97
514.297	7124.88
514.664	7103.41
515.032	7163.98
515.4	7178.89
515.767	7223.86
516.135	7189.74
516.502	7160.81
516.869	7258.44
517.237	7236.07
517.604	7261.38
517.972	7282.85
518.339	7336.86
518.706	7341.37
519.073	7315.16
519.44	7371.66
519.808	7431.32
520.175	7366.23
520.542	7449.62
520.909	7465.21
521.276	7372.79
521.643	7433.8
522.009	7490.07
522.376	7502.05
522.743	7523.06
523.11	7544.99
523.477	7673.57
523.843	7658.2
524.21	7692.33
524.577	7681.93
524.943	7692.1
525.31	7717.86
525.676	7729.16
526.043	7808.03
526.409	7792.21
526.776	7837.86
527.142	7829.5
527.508	7865.88
527.874	7788.14
528.241	7910.63
528.607	7843.06
528.973	7963.96
529.339	7902.26
529.705	7934.58
530.071	7951.3
530.437	8054.35
530.803	8012.54
531.169	8082.15
531.535	7994.92
531.901	7956.27
532.267	8044.86
532.632	8049.15
532.998	8025.88
533.364	8042.83
533.73	8031.07
534.095	8108.36
534.461	8036.05
534.826	8114.69
535.192	8057.74
535.557	8132.99
535.923	8085.08
536.288	8069.49
536.653	8117.85
537.019	8005.09
537.384	8057.29
537.749	8113.78
538.114	8034.01
538.479	8080.34
538.845	8104.29
539.21	7980.45
539.575	8004.86
539.94	8000.79
540.305	8075.37
540.67	8076.5
541.034	7976.16
541.399	8032.88
541.764	8052.99
542.129	7967.8
542.494	8038.98
542.858	8028.59
543.223	8074.24
543.587	8100.68
543.952	8033.79
544.316	8024.07
544.681	8009.38
545.045	7980.68
545.41	8010.06
545.774	8043.5
546.138	8003.73
546.503	7935.03
546.867	7956.27
547.231	8057.74
547.595	7983.39
547.959	7978.42
548.324	7994.24
548.688	7915.82
549.052	8050.96
549.416	8015.03
549.779	7951.75
550.143	7964.18
550.507	7985.88
550.871	7952.66
551.235	7937.07
551.599	7962.38
551.962	7955.6
552.326	7953.56
552.689	7978.87
553.053	7950.17
553.417	7893.9
553.78	7966.9
554.143	7929.61
554.507	7956.27
554.87	7971.64
555.234	8017.06
555.597	7994.69
555.96	7955.37
556.323	7919.44
556.686	7928.48
557.05	7937.97
557.413	7983.39
557.776	8009.38
558.139	8004.63
558.502	8058.19
558.865	8026.33
559.228	8077.85
559.59	8048.93
559.953	8051.41
560.316	8117.4
560.679	8103.39
561.041	8128.92
561.404	8155.14
561.767	8144.97
562.129	8150.39
562.492	8206.21
562.854	8198.75
563.217	8187
563.579	8253.22
563.941	8220.67
564.304	8250.05
564.666	8276.04
565.028	8339.77
565.39	8381.35
565.753	8367.11
566.115	8360.11
566.477	8411.18
566.839	8370.95
567.201	8462.48
567.563	8452.31
567.925	8428.8
568.287	8480.78
568.648	8478.52
569.01	8502.47
569.372	8581.12
569.734	8507.67
570.095	8593.77
570.457	8648.23
570.819	8603.94
571.18	8596.71
571.542	8600.32
571.903	8629.02
572.265	8681.45
572.626	8700.89
572.987	8708.57
573.349	8757.83
573.71	8754.67
574.071	8783.37
574.432	8807.78
574.794	8864.5
575.155	8849.13
575.516	8777.5
575.877	8915.8
576.238	8895.68
576.599	9005.74
576.96	8989.92
577.32	8935.68
577.681	8982.91
578.042	9000.77
578.403	8939.52
578.763	9016.58
579.124	9029.92
579.485	9036.47
579.845	9123.02
580.206	9083.7
580.566	9094.55
580.927	9125.06
581.287	9162.57
581.648	9073.08
582.008	9156.92
582.368	9161.44
582.728	9177.94
583.089	9136.58
583.449	9187.88
583.809	9226.07
584.169	9276.47
584.529	9266.97
584.889	9338.38
585.249	9284.37
585.609	9222
585.969	9294.09
586.329	9293.41
586.688	9366.63
587.048	9359.4
587.408	9269.01
587.768	9292.51
588.127	9337.93
588.487	9343.13
588.846	9419.51
589.206	9318.27
589.565	9331.83
589.925	9435.78
590.284	9460.19
590.643	9432.85
591.003	9440.08
591.362	9474.2
591.721	9459.29
592.08	9529.34
592.44	9428.33
592.799	9496.8
593.158	9513.97
593.517	9432.17
593.876	9556.68
594.235	9481.66
594.593	9472.17
594.952	9533.86
595.311	9479.4
595.67	9559.4
596.029	9531.6
596.387	9566.18
596.746	9571.15
597.104	9535.67
597.463	9551.71
597.822	9631.71
598.18	9594.2
598.538	9560.98
598.897	9620.64
599.255	9529.11
599.613	9661.31
599.972	9657.7
600.33	9680.3
600.688	9630.81
601.046	9642.56
601.404	9672.16
601.762	9647.75
602.12	9743.12
602.478	9717.81
602.836	9736.34
603.194	9632.61
603.552	9642.11
603.91	9647.98
604.268	9734.31
604.625	9618.15
604.983	9751.03
605.341	9685.04
605.698	9756.9
606.056	9697.47
606.413	9727.75
606.771	9737.7
607.128	9751.48
607.485	9721.2
607.843	9734.31
608.2	9839.84
608.557	9779.73
608.914	9790.12
609.272	9781.31
609.629	9815.89
609.986	9848.43
610.343	9840.52
610.7	9884.81
611.057	9870.12
611.414	9853.85
611.771	9868.77
612.127	9883
612.484	9887.52
612.841	9899.27
613.198	9900.63
613.554	9931.82
613.911	9955.54
614.267	9982.66
614.624	9998.93
614.98	9939.72
615.337	9948.76
615.693	9943.79
616.05	9969.1
616.406	10027.86
616.762	10006.16
617.118	9954.64
617.475	9970.23
617.831	10007.29
618.187	10011.36
618.543	10067.18
618.899	10060.17
619.255	10042.77
619.611	10063.11
619.967	10028.31
620.323	10060.4
620.678	10092.04
621.034	10015.43
621.39	10106.73
621.746	10050.91
622.101	10126.84
622.457	10054.07
622.812	10134.3
623.168	10159.61
623.523	10153.73
623.879	10144.24
624.234	10035.77
624.589	10153.73
624.945	10106.73
625.3	10121.87
625.655	10093.84
626.01	10127.29
626.365	10101.98
626.72	10149.66
627.075	10122.77
627.43	10058.82
627.785	10033.28
628.14	10101.75
628.495	10138.82
628.85	10093.84
629.205	10078.03
629.559	10078.25
629.914	10033.73
630.269	10119.15
630.623	10012.04
630.978	9976.33
631.332	10054.07
631.687	10006.39
632.041	9937.69
632.396	10006.39
632.75	9912.83
633.104	9926.62
633.459	9937.01
633.813	9904.47
634.167	9906.51
634.521	9904.47
634.875	9890.23
635.229	9875.55
635.583	9817.69
635.937	9866.51
636.291	9749.67
636.645	9779.5
636.999	9793.29
637.352	9782.67
637.706	9646.17
638.06	9791.25
638.413	9784.7
638.767	9784.02
639.121	9741.99
639.474	9647.3
639.828	9656.34
640.181	9718.26
640.534	9687.75
640.888	9619.73
641.241	9585.38
641.594	9631.03
641.947	9726.4
642.301	9643.01
642.654	9577.25
643.007	9706.51
643.36	9566.63
643.713	9613.86
644.066	9661.31
644.419	9609.79
644.771	9501.09
645.124	9407.99
645.477	9487.08
645.83	9367.99
646.182	9372.06
646.535	9278.27
646.888	9327.99
647.24	9254.32
647.593	9349.91
647.945	9275.79
648.298	9255.45
648.65	9228.1
649.002	9256.13
649.355	9261.32
649.707	9307.65
650.059	9296.13
650.411	9350.59
650.763	9426.97
651.115	9468.1
651.467	9450.02
651.819	9425.16
652.171	9492.73
652.523	9419.96
652.875	9414.54
653.227	9369.34
653.578	9465.16
653.93	9477.82
654.282	9393.98
654.633	9382.9
654.985	9393.3
655.337	9476.01
655.688	9408.67
656.039	9424.94
656.391	9400.53
656.742	9390.59
657.094	9350.59
657.445	9404.37
657.796	9380.64
658.147	9428.1
658.498	9378.61
658.849	9436.69
659.2	9391.26
659.551	9374.99
659.902	9487.31
660.253	9414.99
660.604	9454.31
660.955	9378.16
661.306	9393.98
661.656	9376.35
662.007	9350.36
662.358	9406.63
662.708	9371.83
663.059	9379.29
663.409	9349.23
663.76	9438.27
664.11	9405.73
664.461	9431.49
664.811	9448.89
665.161	9393.75
665.511	9344.26
665.862	9387.87
666.212	9426.52
666.562	9479.4
666.912	9427.2
667.262	9341.55
667.612	9436.01
667.962	9432.17
668.312	9408.67
668.662	9460.19
669.011	9422.22
669.361	9395.11
669.711	9380.19
670.06	9362.79
670.41	9349.23
670.76	9427.87
671.109	9348.78
671.459	9365.95
671.808	9382.9
672.157	9384.03
672.507	9322.79
672.856	9304.26
673.205	9309.46
673.554	9348.33
673.904	9343.58
674.253	9315.79
674.602	9339.74
674.951	9178.39
675.3	9160.76
675.649	9290.02
675.998	9301.55
676.346	9268.1
676.695	9271.49
677.044	9176.58
677.393	9229.91
677.741	9187.65
678.09	9238.27
678.438	9248.22
678.787	9213.64
679.135	9164.83
679.484	9116.24
679.832	9164.38
680.181	9098.16
680.529	9189.24
680.877	9122.8
681.225	9179.52
681.573	9132.74
681.922	9076.24
682.27	9101.1
682.618	9008.22
682.966	9008.9
683.314	9049.13
683.661	9040.31
684.009	8993.76
684.357	8955.12
684.705	8916.93
685.053	8992.86
685.4	8880.77
685.748	8840.09
686.095	8824.27
686.443	8776.82
686.79	8844.16
687.138	8849.36
687.485	8817.72
687.832	8882.58
688.18	8810.26
688.527	8746.76
688.874	8726.88
689.221	8683.03
689.568	8630.61
689.915	8587.9
690.262	8651.17
690.609	8656.37
690.956	8599.87
691.303	8649.14
691.65	8472.19
691.997	8493.66
692.344	8425.87
692.69	8435.81
693.037	8438.75
693.383	8377.05
693.73	8405.08
694.077	8361.69
694.423	8390.16
694.769	8228.13
695.116	8329.37
695.462	8261.35
695.808	8247.11
696.155	8281.24
696.501	8172.54
696.847	8243.95
697.193	8123.5
697.539	8159.88
697.885	8003.5
698.231	8016.84
698.577	8101.58
698.923	8037.4
699.269	7989.95
699.614	7911.08
699.96	7921.92
700.306	7922.6
700.651	7857.07
700.997	7862.72
701.342	7832.44
701.688	7821.81
702.033	7805.77
702.379	7794.7
702.724	7778.88
703.069	7731.65
703.415	7661.14
703.76	7664.53
704.105	7669.05
704.45	7593.8
704.795	7530.07
705.14	7584.31
705.485	7594.7
705.83	7504.31
706.175	7508.83
706.52	7422.05
706.865	7525.32
707.209	7467.93
707.554	7393.8
707.899	7408.49
708.243	7396.97
708.588	7325.33
708.932	7316.06
709.277	7309.06
709.621	7312.67
709.966	7227.03
710.31	7269.29
710.654	7185.22
710.998	7178.22
711.342	7257.99
711.687	7183.64
712.031	7133.7
712.375	7138.44
712.719	7136.18
713.063	7046.47
713.407	7069.97
713.75	7090.76
714.094	7056.86
714.438	7079.69
714.782	7097.77
715.125	7017.32
715.469	7019.58
715.812	6963.31
716.156	6926.47
716.499	6967.15
716.843	6943.65
717.186	6911.33
717.53	6941.61
717.873	6972.34
718.216	6942.97
718.559	6934.38
718.902	6815.06
719.246	6896.19
719.589	6860.03
719.932	6850.99
720.275	6783.42
720.617	6801.05
720.96	6850.54
721.303	6835.17
721.646	6867.94
721.989	6761.95
722.331	6766.93
722.674	6798.11
723.016	6792.01
723.359	6712.24
723.701	6740.49
724.044	6670.88
724.386	6716.76
724.729	6742.97
725.071	6724.89
725.413	6726.7
725.755	6716.53
726.097	6685.8
726.439	6668.62
726.782	6676.53
727.124	6676.99
727.465	6696.87
727.807	6643.99
728.149	6664.78
728.491	6565.12
728.833	6635.4
729.175	6621.17
729.516	6592.24
729.858	6616.2
730.199	6615.07
730.541	6629.98
730.882	6616.2
731.224	6643.09
731.565	6658.23
731.906	6576.88
732.248	6570.77
732.589	6569.87
732.93	6526.71
733.271	6604.22
733.612	6608.74
733.953	6553.15
734.294	6541.85
734.635	6560.38
734.976	6559.93
735.317	6546.14
735.658	6583.65
735.999	6581.62
736.339	6565.12
736.68	6602.86
737.021	6546.59
737.361	6563.09
737.702	6600.15
738.042	6584.78
738.383	6578.23
738.723	6600.83
739.063	6557.21
739.404	6611.22
739.744	6592.69
740.084	6596.54
740.424	6601.73
740.764	6541.17
741.104	6664.56
741.444	6612.81
741.784	6620.72
742.124	6627.95
742.464	6644.22
742.804	6676.53
743.143	6632.69
743.483	6693.03
743.823	6646.93
744.162	6709.53
744.502	6678.79
744.841	6724.44
745.181	6752.24
745.52	6689.64
745.86	6749.75
746.199	6770.99
746.538	6806.02
746.877	6850.31
747.216	6843.53
747.556	6866.13
747.895	6831.33
748.234	6935.28
748.573	6947.71
748.911	6982.97
749.25	7014.38
749.589	7065.9
749.928	7112.23
750.267	7162.85
750.605	7206.24
750.944	7255.28
751.283	7230.19
751.621	7307.25
751.96	7374.82
752.298	7414.59
752.636	7513.12
752.975	7471.77
753.313	7608.26
753.651	7715.6
753.989	7697.52
754.327	7789.27
754.666	7810.97
755.004	7924.64
755.342	8014.58
755.679	8109.49
756.017	8140.9
756.355	8273.78
756.693	8368.01
757.031	8463.61
757.368	8526.65
757.706	8647.1
758.044	8690.04
758.381	8815.23
758.719	8965.51
759.056	9010.48
759.394	9069.69
759.731	9123.25
760.068	9285.73
760.405	9320.98
760.743	9441.66
761.08	9629.9
761.417	9624.25
761.754	9776.56
762.091	9878.03
762.428	9961.42
762.765	10015.65
763.102	10162.54
763.438	10217.23
763.775	10341.52
764.112	10433.5
764.449	10509.43
764.785	10649.31
765.122	10682.76
765.458	10698.8
765.795	10849.98
766.131	11028.96
766.467	11026.93
766.804	11134.5
767.14	11154.38
767.476	11254.72
767.812	11276.86
768.148	11424.88
768.485	11503.98
