Data from hue_160_FLMS001491_00015.txt Node
Date: Tue Feb 07 16:50:49 GMT 2017
User: dcchb
Spectrometer: FLMS00149
Trigger mode: 0
Integration Time (sec): 2.000000E-2
Scans to average: 10
Electric dark correction enabled: true
Nonlinearity correction enabled: false
Boxcar width: 0
XAxis mode: Wavelengths
Number of Pixels in Spectrum: 2048
>>>>>Begin Spectral Data<<<<<
341.393	-18.3
341.776	-18.3
342.16	-18.3
342.543	-68.02
342.927	-78.87
343.31	-64.41
343.693	-75.03
344.077	-56.72
344.46	-71.41
344.843	-61.47
345.226	-36.84
345.61	-36.84
345.993	-21.69
346.376	-7.23
346.759	6.55
347.142	24.41
347.525	47.46
347.908	58.08
348.291	81.81
348.674	100.79
349.057	112.54
349.44	117.51
349.823	137.85
350.206	175.14
350.588	184.85
350.971	195.93
351.354	228.02
351.737	235.93
352.119	247.23
352.502	262.82
352.884	274.8
353.267	275.02
353.65	284.96
354.032	299.2
354.414	327
354.797	310.05
355.179	319.77
355.562	319.77
355.944	329.71
356.326	343.27
356.709	321.12
357.091	315.25
357.473	342.14
357.855	342.82
358.238	315.25
358.62	342.14
359.002	325.64
359.384	336.26
359.766	339.65
360.148	332.87
360.53	343.04
360.912	342.36
361.294	335.58
361.676	329.93
362.057	329.71
362.439	348.24
362.821	308.47
363.203	337.17
363.584	314.57
363.966	324.74
364.348	328.58
364.729	331.06
365.111	301.24
365.493	343.27
365.874	324.96
366.256	317.96
366.637	295.36
367.019	298.07
367.4	323.38
367.781	313.21
368.163	323.61
368.544	318.41
368.925	306.66
369.306	326.09
369.688	322.93
370.069	315.7
370.45	303.95
370.831	329.26
371.212	318.18
371.593	310.5
371.974	305.53
372.355	327.45
372.736	305.75
373.117	320.9
373.498	327.45
373.879	321.35
374.26	340.78
374.641	316.6
375.021	299.88
375.402	294.23
375.783	330.61
376.163	319.99
376.544	333.1
376.925	324.74
377.305	333.1
377.686	329.03
378.066	329.26
378.447	316.15
378.827	316.15
379.208	328.8
379.588	341.23
379.968	326.77
380.349	336.26
380.729	329.93
381.109	342.14
381.489	344.17
381.87	351.86
382.25	341.69
382.63	353.66
383.01	344.62
383.39	328.58
383.77	345.98
384.15	341.46
384.53	340.33
384.91	344.17
385.29	350.5
385.67	361.8
386.049	353.66
386.429	369.93
386.809	357.5
387.189	360.22
387.568	366.77
387.948	372.87
388.328	377.84
388.707	363.83
389.087	346.88
389.466	365.87
389.846	379.2
390.225	392.31
390.605	357.73
390.984	366.32
391.363	378.07
391.743	358.63
392.122	381.68
392.501	381.23
392.881	393.44
393.26	371.29
393.639	369.93
394.018	385.53
394.397	368.13
394.776	373.55
395.155	384.17
395.534	382.81
395.913	396.6
396.292	384.85
396.671	395.24
397.05	404.96
397.429	399.54
397.808	404.06
398.186	363.15
398.565	383.27
398.944	395.7
399.323	367.9
399.701	386.43
400.08	380.78
400.458	397.05
400.837	392.08
401.215	411.51
401.594	435.47
401.972	404.74
402.351	394.11
402.729	392.98
403.107	410.61
403.486	406.54
403.864	419.42
404.242	402.48
404.62	425.3
404.999	432.53
405.377	388.69
405.755	430.72
406.133	417.16
406.511	424.4
406.889	446.32
407.267	452.87
407.645	445.19
408.023	426.88
408.401	449.48
408.779	442.02
409.156	459.65
409.534	463.94
409.912	445.86
410.29	449.03
410.667	458.75
411.045	453.1
411.422	474.34
411.8	469.59
412.178	468.24
412.555	472.08
412.933	464.62
413.31	486.54
413.687	494.45
414.065	480.67
414.442	482.47
414.819	502.81
415.197	477.73
415.574	500.55
415.951	514.11
416.328	474.79
416.705	503.04
417.082	524.05
417.46	531.51
417.837	533.55
418.214	519.76
418.591	521.57
418.967	508.01
419.344	531.29
419.721	519.53
420.098	542.58
420.475	538.29
420.852	537.61
421.228	547.56
421.605	532.42
421.982	541.45
422.358	545.07
422.735	567.89
423.111	533.32
423.488	547.78
423.864	590.04
424.241	603.15
424.617	570.83
424.994	587.1
425.37	578.29
425.746	599.31
426.123	617.38
426.499	604.28
426.875	591.85
427.251	578.52
427.627	625.07
428.003	621.45
428.379	611.51
428.756	602.92
429.132	624.39
429.507	634.33
429.883	650.6
430.259	639.98
430.635	668.91
431.011	644.05
431.387	664.16
431.763	648.8
432.138	664.16
432.514	677.95
432.89	711.62
433.265	672.52
433.641	710.72
434.016	716.14
434.392	728.34
434.767	711.39
435.143	717.27
435.518	721.11
435.894	708.91
436.269	723.14
436.644	749.58
437.02	731.51
437.395	754.78
437.77	760.21
438.145	754.33
438.52	753.43
438.895	774.22
439.271	789.13
439.646	786.87
440.021	807.66
440.395	802.69
440.77	810.83
441.145	803.37
441.52	831.62
441.895	835.23
442.27	832.75
442.645	838.4
443.019	856.02
443.394	849.7
443.769	838.17
444.143	857.38
444.518	889.69
444.892	861.22
445.267	865.74
445.641	880.2
446.016	878.62
446.39	875.46
446.764	887.43
447.139	907.77
447.513	901.45
447.887	931.73
448.262	906.87
448.636	905.51
449.01	927.21
449.384	946.87
449.758	942.12
450.132	957.04
450.506	963.82
450.88	995.91
451.254	960.65
451.628	988.9
452.002	980.77
452.376	996.81
452.75	1001.56
453.123	1013.98
453.497	1044.49
453.871	1041.55
454.244	1068.45
454.618	1038.16
454.992	1045.62
455.365	1063.47
455.739	1111.84
456.112	1107.99
456.486	1103.47
456.859	1117.94
457.232	1134.21
457.606	1145.28
457.979	1146.86
458.352	1192.96
458.725	1200.87
459.099	1195.22
459.472	1209.23
459.845	1230.7
460.218	1200.87
460.591	1240.87
460.964	1251.72
461.337	1269.12
461.71	1303.47
462.083	1309.34
462.456	1307.54
462.829	1343.02
463.201	1359.74
463.574	1356.57
463.947	1377.82
464.32	1438.38
464.692	1433.63
465.065	1434.54
465.438	1492.16
465.81	1524.93
466.183	1530.13
466.555	1546.85
466.928	1535.55
467.3	1570.81
467.672	1607.87
468.045	1647.19
468.417	1652.39
468.789	1647.19
469.161	1691.71
469.534	1721.31
469.906	1788.88
470.278	1799.73
470.65	1826.17
471.022	1837.69
471.394	1917.69
471.766	1921.31
472.138	1948.2
472.51	1978.48
472.882	2035.65
473.253	2075.88
473.625	2132.15
473.997	2146.16
474.369	2196.1
474.74	2245.59
475.112	2301.86
475.484	2335.08
475.855	2382.54
476.227	2431.8
476.598	2511.12
476.97	2571.91
477.341	2626.37
477.713	2713.15
478.084	2734.39
478.455	2814.16
478.827	2884.67
479.198	3013.93
479.569	3031.11
479.94	3109.52
480.311	3181.39
480.682	3298.9
481.053	3379.12
481.424	3456.18
481.795	3537.76
482.166	3656.4
482.537	3750.18
482.908	3830.63
483.279	3884.64
483.65	4037.41
484.021	4150.17
484.391	4215.48
484.762	4283.28
485.133	4429.94
485.503	4479.88
485.874	4619.77
486.244	4726.2
486.615	4858.18
486.985	4997.83
487.356	5100.43
487.726	5176.14
488.097	5354.89
488.467	5432.63
488.837	5606.63
489.207	5695.22
489.578	5866.29
489.948	5968.2
490.318	6091.59
490.688	6156.22
491.058	6285.71
491.428	6470.56
491.798	6576.1
492.168	6749.88
492.538	6800.05
492.908	6958.69
493.278	7128.17
493.648	7118.23
494.017	7363.87
494.387	7462.85
494.757	7520.03
495.126	7649.97
495.496	7809.29
495.866	7858.32
496.235	7972.45
496.605	8152.33
496.974	8247.01
497.344	8315.94
497.713	8407.46
498.082	8511.64
498.452	8663.95
498.821	8697.62
499.19	8758.19
499.559	8867.56
499.928	8975.36
500.298	9115.92
500.667	9248.8
501.036	9252.19
501.405	9360.43
501.774	9472.07
502.143	9535.12
502.512	9594.32
502.88	9719.74
503.249	9678.16
503.618	9831.61
503.987	9852.85
504.356	9958.16
504.724	10062.79
505.093	10058.27
505.462	10161.77
505.83	10227.98
506.199	10358.15
506.567	10418.03
506.936	10352.95
507.304	10517.24
507.672	10583.22
508.041	10620.74
508.409	10704.35
508.777	10751.36
509.145	10841.3
509.514	10876.78
509.882	10949.09
510.25	10962.65
510.618	10966.94
510.986	11095.53
511.354	11084
511.722	11205.36
512.09	11305.92
512.458	11213.72
512.826	11309.99
513.193	11335.3
513.561	11453.26
513.929	11419.36
514.297	11527.38
514.664	11509.98
515.032	11601.5
515.4	11593.59
515.767	11658
516.135	11756.08
516.502	11637.43
516.869	11760.82
517.237	11770.76
517.604	11746.58
517.972	11822.51
518.339	11838.78
518.706	11889.4
519.073	11894.15
519.44	11949.97
519.808	11950.87
520.175	11908.39
520.542	12059.12
520.909	12101.38
521.276	12102.05
521.643	12097.99
522.009	12163.07
522.376	12173.01
522.743	12213.92
523.11	12350.64
523.477	12352.22
523.843	12374.36
524.21	12398.09
524.577	12478.54
524.943	12471.99
525.31	12465.66
525.676	12572.32
526.043	12518.54
526.409	12580.01
526.776	12636.73
527.142	12636.5
527.508	12609.16
527.874	12632.21
528.241	12557.41
528.607	12622.94
528.973	12644.41
529.339	12589.05
529.705	12755.14
530.071	12737.29
530.437	12746.11
530.803	12655.94
531.169	12721.7
531.535	12725.09
531.901	12657.07
532.267	12666.56
532.632	12697.52
532.998	12736.16
533.364	12665.43
533.73	12614.81
534.095	12653.45
534.461	12646.67
534.826	12630.63
535.192	12599.22
535.557	12655.49
535.923	12589.27
536.288	12579.78
536.653	12576.84
537.019	12469.05
537.384	12477.64
537.749	12406.91
538.114	12426.34
538.479	12344.99
538.845	12394.7
539.21	12351.77
539.575	12313.35
539.94	12195.39
540.305	12261.15
540.67	12212.33
541.034	12187.02
541.399	12214.82
541.764	12179.34
542.129	12123.3
542.494	12116.74
542.858	12005.33
543.223	12022.51
543.587	11988.39
543.952	11997.88
544.316	11979.57
544.681	11954.26
545.045	11887.82
545.41	11902.29
545.774	11822.74
546.138	11837.43
546.503	11818.9
546.867	11759.46
547.231	11787.49
547.595	11710.65
547.959	11703.87
548.324	11659.81
548.688	11653.48
549.052	11622.29
549.416	11568.06
549.779	11509.53
550.143	11459.36
550.507	11485.12
550.871	11469.75
551.235	11371.68
551.599	11425.46
551.962	11415.75
552.326	11401.51
552.689	11331.68
553.053	11279.7
553.417	11289.87
553.78	11414.16
554.143	11284.22
554.507	11238.12
554.87	11236.99
555.234	11298.23
555.597	11163.1
555.96	11239.7
556.323	11226.82
556.686	11117.45
557.05	11171.68
557.413	11167.84
557.776	11150.89
558.139	11271.57
558.502	11106.15
558.865	11037.22
559.228	11148.86
559.59	11107.28
559.953	11084
560.316	11137.11
560.679	11120.61
561.041	11082.87
561.404	11185.47
561.767	11159.93
562.129	11092.82
562.492	11160.38
562.854	11077.45
563.217	11113.61
563.579	11120.84
563.941	11108.63
564.304	11126.71
564.666	11218.01
565.028	11263.88
565.39	11145.02
565.753	11261.4
566.115	11240.16
566.477	11266.14
566.839	11288.29
567.201	11306.37
567.563	11289.65
567.925	11361.96
568.287	11265.47
568.648	11311.79
569.01	11380.94
569.372	11323.77
569.734	11349.98
570.095	11363.54
570.457	11370.1
570.819	11388.63
571.18	11392.92
571.542	11367.38
571.903	11320.15
572.265	11453.03
572.626	11420.49
572.987	11446.03
573.349	11431.11
573.71	11508.17
574.071	11421.62
574.432	11463.88
574.794	11558.11
575.155	11524.67
575.516	11421.39
575.877	11487.38
576.238	11564.44
576.599	11500.94
576.96	11478.79
577.32	11547.94
577.681	11560.83
578.042	11501.17
578.403	11495.29
578.763	11549.53
579.124	11515.86
579.485	11592.69
579.845	11623.2
580.206	11515.4
580.566	11488.51
580.927	11520.15
581.287	11531
581.648	11505.01
582.008	11566.48
582.368	11496.19
582.728	11556.76
583.089	11482.41
583.449	11485.12
583.809	11428.4
584.169	11523.99
584.529	11444.9
584.889	11551.11
585.249	11481.73
585.609	11430.21
585.969	11569.41
586.329	11446.93
586.688	11480.15
587.048	11432.92
587.408	11423.88
587.768	11397.89
588.127	11403.77
588.487	11364.67
588.846	11389.76
589.206	11407.61
589.565	11443.31
589.925	11409.87
590.284	11421.85
590.643	11328.52
591.003	11438.57
591.362	11389.53
591.721	11378.01
592.08	11369.87
592.44	11347.27
592.799	11353.83
593.158	11340.27
593.517	11332.13
593.876	11293.26
594.235	11282.19
594.593	11310.44
594.952	11363.54
595.311	11267.27
595.67	11317.89
596.029	11353.83
596.387	11391.11
596.746	11365.8
597.104	11321.28
597.463	11261.85
597.822	11312.24
598.18	11295.97
598.538	11233.38
598.897	11274.73
599.255	11175.3
599.613	11330.32
599.972	11307.05
600.33	11366.03
600.688	11219.14
601.046	11306.82
601.404	11337.55
601.762	11282.64
602.12	11314.5
602.478	11278.12
602.836	11400.38
603.194	11265.01
603.552	11293.26
603.91	11305.92
604.268	11268.63
604.625	11368.51
604.983	11274.96
605.341	11224.34
605.698	11307.27
606.056	11287.61
606.413	11349.08
606.771	11313.37
607.128	11354.5
607.485	11276.09
607.843	11207.39
608.2	11302.98
608.557	11338.68
608.914	11339.36
609.272	11384.33
609.629	11371.45
609.986	11376.2
610.343	11343.88
610.7	11424.33
611.057	11379.14
611.414	11347.95
611.771	11370.32
612.127	11431.34
612.484	11473.14
612.841	11417.55
613.198	11371.23
613.554	11377.78
613.911	11499.58
614.267	11437.21
614.624	11389.53
614.98	11407.84
615.337	11475.86
615.693	11510.21
616.05	11492.81
616.406	11533.71
616.762	11502.3
617.118	11487.83
617.475	11536.42
617.831	11556.31
618.187	11525.57
618.543	11539.36
618.899	11571.22
619.255	11607.6
619.611	11607.38
619.967	11592.01
620.323	11685.79
620.678	11515.18
621.034	11575.97
621.39	11529.87
621.746	11477.21
622.101	11659.58
622.457	11543.88
622.812	11556.53
623.168	11656.19
623.523	11566.02
623.879	11597.21
624.234	11518.57
624.589	11592.92
624.945	11628.39
625.3	11609.41
625.655	11623.65
626.01	11602.41
626.365	11627.26
626.72	11655.51
627.075	11616.42
627.43	11573.48
627.785	11634.27
628.14	11522.63
628.495	11622.52
628.85	11691.44
629.205	11501.39
629.559	11662.74
629.914	11495.97
630.269	11507.72
630.623	11494.84
630.978	11479.47
631.332	11556.08
631.687	11471.56
632.041	11522.86
632.396	11516.08
632.75	11434.95
633.104	11492.35
633.459	11406.03
633.813	11464.11
634.167	11453.26
634.521	11398.12
634.875	11385.69
635.229	11303.43
635.583	11359.02
635.937	11223.21
636.291	11334.39
636.645	11288.29
636.999	11237.44
637.352	11367.61
637.706	11286.93
638.06	11332.36
638.413	11275.64
638.767	11262.53
639.121	11290.32
639.474	11188.86
639.828	11180.5
640.181	11196.99
640.534	11201.29
640.888	11183.43
641.241	11138.69
641.594	11193.83
641.947	11159.48
642.301	11179.82
642.654	11086.26
643.007	11164.45
643.36	11054.62
643.713	11111.57
644.066	11172.14
644.419	11073.61
644.771	11031.57
645.124	10868.41
645.477	10885.36
645.83	10685.14
646.182	10742.32
646.535	10749.77
646.888	10742.54
647.24	10683.33
647.593	10851.69
647.945	10741.41
648.298	10728.31
648.65	10688.08
649.002	10690.57
649.355	10680.4
649.707	10715.42
650.059	10736.21
650.411	10906.61
650.763	10894.4
651.115	11021.41
651.467	10950.9
651.819	10960.39
652.171	10963.1
652.523	10873.61
652.875	10907.06
653.227	10893.72
653.578	10991.8
653.93	10985.25
654.282	10945.47
654.633	10838.81
654.985	10878.81
655.337	10931.24
655.688	10971.01
656.039	11021.18
656.391	10873.16
656.742	10925.81
657.094	10931.92
657.445	11006.72
657.796	10924.68
658.147	10989.09
658.498	10907.06
658.849	10933.72
659.2	10906.61
659.551	10895.31
659.902	10965.36
660.253	10904.35
660.604	10976.66
660.955	10958.81
661.306	10976.43
661.656	10973.04
662.007	11081.29
662.358	10983.67
662.708	10961.97
663.059	11008.07
663.409	10955.64
663.76	10991.12
664.11	11020.73
664.461	11000.61
664.811	11089.43
665.161	11010.33
665.511	10970.11
665.862	11057.34
666.212	11084.91
666.562	10997.9
666.912	10956.1
667.262	11036.32
667.612	11001.97
667.962	11011.91
668.312	10912.48
668.662	11009.88
669.011	10954.29
669.361	10957.23
669.711	10965.81
670.06	10960.84
670.41	10979.6
670.76	10960.39
671.109	10992.48
671.459	10936.21
671.808	10918.81
672.157	10947.96
672.507	10902.76
672.856	10911.58
673.205	10895.08
673.554	10998.35
673.904	10912.03
674.253	10932.59
674.602	10870
674.951	10741.86
675.3	10733.5
675.649	10869.32
675.998	10882.65
676.346	10869.32
676.695	10888.75
677.044	10808.08
677.393	10809.66
677.741	10780.28
678.09	10776.21
678.438	10724.01
678.787	10812.15
679.135	10820.73
679.484	10702.32
679.832	10721.98
680.181	10704.58
680.529	10708.19
680.877	10677.46
681.225	10665.93
681.573	10760.17
681.922	10661.64
682.27	10576.67
682.618	10615.77
682.966	10578.7
683.314	10513.62
683.661	10565.6
684.009	10419.61
684.357	10437.92
684.705	10466.84
685.053	10473.17
685.4	10432.49
685.748	10416.45
686.095	10368.09
686.443	10329.22
686.79	10325.15
687.138	10383.68
687.485	10376.68
687.832	10259.84
688.18	10206.96
688.527	10119.06
688.874	10196.34
689.221	10177.59
689.568	10100.3
689.915	10147.08
690.262	10091.49
690.609	10038.15
690.956	10080.19
691.303	10018.04
691.65	9999.96
691.997	9977.59
692.344	9924.26
692.69	9882.68
693.037	9877.93
693.383	9800.87
693.73	9861.44
694.077	9790.03
694.423	9733.76
694.769	9686.98
695.116	9749.12
695.462	9684.72
695.808	9655.57
696.155	9631.61
696.501	9551.84
696.847	9542.57
697.193	9469.58
697.539	9496.47
697.885	9440.66
698.231	9395.91
698.577	9368.12
698.923	9371.51
699.269	9306.42
699.614	9237.5
699.96	9176.26
700.306	9232.75
700.651	9180.32
700.997	9096.48
701.342	9153.88
701.688	9095.35
702.033	9007.22
702.379	9049.48
702.724	8984.62
703.069	9015.81
703.415	8943.04
703.76	8885.87
704.105	8935.58
704.45	8861.01
704.795	8887
705.14	8834.57
705.485	8792.54
705.83	8730.39
706.175	8715.03
706.52	8722.26
706.865	8698.75
707.209	8615.59
707.554	8658.08
707.899	8629.15
708.243	8555.26
708.588	8600
708.932	8477.97
709.277	8508.93
709.621	8486.1
709.966	8426.67
710.31	8456.05
710.654	8392.77
710.998	8381.7
711.342	8375.82
711.687	8350.06
712.031	8276.39
712.375	8259.67
712.719	8339.22
713.063	8247.92
713.407	8313.45
713.75	8280.46
714.094	8247.92
714.438	8209.73
714.782	8209.73
715.125	8182.16
715.469	8199.33
715.812	8171.54
716.156	8094.7
716.499	8119.11
716.843	8091.09
717.186	8136.06
717.53	8102.84
717.873	8102.61
718.216	8077.98
718.559	8040.92
718.902	7955.95
719.246	8016.51
719.589	7996.4
719.932	7950.3
720.275	7956.63
720.617	8022.16
720.96	7953.92
721.303	7970.64
721.646	7959.79
721.989	7875.5
722.331	7893.58
722.674	7912.11
723.016	7933.12
723.359	7888.61
723.701	7881.83
724.044	7847.48
724.386	7875.73
724.729	7882.28
725.071	7802.51
725.413	7857.87
725.755	7828.49
726.097	7795.28
726.439	7781.04
726.782	7739.68
727.124	7846.12
727.465	7756.18
727.807	7810.87
728.149	7736.52
728.491	7718.89
728.833	7793.47
729.175	7717.54
729.516	7752.56
729.858	7671.66
730.199	7749.4
730.541	7793.24
730.882	7806.57
731.224	7772.68
731.565	7715.96
731.906	7769.74
732.248	7732
732.589	7684.32
732.93	7796.86
733.271	7751.43
733.612	7760.47
733.953	7830.08
734.294	7741.72
734.635	7719.12
734.976	7763.64
735.317	7732.23
735.658	7722.28
735.999	7746.24
736.339	7754.82
736.68	7766.8
737.021	7810.87
737.361	7706.46
737.702	7756.63
738.042	7727.93
738.383	7745.79
738.723	7785.56
739.063	7763.19
739.404	7824.43
739.744	7788.04
740.084	7835.5
740.424	7832.79
740.764	7734.26
741.104	7763.86
741.444	7869.62
741.784	7823.52
742.124	7908.04
742.464	7817.87
742.804	7912.79
743.143	7921.37
743.483	7929.28
743.823	7922.73
744.162	7956.85
744.502	8014.03
744.841	7972.45
745.181	8058.55
745.52	8040.47
745.86	8118.43
746.199	8114.81
746.538	8205.21
746.877	8249.95
747.216	8289.95
747.556	8329.95
747.895	8388.03
748.234	8378.31
748.573	8421.47
748.911	8499.66
749.25	8550.28
749.589	8560
749.928	8655.14
750.267	8670.05
750.605	8723.39
750.944	8850.84
751.283	8842.48
751.621	8967
751.96	9034.34
752.298	9054.9
752.636	9229.81
752.975	9274.78
753.313	9303.94
753.651	9438.85
753.989	9537.83
754.327	9645.62
754.666	9701.89
755.004	9823.24
755.342	9946.86
755.679	10100.07
756.017	10207.19
756.355	10325.38
756.693	10453.96
757.031	10601.3
757.368	10605.14
757.706	10776.89
758.044	10942.09
758.381	11065.7
758.719	11191.12
759.056	11398.8
759.394	11556.08
759.731	11584.1
