Data from hue_200_FLMS001491_00036.txt Node
Date: Tue Feb 07 16:43:11 GMT 2017
User: dcchb
Spectrometer: FLMS00149
Trigger mode: 0
Integration Time (sec): 2.000000E-2
Scans to average: 10
Electric dark correction enabled: true
Nonlinearity correction enabled: false
Boxcar width: 0
XAxis mode: Wavelengths
Number of Pixels in Spectrum: 2048
>>>>>Begin Spectral Data<<<<<
341.393	-35.71
341.776	-35.71
342.16	-35.71
342.543	-51.98
342.927	-70.51
343.31	-71.86
343.693	-48.59
344.077	-59.21
344.46	-71.18
344.843	-63.28
345.226	-37.29
345.61	-35.03
345.993	-31.41
346.376	-7.23
346.759	4.52
347.142	23.5
347.525	65.31
347.908	59.66
348.291	79.77
348.674	87
349.057	105.31
349.44	121.13
349.823	162.48
350.206	168.13
350.588	170.17
350.971	216.04
351.354	227.79
351.737	240.45
352.119	237.51
352.502	280.67
352.884	290.39
353.267	293.55
353.65	282.7
354.032	298.75
354.414	328.35
354.797	316.6
355.179	327.9
355.562	324.74
355.944	324.29
356.326	327.22
356.709	352.76
357.091	322.7
357.473	346.66
357.855	335.58
358.238	335.36
358.62	353.44
359.002	357.28
359.384	337.39
359.766	338.07
360.148	340.56
360.53	343.72
360.912	350.73
361.294	359.54
361.676	307.79
362.057	318.86
362.439	338.3
362.821	317.73
363.203	329.03
363.584	325.19
363.966	318.18
364.348	343.04
364.729	310.27
365.111	325.87
365.493	333.78
365.874	310.5
366.256	332.19
366.637	311.4
367.019	319.54
367.4	333.55
367.781	299.43
368.163	319.99
368.544	325.87
368.925	322.25
369.306	305.53
369.688	320.9
370.069	321.57
370.45	327.9
370.831	315.92
371.212	309.6
371.593	303.04
371.974	315.92
372.355	315.02
372.736	311.86
373.117	322.25
373.498	333.1
373.879	313.44
374.26	326.09
374.641	304.62
375.021	316.6
375.402	324.06
375.783	346.66
376.163	321.57
376.544	344.4
376.925	319.99
377.305	347.34
377.686	335.81
378.066	336.26
378.447	319.77
378.827	309.82
379.208	335.81
379.588	330.61
379.968	342.59
380.349	323.61
380.729	332.19
381.109	333.78
381.489	342.14
381.87	350.73
382.25	348.24
382.63	330.61
383.01	346.66
383.39	344.4
383.77	334.68
384.15	362.02
384.53	358.41
384.91	358.41
385.29	368.35
385.67	348.92
386.049	364.74
386.429	357.96
386.809	361.57
387.189	350.5
387.568	381.91
387.948	349.37
388.328	358.63
388.707	355.7
389.087	384.4
389.466	364.06
389.846	382.36
390.225	369.71
390.605	387.33
390.984	372.19
391.363	356.15
391.743	390.72
392.122	393.66
392.501	392.76
392.881	376.04
393.26	383.04
393.639	408.58
394.018	390.5
394.397	414.45
394.776	404.51
395.155	388.24
395.534	403.38
395.913	395.02
396.292	393.21
396.671	412.19
397.05	404.51
397.429	423.72
397.808	428.01
398.186	433.43
398.565	415.13
398.944	431.4
399.323	423.72
399.701	415.81
400.08	438.18
400.458	416.49
400.837	444.28
401.215	434.11
401.594	452.64
401.972	446.09
402.351	456.03
402.729	459.87
403.107	444.28
403.486	474.56
403.864	471.63
404.242	471.4
404.62	479.08
404.999	481.12
405.377	479.99
405.755	471.63
406.133	485.86
406.511	494
406.889	512.98
407.267	494.22
407.645	538.06
408.023	537.61
408.401	524.73
408.779	550.95
409.156	542.36
409.534	538.29
409.912	543.71
410.29	573.54
410.667	585.07
411.045	582.58
411.422	571.74
411.8	598.85
412.178	603.37
412.555	629.14
412.933	639.08
413.31	653.09
413.687	641.34
414.065	661.45
414.442	675.91
414.819	685.18
415.197	689.02
415.574	725.63
415.951	713.43
416.328	726.08
416.705	720.21
417.082	750.04
417.46	726.08
417.837	742.13
418.214	773.76
418.591	777.38
418.967	803.37
419.344	816.25
419.721	816.25
420.098	844.05
420.475	842.01
420.852	865.97
421.228	872.29
421.605	879.98
421.982	898.96
422.358	936.7
422.735	943.93
423.111	941.44
423.488	944.16
423.864	979.41
424.241	998.62
424.617	1023.25
424.994	1050.37
425.37	1040.88
425.746	1082.91
426.123	1065.06
426.499	1087.2
426.875	1093.08
427.251	1128.78
427.627	1166.52
428.003	1167.88
428.379	1171.04
428.756	1200.87
429.132	1215.34
429.507	1219.63
429.883	1227.54
430.259	1266.86
430.635	1245.39
431.011	1308.67
431.387	1315.67
431.763	1324.03
432.138	1353.41
432.514	1389.57
432.89	1392.96
433.265	1416.01
433.641	1421.21
434.016	1457.14
434.392	1479.96
434.767	1524.71
435.143	1523.8
435.518	1560.18
435.894	1604.25
436.269	1624.14
436.644	1635.44
437.02	1690.35
437.395	1701.2
437.77	1736.23
438.145	1768.09
438.52	1820.07
438.895	1830.91
439.271	1814.42
439.646	1885.6
440.021	1921.76
440.395	1941.19
440.77	1949.1
441.145	1969.44
441.52	2040.4
441.895	2000.4
442.27	2048.76
442.645	2086.05
443.019	2093.05
443.394	2110
443.769	2105.93
444.143	2182.99
444.518	2183.9
444.892	2177.34
445.267	2204.01
445.641	2275.87
446.016	2272.03
446.39	2310
446.764	2348.41
447.139	2305.7
447.513	2348.19
447.887	2360.16
448.262	2398.13
448.636	2393.84
449.01	2440.39
449.384	2440.39
449.758	2472.03
450.132	2496.88
450.506	2489.65
450.88	2526.49
451.254	2568.52
451.628	2592.7
452.002	2584.34
452.376	2620.5
452.75	2659.59
453.123	2688.74
453.497	2710.21
453.871	2723.32
454.244	2797.44
454.618	2821.39
454.992	2826.82
455.365	2869.3
455.739	2942.07
456.112	2923.76
456.486	2950.66
456.859	2980.71
457.232	3022.07
457.606	3022.07
457.979	3095.96
458.352	3151.1
458.725	3222.51
459.099	3194.72
459.472	3265.22
459.845	3305.68
460.218	3303.42
460.591	3350.87
460.964	3403.3
461.337	3427.25
461.71	3522.85
462.083	3574.6
462.456	3591.09
462.829	3579.11
463.201	3633.8
463.574	3649.17
463.947	3706.57
464.32	3803.52
464.692	3825.89
465.065	3883.06
465.438	3927.35
465.81	3922.61
466.183	4009.84
466.555	4056.16
466.928	4091.42
467.3	4074.7
467.672	4116.73
468.045	4283.28
468.417	4301.58
468.789	4342.26
469.161	4350.17
469.534	4384.52
469.906	4537.96
470.278	4502.48
470.65	4626.55
471.022	4701.57
471.394	4779.99
471.766	4767.11
472.138	4869.48
472.51	4894.11
472.882	4999.64
473.253	5080.77
473.625	5187.66
473.997	5238.28
474.369	5272.86
474.74	5336.81
475.112	5382.23
475.484	5535.45
475.855	5592.62
476.227	5693.64
476.598	5780.19
476.97	5857.93
477.341	5940.18
477.713	6065.15
478.084	6130.91
478.455	6247.07
478.827	6263.11
479.198	6445.93
479.569	6462.65
479.94	6645.25
480.311	6697
480.682	6798.24
481.053	6968.63
481.424	7053.15
481.795	7149.87
482.166	7186.7
482.537	7313.71
482.908	7434.38
483.279	7488.84
483.65	7624.21
484.021	7775.61
484.391	7860.58
484.762	7902.39
485.133	7984.87
485.503	8061.03
485.874	8224.64
486.244	8364.53
486.615	8453.11
486.985	8526.78
487.356	8617.17
487.726	8734.23
488.097	8888.13
488.467	8948.24
488.837	9093.77
489.207	9160.21
489.578	9300.09
489.948	9362.47
490.318	9449.02
490.688	9539.86
491.058	9644.27
491.428	9802
491.798	9832.06
492.168	10025.05
492.538	10025.73
492.908	10093.52
493.278	10189.56
493.648	10213.74
494.017	10313.4
494.387	10396.56
494.757	10423.91
495.126	10620.51
495.496	10586.39
495.866	10651.47
496.235	10759.72
496.605	10850.56
496.974	10870.9
497.344	10964.23
497.713	10968.53
498.082	10978.92
498.452	11192.47
498.821	11185.02
499.19	11168.29
499.559	11271.57
499.928	11308.86
500.298	11378.46
500.667	11479.92
501.036	11431.34
501.405	11447.83
501.774	11506.59
502.143	11589.98
502.512	11606.47
502.88	11755.17
503.249	11727.38
503.618	11777.77
503.987	11735.06
504.356	11862.74
504.724	11866.13
505.093	11829.52
505.462	11922.62
505.83	11976.18
506.199	12101.83
506.567	12120.36
506.936	12172.34
507.304	12152.45
507.672	12243.29
508.041	12209.4
508.409	12304.76
508.777	12373.91
509.145	12438.99
509.514	12397.64
509.882	12420.01
510.25	12408.71
510.618	12533.46
510.986	12452.1
511.354	12583.62
511.722	12530.74
512.09	12689.16
512.458	12629.05
512.826	12684.64
513.193	12760.34
513.561	12742.04
513.929	12795.37
514.297	12793.11
514.664	12865.42
515.032	12878.31
515.4	12935.71
515.767	12911.75
516.135	12908.59
516.502	12793.79
516.869	13027.45
517.237	12944.74
517.604	12938.19
517.972	13102.03
518.339	13059.54
518.706	12982.94
519.073	13010.28
519.44	13131.86
519.808	13170.73
520.175	13124.4
520.542	13202.14
520.909	13250.05
521.276	13124.4
521.643	13261.12
522.009	13293.21
522.376	13348.58
522.743	13238.97
523.11	13334.11
523.477	13357.61
523.843	13423.6
524.21	13471.28
524.577	13519.64
524.943	13517.84
525.31	13474.45
525.676	13579.08
526.043	13563.03
526.409	13615.91
526.776	13671.96
527.142	13513.77
527.508	13580.66
527.874	13648.23
528.241	13648.23
528.607	13543.82
528.973	13694.78
529.339	13560.32
529.705	13702.01
530.071	13696.59
530.437	13685.52
530.803	13714.44
531.169	13713.76
531.535	13499.31
531.901	13489.14
532.267	13582.24
532.632	13540.21
532.998	13513.99
533.364	13619.53
533.73	13499.08
534.095	13519.64
534.461	13511.51
534.826	13512.19
535.192	13450.49
535.557	13463.15
535.923	13387.9
536.288	13429.93
536.653	13416.82
537.019	13265.19
537.384	13260.44
537.749	13275.58
538.114	13196.94
538.479	13144.97
538.845	13250.05
539.21	13119.66
539.575	13070.39
539.94	13035.36
540.305	13008.47
540.67	13021.35
541.034	12976.38
541.399	12925.54
541.764	12857.97
542.129	12847.35
542.494	12815.48
542.858	12788.36
543.223	12733.22
543.587	12727.35
543.952	12680.8
544.316	12636.28
544.681	12593.79
545.045	12624.07
545.41	12584.98
545.774	12493.91
546.138	12395.15
546.503	12436.06
546.867	12390.41
547.231	12335.49
547.595	12328.72
547.959	12336.85
548.324	12178.21
548.688	12173.92
549.052	12101.15
549.416	12050.98
549.779	12064.99
550.143	12040.59
550.507	12032.45
550.871	11998.33
551.235	11949.74
551.599	11925.56
551.962	11844.21
552.326	11771.67
552.689	11840.37
553.053	11718.79
553.417	11688.05
553.78	11765.11
554.143	11704.78
554.507	11699.81
554.87	11682.86
555.234	11640.82
555.597	11562.41
555.96	11589.98
556.323	11561.28
556.686	11573.71
557.05	11514.5
557.413	11505.46
557.776	11504.33
558.139	11550.88
558.502	11474.05
558.865	11437.21
559.228	11467.72
559.59	11407.38
559.953	11441.96
560.316	11526.93
560.679	11392.02
561.041	11438.57
561.404	11340.27
561.767	11477.89
562.129	11369.19
562.492	11435.63
562.854	11394.5
563.217	11378.46
563.579	11366.48
563.941	11421.39
564.304	11464.56
564.666	11469.98
565.028	11375.52
565.39	11406.48
565.753	11465.69
566.115	11443.09
566.477	11477.44
566.839	11455.74
567.201	11468.17
567.563	11512.69
567.925	11464.78
568.287	11430.66
568.648	11473.6
569.01	11448.51
569.372	11534.61
569.734	11509.3
570.095	11596.76
570.457	11561.73
570.819	11533.03
571.18	11539.81
571.542	11580.26
571.903	11554.72
572.265	11491.9
572.626	11565.35
572.987	11640.15
573.349	11567.83
573.71	11617.1
574.071	11549.3
574.432	11617.32
574.794	11702.74
575.155	11630.2
575.516	11636.3
575.877	11626.81
576.238	11671.11
576.599	11656.87
576.96	11666.59
577.32	11668.85
577.681	11701.84
578.042	11750.65
578.403	11709.52
578.763	11711.1
579.124	11681.5
579.485	11732.12
579.845	11692.8
580.206	11675.17
580.566	11758.79
580.927	11737.09
581.287	11695.51
581.648	11551.11
582.008	11733.48
582.368	11668.62
582.728	11711.1
583.089	11688.28
583.449	11720.82
583.809	11684.66
584.169	11624.78
584.529	11635.17
584.889	11699.13
585.249	11681.5
585.609	11648.73
585.969	11709.97
586.329	11575.74
586.688	11702.97
587.048	11707.26
587.408	11582.07
587.768	11602.18
588.127	11690.99
588.487	11654.83
588.846	11694.61
589.206	11576.64
589.565	11528.06
589.925	11628.17
590.284	11537.55
590.643	11593.37
591.003	11593.82
591.362	11561.96
591.721	11538.45
592.08	11508.17
592.44	11589.07
592.799	11565.8
593.158	11545.23
593.517	11581.16
593.876	11535.52
594.235	11552.24
594.593	11480.83
594.952	11516.53
595.311	11436.54
595.67	11443.77
596.029	11602.41
596.387	11571.67
596.746	11620.71
597.104	11527.38
597.463	11530.32
597.822	11556.76
598.18	11525.35
598.538	11445.8
598.897	11493.48
599.255	11367.84
599.613	11554.72
599.972	11477.89
600.33	11497.55
600.688	11500.04
601.046	11448.74
601.404	11485.12
601.762	11525.57
602.12	11600.37
602.478	11534.16
602.836	11491.68
603.194	11457.33
603.552	11456.42
603.91	11442.41
604.268	11462.75
604.625	11389.76
604.983	11485.35
605.341	11503.2
605.698	11458.91
606.056	11499.13
606.413	11481.73
606.771	11612.8
607.128	11396.54
607.485	11463.65
607.843	11499.58
608.2	11515.18
608.557	11599.69
608.914	11530.32
609.272	11483.77
609.629	11597.66
609.986	11582.75
610.343	11500.94
610.7	11644.44
611.057	11615.74
611.414	11644.44
611.771	11664.33
612.127	11685.12
612.484	11618
612.841	11677.43
613.198	11628.85
613.554	11662.97
613.911	11669.52
614.267	11632.91
614.624	11623.88
614.98	11651.67
615.337	11703.2
615.693	11727.38
616.05	11704.33
616.406	11790.88
616.762	11649.41
617.118	11782.52
617.475	11692.57
617.831	11728.05
618.187	11724.89
618.543	11764.89
618.899	11764.21
619.255	11738.67
619.611	11841.5
619.967	11884.66
620.323	11794.72
620.678	11839.24
621.034	11724.66
621.39	11714.27
621.746	11736.87
622.101	11819.8
622.457	11712.91
622.812	11801.95
623.168	11802.85
623.523	11789.97
623.879	11837.2
624.234	11792.68
624.589	11778.9
624.945	11809.41
625.3	11834.94
625.655	11714.49
626.01	11760.37
626.365	11820.25
626.72	11746.58
627.075	11686.25
627.43	11719.69
627.785	11586.81
628.14	11709.52
628.495	11703.65
628.85	11670.65
629.205	11669.75
629.559	11721.95
629.914	11622.07
630.269	11697.32
630.623	11642.63
630.978	11702.07
631.332	11687.15
631.687	11619.13
632.041	11599.47
632.396	11643.76
632.75	11582.29
633.104	11517.21
633.459	11538
633.813	11507.27
634.167	11465.69
634.521	11548.17
634.875	11463.2
635.229	11458.46
635.583	11432.24
635.937	11416.42
636.291	11389.76
636.645	11397.89
636.999	11350.21
637.352	11368.97
637.706	11272.25
638.06	11454.16
638.413	11442.19
638.767	11350.66
639.121	11296.65
639.474	11279.25
639.828	11239.03
640.181	11338.01
640.534	11293.04
640.888	11229.54
641.241	11239.48
641.594	11212.36
641.947	11251.68
642.301	11327.39
642.654	11196.77
643.007	11234.96
643.36	11227.5
643.713	11150.67
644.066	11266.6
644.419	11158.58
644.771	11090.1
645.124	10952.03
645.477	11056.43
645.83	10915.42
646.182	10801.52
646.535	10873.16
646.888	10857.34
647.24	10820.73
647.593	10864.8
647.945	10810.79
648.298	10740.73
648.65	10676.78
649.002	10701.64
649.355	10780.06
649.707	10785.25
650.059	10841.07
650.411	10919.26
650.763	10947.06
651.115	11129.65
651.467	11006.26
651.819	11046.49
652.171	10988.86
652.523	10957.45
652.875	10983.67
653.227	11018.02
653.578	11039.94
653.93	10895.53
654.282	10987.96
654.633	10912.48
654.985	10946.38
655.337	11031.35
655.688	11021.18
656.039	11082.65
656.391	11009.43
656.742	10904.8
657.094	11043.78
657.445	11049.65
657.796	11022.76
658.147	11023.44
658.498	10965.14
658.849	11045.36
659.2	11053.95
659.551	10962.88
659.902	10974.4
660.253	11029.77
660.604	10963.78
660.955	11008.3
661.306	11034.96
661.656	11003.55
662.007	11009.65
662.358	11000.84
662.708	11008.75
663.059	10977.34
663.409	10972.59
663.76	11031.35
664.11	10962.2
664.461	11085.58
664.811	11130.55
665.161	11053.27
665.511	10986.38
665.862	11015.76
666.212	11085.36
666.562	11017.56
666.912	11096.88
667.262	11053.27
667.612	11083.1
667.962	11042.65
668.312	11007.17
668.662	11079.93
669.011	11055.3
669.361	11041.52
669.711	11051.91
670.06	11012.37
670.41	10950.45
670.76	11006.94
671.109	11042.2
671.459	10993.16
671.808	10901.63
672.157	10967.85
672.507	10888.53
672.856	10960.84
673.205	10907.96
673.554	10948.41
673.904	10957.9
674.253	10987.73
674.602	10936.44
674.951	10764.01
675.3	10697.12
675.649	10869.32
675.998	10896.89
676.346	10831.35
676.695	10873.39
677.044	10856.21
677.393	10776.21
677.741	10865.25
678.09	10744.35
678.438	10731.24
678.787	10763.56
679.135	10752.03
679.484	10694.86
679.832	10676.56
680.181	10761.98
680.529	10728.76
680.877	10628.2
681.225	10692.83
681.573	10747.51
681.922	10639.04
682.27	10515.2
682.618	10563.34
682.966	10558.37
683.314	10600.17
683.661	10508.2
684.009	10459.84
684.357	10458.48
684.705	10414.19
685.053	10474.75
685.4	10453.06
685.748	10413.51
686.095	10348.43
686.443	10280.86
686.79	10306.17
687.138	10259.39
687.485	10332.61
687.832	10224.82
688.18	10284.93
688.527	10197.25
688.874	10203.57
689.221	10117.47
689.568	10111.82
689.915	10081.99
690.262	10103.01
690.609	10040.19
690.956	9979.85
691.303	9914.32
691.65	9911.15
691.997	9919.51
692.344	9806.3
692.69	9877.71
693.037	9856.01
693.383	9697.15
693.73	9732.4
694.077	9699.63
694.423	9632.52
694.769	9667.09
695.116	9591.84
695.462	9555.91
695.808	9561.1
696.155	9517.72
696.501	9470.94
696.847	9488.79
697.193	9380.54
697.539	9443.37
697.885	9343.48
698.231	9237.05
698.577	9339.42
698.923	9295.35
699.269	9217.61
699.614	9178.74
699.96	9098.07
700.306	9145.52
700.651	9068.91
700.997	9089.7
701.342	9040.89
701.688	8971.97
702.033	8899.2
702.379	8938.3
702.724	8882.25
703.069	8917.05
703.415	8893.55
703.76	8809.26
704.105	8830.05
704.45	8758.19
704.795	8748.47
705.14	8670.05
705.485	8631.41
705.83	8633.67
706.175	8669.15
706.52	8607.91
706.865	8559.32
707.209	8631.41
707.554	8513.9
707.899	8573.11
708.243	8523.17
708.588	8508.93
708.932	8428.93
709.277	8367.01
709.621	8442.94
709.966	8320.69
710.31	8365.2
710.654	8250.86
710.998	8300.8
711.342	8291.08
711.687	8240.01
712.031	8269.39
712.375	8141.93
712.719	8207.24
713.063	8159.11
713.407	8157.98
713.75	8188.26
714.094	8122.27
714.438	8117.98
714.782	8076.85
715.125	8051.77
715.469	8085.89
715.812	7994.14
716.156	8007.02
716.499	7981.71
716.843	8029.85
717.186	7982.16
717.53	7992.33
717.873	7925.67
718.216	7960.47
718.559	7855.61
718.902	7880.47
719.246	7863.3
719.589	7890.19
719.932	7823.52
720.275	7877.53
720.617	7880.92
720.96	7812
721.303	7834.37
721.646	7799.79
721.989	7814.71
722.331	7854.03
722.674	7774.71
723.016	7792.79
723.359	7748.95
723.701	7780.59
724.044	7689.97
724.386	7735.84
724.729	7737.2
725.071	7751.43
725.413	7678.67
725.755	7697.88
726.097	7703.53
726.439	7690.19
726.782	7653.13
727.124	7727.48
727.465	7678.89
727.807	7639.35
728.149	7631.21
728.491	7638.44
728.833	7689.52
729.175	7638.9
729.516	7664.43
729.858	7644.32
730.199	7613.13
730.541	7626.24
730.882	7609.07
731.224	7630.99
731.565	7551.67
731.906	7635.51
732.248	7644.54
732.589	7616.52
732.93	7590.53
733.271	7586.24
733.612	7579.91
733.953	7639.8
734.294	7602.96
734.635	7591.66
734.976	7615.62
735.317	7590.99
735.658	7557.77
735.999	7579.24
736.339	7620.14
736.68	7640.48
737.021	7606.35
737.361	7604.77
737.702	7621.49
738.042	7653.81
738.383	7661.27
738.723	7624.43
739.063	7640.48
739.404	7705.33
739.744	7621.49
740.084	7636.64
740.424	7663.75
740.764	7650.87
741.104	7724.54
741.444	7639.57
741.784	7685.67
742.124	7774.26
742.464	7792.56
742.804	7779
743.143	7729.06
743.483	7834.6
743.823	7762.73
744.162	7838.89
744.502	7899.45
744.841	7916.63
745.181	7923.41
745.52	7953.69
745.86	7998.89
746.199	8029.85
746.538	8024.87
746.877	8130.63
747.216	8155.49
747.556	8173.57
747.895	8281.82
748.234	8275.49
748.573	8335.37
748.911	8418.54
749.25	8421.02
749.589	8488.82
749.928	8577.63
750.267	8682.03
750.605	8691.75
750.944	8764.52
751.283	8807
751.621	8952.98
751.96	9009.25
752.298	9105.52
752.636	9220.55
752.975	9264.39
753.313	9353.88
753.651	9504.61
753.989	9550.26
754.327	9705.73
754.666	9741.21
755.004	9894.43
755.342	10127.87
755.679	10230.01
756.017	10369.44
756.355	10503.45
756.693	10609.44
757.031	10742.99
757.368	10910.9
757.706	11011.01
758.044	11133.27
