Data from hue_20_FLMS001491_46.txt Node
Date: Mon Feb 06 15:34:11 GMT 2017
User: dcchb
Spectrometer: FLMS00149
Trigger mode: 0
Integration Time (sec): 2.000000E-2
Scans to average: 10
Electric dark correction enabled: true
Nonlinearity correction enabled: false
Boxcar width: 0
XAxis mode: Wavelengths
Number of Pixels in Spectrum: 2048
>>>>>Begin Spectral Data<<<<<
341.393	-12.87
341.776	-12.87
342.16	-12.87
342.543	-54.22
342.927	-66.2
343.31	-66.65
343.693	-64.39
344.077	-61.91
344.46	-60.32
344.843	-42.24
345.226	-46.09
345.61	-18.97
345.993	-27.1
346.376	-21.45
346.759	13.8
347.142	39.79
347.525	27.36
347.908	58.09
348.291	78.43
348.674	101.25
349.057	90.41
349.44	110.75
349.823	140.58
350.206	171.99
350.588	207.01
350.971	198.88
351.354	230.74
351.737	248.82
352.119	242.72
352.502	265.77
352.884	270.52
353.267	245.21
353.65	308.48
354.032	308.71
354.414	325.43
354.797	320.46
355.179	321.36
355.562	350.06
355.944	320.23
356.326	322.49
356.709	334.47
357.091	341.7
357.473	357.97
357.855	355.71
358.238	329.27
358.62	329.5
359.002	342.38
359.384	332.89
359.766	329.72
360.148	333.56
360.53	338.31
360.912	350.29
361.294	326.11
361.676	342.6
362.057	334.47
362.439	305.54
362.821	324.07
363.203	326.79
363.584	312.55
363.966	334.02
364.348	315.03
364.729	324.53
365.111	321.81
365.493	323.62
365.874	311.87
366.256	338.31
366.637	320.91
367.019	319.78
367.4	323.62
367.781	309.38
368.163	312.77
368.544	295.6
368.925	296.73
369.306	329.5
369.688	341.25
370.069	294.7
370.45	335.6
370.831	309.16
371.212	312.1
371.593	310.74
371.974	316.39
372.355	317.97
372.736	309.38
373.117	320.46
373.498	314.36
373.879	317.97
374.26	331.08
374.641	312.77
375.021	308.93
375.402	314.13
375.783	316.84
376.163	344.41
376.544	320.91
376.925	315.26
377.305	343.28
377.686	316.62
378.066	326.56
378.447	333.11
378.827	336.73
379.208	339.21
379.588	332.21
379.968	337.86
380.349	325.66
380.729	343.73
381.109	347.35
381.489	327.92
381.87	346.45
382.25	341.93
382.63	327.69
383.01	343.51
383.39	348.71
383.77	343.96
384.15	358.2
384.53	348.48
384.91	345.09
385.29	371.98
385.67	357.97
386.049	349.38
386.429	352.77
386.809	364.75
387.189	351.64
387.568	367.69
387.948	361.36
388.328	385.54
388.707	369.95
389.087	336.73
389.466	369.95
389.846	376.28
390.225	348.25
390.605	376.73
390.984	358.87
391.363	376.5
391.743	382.15
392.122	373.11
392.501	368.37
392.881	389.61
393.26	378.31
393.639	374.69
394.018	388.93
394.397	401.36
394.776	375.6
395.155	386.22
395.534	401.59
395.913	396.16
396.292	400.91
396.671	430.06
397.05	403.85
397.429	405.88
397.808	387.8
398.186	405.2
398.565	392.32
398.944	390.74
399.323	404.52
399.701	416.27
400.08	407.01
400.458	412.66
400.837	423.28
401.215	406.33
401.594	408.59
401.972	414.69
402.351	418.08
402.729	425.09
403.107	435.93
403.486	422.38
403.864	434.35
404.242	447.46
404.62	431.64
404.999	419.66
405.377	443.17
405.755	423.28
406.133	441.58
406.511	421.47
406.889	455.82
407.267	444.75
407.645	473.67
408.023	436.84
408.401	451.75
408.779	475.71
409.156	450.17
409.534	462.37
409.912	466.67
410.29	471.19
410.667	468.48
411.045	483.17
411.422	477.97
411.8	465.54
412.178	484.97
412.555	489.94
412.933	503.96
413.31	495.37
413.687	502.6
414.065	504.41
414.442	476.84
414.819	484.3
415.197	501.47
415.574	531.3
415.951	525.65
416.328	510.06
416.705	519.32
417.082	522.03
417.46	545.08
417.837	541.02
418.214	537.18
418.591	528.36
418.967	531.98
419.344	537.4
419.721	532.66
420.098	560.45
420.475	542.6
420.852	537.85
421.228	558.42
421.605	563.39
421.982	567.91
422.358	557.06
422.735	572.43
423.111	566.78
423.488	577.63
423.864	586.21
424.241	582.15
424.617	593.22
424.994	602.48
425.37	578.76
425.746	600.68
426.123	609.04
426.499	583.95
426.875	604.97
427.251	613.11
427.627	626.44
428.003	617.85
428.379	640.68
428.756	616.95
429.132	632.77
429.507	633.67
429.883	645.65
430.259	679.32
430.635	665.53
431.011	693.56
431.387	678.41
431.763	697.4
432.138	672.54
432.514	707.11
432.89	721.35
433.265	708.47
433.641	719.54
434.016	725.87
434.392	738.98
434.767	716.38
435.143	733.55
435.518	741.92
435.894	753.67
436.269	748.47
436.644	752.76
437.02	766.32
437.395	768.58
437.77	768.81
438.145	767.9
438.52	785.3
438.895	763.84
439.271	788.47
439.646	808.81
440.021	818.52
440.395	820.78
440.77	814
441.145	833.21
441.52	828.47
441.895	829.82
442.27	858.52
442.645	846.09
443.019	855.81
443.394	855.81
443.769	851.52
444.143	875.02
444.518	863.49
444.892	875.7
445.267	858.97
445.641	875.02
446.016	872.31
446.39	885.41
446.764	873.89
447.139	877.96
447.513	900.78
447.887	917.73
448.262	916.37
448.636	925.64
449.01	936.03
449.384	939.2
449.758	932.64
450.132	953.89
450.506	967.9
450.88	945.3
451.254	975.36
451.628	966.09
452.002	957.96
452.376	984.4
452.75	965.19
453.123	991.63
453.497	1020.55
453.871	1011.06
454.244	1050.83
454.618	1054.45
454.992	1037.73
455.365	1055.81
455.739	1098.06
456.112	1080.89
456.486	1072.75
456.859	1117.5
457.232	1119.98
457.606	1124.5
457.979	1089.25
458.352	1122.7
458.725	1147.55
459.099	1159.08
459.472	1186.88
459.845	1170.38
460.218	1199.3
460.591	1211.51
460.964	1210.6
461.337	1240.66
461.71	1232.3
462.083	1265.52
462.456	1260.77
462.829	1300.09
463.201	1285.18
463.574	1284.73
463.947	1322.01
464.32	1349.58
464.692	1378.51
465.065	1385.51
465.438	1383.03
465.81	1413.31
466.183	1444.04
466.555	1446.53
466.928	1451.05
467.3	1438.17
467.672	1468.68
468.045	1514.55
468.417	1520.2
468.789	1534.44
469.161	1526.53
469.534	1580.09
469.906	1604.27
470.278	1610.82
470.65	1634.77
471.022	1686.52
471.394	1681.78
471.766	1725.84
472.138	1724.26
472.51	1753.19
472.882	1771.72
473.253	1827.31
473.625	1814.88
473.997	1884.48
474.369	1886.97
474.74	1929.91
475.112	1955.22
475.484	1969
475.855	2039.96
476.227	2016.68
476.598	2081.32
476.97	2115.66
477.341	2163.57
477.713	2156.34
478.084	2218.71
478.455	2283.8
478.827	2278.15
479.198	2347.3
479.569	2335.09
479.94	2446.05
480.311	2443.79
480.682	2520.85
481.053	2581.19
481.424	2581.87
481.795	2636.33
482.166	2682.43
482.537	2686.72
482.908	2816.21
483.279	2797.23
483.65	2886.27
484.021	2924.23
484.391	2963.78
484.762	3016.43
485.133	3059.37
485.503	3070.44
485.874	3148.18
486.244	3163.09
486.615	3236.77
486.985	3336.42
487.356	3377.55
487.726	3322.86
488.097	3468.4
488.467	3510.88
488.837	3550.88
489.207	3596.53
489.578	3621.61
489.948	3721.95
490.318	3752.46
490.688	3777.32
491.058	3832.91
491.428	3874.94
491.798	3958.33
492.168	4031.77
492.538	4041.04
492.908	4086.46
493.278	4149.74
493.648	4183.18
494.017	4198.77
494.387	4240.81
494.757	4311.54
495.126	4357.87
495.496	4378.66
495.866	4434.7
496.235	4477.86
496.605	4571.42
496.974	4544.98
497.344	4573
497.713	4658.65
498.082	4643.96
498.452	4700.68
498.821	4669.72
499.19	4772.77
499.559	4758.99
499.928	4807.57
500.298	4907.23
500.667	4855.48
501.036	4946.32
501.405	4987.23
501.774	4960.79
502.143	5046.21
502.512	5052.99
502.88	5107.9
503.249	5105.19
503.618	5110.16
503.987	5195.81
504.356	5205.75
504.724	5236.49
505.093	5249.37
505.462	5262.7
505.83	5300.89
506.199	5359.65
506.567	5364.84
506.936	5443.49
507.304	5451.85
507.672	5466.31
508.041	5495.69
508.409	5552.86
508.777	5584.5
509.145	5615.46
509.514	5671.5
509.882	5668.79
510.25	5712.63
510.618	5739.98
510.986	5726.42
511.354	5739.98
511.722	5772.97
512.09	5850.71
512.458	5892.74
512.826	5951.04
513.193	5935.23
513.561	5935.45
513.929	5954.66
514.297	6008.67
514.664	6066.97
515.032	6071.72
515.4	6084.6
515.767	6098.38
516.135	6157.59
516.502	6114.66
516.869	6223.13
517.237	6251.38
517.604	6233.97
517.972	6277.82
518.339	6318.72
518.706	6305.39
519.073	6377.25
519.44	6411.14
519.808	6454.76
520.175	6418.6
520.542	6500.41
520.909	6509
521.276	6479.17
521.643	6582.44
522.009	6651.36
522.376	6619.5
522.743	6653.17
523.11	6725.04
523.477	6767.07
523.843	6852.26
524.21	6859.27
524.577	6929.1
524.943	6896.33
525.31	7003.67
525.676	7050.9
526.043	7076.66
526.409	7113.73
526.776	7183.78
527.142	7234.4
527.508	7189.88
527.874	7277.56
528.241	7300.16
528.607	7371.57
528.973	7351.46
529.339	7395.3
529.705	7434.39
530.071	7498.35
530.437	7503.09
530.803	7587.61
531.169	7626.71
531.535	7665.8
531.901	7676.2
532.267	7706.25
532.632	7796.42
532.998	7780.15
533.364	7824.89
533.73	7868.73
534.095	7927.72
534.461	7960.03
534.826	8034.38
535.192	7957.55
535.557	8038.22
535.923	8020.14
536.288	8129.52
536.653	8187.14
537.019	8174.71
537.384	8196.41
537.749	8252.23
538.114	8203.87
538.479	8294.03
538.845	8337.65
539.21	8337.65
539.575	8323.19
539.94	8423.07
540.305	8476.85
540.67	8466.01
541.034	8563.18
541.399	8555.72
541.764	8567.7
542.129	8591.43
542.494	8633.23
542.858	8707.58
543.223	8704.64
543.587	8790.52
543.952	8790.74
544.316	8772.66
544.681	8768.6
545.045	8854.24
545.41	8847.01
545.774	8922.49
546.138	8932.66
546.503	8984.41
546.867	8978.54
547.231	9137.18
547.595	9136.05
547.959	9172.43
548.324	9126.78
548.688	9197.74
549.052	9277.28
549.416	9289.71
549.779	9286.78
550.143	9255.82
550.507	9342.14
550.871	9361.58
551.235	9348.47
551.599	9460.33
551.962	9505.98
552.326	9537.39
552.689	9577.62
553.053	9543.27
553.417	9575.36
553.78	9688.8
554.143	9627.33
554.507	9700.78
554.87	9782.58
555.234	9811.28
555.597	9741.68
555.96	9800.66
556.323	9770.83
556.686	9833.88
557.05	9966.08
557.413	9904.84
557.776	10051.05
558.139	9989.36
558.502	10088.56
558.865	10039.98
559.228	10180.31
559.59	10185.06
559.953	10230.25
560.316	10306.41
560.679	10293.98
561.041	10299.86
561.404	10392.74
561.767	10460.53
562.129	10364.71
562.492	10449
562.854	10521.32
563.217	10591.15
563.579	10573.3
563.941	10616.01
564.304	10671.37
564.666	10729.45
565.028	10760.64
565.39	10745.49
565.753	10798.37
566.115	10770.8
566.477	10921.31
566.839	10877.47
567.201	10963.34
567.563	10990.46
567.925	11014.64
568.287	11086.95
568.648	11141.19
569.01	11178.25
569.372	11293.95
569.734	11191.58
570.095	11343.44
570.457	11399.94
570.819	11431.58
571.18	11383.9
571.542	11447.17
571.903	11518.81
572.265	11483.1
572.626	11650.33
572.987	11660.05
573.349	11714.28
573.71	11813.94
574.071	11826.6
574.432	11881.96
574.794	11998.12
575.155	11988.63
575.516	12001.73
575.877	12108.62
576.238	12186.36
576.599	12287.6
576.96	12291.89
577.32	12362.4
577.681	12493.24
578.042	12563.75
578.403	12644.65
578.763	12716.29
579.124	12770.75
579.485	12876.51
579.845	13012.78
580.206	13155.37
580.566	13258.42
580.927	13337.97
581.287	13535.03
581.648	13551.97
582.008	13771.86
582.368	13840.33
582.728	14002.36
583.089	14074.67
583.449	14259.75
583.809	14443.48
584.169	14690.25
584.529	14765.73
584.889	15067.64
585.249	15125.94
585.609	15238.26
585.969	15582.88
586.329	15700.39
586.688	15860.84
587.048	16133.6
587.408	16284.11
587.768	16564.78
588.127	16732.91
588.487	16964.77
588.846	17293.12
589.206	17448.37
589.565	17753.22
589.925	17978.98
590.284	18229.14
590.643	18517.04
591.003	18864.38
591.362	19201.09
591.721	19384.59
592.08	19677.46
592.44	19944.8
592.799	20228.41
593.158	20561.96
593.517	20842.86
593.876	21177.08
594.235	21380.47
594.593	21691.2
594.952	22066.33
595.311	22196.49
595.67	22632.64
596.029	22907.66
596.387	23310.81
596.746	23699.73
597.104	23898.37
597.463	24122.32
597.822	24588.75
598.18	24856.31
598.538	25095.63
598.897	25581.94
599.255	25704.65
599.613	26341.92
599.972	26465.08
600.33	26817.84
600.688	27098.28
601.046	27457.15
601.404	27853.07
601.762	28015.32
602.12	28379.15
602.478	28780.5
602.836	29076.31
603.194	29212.35
603.552	29597.2
603.91	29737.09
604.268	30164.64
604.625	30241.7
604.983	30774.12
605.341	30911.29
605.698	31289.36
606.056	31658.84
606.413	31937.25
606.771	32227.87
607.128	32536.33
607.485	32629.66
607.843	32943.1
608.2	33319.59
608.557	33656.08
608.914	33838.9
609.272	34153.24
609.629	34517.75
609.986	34760
610.343	34819.21
610.7	35262.36
611.057	35256.94
611.414	35663.94
611.771	35835.23
612.127	36214.43
612.484	36378.49
612.841	36594.76
613.198	36696.68
613.554	36869.78
613.911	37284.01
614.267	37388.18
614.624	37589.08
614.98	37741.85
615.337	38097.77
615.693	38256.64
616.05	38370.76
616.406	38645.1
616.762	38639.68
617.118	38833.34
617.475	38984.3
617.831	39378.19
618.187	39444.85
618.543	39671.29
618.899	40036.02
619.255	40001.45
619.611	40164.83
619.967	40376.81
620.323	40453.41
620.678	40561.21
621.034	40679.4
621.39	40619.29
621.746	40809.56
622.101	41294.07
622.457	41067.86
622.812	41358.25
623.168	41531.8
623.523	41523.67
623.879	41694.29
624.234	41607.28
624.589	41833.04
624.945	41975.86
625.3	42047.27
625.655	42188.06
626.01	42282.07
626.365	42329.52
626.72	42336.08
627.075	42428.73
627.43	42548.73
627.785	42414.04
628.14	42612.45
628.495	42719.57
628.85	42660.59
629.205	42829.85
629.559	43129.73
629.914	42955.04
630.269	42982.39
630.623	42958.21
630.978	42895.38
631.332	43110.29
631.687	43265.32
632.041	43001.14
632.396	43312.32
632.75	43054.48
633.104	43275.71
633.459	43040.24
633.813	43130.18
634.167	43192.55
634.521	43181.7
634.875	43277.52
635.229	43180.57
635.583	43044.31
635.937	43146.45
636.291	43150.29
636.645	43176.28
636.999	43282.72
637.352	43480.45
637.706	43081.37
638.06	43308.71
638.413	43258.09
638.767	43284.07
639.121	43352.77
639.474	42987.36
639.828	43239.33
640.181	43200.46
640.534	43237.3
640.888	43065.1
641.241	42941.48
641.594	43072.33
641.947	43325.65
642.301	43002.95
642.654	43165.21
643.007	43142.38
643.36	43115.94
643.713	43106.9
644.066	43123.17
644.419	42928.83
644.771	42837.31
645.124	42301.27
645.477	42405
645.83	42124.1
646.182	41875.3
646.535	41791.46
646.888	41973.6
647.24	41761.85
647.593	41895.18
647.945	41766.83
648.298	41635.3
648.65	41743.1
649.002	41560.73
649.355	41757.79
649.707	41774.73
650.059	41833.72
650.411	42410.65
650.763	42396.64
651.115	42827.59
651.467	42593.47
651.819	42806.12
652.171	42680.7
652.523	42560.25
652.875	42612.23
653.227	42536.07
653.578	42568.61
653.93	42704.43
654.282	42408.84
654.633	42398.22
654.985	42527.94
655.337	42489.74
655.688	42528.16
656.039	42597.54
656.391	42340.14
656.742	42322.29
657.094	42329.07
657.445	42545.56
657.796	42416.3
658.147	42230.77
658.498	42216.08
658.849	42494.04
659.2	42306.7
659.551	42274.83
659.902	42385.57
660.253	42275.06
660.604	42374.27
660.955	42178.57
661.306	42257.89
661.656	42246.81
662.007	42092.47
662.358	42276.64
662.708	42153.48
663.059	42169.07
663.409	41861.51
663.76	42180.37
664.11	42286.13
664.461	42129.08
664.811	42309.64
665.161	42182.86
665.511	42033.94
665.862	42151.67
666.212	42298.79
666.562	42217.44
666.912	42114.84
667.262	42093.14
667.612	42211.11
667.962	42280.26
668.312	42065.12
668.662	42169.53
669.011	42122.07
669.361	42137.44
669.711	42026.93
670.06	41948.74
670.41	41884.11
670.76	42029.64
671.109	42154.84
671.459	42069.87
671.808	41915.97
672.157	42093.14
672.507	41743.32
672.856	41956.43
673.205	42019.7
673.554	42014.28
673.904	41803.66
674.253	42096.31
674.602	41875.52
674.951	41256.56
675.3	41210
675.649	41689.99
675.998	41631.69
676.346	41691.8
676.695	41939.93
677.044	41521.41
677.393	41554.18
677.741	41598.02
678.09	41491.8
678.438	41417.91
678.787	41477.57
679.135	41565.7
679.484	41185.82
679.832	41492.26
680.181	41217.01
680.529	41423.11
680.877	41315.09
681.225	41159.16
681.573	41461.3
681.922	41076.45
682.27	41103.34
682.618	40985.15
682.966	40971.37
683.314	41010.91
683.661	40796
684.009	40876.91
684.357	40748.1
684.705	40640.53
685.053	40619.06
685.4	40516.91
685.748	40517.82
686.095	40390.82
686.443	40238.96
686.79	40319.41
687.138	40317.6
687.485	40375
687.832	40229.46
688.18	40118.06
688.527	40009.13
688.874	39951.73
689.221	39875.58
689.568	39635.36
689.915	39754
690.262	39744.96
690.609	39583.61
690.956	39461.58
691.303	39410.05
691.65	39163.96
691.997	39316.49
692.344	38952.44
692.69	39110.4
693.037	38880.35
693.383	38642.61
693.73	38783.4
694.077	38658.66
694.423	38556.51
694.769	38409.17
695.116	38307.93
695.462	38432.22
695.808	38270.19
696.155	38400.81
696.501	38022.52
696.847	38104.77
697.193	37843.31
697.539	37888.28
697.885	37778.23
698.231	37585.47
698.577	37593.83
698.923	37530.55
699.269	37311.12
699.614	37112.03
699.96	37078.36
700.306	37204.46
700.651	36870.23
700.997	36804.47
701.342	36728.09
701.688	36719.5
702.033	36648.09
702.379	36533.52
702.724	36550.24
703.069	36614.42
703.415	36114.32
703.76	36175.33
704.105	36227.31
704.45	36049.01
704.795	35887.43
705.14	35771.05
705.485	35804.27
705.83	35676.36
706.175	35703.93
706.52	35633.2
706.865	35404.51
707.209	35472.3
707.554	35170.61
707.899	35290.16
708.243	35203.83
708.588	35111.18
708.932	34781.25
709.277	34910.28
709.621	34868.02
709.966	34656.73
710.31	34765.65
710.654	34494.02
710.998	34488.15
711.342	34524.3
711.687	34343.07
712.031	34262.62
712.375	34250.19
712.719	34185.33
713.063	34251.77
713.407	34181.94
713.75	34183.52
714.094	34025.33
714.438	33856.75
714.782	33841.84
715.125	33715.74
715.469	33701.5
715.812	33497.21
716.156	33407.95
716.499	33370.21
716.843	33493.37
717.186	33303.77
717.53	33452.24
717.873	33367.05
718.216	33282.3
718.559	33185.36
718.902	33039.37
719.246	33059.26
719.589	32954.4
719.932	32850.68
720.275	32882.09
720.617	32771.36
720.96	32678.7
721.303	32652.49
721.646	32625.37
721.989	32488.65
722.331	32654.75
722.674	32566.62
723.016	32464.25
723.359	32287.07
723.701	32398.48
724.044	32218.6
724.386	32055.22
724.729	32104.93
725.071	32220.18
725.413	32028.55
725.755	32125.27
726.097	31963.02
726.439	31814.54
726.782	31801.21
727.124	31896.8
727.465	31673.76
727.807	31656.81
728.149	31515.34
728.491	31577.94
728.833	31625.62
729.175	31527.09
729.516	31428.79
729.858	31450.71
730.199	31470.6
730.541	31330.04
730.882	31229.48
731.224	31344.05
731.565	31072.19
731.906	31119.87
732.248	31220.89
732.589	30865.64
732.93	30956.26
733.271	30995.13
733.612	31037.16
733.953	31008.46
734.294	30817.96
734.635	30850.28
734.976	30706.1
735.317	30683.5
735.658	30648.93
735.999	30577.52
736.339	30469.5
736.68	30507.01
737.021	30477.18
737.361	30384.07
737.702	30601.02
738.042	30387.92
738.383	30289.84
738.723	30383.62
739.063	30200.35
739.404	30335.49
739.744	30138.43
740.084	30000.81
740.424	30114.25
740.764	29992.9
741.104	30144.31
741.444	29906.57
741.784	29843.07
742.124	29896.63
742.464	29803.75
742.804	29814.82
743.143	29675.17
743.483	29714.49
743.823	29652.57
744.162	29686.69
744.502	29683.98
744.841	29499.13
745.181	29547.94
745.52	29408.05
745.86	29455.06
746.199	29488.73
746.538	29509.52
746.877	29444.89
747.216	29336.19
747.556	29324.89
747.895	29220.94
748.234	29123.99
748.573	29217.78
748.911	29088.51
749.25	29041.06
749.589	28902.53
749.928	28946.15
750.267	28933.04
750.605	28818.01
750.944	28806.49
751.283	28833.83
751.621	28726.04
751.96	28534.86
752.298	28661.41
752.636	28518.36
752.975	28509.1
753.313	28291.25
753.651	28520.62
753.989	28290.34
754.327	28285.37
754.666	28134.87
755.004	28208.99
755.342	28184.58
755.679	28134.87
756.017	27973.29
756.355	27977.36
756.693	27920.64
757.031	27897.13
757.368	27784.37
757.706	27823.24
758.044	27632.51
758.381	27748.21
758.719	27642.68
759.056	27648.1
759.394	27463.92
