Data from hue_00_FLMS001491_22.txt Node
Date: Mon Feb 06 15:29:28 GMT 2017
User: dcchb
Spectrometer: FLMS00149
Trigger mode: 0
Integration Time (sec): 2.000000E-2
Scans to average: 10
Electric dark correction enabled: true
Nonlinearity correction enabled: false
Boxcar width: 0
XAxis mode: Wavelengths
Number of Pixels in Spectrum: 2048
>>>>>Begin Spectral Data<<<<<
341.393	-19.15
341.776	-19.15
342.16	-19.15
342.543	-59.6
342.927	-40.85
343.31	-70
343.693	-62.77
344.077	-61.64
344.46	-81.52
344.843	-46.5
345.226	-45.82
345.61	-31.13
345.993	-24.58
346.376	7.74
346.759	7.29
347.142	36.21
347.525	22.65
347.908	49.55
348.291	88.87
348.674	113.27
349.057	98.36
349.44	117.34
349.823	134.29
350.206	164.8
350.588	208.86
350.971	223.78
351.354	221.75
351.737	236.43
352.119	249.32
352.502	289.54
352.884	264.91
353.267	268.75
353.65	303.55
354.032	308.3
354.414	297
354.797	319.6
355.179	330.22
355.562	336.32
355.944	352.82
356.326	314.62
356.709	341.29
357.091	348.97
357.473	331.12
357.855	342.42
358.238	352.14
358.62	346.49
359.002	329.54
359.384	318.47
359.766	332.48
360.148	352.36
360.53	347.17
360.912	320.27
361.294	344.68
361.676	332.03
362.057	323.44
362.439	327.96
362.821	324.57
363.203	329.09
363.584	325.02
363.966	328.41
364.348	318.24
364.729	339.48
365.111	308.97
365.493	327.73
365.874	331.8
366.256	326.83
366.637	297.22
367.019	315.75
367.4	294.29
367.781	305.13
368.163	309.43
368.544	325.92
368.925	301.52
369.306	308.07
369.688	317.11
370.069	320.95
370.45	312.59
370.831	305.81
371.212	294.74
371.593	310.56
371.974	318.24
372.355	301.97
372.736	319.82
373.117	328.86
373.498	311.69
373.879	329.31
374.26	330.22
374.641	325.47
375.021	304.23
375.402	311.46
375.783	340.61
376.163	320.5
376.544	328.41
376.925	329.31
377.305	336.09
377.686	333.38
378.066	315.53
378.447	304
378.827	316.21
379.208	334.74
379.588	324.79
379.968	321.86
380.349	314.17
380.729	324.79
381.109	339.03
381.489	334.51
381.87	312.36
382.25	339.71
382.63	342.42
383.01	338.58
383.39	351.23
383.77	342.19
384.15	343.1
384.53	345.58
384.91	347.62
385.29	329.31
385.67	355.75
386.049	362.31
386.429	335.87
386.809	362.76
387.189	318.92
387.568	343.1
387.948	337.9
388.328	339.48
388.707	345.36
389.087	344.23
389.466	358.69
389.846	346.94
390.225	367.96
390.605	351.23
390.984	359.37
391.363	370.89
391.743	358.47
392.122	356.66
392.501	375.87
392.881	366.6
393.26	372.25
393.639	389.65
394.018	371.57
394.397	369.76
394.776	372.48
395.155	373.38
395.534	386.71
395.913	355.08
396.292	389.42
396.671	394.17
397.05	377.22
397.429	385.36
397.808	387.39
398.186	389.65
398.565	379.71
398.944	368.41
399.323	391.91
399.701	388.29
400.08	402.53
400.458	401.63
400.837	393.94
401.215	407.5
401.594	382.87
401.972	404.57
402.351	405.24
402.729	400.5
403.107	411.57
403.486	403.89
403.864	405.47
404.242	396.43
404.62	402.76
404.999	406.37
405.377	405.24
405.755	397.11
406.133	406.15
406.511	419.93
406.889	414.51
407.267	428.75
407.645	444.11
408.023	435.98
408.401	413.15
408.779	445.69
409.156	427.16
409.534	439.59
409.912	442.98
410.29	451.12
410.667	441.4
411.045	469.42
411.422	459.71
411.8	437.79
412.178	440.5
412.555	474.62
412.933	452.02
413.31	450.89
413.687	468.74
414.065	475.07
414.442	482.3
414.819	476.43
415.197	480.04
415.574	483.89
415.951	477.78
416.328	498.12
416.705	486.82
417.082	509.42
417.46	474.62
417.837	504.45
418.214	491.12
418.591	500.16
418.967	501.06
419.344	518.01
419.721	508.74
420.098	495.18
420.475	534.96
420.852	516.88
421.228	524.79
421.605	536.31
421.982	523.66
422.358	536.77
422.735	547.39
423.111	546.26
423.488	559.36
423.864	560.49
424.241	556.65
424.617	556.65
424.994	573.15
425.37	566.14
425.746	566.14
426.123	568.4
426.499	557.33
426.875	594.39
427.251	568.18
427.627	587.61
428.003	614.05
428.379	589.65
428.756	566.37
429.132	576.99
429.507	605.24
429.883	611.79
430.259	617.22
430.635	630.55
431.011	630.55
431.387	633.03
431.763	650.21
432.138	647.5
432.514	647.95
432.89	647.5
433.265	656.08
433.641	669.19
434.016	669.19
434.392	684.78
434.767	686.14
435.143	669.42
435.518	683.88
435.894	708.51
436.269	682.07
436.644	693.37
437.02	685.01
437.395	699.93
437.77	692.02
438.145	735.4
438.52	747.38
438.895	718.91
439.271	748.51
439.646	739.25
440.021	751.68
440.395	754.39
440.77	750.55
441.145	735.18
441.52	775.4
441.895	760.94
442.27	750.55
442.645	761.62
443.019	780.15
443.394	785.57
443.769	789.87
444.143	798.68
444.518	787.61
444.892	797.55
445.267	778.12
445.641	826.25
446.016	804.78
446.39	832.13
446.764	812.92
447.139	823.54
447.513	804.33
447.887	816.53
448.262	845.23
448.636	846.81
449.01	841.39
449.384	847.49
449.758	833.93
450.132	869.86
450.506	876.19
450.88	851.11
451.254	863.31
451.628	851.11
452.002	871.9
452.376	893.37
452.75	912.12
453.123	889.3
453.497	917.09
453.871	910.32
454.244	913.25
454.618	929.3
454.992	936.98
455.365	953.25
455.739	931.11
456.112	957.55
456.486	967.94
456.859	963.42
457.232	956.19
457.606	995.96
457.979	1006.58
458.352	1014.49
458.725	1044.55
459.099	1036.64
459.472	1047.26
459.845	1037.32
460.218	1045.68
460.591	1068.05
460.964	1080.03
461.337	1086.13
461.71	1101.04
462.083	1091.33
462.456	1110.31
462.829	1124.77
463.201	1126.13
463.574	1154.38
463.947	1147.37
464.32	1166.58
464.692	1186.01
465.065	1175.62
465.438	1206.13
465.81	1217.88
466.183	1251.1
466.555	1283.41
466.928	1251.1
467.3	1270.98
467.672	1289.97
468.045	1292.45
468.417	1309.17
468.789	1315.5
469.161	1378.55
469.534	1356.86
469.906	1376.52
470.278	1400.02
470.65	1396.18
471.022	1441.83
471.394	1453.35
471.766	1472.11
472.138	1470.53
472.51	1506.01
472.882	1516.63
473.253	1552.11
473.625	1595.95
473.997	1591.88
474.369	1602.05
474.74	1626.91
475.112	1655.15
475.484	1703.74
475.855	1708.03
476.227	1727.02
476.598	1762.72
476.97	1791.2
477.341	1811.08
477.713	1872.55
478.084	1878.65
478.455	1948.93
478.827	1958.65
479.198	2003.17
479.569	2028.7
479.94	2073
480.311	2070.96
480.682	2116.61
481.053	2135.14
481.424	2211.52
481.795	2169.72
482.166	2280.22
482.537	2305.98
482.908	2339.43
483.279	2370.84
483.65	2394.34
484.021	2482.25
484.391	2461.69
484.762	2510.72
485.133	2540.33
485.503	2585.53
485.874	2626.65
486.244	2663.94
486.615	2696.26
486.985	2767.89
487.356	2824.39
487.726	2840.21
488.097	2898.74
488.467	2892.41
488.837	2978.96
489.207	2959.53
489.578	3020.77
489.948	3084.27
490.318	3093.99
490.688	3157.71
491.058	3168.79
491.428	3270.03
491.798	3245.17
492.168	3304.15
492.538	3363.81
492.908	3403.36
493.278	3418.72
493.648	3443.36
494.017	3473.41
494.387	3496.01
494.757	3541.88
495.126	3586.4
495.496	3607.42
495.866	3607.65
496.235	3702.56
496.605	3710.24
496.974	3750.24
497.344	3728.32
497.713	3788.66
498.082	3772.84
498.452	3801.54
498.821	3858.26
499.19	3900.74
499.559	3950.24
499.928	3925.83
500.298	3961.99
500.667	3994.53
501.036	4014.64
501.405	4035.2
501.774	4051.25
502.143	4096.45
502.512	4088.76
502.88	4121.76
503.249	4214.41
503.618	4173.51
503.987	4175.31
504.356	4227.52
504.724	4263.45
505.093	4291.02
505.462	4269.1
505.83	4307.74
506.199	4304.35
506.567	4379.83
506.936	4382.54
507.304	4406.04
507.672	4411.01
508.041	4440.17
508.409	4459.6
508.777	4463.89
509.145	4544.12
509.514	4527.17
509.882	4542.31
510.25	4586.38
510.618	4618.24
510.986	4568.75
511.354	4625.25
511.722	4695.98
512.09	4701.85
512.458	4691.68
512.826	4683.55
513.193	4731.91
513.561	4777.56
513.929	4779.82
514.297	4789.54
514.664	4820.95
515.032	4821.17
515.4	4827.73
515.767	4933.94
516.135	4929.64
516.502	4885.35
516.869	4927.16
517.237	4959.25
517.604	4969.42
517.972	5001.96
518.339	5018.23
518.706	5029.08
519.073	5007.83
519.44	5040.6
519.808	5093.48
520.175	5102.75
520.542	5138.68
520.909	5153.37
521.276	5146.59
521.643	5218.68
522.009	5232.69
522.376	5280.37
522.743	5274.72
523.11	5285.79
523.477	5393.81
523.843	5388.16
524.21	5422.06
524.577	5436.75
524.943	5427.03
525.31	5459.35
525.676	5490.76
526.043	5532.57
526.409	5571.44
526.776	5601.94
527.142	5589.29
527.508	5648.27
527.874	5687.14
528.241	5702.28
528.607	5689.17
528.973	5781.15
529.339	5733.92
529.705	5835.61
530.071	5834.93
530.437	5873.57
530.803	5911.54
531.169	5986.79
531.535	5966.68
531.901	6012.33
532.267	5989.5
532.632	6041.71
532.998	6047.13
533.364	6068.15
533.73	6125.55
534.095	6077.64
534.461	6174.58
534.826	6178.2
535.192	6182.49
535.557	6236.05
535.923	6216.39
536.288	6269.04
536.653	6309.04
537.019	6322.38
537.384	6316.5
537.749	6373.9
538.114	6402.37
538.479	6453.45
538.845	6405.99
539.21	6465.2
539.575	6461.58
539.94	6493.67
540.305	6527.57
540.67	6546.1
541.034	6586.32
541.399	6675.81
541.764	6606.89
542.129	6681.46
542.494	6662.03
542.858	6719.43
543.223	6697.96
543.587	6810.95
543.952	6717.17
544.316	6807.11
544.681	6746.09
545.045	6866.32
545.41	6903.15
545.774	6907.9
546.138	6909.03
546.503	7013.43
546.867	7025.63
547.231	6987.67
547.595	7021.11
547.959	7035.13
548.324	7108.8
548.688	7135.46
549.052	7144.05
549.416	7099.76
549.779	7200.32
550.143	7128.91
550.507	7266.76
550.871	7283.25
551.235	7294.78
551.599	7319.19
551.962	7390.37
552.326	7416.36
552.689	7420.43
553.053	7372.29
553.417	7389.69
553.78	7496.13
554.143	7433.53
554.507	7556.24
554.87	7526.19
555.234	7621.33
555.597	7525.96
555.96	7564.83
556.323	7637.14
556.686	7678.72
557.05	7675.56
557.413	7770.93
557.776	7693.87
558.139	7731.38
558.502	7825.39
558.865	7784.71
559.228	7864.93
559.59	7879.85
559.953	7897.93
560.316	7930.02
560.679	7906.52
561.041	8034.42
561.404	8006.85
561.767	8060.41
562.129	8045.49
562.492	8113.74
562.854	8152.16
563.217	8102.44
563.579	8206.17
563.941	8252.04
564.304	8207.98
564.666	8298.82
565.028	8298.82
565.39	8328.65
565.753	8313.96
566.115	8398.03
566.477	8482.55
566.839	8466.05
567.201	8521.41
567.563	8482.09
567.925	8556.67
568.287	8574.52
568.648	8676.66
569.01	8650
569.372	8697.91
569.734	8679.6
570.095	8771.8
570.457	8770.9
570.819	8856.09
571.18	8819.03
571.542	8929.99
571.903	8888.64
572.265	9043.43
572.626	9032.36
572.987	9009.99
573.349	9105.58
573.71	9159.14
574.071	9202.53
574.432	9229.64
574.794	9296.99
575.155	9304.44
575.516	9357.78
575.877	9439.81
576.238	9568.17
576.599	9583.99
576.96	9672.12
577.32	9742.85
577.681	9837.09
578.042	9865.56
578.403	9956.86
578.763	10015.61
579.124	10106.91
579.485	10256.28
579.845	10259.9
580.206	10383.96
580.566	10503.28
580.927	10613.11
581.287	10784.86
581.648	10867.57
582.008	10998.86
582.368	11084.51
582.728	11187.78
583.089	11405.41
583.449	11477.27
583.809	11698.96
584.169	11864.15
584.529	11971.72
584.889	12198.38
585.249	12335.55
585.609	12473.17
585.969	12823
586.329	12901.41
586.688	13127.17
587.048	13278.13
587.408	13531
587.768	13714.95
588.127	13917.2
588.487	14169.63
588.846	14441.71
589.206	14609.16
589.565	14840.57
589.925	15097.51
590.284	15367.56
590.643	15542.7
591.003	15883.48
591.362	16200.08
591.721	16439.17
592.08	16588.77
592.44	17031.25
592.799	17268.98
593.158	17484.12
593.517	17773.15
593.876	18097.89
594.235	18364.09
594.593	18674.59
594.952	18956.62
595.311	19220.12
595.67	19533.1
596.029	19842.47
596.387	20141.67
596.746	20424.6
597.104	20604.03
597.463	20908.43
597.822	21361.08
598.18	21507.06
598.538	21783.89
598.897	22238.79
599.255	22343.65
599.613	23036.29
599.972	23162.39
600.33	23473.11
600.688	23560.34
601.046	23916.04
601.404	24254.79
601.762	24456.14
602.12	24827.2
602.478	25094.99
602.836	25376.34
603.194	25577.92
603.552	25819.94
603.91	26042.54
604.268	26394.16
604.625	26500.15
604.983	26938.33
605.341	27075.05
605.698	27528.15
606.056	27721.59
606.413	27909.15
606.771	28268.47
607.128	28412.19
607.485	28559.53
607.843	28799.3
608.2	29095.56
608.557	29394.99
608.914	29467.3
609.272	29953.17
609.629	30033.39
609.986	30469.09
610.343	30445.58
610.7	30906.14
611.057	30968.96
611.414	31075.62
611.771	31396.52
612.127	31685.78
612.484	31745.89
612.841	32068.14
613.198	32137.06
613.554	32310.62
613.911	32701.8
614.267	32764.84
614.624	32801.23
614.98	33052.97
615.337	33468.78
615.693	33435.11
616.05	33369.35
616.406	33821.09
616.762	33947.41
617.118	33985.15
617.475	34262.21
617.831	34409.1
618.187	34586.27
618.543	34724.79
618.899	35128.85
619.255	35157.78
619.611	35103.54
619.967	35263.99
620.323	35607.93
620.678	35571.32
621.034	35530.87
621.39	35727.93
621.746	35730.42
622.101	36242.95
622.457	35930.86
622.812	36157.07
623.168	36285.2
623.523	36487.68
623.879	36602.26
624.234	36347.58
624.589	36727.23
624.945	36779.65
625.3	36866.66
625.655	36917.96
626.01	37033.88
626.365	37210.38
626.72	37125.86
627.075	37223.48
627.43	37341.67
627.785	37262.58
628.14	37363.37
628.495	37573.98
628.85	37344.16
629.205	37444.95
629.559	37611.04
629.914	37546.64
630.269	37535.57
630.623	37498.51
630.978	37439.07
631.332	37725.39
631.687	37819.85
632.041	37586.64
632.396	37771.94
632.75	37672.29
633.104	37800.19
633.459	37594.32
633.813	37596.36
634.167	37872.06
634.521	37740.31
634.875	37921.32
635.229	37774.43
635.583	37624.83
635.937	37677.71
636.291	37733.53
636.645	37856.69
636.999	37758.61
637.352	37866.41
637.706	37721.78
638.06	37820.53
638.413	37820.76
638.767	37639.07
639.121	37870.93
639.474	37587.54
639.828	37705.73
640.181	37778.72
640.534	37705.73
640.888	37640.2
641.241	37483.14
641.594	37638.61
641.947	37728.56
642.301	37806.29
642.654	37692.85
643.007	37756.58
643.36	37662.8
643.713	37479.52
644.066	37820.98
644.419	37509.8
644.771	37320.43
645.124	36987.78
645.477	37006.54
645.83	36760.9
646.182	36624.86
646.535	36539.89
646.888	36643.16
647.24	36513.22
647.593	36578.08
647.945	36581.02
648.298	36313.68
648.65	36374.92
649.002	36375.82
649.355	36362.04
649.707	36383.28
650.059	36534.46
650.411	36948.01
650.763	37044.28
651.115	37367.66
651.467	37226.42
651.819	37293.99
652.171	37114.56
652.523	37087.22
652.875	37189.59
653.227	36878.18
653.578	37269.36
653.93	37296.93
654.282	37006.54
654.633	36826.66
654.985	37005.86
655.337	36887.67
655.688	36943.27
656.039	37060.78
656.391	36785.53
656.742	36890.16
657.094	36752.76
657.445	37042.25
657.796	36853.1
658.147	36810.84
658.498	36865.53
658.849	37023.26
659.2	36952.08
659.551	36947.79
659.902	36904.62
660.253	36920.44
660.604	36910.95
660.955	36791.18
661.306	36922.25
661.656	36772.42
662.007	36802.93
662.358	36785.98
662.708	36731.52
663.059	36692.65
663.409	36634.8
663.76	36843.38
664.11	36759.54
664.461	36812.2
664.811	36869.14
665.161	36870.73
665.511	36754.12
665.862	36671.18
666.212	36999.08
666.562	36786.43
666.912	36874.12
667.262	36752.76
667.612	36709.15
667.962	36767.23
668.312	36692.43
668.662	36891.97
669.011	36712.09
669.361	36936.49
669.711	36601.81
670.06	36593.9
670.41	36470.96
670.76	36570.62
671.109	36683.84
671.459	36737.17
671.808	36563.39
672.157	36664.86
672.507	36393.45
672.856	36440.45
673.205	36582.6
673.554	36665.53
673.904	36453.11
674.253	36762.48
674.602	36539.89
674.951	36019.67
675.3	35816.74
675.649	36348.03
675.998	36417.18
676.346	36281.59
676.695	36397.07
677.044	36174.7
677.393	36303.96
677.741	36415.82
678.09	36324.75
678.438	36063.97
678.787	36181.03
679.135	36162.04
679.484	36096.06
679.832	36184.19
680.181	35827.82
680.529	35937.42
680.877	36014.7
681.225	35943.74
681.573	36077.53
681.922	35862.39
682.27	35734.03
682.618	35688.84
682.966	35753.24
683.314	35715.73
683.661	35736.07
684.009	35483.87
684.357	35378.11
684.705	35229.41
685.053	35401.16
685.4	35228.06
685.748	35124.78
686.095	35320.94
686.443	35049.08
686.79	35072.81
687.138	35260.37
687.485	35024.9
687.832	34827.16
688.18	35023.09
688.527	34751.01
688.874	34731.35
689.221	34729.31
689.568	34673.72
689.915	34636.21
690.262	34556.66
690.609	34494.06
690.956	34328.19
691.303	34364.8
691.65	34211.36
691.997	34153.06
692.344	33955.55
692.69	33964.59
693.037	33868.32
693.383	33575.22
693.73	33801.65
694.077	33545.16
694.423	33520.76
694.769	33406.41
695.116	33296.81
695.462	33220.43
695.808	33215.68
696.155	33316.47
696.501	32899.76
696.847	33031.73
697.193	32782.7
697.539	32987.66
697.885	32742.02
698.231	32542.48
698.577	32644.17
698.923	32579.09
699.269	32431.29
699.614	32331.86
699.96	32290.73
700.306	32343.39
700.651	32177.97
700.997	32055.71
701.342	32016.84
701.688	31984.98
702.033	31794.02
702.379	31737.08
702.724	31555.38
703.069	31795.38
703.415	31464.77
703.76	31467.25
704.105	31486.23
704.45	31394.71
704.795	31215.28
705.14	31042.4
705.485	30995.63
705.83	31102.97
706.175	31021.39
706.52	30979.13
706.865	30800.83
707.209	30704.56
707.554	30589.31
707.899	30710.66
708.243	30557.9
708.588	30517.9
708.932	30366.72
709.277	30319.49
709.621	30283.33
709.966	29957.01
710.31	30132.15
710.654	29897.35
710.998	29999.72
711.342	30014.41
711.687	29866.62
712.031	29743.68
712.375	29669.78
712.719	29769.9
713.063	29475.21
713.407	29793.62
713.75	29418.94
714.094	29454.65
714.438	29357.93
714.782	29483.8
715.125	29300.98
715.469	29252.17
715.812	29129.69
716.156	28983.02
716.499	28926.53
716.843	28976.92
717.186	28750.71
717.53	28991.84
717.873	28863.93
718.216	28788.23
718.559	28667.33
718.902	28502.36
719.246	28695.12
719.589	28608.57
719.932	28566.54
720.275	28490.38
720.617	28498.97
720.96	28482.25
721.303	28403.38
721.646	28356.83
721.989	28127.9
722.331	28324.74
722.674	28195.25
723.016	28150.95
723.359	28144.85
723.701	28186.89
724.044	27932.88
724.386	27764.07
724.729	27940.79
725.071	27809.49
725.413	27822.38
725.755	27743.73
726.097	27676.84
726.439	27516.85
726.782	27522.72
727.124	27726.56
727.465	27457.19
727.807	27414.25
728.149	27387.81
728.491	27470.97
728.833	27342.61
729.175	27270.75
729.516	27207.7
729.858	27228.49
730.199	27288.38
730.541	27187.82
730.882	27210.87
731.224	27233.24
731.565	27047.03
731.906	27050.19
732.248	26966.58
732.589	26896.75
732.93	26880.03
733.271	26853.81
733.612	26901.5
733.953	26848.84
734.294	26721.84
734.635	26750.77
734.976	26684.33
735.317	26611.56
735.658	26629.41
735.999	26544.44
736.339	26457.67
736.68	26649.98
737.021	26501.05
737.361	26426.93
737.702	26529.75
738.042	26424.45
738.383	26272.59
738.723	26383.32
739.063	26282.76
739.404	26321.17
739.744	26067.85
740.084	26099.71
740.424	26154.4
740.764	26041.41
741.104	26133.15
741.444	25832.82
741.784	25836.44
742.124	25876.44
742.464	25888.87
742.804	25645.26
743.143	25795.54
743.483	25677.57
743.823	25598.93
744.162	25519.84
744.502	25646.61
744.841	25525.04
745.181	25627.63
745.52	25517.58
745.86	25480.97
746.199	25489.78
746.538	25378.37
746.877	25445.72
747.216	25476.22
747.556	25363.23
747.895	25330.69
748.234	25248.66
748.573	25238.94
748.911	25143.35
749.25	25206.63
749.589	25202.33
749.928	25138.15
750.267	25188.32
750.605	24995.33
750.944	24955.33
751.283	24969.34
751.621	24964.6
751.96	24711.27
752.298	24753.76
752.636	24845.05
752.975	24702.68
753.313	24602.8
753.651	24726.41
753.989	24542.46
754.327	24555.12
754.666	24338.17
755.004	24325.74
755.342	24370.94
755.679	24402.13
756.017	24128.46
756.355	24337.04
756.693	24132.98
757.031	24209.82
757.368	24053.66
757.706	23996.26
758.044	23968.01
758.381	23910.39
758.719	23883.27
759.056	23891.63
759.394	23737.51
759.731	23665.2
760.068	23640.11
