Data from hue_00_FLMS001491_50.txt Node
Date: Mon Feb 06 15:29:47 GMT 2017
User: dcchb
Spectrometer: FLMS00149
Trigger mode: 0
Integration Time (sec): 2.000000E-2
Scans to average: 10
Electric dark correction enabled: true
Nonlinearity correction enabled: false
Boxcar width: 0
XAxis mode: Wavelengths
Number of Pixels in Spectrum: 2048
>>>>>Begin Spectral Data<<<<<
341.393	-5.35
341.776	-5.35
342.16	-5.35
342.543	-79.7
342.927	-56.65
343.31	-68.85
343.693	-97.1
344.077	-74.28
344.46	-55.52
344.843	-57.1
345.226	-48.29
345.61	-22.53
345.993	-3.77
346.376	9.34
346.759	19.73
347.142	21.54
347.525	43.91
347.908	64.93
348.291	58.6
348.674	97.02
349.057	112.38
349.44	135.21
349.823	135.66
350.206	164.36
350.588	218.6
350.971	205.04
351.354	231.25
351.737	243.45
352.119	264.24
352.502	253.62
352.884	302.66
353.267	291.81
353.65	294.53
354.032	310.57
354.414	300.63
354.797	313.51
355.179	315.77
355.562	333.17
355.944	331.14
356.326	328.2
356.709	353.96
357.091	320.74
357.473	325.94
357.855	348.31
358.238	337.01
358.62	340.85
359.002	337.46
359.384	357.35
359.766	346.73
360.148	325.94
360.53	345.82
360.912	343.34
361.294	348.08
361.676	356.22
362.057	335.2
362.439	335.2
362.821	309.44
363.203	320.97
363.584	318.48
363.966	316.9
364.348	338.14
364.729	316.67
365.111	321.42
365.493	338.14
365.874	311.93
366.256	327.07
366.637	305.15
367.019	311.47
367.4	311.93
367.781	319.16
368.163	313.28
368.544	301.76
368.925	312.6
369.306	340.63
369.688	316.45
370.069	300.18
370.45	321.42
370.831	315.77
371.212	318.48
371.593	311.7
371.974	318.71
372.355	316.67
372.736	316.45
373.117	301.98
373.498	317.35
373.879	313.73
374.26	314.41
374.641	314.41
375.021	326.39
375.402	342.66
375.783	310.34
376.163	307.41
376.544	329.55
376.925	341.98
377.305	340.17
377.686	337.91
378.066	330.68
378.447	332.04
378.827	315.32
379.208	336.11
379.588	325.26
379.968	347.41
380.349	314.41
380.729	348.54
381.109	355.09
381.489	357.58
381.87	332.04
382.25	341.3
382.63	312.15
383.01	337.01
383.39	345.82
383.77	356.9
384.15	353.96
384.53	347.63
384.91	349.89
385.29	343.11
385.67	360.51
386.049	353.73
386.429	332.72
386.809	353.51
387.189	335.43
387.568	334.98
387.948	361.64
388.328	351.7
388.707	355.32
389.087	371.36
389.466	344.92
389.846	351.02
390.225	352.83
390.605	346.5
390.984	355.09
391.363	361.19
391.743	377.01
392.122	383.34
392.501	357.35
392.881	336.78
393.26	352.38
393.639	377.46
394.018	387.63
394.397	352.83
394.776	377.91
395.155	380.4
395.534	370.91
395.913	384.69
396.292	363.9
396.671	389.21
397.05	369.33
397.429	384.02
397.808	389.21
398.186	377.24
398.565	353.96
398.944	382.21
399.323	380.17
399.701	376.78
400.08	376.33
400.458	394.86
400.837	391.25
401.215	406.84
401.594	384.92
401.972	373.62
402.351	412.04
402.729	393.73
403.107	380.63
403.486	406.84
403.864	403.22
404.242	409.55
404.62	402.09
404.999	393.51
405.377	397.8
405.755	405.71
406.133	416.78
406.511	408.87
406.889	405.71
407.267	417.91
407.645	442.32
408.023	444.13
408.401	405.03
408.779	437.35
409.156	442.09
409.534	422.43
409.912	436.67
410.29	463.34
410.667	442.32
411.045	440.06
411.422	465.82
411.8	465.37
412.178	471.92
412.555	478.25
412.933	463.56
413.31	467.63
413.687	457.46
414.065	465.6
414.442	470.34
414.819	482.54
415.197	481.41
415.574	466.73
415.951	466.05
416.328	481.87
416.705	489.78
417.082	488.19
417.46	499.27
417.837	483.45
418.214	492.04
418.591	492.71
418.967	479.15
419.344	496.55
419.721	495.2
420.098	496.33
420.475	500.62
420.852	538.59
421.228	522.54
421.605	522.32
421.982	511.24
422.358	538.59
422.735	530.23
423.111	525.03
423.488	527.06
423.864	530.68
424.241	548.08
424.617	554.63
424.994	552.82
425.37	552.37
425.746	538.14
426.123	540.62
426.499	555.76
426.875	582.43
427.251	566.61
427.627	555.08
428.003	578.36
428.379	567.29
428.756	600.73
429.132	595.76
429.507	609.77
429.883	596.67
430.259	614.07
430.635	592.82
431.011	610.45
431.387	617.23
431.763	620.39
432.138	612.03
432.514	622.43
432.89	630.56
433.265	631.01
433.641	634.86
434.016	658.81
434.392	664.46
434.767	678.24
435.143	652.71
435.518	640.73
435.894	704.91
436.269	682.54
436.644	692.71
437.02	695.19
437.395	702.65
437.77	709.2
438.145	712.37
438.52	714.4
438.895	702.2
439.271	673.27
439.646	701.07
440.021	715.98
440.395	716.66
440.77	720.73
441.145	741.52
441.52	732.71
441.895	750.56
442.27	752.82
442.645	759.82
443.019	762.54
443.394	778.58
443.769	759.6
444.143	768.41
444.518	778.36
444.892	775.64
445.267	789.88
445.641	777.23
446.016	770.9
446.39	779.71
446.764	781.07
447.139	801.18
447.513	795.3
447.887	784.91
448.262	822.42
448.636	809.09
449.01	794.4
449.384	785.81
449.758	834.17
450.132	810.9
450.506	815.42
450.88	857
451.254	865.81
451.628	841.18
452.002	870.78
452.376	855.64
452.75	864.45
453.123	872.14
453.497	861.29
453.871	872.59
454.244	916.88
454.618	889.76
454.992	927.73
455.365	916.2
455.739	932.25
456.112	915.98
456.486	947.39
456.859	927.28
457.232	952.36
457.606	943.77
457.979	938.58
458.352	974.28
458.725	1000.95
459.099	984.23
459.472	986.03
459.845	1006.6
460.218	1002.3
460.591	1027.61
460.964	1025.81
461.337	1029.65
461.71	1057.9
462.083	1093.83
462.456	1068.97
462.829	1093.38
463.201	1087.05
463.574	1100.38
463.947	1085.69
464.32	1136.31
464.692	1146.71
465.065	1181.51
465.438	1172.24
465.81	1190.1
466.183	1193.26
466.555	1177.67
466.928	1185.35
467.3	1214.95
467.672	1238
468.045	1264.44
468.417	1269.64
468.789	1248.85
469.161	1292.01
469.534	1317.32
469.906	1325.69
470.278	1344.89
470.65	1348.74
471.022	1381.05
471.394	1395.74
471.766	1420.82
472.138	1410.2
472.51	1435.06
472.882	1474.61
473.253	1461.28
473.625	1496.75
473.997	1515.51
474.369	1557.54
474.74	1575.17
475.112	1585.34
475.484	1654.26
475.855	1642.29
476.227	1692.68
476.598	1700.82
476.97	1716.64
477.341	1751.44
477.713	1772.91
478.084	1829.18
478.455	1833.69
478.827	1884.99
479.198	1913.92
479.569	1926.57
479.94	1970.41
480.311	1944.65
480.682	2048.83
481.053	2073.69
481.424	2113.46
481.795	2131.31
482.166	2174.25
482.537	2182.61
482.908	2224.87
483.279	2264.64
483.65	2320.01
484.021	2317.52
484.391	2378.54
484.762	2413.57
485.133	2440.46
485.503	2473.23
485.874	2520
486.244	2538.76
486.615	2602.04
486.985	2617.4
487.356	2642.94
487.726	2687.23
488.097	2712.77
488.467	2769.26
488.837	2823.27
489.207	2866.21
489.578	2905.98
489.948	2934
490.318	2971.97
490.688	2993.44
491.058	3070.27
491.428	3091.97
491.798	3117.28
492.168	3166.54
492.538	3188.69
492.908	3214.45
493.278	3270.04
493.648	3285.18
494.017	3366.99
494.387	3353.88
494.757	3393.43
495.126	3406.31
495.496	3428
495.866	3477.72
496.235	3495.12
496.605	3536.02
496.974	3525.4
497.344	3591.61
497.713	3584.38
498.082	3601.78
498.452	3661.44
498.821	3677.04
499.19	3729.01
499.559	3771.95
499.928	3768.11
500.298	3822.79
500.667	3839.52
501.036	3835
501.405	3853.08
501.774	3867.77
502.143	3944.15
502.512	3948.22
502.88	3923.36
503.249	3964.71
503.618	3960.64
503.987	3985.73
504.356	4045.39
504.724	4049.68
505.093	4055.33
505.462	4064.37
505.83	4088.55
506.199	4144.14
506.567	4171.49
506.936	4174.42
507.304	4186.85
507.672	4218.49
508.041	4251.94
508.409	4297.58
508.777	4279.51
509.145	4314.08
509.514	4338.94
509.882	4370.35
510.25	4353.18
510.618	4394.31
510.986	4379.16
511.354	4410.12
511.722	4416.45
512.09	4461.42
512.458	4461.2
512.826	4487.64
513.193	4535.54
513.561	4519.73
513.929	4521.53
514.297	4622.55
514.664	4568.09
515.032	4593.85
515.4	4612.6
515.767	4653.06
516.135	4640.63
516.502	4629.1
516.869	4722.66
517.237	4711.13
517.604	4698.93
517.972	4715.88
518.339	4771.7
518.706	4742.32
519.073	4776.67
519.44	4794.97
519.808	4841.07
520.175	4807.63
520.542	4868.64
520.909	4867.51
521.276	4893.5
521.643	4923.56
522.009	4969.43
522.376	4972.37
522.743	4996.1
523.11	5006.94
523.477	5052.59
523.843	5107.28
524.21	5077.68
524.577	5121.52
524.943	5152.93
525.31	5189.09
525.676	5192.93
526.043	5219.37
526.409	5266.82
526.776	5326.03
527.142	5323.09
527.508	5335.3
527.874	5352.92
528.241	5374.17
528.607	5424.11
528.973	5487.61
529.339	5476.54
529.705	5470.89
530.071	5533.71
530.437	5542.3
530.803	5576.65
531.169	5528.51
531.535	5604.22
531.901	5617.55
532.267	5706.81
532.632	5668.4
532.998	5730.09
533.364	5734.84
533.73	5782.52
534.095	5766.25
534.461	5802.86
534.826	5894.38
535.192	5865
535.557	5899.8
535.923	5946.81
536.288	5894.6
536.653	6035.84
537.019	5972.79
537.384	5984.77
537.749	6073.36
538.114	6036.97
538.479	6043.08
538.845	6116.07
539.21	6093.24
539.575	6076.3
539.94	6119.91
540.305	6180.02
540.67	6227.25
541.034	6216.86
541.399	6287.81
541.764	6240.13
542.129	6289.17
542.494	6315.16
542.858	6344.08
543.223	6312.9
543.587	6406.91
543.952	6435.16
544.316	6384.76
544.681	6437.87
545.045	6431.31
545.41	6501.37
545.774	6554.93
546.138	6542.27
546.503	6528.71
546.867	6633.79
547.231	6648.26
547.595	6635.15
547.959	6688.03
548.324	6648.48
548.688	6736.16
549.052	6761.7
549.416	6734.58
549.779	6740.46
550.143	6811.64
550.507	6805.54
550.871	6856.84
551.235	6791.53
551.599	6888.03
551.962	6931.19
552.326	6937.29
552.689	6922.15
553.053	6980.9
553.417	7022.26
553.78	7069.26
554.143	7049.15
554.507	7051.86
554.87	7083.5
555.234	7158.53
555.597	7153.55
555.96	7161.92
556.323	7152.2
556.686	7208.24
557.05	7245.98
557.413	7237.62
557.776	7323.95
558.139	7338.41
558.502	7296.6
558.865	7342.93
559.228	7375.02
559.59	7417.05
559.953	7404.85
560.316	7464.06
560.679	7464.51
561.041	7564.17
561.404	7510.38
561.767	7576.59
562.129	7577.72
562.492	7699.53
562.854	7610.04
563.217	7565.97
563.579	7746.76
563.941	7688.68
564.304	7724.16
564.666	7815.46
565.028	7777.95
565.39	7811.39
565.753	7833.54
566.115	7925.06
566.477	7899.75
566.839	7873.76
567.201	7970.93
567.563	7985.17
567.925	8032.85
568.287	8015.68
568.648	8079.41
569.01	8070.14
569.372	8143.81
569.734	8073.08
570.095	8199.63
570.457	8283.02
570.819	8253.41
571.18	8256.12
571.542	8273.53
571.903	8426.97
572.265	8407.08
572.626	8411.15
572.987	8438.49
573.349	8562.11
573.71	8587.42
574.071	8633.74
574.432	8672.16
574.794	8716.68
575.155	8743.57
575.516	8844.58
575.877	8835.54
576.238	8939.5
576.599	8996.22
576.96	8999.38
577.32	9103.33
577.681	9202.99
578.042	9266.04
578.403	9339.03
578.763	9461.06
579.124	9575.41
579.485	9604.34
579.845	9737.67
580.206	9768.85
580.566	9938.11
580.927	10016.76
581.287	10122.74
581.648	10229.41
582.008	10387.14
582.368	10528.83
582.728	10668.26
583.089	10752.33
583.449	10908.94
583.809	11119.78
584.169	11289.49
584.529	11372.2
584.889	11673.66
585.249	11741
585.609	11861.23
585.969	12099.64
586.329	12268
586.688	12506.41
587.048	12741.2
587.408	12817.36
587.768	13113.85
588.127	13290.12
588.487	13525.82
588.846	13832.25
589.206	13924.68
589.565	14129.64
589.925	14440.14
590.284	14716.75
590.643	14925.33
591.003	15190.63
591.362	15554.46
591.721	15657.06
592.08	15857.05
592.44	16173.66
592.799	16478.96
593.158	16741.78
593.517	17085.72
593.876	17364.36
594.235	17581.53
594.593	17892.26
594.952	18166.6
595.311	18364.56
595.67	18647.72
596.029	19070.98
596.387	19348.49
596.746	19682.04
597.104	19877.97
597.463	20172.2
597.822	20457.39
598.18	20645.63
598.538	20954.77
598.897	21394.99
599.255	21415.78
599.613	22020.28
599.972	22152.03
600.33	22463.21
600.688	22567.39
601.046	23041.05
601.404	23349.51
601.762	23603.97
602.12	23951.08
602.478	24247.34
602.836	24302.71
603.194	24549.26
603.552	24901.34
603.91	25062.46
604.268	25392.4
604.625	25514.2
604.983	25848.2
605.341	25999.61
605.698	26320.51
606.056	26569.09
606.413	26789.2
606.771	27157.55
607.128	27486.35
607.485	27555.28
607.843	27754.37
608.2	28091.76
608.557	28418.98
608.914	28450.4
609.272	28794.79
609.629	29048.12
609.986	29243.82
610.343	29327.44
610.7	29762.45
611.057	29820.08
611.414	30155.66
611.771	30353.62
612.127	30531.92
612.484	30657.8
612.841	30926.04
613.198	31011.01
613.554	31202.41
613.911	31478.11
614.267	31648.5
614.624	31782.29
614.98	31958.33
615.337	32249.62
615.693	32309.5
616.05	32340.69
616.406	32785.2
616.762	32774.8
617.118	32883.05
617.475	33028.35
617.831	33273.55
618.187	33343.15
618.543	33473.31
618.899	33919.63
619.255	33870.59
619.611	34110.81
619.967	34111.26
620.323	34238.72
620.678	34281.88
621.034	34229.68
621.39	34385.16
621.746	34529.56
622.101	34929.55
622.457	34758.93
622.812	34899.27
623.168	35077.57
623.523	35185.36
623.879	35377.22
624.234	35124.57
624.589	35418.12
624.945	35556.2
625.3	35607.72
625.655	35614.28
626.01	35714.84
626.365	35804.55
626.72	35806.81
627.075	36013.13
627.43	35985.79
627.785	35950.76
628.14	36167.03
628.495	36111.44
628.85	36146.92
629.205	35999.58
629.559	36329.96
629.914	36318.89
630.269	36315.05
630.623	36250.87
630.978	36293.58
631.332	36549.39
631.687	36599.11
632.041	36476.4
632.396	36583.97
632.75	36626.9
633.104	36514.36
633.459	36442.05
633.813	36578.54
634.167	36541.26
634.521	36538.32
634.875	36697.41
635.229	36536.51
635.583	36468.94
635.937	36485.66
636.291	36503.97
636.645	36537.87
636.999	36588.71
637.352	36685.43
637.706	36454.03
638.06	36583.52
638.413	36597.98
638.767	36598.88
639.121	36733.34
639.474	36452.22
639.828	36408.83
640.181	36586
640.534	36622.61
640.888	36647.69
641.241	36442.5
641.594	36379.68
641.947	36599.11
642.301	36486.34
642.654	36452.9
643.007	36494.25
643.36	36539.9
643.713	36385.33
644.066	36512.56
644.419	36207.25
644.771	36010.88
645.124	35752.58
645.477	35647.72
645.83	35516.2
646.182	35435.3
646.535	35359.37
646.888	35444.34
647.24	35270.78
647.593	35422.64
647.945	35327.05
648.298	35287.28
648.65	35076.89
649.002	35206.15
649.355	35345.36
649.707	35226.94
650.059	35397.56
650.411	35790.77
650.763	35787.6
651.115	36231.66
651.467	36133.58
651.819	36142.62
652.171	36123.87
652.523	35973.14
652.875	35968.62
653.227	35858.56
653.578	36093.36
653.93	36073.25
654.282	35836.42
654.633	35722.07
654.985	35854.5
655.337	35769.98
655.688	35851.56
656.039	36047.26
656.391	35779.02
656.742	35765.23
657.094	35784.67
657.445	35861.27
657.796	35720.49
658.147	35672.13
658.498	35773.82
658.849	35769.75
659.2	35768.85
659.551	35615.18
659.902	35784.21
660.253	35732.01
660.604	35859.47
660.955	35576.99
661.306	35831.44
661.656	35617.44
662.007	35613.6
662.358	35728.62
662.708	35743.76
663.059	35619.47
663.409	35529.31
663.76	35707.38
664.11	35581.51
664.461	35702.18
664.811	35614.95
665.161	35648.4
665.511	35520.94
665.862	35598.23
666.212	35710.54
666.562	35664.22
666.912	35595.07
667.262	35542.19
667.612	35573.37
667.962	35567.72
668.312	35570.89
668.662	35673.03
669.011	35612.69
669.361	35598
669.711	35581.96
670.06	35519.36
670.41	35335.41
670.76	35307.16
671.109	35550.32
671.459	35618.8
671.808	35407.05
672.157	35476.88
672.507	35339.48
672.856	35278.24
673.205	35377.67
673.554	35468.52
673.904	35320.05
674.253	35514.62
674.602	35339.71
674.951	34845.03
675.3	34587.18
675.649	35300.16
675.998	35131.58
676.346	35183.55
676.695	35327.28
677.044	35134.51
677.393	35295.64
677.741	35223.78
678.09	35100.62
678.438	34934.29
678.787	35110.79
679.135	35286.83
679.484	34875.99
679.832	35069.66
680.181	34815.88
680.529	34999.38
680.877	34769.1
681.225	34699.95
681.573	34922.32
681.922	34798.25
682.27	34615.66
682.618	34669.89
682.966	34519.84
683.314	34779.95
683.661	34607.52
684.009	34379.51
684.357	34341.77
684.705	34292.73
685.053	34186.29
685.4	34295.67
685.748	34150.59
686.095	34113.75
686.443	33944.04
686.79	33881.21
687.138	33985.17
687.485	33977.03
687.832	33861.78
688.18	33866.3
688.527	33690.94
688.874	33572.75
689.221	33596.7
689.568	33513.54
689.915	33395.12
690.262	33505.4
690.609	33238.97
690.956	33100.44
691.303	33224.06
691.65	33104.06
691.997	33063.83
692.344	32883.95
692.69	32996.94
693.037	32913.1
693.383	32690.06
693.73	32798.08
694.077	32670.85
694.423	32550.18
694.769	32519.67
695.116	32348.15
695.462	32429.05
695.808	32250.52
696.155	32313.35
696.501	32082.62
696.847	32106.12
697.193	31817.31
697.539	31976.63
697.885	31706.81
698.231	31666.36
698.577	31488.06
698.923	31449.87
699.269	31363.09
699.614	31128.29
699.96	31176.43
700.306	31214.17
700.651	31031.35
700.997	30982.76
701.342	30955.64
701.688	30894.17
702.033	30874.51
702.379	30778.47
702.724	30581.41
703.069	30753.61
703.415	30409.44
703.76	30508.19
704.105	30449.67
704.45	30390.46
704.795	30091.26
705.14	30079.51
705.485	30105.27
705.83	29909.79
706.175	30000.64
706.52	29928.55
706.865	29836.12
707.209	29844.26
707.554	29625.05
707.899	29815.11
708.243	29655.11
708.588	29568.78
708.932	29326.31
709.277	29330.6
709.621	29392.07
709.966	29054.22
710.31	29233.65
710.654	28926.09
710.998	28981.23
711.342	29035.69
711.687	28960.44
712.031	28737.85
712.375	28621.92
712.719	28686.77
713.063	28548.02
713.407	28677.96
713.75	28583.5
714.094	28622.14
714.438	28441.36
714.782	28508.7
715.125	28320.91
715.469	28409.04
715.812	28244.98
716.156	28066.9
716.499	28069.62
716.843	28054.47
717.186	28020.12
717.53	28081.14
717.873	28084.98
718.216	27957.75
718.559	27810.19
718.902	27661.26
719.246	27751.21
719.589	27658.78
719.932	27534.04
720.275	27532.23
720.617	27541.95
720.96	27417.2
721.303	27351.44
721.646	27391.89
721.989	27341.95
722.331	27353.7
722.674	27335.17
723.016	27244.78
723.359	27170.66
723.701	27237.77
724.044	27022.64
724.386	26985.8
724.729	27151.67
725.071	26928.4
725.413	26870.55
725.755	26873.94
726.097	26874.17
726.439	26609.77
726.782	26666.04
727.124	26774.96
727.465	26679.37
727.807	26652.25
728.149	26606.15
728.491	26462.88
728.833	26620.39
729.175	26435.99
729.516	26362.99
729.858	26403.44
730.199	26449.32
730.541	26267.4
730.882	26363.22
731.224	26439.38
731.565	26170.91
731.906	26091.59
732.248	26208.87
732.589	26024.47
732.93	25974.98
733.271	26055.66
733.612	25975.88
733.953	25989.9
734.294	25915.32
734.635	25761.43
734.976	25856.57
735.317	25623.13
735.658	25680.53
735.999	25593.52
736.339	25608.66
736.68	25645.72
737.021	25701.54
737.361	25517.14
737.702	25551.72
738.042	25585.16
738.383	25416.35
738.723	25471.49
739.063	25369.57
739.404	25404.15
739.744	25389.23
740.084	25270.82
740.424	25371.15
740.764	25226.07
741.104	25324.38
741.444	25146.98
741.784	25167.54
742.124	25111.05
742.464	25175.91
742.804	25042.35
743.143	24945.4
743.483	25003.25
743.823	24916.93
744.162	24777.72
744.502	24941.34
744.841	24823.6
745.181	24810.27
745.52	24738.63
745.86	24792.64
746.199	24652.3
746.538	24749.25
746.877	24758.29
747.216	24652.98
747.556	24693.88
747.895	24566.66
748.234	24573.44
748.573	24490.95
748.911	24521.91
749.25	24469.26
749.589	24293.22
749.928	24327.11
750.267	24310.84
750.605	24300.67
750.944	24192.43
751.283	24177.74
751.621	24234.91
751.96	24069.49
752.298	24099.1
752.636	24026.56
752.975	23851.42
753.313	23845.55
753.651	24013.22
753.989	23764.64
754.327	23779.33
754.666	23598.32
755.004	23807.58
755.342	23655.04
755.679	23662.27
756.017	23606.23
756.355	23573.69
756.693	23511.99
757.031	23490.75
757.368	23334.15
757.706	23234.04
758.044	23345.67
758.381	23297.54
758.719	23176.18
759.056	23195.62
759.394	23112.68
759.731	22943.65
760.068	23141.61
760.405	22875.18
760.743	22801.28
