Data from hue_300_FLMS001491_00031.txt Node
Date: Tue Feb 07 15:50:38 GMT 2017
User: dcchb
Spectrometer: FLMS00149
Trigger mode: 0
Integration Time (sec): 2.000000E-2
Scans to average: 10
Electric dark correction enabled: true
Nonlinearity correction enabled: false
Boxcar width: 0
XAxis mode: Wavelengths
Number of Pixels in Spectrum: 2048
>>>>>Begin Spectral Data<<<<<
341.393	3.67
341.776	3.67
342.16	3.67
342.543	-63.44
342.927	-54.86
343.31	-59.38
343.693	-84.01
344.077	-53.05
344.46	-69.55
344.843	-50.34
345.226	-61.18
345.61	-41.52
345.993	-26.16
346.376	10.45
346.759	-2.88
347.142	45.93
347.525	38.7
347.908	63.11
348.291	74.4
348.674	96.1
349.057	119.38
349.44	107.62
349.823	137.23
350.206	141.97
350.588	197.11
350.971	221.52
351.354	229.43
351.737	251.58
352.119	251.8
352.502	252.03
352.884	265.81
353.267	263.1
353.65	294.06
354.032	292.7
354.414	299.26
354.797	328.18
355.179	313.27
355.562	316.43
355.944	325.02
356.326	294.51
356.709	340.61
357.091	337
357.473	346.26
357.855	331.8
358.238	340.61
358.62	331.57
359.002	339.71
359.384	334.51
359.766	314.17
360.148	311.46
360.53	341.52
360.912	327.96
361.294	328.18
361.676	342.87
362.057	320.27
362.439	326.38
362.821	311.69
363.203	320.5
363.584	297.9
363.966	318.47
364.348	315.75
364.729	336.32
365.111	306.49
365.493	301.97
365.874	300.61
366.256	322.76
366.637	299.03
367.019	313.72
367.4	293.38
367.781	325.92
368.163	311.46
368.544	325.92
368.925	313.27
369.306	320.05
369.688	317.11
370.069	318.47
370.45	318.01
370.831	304.46
371.212	312.14
371.593	329.09
371.974	303.55
372.355	304.46
372.736	332.7
373.117	323.44
373.498	316.43
373.879	324.12
374.26	327.96
374.641	319.82
375.021	316.88
375.402	323.89
375.783	316.66
376.163	316.88
376.544	329.77
376.925	334.28
377.305	314.85
377.686	341.06
378.066	313.72
378.447	318.69
378.827	307.39
379.208	348.3
379.588	343.78
379.968	313.27
380.349	302.65
380.729	337.9
381.109	349.2
381.489	331.12
381.87	329.09
382.25	337
382.63	312.14
383.01	339.48
383.39	329.31
383.77	341.52
384.15	343.78
384.53	350.56
384.91	341.52
385.29	367.28
385.67	329.99
386.049	358.69
386.429	330.9
386.809	353.49
387.189	358.47
387.568	359.82
387.948	337.67
388.328	369.54
388.707	362.31
389.087	361.4
389.466	348.97
389.846	359.14
390.225	358.01
390.605	355.08
390.984	352.36
391.363	360.5
391.743	375.41
392.122	380.39
392.501	370.67
392.881	360.5
393.26	371.35
393.639	377.67
394.018	387.39
394.397	385.81
394.776	371.57
395.155	387.16
395.534	406.37
395.913	393.04
396.292	372.7
396.671	376.09
397.05	402.31
397.429	423.1
397.808	396.88
398.186	378.13
398.565	394.62
398.944	390.55
399.323	412.93
399.701	408.18
400.08	393.94
400.458	416.99
400.837	433.04
401.215	420.61
401.594	409.76
401.972	423.1
402.351	420.38
402.729	407.96
403.107	419.93
403.486	433.49
403.864	429.42
404.242	415.86
404.62	421.97
404.999	435.07
405.377	442.08
405.755	439.82
406.133	434.17
406.511	441.17
406.889	440.5
407.267	450.44
407.645	473.04
408.023	460.84
408.401	492.25
408.779	463.1
409.156	504.22
409.534	489.76
409.912	487.05
410.29	496.54
410.667	484.56
411.045	506.03
411.422	515.52
411.8	512.81
412.178	554.17
412.555	534.96
412.933	547.84
413.31	575.86
413.687	583.32
414.065	585.35
414.442	567.5
414.819	582.87
415.197	580.83
415.574	604.11
415.951	597.1
416.328	620.83
416.705	615.63
417.082	605.01
417.46	638.46
417.837	643.2
418.214	668.29
418.591	680.49
418.967	686.59
419.344	693.15
419.721	648.4
420.098	682.52
420.475	716.87
420.852	698.12
421.228	707.83
421.605	732.01
421.982	737.89
422.358	759.58
422.735	750.32
423.111	766.82
423.488	766.36
423.864	778.57
424.241	789.19
424.617	794.16
424.994	788.74
425.37	799.13
425.746	826.48
426.123	829.19
426.499	829.19
426.875	839.13
427.251	837.77
427.627	868.51
428.003	885.23
428.379	878
428.756	877.77
429.132	910.09
429.507	896.53
429.883	921.61
430.259	926.36
430.635	947.38
431.011	965.91
431.387	964.78
431.763	981.05
432.138	997.09
432.514	1004.78
432.89	1001.61
433.265	1049.07
433.641	1052.46
434.016	1050.88
434.392	1037.77
434.767	1070.31
435.143	1064.21
435.518	1114.38
435.894	1114.38
436.269	1115.73
436.644	1143.3
437.02	1124.09
437.395	1161.38
437.77	1148.27
438.145	1165.45
438.52	1173.13
438.895	1174.71
439.271	1179.91
439.646	1232.34
440.021	1209.52
440.395	1221.95
440.77	1204.09
441.145	1223.98
441.52	1245.45
441.895	1238.89
442.27	1251.32
442.645	1254.49
443.019	1270.98
443.394	1253.81
443.769	1304.43
444.143	1280.47
444.518	1306.91
444.892	1276.63
445.267	1267.37
445.641	1321.38
446.016	1301.49
446.39	1330.64
446.764	1340.36
447.139	1329.74
447.513	1302.85
447.887	1317.31
448.262	1316.41
448.636	1319.57
449.01	1344.2
449.384	1349.4
449.758	1355.73
450.132	1336.74
450.506	1394.37
450.88	1378.78
451.254	1390.53
451.628	1397.99
452.002	1398.44
452.376	1433.01
452.75	1422.39
453.123	1419.68
453.497	1407.25
453.871	1423.97
454.244	1452.45
454.618	1470.98
454.992	1507.14
455.365	1479.34
455.739	1481.6
456.112	1495.38
456.486	1534.93
456.859	1547.36
457.232	1551.65
457.606	1522.05
457.979	1577.19
458.352	1572.44
458.725	1590.07
459.099	1574.93
459.472	1610.18
459.845	1623.29
460.218	1646.11
460.591	1630.52
460.964	1657.19
461.337	1649.96
461.71	1682.5
462.083	1699.9
462.456	1710.75
462.829	1700.12
463.201	1740.8
463.574	1695.83
463.947	1723.85
464.32	1746.23
464.692	1794.13
465.065	1758.2
465.438	1772.67
465.81	1799.78
466.183	1800.91
466.555	1809.95
466.928	1855.37
467.3	1843.85
467.672	1896.05
468.045	1914.13
468.417	1896.5
468.789	1909.38
469.161	1911.64
469.534	1961.59
469.906	1981.25
470.278	1968.37
470.65	1976.5
471.022	2042.71
471.394	2061.02
471.766	2059.89
472.138	2098.98
472.51	2115.03
472.882	2104.41
473.253	2127.68
473.625	2127.01
473.997	2184.41
474.369	2188.93
474.74	2212.43
475.112	2215.37
475.484	2262.82
475.855	2275.25
476.227	2297.17
476.598	2330.84
476.97	2332.2
477.341	2395.02
477.713	2405.19
478.084	2406.09
478.455	2472.76
478.827	2469.82
479.198	2511.4
479.569	2511.85
479.94	2541.01
480.311	2549.59
480.682	2611.51
481.053	2654.9
481.424	2668.46
481.795	2713.21
482.166	2667.78
482.537	2724.05
482.908	2778.51
483.279	2820.77
483.65	2826.2
484.021	2837.72
484.391	2863.03
484.762	2859.64
485.133	2870.72
485.503	2948.68
485.874	2962.69
486.244	3001.56
486.615	3059.64
486.985	3046.98
487.356	3116.58
487.726	3104.61
488.097	3138.96
488.467	3152.97
488.837	3172.85
489.207	3211.05
489.578	3277.94
489.948	3278.84
490.318	3281.78
490.688	3301.89
491.058	3317.94
491.428	3381.66
491.798	3382.34
492.168	3407.2
492.538	3439.06
492.908	3440.64
493.278	3487.2
493.648	3482
494.017	3518.38
494.387	3548.44
494.757	3570.13
495.126	3618.49
495.496	3576.01
495.866	3608.55
496.235	3646.06
496.605	3680.86
496.974	3683.35
497.344	3695.78
497.713	3679.51
498.082	3745.95
498.452	3726.96
498.821	3750.24
499.19	3771.71
499.559	3803.57
499.928	3801.76
500.298	3852.16
500.667	3873.17
501.036	3856.9
501.405	3861.42
501.774	3899.39
502.143	3891.71
502.512	3853.06
502.88	3952.27
503.249	3954.3
503.618	3937.35
503.987	3969.44
504.356	3969.9
504.724	3989.78
505.093	4014.41
505.462	4005.15
505.83	4019.61
506.199	4035.2
506.567	4072.04
506.936	4055.54
507.304	4095.09
507.672	4114.3
508.041	4105.03
508.409	4109.1
508.777	4121.76
509.145	4150.23
509.514	4188.42
509.882	4195.88
510.25	4200.85
510.618	4249.89
510.986	4200.85
511.354	4239.49
511.722	4257.12
512.09	4299.83
512.458	4266.16
512.826	4328.3
513.193	4317.23
513.561	4307.51
513.929	4350
514.297	4376.21
514.664	4347.29
515.032	4354.29
515.4	4399.94
515.767	4397.68
516.135	4432.93
516.502	4382.54
516.869	4444.23
517.237	4466.15
517.604	4455.98
517.972	4486.49
518.339	4453.95
518.706	4500.96
519.073	4489.2
519.44	4535.08
519.808	4504.57
520.175	4531.69
520.542	4571.91
520.909	4552.25
521.276	4568.98
521.643	4615.08
522.009	4573.27
522.376	4640.84
522.743	4615.3
523.11	4674.28
523.477	4686.49
523.843	4743.89
524.21	4747.73
524.577	4765.13
524.943	4752.7
525.31	4773.26
525.676	4834.28
526.043	4815.75
526.409	4839.03
526.776	4899.36
527.142	4877.44
527.508	4904.33
527.874	5001.28
528.241	4963.32
528.607	4968.06
528.973	5043.99
529.339	5028.17
529.705	5081.96
530.071	5074.73
530.437	5131.45
530.803	5139.81
531.169	5166.02
531.535	5145.01
531.901	5152.01
532.267	5154.72
532.632	5253.48
532.998	5236.53
533.364	5297.09
533.73	5238.11
534.095	5289.41
534.461	5320.14
534.826	5392.68
535.192	5373.47
535.557	5406.47
535.923	5397.43
536.288	5447.37
536.653	5476.3
537.019	5416.86
537.384	5483.75
537.749	5493.02
538.114	5525.11
538.479	5515.39
538.845	5543.19
539.21	5580.25
539.575	5566.24
539.94	5598.78
540.305	5694.14
540.67	5572.57
541.034	5694.6
541.399	5711.32
541.764	5686.91
542.129	5720.81
542.494	5746.12
542.858	5749.28
543.223	5776.85
543.587	5799
543.952	5828.15
544.316	5891.88
544.681	5792.9
545.045	5899.79
545.41	5933.46
545.774	5909.73
546.138	5962.84
546.503	6031.76
546.867	5946.79
547.231	6055.26
547.595	6039.67
547.959	6096.39
548.324	6089.16
548.688	6045.32
549.052	6116.73
549.416	6115.83
549.779	6129.39
550.143	6206.67
550.507	6209.84
550.871	6221.59
551.235	6203.51
551.599	6297.07
551.962	6308.14
552.326	6324.86
552.689	6359.21
553.053	6318.08
553.417	6369.38
553.78	6375.93
554.143	6376.39
554.507	6429.27
554.87	6447.12
555.234	6466.78
555.597	6470.85
555.96	6491.86
556.323	6536.61
556.686	6549.94
557.05	6578.64
557.413	6585.42
557.776	6548.36
558.139	6665.87
558.502	6594.46
558.865	6607.57
559.228	6664.97
559.59	6696.6
559.953	6772.31
560.316	6695.93
560.679	6704.06
561.041	6758.07
561.404	6780.44
561.767	6835.36
562.129	6810.05
562.492	6860.89
562.854	6915.58
563.217	6820.44
563.579	6877.84
563.941	6973.21
564.304	6971.62
564.666	7005.75
565.028	6989.03
565.39	7057.72
565.753	7072.41
566.115	7117.38
566.477	7047.33
566.839	7151.28
567.201	7171.62
567.563	7198.29
567.925	7203.93
568.287	7238.28
568.648	7291.16
569.01	7315.12
569.372	7363.7
569.734	7329.13
570.095	7373.2
570.457	7442.8
570.819	7445.28
571.18	7419.3
571.542	7499.97
571.903	7533.87
572.265	7610.25
572.626	7633.08
572.987	7682.79
573.349	7692.96
573.71	7747.65
574.071	7804.82
574.432	7883.01
574.794	7970.02
575.155	7897.48
575.516	7982.45
575.877	8083.01
576.238	8129.11
576.599	8134.53
576.96	8231.48
577.32	8324.36
577.681	8433.51
578.042	8496.56
578.403	8602.54
578.763	8672.14
579.124	8738.13
579.485	8819.71
579.845	8931.12
580.206	9047.95
580.566	9188.97
580.927	9339.92
581.287	9429.19
581.648	9553.25
582.008	9704.43
582.368	9819.01
582.728	10000.92
583.089	10099.45
583.449	10229.17
583.809	10394.59
584.169	10687.69
584.529	10777.17
584.889	11102.14
585.249	11173.77
585.609	11266.65
585.969	11592.52
586.329	11743.02
586.688	11982.79
587.048	12176.46
587.408	12361.77
587.768	12550.46
588.127	12895.08
588.487	13054.85
588.846	13459.59
589.206	13543.2
589.565	13844.89
589.925	14111.32
590.284	14363.07
590.643	14581.37
591.003	14888.03
591.362	15121.92
591.721	15454.79
592.08	15693.2
592.44	16003.25
592.799	16361.66
593.158	16527.98
593.517	16941.76
593.876	17139.72
594.235	17445.47
594.593	17699.93
594.952	17977.66
595.311	18246.13
595.67	18606.35
596.029	18968.37
596.387	19237.52
596.746	19537.62
597.104	19784.17
597.463	20076.14
597.822	20480.2
598.18	20552.96
598.538	20859.62
598.897	21302.1
599.255	21339.38
599.613	21977.78
599.972	22036.99
600.33	22368.51
600.688	22587.49
601.046	22971.43
601.404	23344.53
601.762	23597.63
602.12	23926.88
602.478	24185.64
602.836	24419.08
603.194	24503.37
603.552	24806.64
603.91	24929.8
604.268	25397.81
604.625	25558.71
604.983	25796.21
605.341	25983.1
605.698	26355.07
606.056	26502.64
606.413	26785.79
606.771	27079.57
607.128	27290.41
607.485	27360.02
607.843	27623.06
608.2	28047.45
608.557	28249.03
608.914	28324.74
609.272	28755.91
609.629	28842.01
609.986	29184.6
610.343	29153.41
610.7	29557.7
611.057	29732.16
611.414	29843.57
611.771	30035.2
612.127	30286.49
612.484	30465.92
612.841	30595.64
613.198	30673.37
613.554	30938.68
613.911	31254.15
614.267	31305.22
614.624	31550.19
614.98	31708.38
615.337	31969.39
615.693	32058.87
616.05	32132.32
616.406	32492.99
616.762	32496.38
617.118	32589.93
617.475	32717.61
617.831	32912.19
618.187	33017.49
618.543	33141.78
618.899	33468.1
619.255	33447.54
619.611	33538.61
619.967	33720.75
620.323	33950.58
620.678	33961.42
621.034	33924.36
621.39	34115.54
621.746	34116.45
622.101	34562.99
622.457	34459.04
622.812	34634.85
623.168	34748.52
623.523	34783.32
623.879	35056.54
624.234	34874.17
624.589	35028.06
624.945	35140.83
625.3	35235.51
625.655	35302.86
626.01	35310.99
626.365	35460.82
626.72	35488.61
627.075	35558.9
627.43	35656.29
627.785	35557.31
628.14	35625.56
628.495	35649.29
628.85	35815.16
629.205	35693.36
629.559	35930.64
629.914	35834.82
630.269	35932.45
630.623	35946.46
630.978	35827.36
631.332	35993.69
631.687	36131.76
632.041	36029.62
632.396	36204.75
632.75	35864.88
633.104	36050.63
633.459	36115.94
633.813	35993.69
634.167	36023.97
634.521	36026.45
634.875	36163.17
635.229	36253.11
635.583	36002.5
635.937	35990.97
636.291	36026.68
636.645	35967.02
636.999	36070.29
637.352	36315.03
637.706	36005.89
638.06	36263.74
638.413	36186.45
638.767	36052.89
639.121	36030.75
639.474	36007.47
639.828	35944.42
640.181	36032.78
640.534	36169.05
640.888	35983.29
641.241	35955.72
641.594	35955.04
641.947	36100.12
642.301	35990.3
642.654	36002.5
643.007	36122.72
643.36	36127.69
643.713	36031.43
644.066	36146.68
644.419	36006.79
644.771	35774.03
645.124	35452.46
645.477	35284.78
645.83	35101.73
646.182	35076.2
646.535	35020.83
646.888	34945.13
647.24	34925.47
647.593	35021.73
647.945	34988.97
648.298	35003.43
648.65	34791.68
649.002	34847.95
649.355	34946.48
649.707	34848.86
650.059	34993.49
650.411	35493.13
650.763	35617.88
651.115	35815.84
651.467	35702.85
651.819	35645.9
652.171	35675.05
652.523	35689.51
652.875	35670.31
653.227	35490.2
653.578	35795.73
653.93	35748.27
654.282	35572.68
654.633	35560.7
654.985	35412.91
655.337	35554.6
655.688	35478.67
656.039	35708.95
656.391	35411.78
656.742	35507.15
657.094	35431.22
657.445	35504.21
657.796	35705.56
658.147	35306.25
658.498	35478.9
658.849	35557.54
659.2	35438.45
659.551	35376.53
659.902	35523.19
660.253	35422.85
660.604	35565.45
660.955	35441.61
661.306	35418.11
661.656	35541.72
662.007	35423.31
662.358	35532
662.708	35388.73
663.059	35481.84
663.409	35256.53
663.76	35449.29
664.11	35358
664.461	35482.29
664.811	35403.42
665.161	35515.51
665.511	35343.53
665.862	35382.18
666.212	35454.72
666.562	35479.35
666.912	35421.5
667.262	35402.52
667.612	35400.48
667.962	35508.28
668.312	35306.02
668.662	35492
669.011	35401.16
669.361	35449.52
669.711	35249.3
670.06	35316.42
670.41	35227.15
670.76	35120.94
671.109	35382.18
671.459	35273.03
671.808	35136.99
672.157	35303.08
672.507	34934.73
672.856	35053.6
673.205	35155.52
673.554	35270.32
673.904	35009.76
674.253	35274.16
674.602	35109.87
674.951	34664.91
675.3	34384.69
675.649	35078.68
675.998	34901.74
676.346	35029.19
676.695	35120.26
677.044	34842.53
677.393	35024.9
677.741	35057.21
678.09	34919.59
678.438	34841.4
678.787	34853.38
679.135	34852.47
679.484	34664.46
679.832	34687.73
680.181	34560.96
680.529	34786.49
680.877	34537.45
681.225	34555.98
681.573	34754.17
681.922	34429.43
682.27	34448.19
682.618	34478.47
682.966	34323.45
683.314	34391.24
683.661	34316.67
684.009	34164.36
684.357	34124.13
684.705	34018.37
685.053	34050.69
685.4	34152.83
685.748	33848.21
686.095	33804.59
686.443	33743.12
686.79	33742.9
687.138	33815.66
687.485	33832.39
687.832	33591.72
688.18	33598.5
688.527	33443.7
688.874	33426.75
689.221	33416.13
689.568	33302.01
689.915	33274.66
690.262	33201.67
690.609	33103.37
690.956	32959.87
691.303	33060.66
691.65	32870.38
691.997	32986.99
692.344	32679.65
692.69	32602.59
693.037	32645.98
693.383	32325.99
693.73	32627.45
694.077	32315.14
694.423	32489.37
694.769	32123.96
695.116	32100.46
695.462	32105.43
695.808	31969.39
696.155	32131.87
696.501	31827.24
696.847	31783.63
697.193	31595.16
697.539	31846.45
697.885	31476.29
698.231	31402.17
698.577	31376.41
698.923	31319.23
699.269	31224.55
699.614	31043.99
699.96	31034.04
700.306	31064.1
700.651	30964.67
700.997	30806.48
701.342	30728.97
701.688	30822.52
702.033	30559.7
702.379	30501.18
702.724	30543.66
703.069	30485.13
703.415	30138.7
703.76	30190
704.105	30241.97
704.45	30167.17
704.795	29975.77
705.14	29971.7
705.485	29914.07
705.83	29778.93
706.175	29600.86
706.52	29709.11
706.865	29646.96
707.209	29536.46
707.554	29519.51
707.899	29579.62
708.243	29290.59
708.588	29357.93
708.932	29131.49
709.277	29134.21
709.621	29163.36
709.966	28927.88
710.31	28953.19
710.654	28719.08
710.998	28708.23
711.342	28953.87
711.687	28704.61
712.031	28609.25
712.375	28518.85
712.719	28629.59
713.063	28486.77
713.407	28585.07
713.75	28354.11
714.094	28325.64
714.438	28233.66
714.782	28347.79
715.125	28152.54
715.469	28183.5
715.812	28076.38
716.156	27813.11
716.499	27927.46
716.843	27964.74
717.186	27780.57
717.53	28006.55
717.873	27973.11
718.216	27698.54
718.559	27610.4
718.902	27501.71
719.246	27671.42
719.589	27485.21
719.932	27452.89
720.275	27447.7
720.617	27346
720.96	27286.12
721.303	27273.92
721.646	27286.12
721.989	27095.84
722.331	27311.65
722.674	27155.27
723.016	27028.72
723.359	27121.6
723.701	27176.52
724.044	26866.24
724.386	26739.47
724.729	26923.87
725.071	26743.08
725.413	26727.04
725.755	26710.77
726.097	26642.52
726.439	26511.68
726.782	26597.55
727.124	26660.37
727.465	26583.09
727.807	26443.88
728.149	26394.16
728.491	26528.4
728.833	26431.9
729.175	26314.84
729.516	26400.04
729.858	26202.76
730.199	26247.5
730.541	26249.76
730.882	26073.95
731.224	26233.27
731.565	25978.13
731.906	26075.76
732.248	26092.25
732.589	25961.41
732.93	25937
733.271	25986.72
733.612	25908.98
733.953	25859.26
734.294	25846.16
734.635	25807.29
734.976	25807.97
735.317	25563.45
735.658	25701.3
735.999	25694.97
736.339	25647.74
736.68	25647.29
737.021	25558.93
737.361	25381.76
737.702	25485.71
738.042	25372.95
738.383	25317.58
738.723	25482.78
739.063	25211.37
739.404	25397.58
739.744	25352.84
740.084	25149
740.424	25260.64
740.764	25169.11
741.104	25287.75
741.444	25092.05
741.784	24964.15
742.124	25054.54
742.464	25143.8
742.804	24916.01
743.143	24848.67
743.483	25061.32
743.823	24859.97
744.162	24786.75
744.502	24963.24
744.841	24747.88
745.181	24974.77
745.52	24668.79
745.86	24750.82
746.199	24765.51
746.538	24662.46
746.877	24800.08
747.216	24793.08
747.556	24626.08
747.895	24569.13
748.234	24472.63
748.573	24618.84
748.911	24546.98
749.25	24600.54
749.589	24335.01
749.928	24357.83
750.267	24610.93
750.605	24380.43
750.944	24431.5
751.283	24355.35
751.621	24368
751.96	24149.7
752.298	24316.93
752.636	24217.05
752.975	24063.15
753.313	24063.15
753.651	24176.82
753.989	23987.9
754.327	23892.99
754.666	23831.07
755.004	23986.77
755.342	23944.96
755.679	23977.96
756.017	23738.87
756.355	23851.86
756.693	23748.36
757.031	23713.11
757.368	23654.12
757.706	23573.45
758.044	23504.52
758.381	23622.71
758.719	23553.79
759.056	23534.8
759.394	23339.56
759.731	23325.77
