Data from hue_170_FLMS001491_00096.txt Node
Date: Tue Feb 07 16:49:31 GMT 2017
User: dcchb
Spectrometer: FLMS00149
Trigger mode: 0
Integration Time (sec): 2.000000E-2
Scans to average: 10
Electric dark correction enabled: true
Nonlinearity correction enabled: false
Boxcar width: 0
XAxis mode: Wavelengths
Number of Pixels in Spectrum: 2048
>>>>>Begin Spectral Data<<<<<
341.393	-17.63
341.776	-17.63
342.16	-17.63
342.543	-61.24
342.927	-51.52
343.31	-84.07
343.693	-65.31
344.077	-82.48
344.46	-58.3
344.843	-53.56
345.226	-46.78
345.61	-36.84
345.993	7.46
346.376	15.82
346.759	-7.68
347.142	23.73
347.525	56.04
347.908	57.17
348.291	78.64
348.674	94.91
349.057	101.24
349.44	110.73
349.823	141.92
350.206	153.89
350.588	179.2
350.971	193.67
351.354	216.72
351.737	234.57
352.119	239.99
352.502	245.19
352.884	265.76
353.267	279.31
353.65	289.71
354.032	303.95
354.414	289.26
354.797	303.49
355.179	320.22
355.562	339.88
355.944	342.59
356.326	322.48
356.709	330.16
357.091	324.51
357.473	323.83
357.855	345.3
358.238	338.52
358.62	321.12
359.002	322.03
359.384	338.3
359.766	348.47
360.148	341.01
360.53	359.54
360.912	316.38
361.294	322.7
361.676	339.43
362.057	332.42
362.439	338.75
362.821	324.06
363.203	320.22
363.584	308.69
363.966	300.11
364.348	318.41
364.729	350.73
365.111	314.34
365.493	313.66
365.874	305.53
366.256	293.1
366.637	306.88
367.019	302.36
367.4	328.8
367.781	312.99
368.163	319.31
368.544	310.5
368.925	292.87
369.306	319.99
369.688	311.63
370.069	307.11
370.45	318.41
370.831	309.37
371.212	309.6
371.593	300.11
371.974	294.91
372.355	311.86
372.736	324.06
373.117	304.62
373.498	288.13
373.879	325.19
374.26	311.4
374.641	310.5
375.021	317.28
375.402	313.66
375.783	345.3
376.163	328.8
376.544	323.83
376.925	298.07
377.305	310.27
377.686	316.6
378.066	317.51
378.447	322.03
378.827	340.56
379.208	324.06
379.588	333.78
379.968	311.18
380.349	334.45
380.729	333.1
381.109	341.69
381.489	332.42
381.87	351.4
382.25	336.04
382.63	343.49
383.01	345.08
383.39	334.23
383.77	325.42
384.15	342.59
384.53	342.82
384.91	343.27
385.29	335.58
385.67	355.7
386.049	359.76
386.429	348.92
386.809	347.56
387.189	351.18
387.568	349.14
387.948	356.6
388.328	378.75
388.707	356.15
389.087	351.86
389.466	340.56
389.846	360.89
390.225	365.87
390.605	359.99
390.984	352.31
391.363	377.39
391.743	364.28
392.122	354.34
392.501	375.81
392.881	371.97
393.26	350.95
393.639	366.77
394.018	385.75
394.397	387.56
394.776	366.32
395.155	387.79
395.534	368.35
395.913	356.37
396.292	374.68
396.671	367.9
397.05	367.22
397.429	371.29
397.808	366.32
398.186	383.94
398.565	352.53
398.944	382.81
399.323	379.65
399.701	400.67
400.08	408.8
400.458	409.25
400.837	406.99
401.215	399.09
401.594	401.12
401.972	381.91
402.351	392.53
402.729	384.62
403.107	418.07
403.486	406.99
403.864	426.43
404.242	409.03
404.62	410.38
404.999	418.97
405.377	404.06
405.755	430.05
406.133	416.03
406.511	435.69
406.889	445.41
407.267	439.54
407.645	430.95
408.023	444.06
408.401	449.03
408.779	445.86
409.156	448.35
409.534	449.93
409.912	475.02
410.29	449.03
410.667	477.05
411.045	460.33
411.422	456.94
411.8	487.22
412.178	480.21
412.555	481.8
412.933	495.58
413.31	517.73
413.687	505.3
414.065	521.34
414.442	522.25
414.819	524.28
415.197	520.21
415.574	530.16
415.951	534.9
416.328	545.52
416.705	551.4
417.082	552.75
417.46	554.34
417.837	555.47
418.214	591.4
418.591	561.12
418.967	581.68
419.344	556.14
419.721	562.47
420.098	592.75
420.475	602.47
420.852	593.43
421.228	610.38
421.605	597.95
421.982	638.18
422.358	615.58
422.735	638.18
423.111	634.11
423.488	632.53
423.864	645.63
424.241	646.08
424.617	657.16
424.994	659.87
425.37	669.13
425.746	671.85
426.123	680.21
426.499	684.5
426.875	672.98
427.251	701
427.627	701
428.003	714.11
428.379	745.52
428.756	741
429.132	745.07
429.507	753.43
429.883	752.07
430.259	759.75
430.635	792.07
431.011	755.23
431.387	800.43
431.763	815.57
432.138	814.22
432.514	819.19
432.89	813.76
433.265	825.97
433.641	837.94
434.016	863.03
434.392	877.72
434.767	894.89
435.143	884.27
435.518	873.65
435.894	927.66
436.269	904.38
436.644	939.86
437.02	918.62
437.395	940.31
437.77	968.79
438.145	991.39
438.52	998.17
438.895	991.84
439.271	992.06
439.646	1006.53
440.021	1024.61
440.395	1030.71
440.77	1025.74
441.145	1033.65
441.52	1066.64
441.895	1074.1
442.27	1071.16
442.645	1086.3
443.019	1119.52
443.394	1112.29
443.769	1124.49
444.143	1094.89
444.518	1147.77
444.892	1138.73
445.267	1159.74
445.641	1154.55
446.016	1157.03
446.39	1195.45
446.764	1174.66
447.139	1173.75
447.513	1192.06
447.887	1196.58
448.262	1217.82
448.636	1197.03
449.01	1232.28
449.384	1225.73
449.758	1247.2
450.132	1281.32
450.506	1282.68
450.88	1279.29
451.254	1297.82
451.628	1321.1
452.002	1322.23
452.376	1314.99
452.75	1352.96
453.123	1361.55
453.497	1367.42
453.871	1374.43
454.244	1392.28
454.618	1399.74
454.992	1432.5
455.365	1434.54
455.739	1481.77
456.112	1495.33
456.486	1509.34
456.859	1504.59
457.232	1533.97
457.606	1543.24
457.979	1566.06
458.352	1610.13
458.725	1627.08
459.099	1629.79
459.472	1626.4
459.845	1688.09
460.218	1693.06
460.591	1717.47
460.964	1711.37
461.337	1769.9
461.71	1798.82
462.083	1779.16
462.456	1809.67
462.829	1824.36
463.201	1856.9
463.574	1903.9
463.947	1925.15
464.32	1962.43
464.692	1979.83
465.065	1964.47
465.438	2021.87
465.81	2020.74
466.183	2099.83
466.555	2130.34
466.928	2138.93
467.3	2159.49
467.672	2193.84
468.045	2244.46
468.417	2258.47
468.789	2265.03
469.161	2324.23
469.534	2365.59
469.906	2420.73
470.278	2472.25
470.65	2498.92
471.022	2545.24
471.394	2591.57
471.766	2648.29
472.138	2695.07
472.51	2744.11
472.882	2777.78
473.253	2841.96
473.625	2895.52
473.997	2948.4
474.369	2980.03
474.74	3067.94
475.112	3139.13
475.484	3202.63
475.855	3279.69
476.227	3298.22
476.598	3395.16
476.97	3496.63
477.341	3554.03
477.713	3640.13
478.084	3686
478.455	3835.61
478.827	3858.88
479.198	3970.74
479.569	4003.96
479.94	4119.89
480.311	4230.62
480.682	4300.68
481.053	4427.23
481.424	4606.88
481.795	4615.47
482.166	4728.69
482.537	4873.77
482.908	4940.21
483.279	5015.46
483.65	5132.29
484.021	5306.75
484.391	5396.92
484.762	5460.65
485.133	5582.23
485.503	5687.53
485.874	5825.38
486.244	5949.22
486.615	6036.45
486.985	6173.85
487.356	6341.53
487.726	6397.8
488.097	6580.84
488.467	6664.68
488.837	6863.77
489.207	6943.55
489.578	7052.24
489.948	7135.86
490.318	7338.56
490.688	7334.27
491.058	7557.54
491.428	7707.14
491.798	7777.42
492.168	7994.37
492.538	8047.7
492.908	8186.68
493.278	8288.37
493.648	8387.58
494.017	8488.82
494.387	8636.16
494.757	8691.3
495.126	8820.56
495.496	8869.82
495.866	8968.58
496.235	9090.16
496.605	9238.63
496.974	9298.29
497.344	9403.82
497.713	9474.33
498.082	9564.49
498.452	9644.94
498.821	9720.87
499.19	9844.26
499.559	9935.33
499.928	10000.87
500.298	9991.83
500.667	10133.74
501.036	10147.76
501.405	10247.64
501.774	10293.51
502.143	10408.99
502.512	10408.99
502.88	10511.81
503.249	10560.17
503.618	10602.21
503.987	10709.1
504.356	10783.67
504.724	10873.84
505.093	10864.57
505.462	10916.32
505.83	10912.03
506.199	11098.92
506.567	11216.2
506.936	11110.44
507.304	11261.17
507.672	11254.17
508.041	11352.7
508.409	11440.83
508.777	11479.92
509.145	11484.44
509.514	11505.69
509.882	11590.88
510.25	11607.83
510.618	11664.33
510.986	11679.69
511.354	11768.5
511.722	11765.34
512.09	11962.85
512.458	11910.87
512.826	11993.36
513.193	11993.81
513.561	11980.02
513.929	12027.48
514.297	12117.42
514.664	12159.91
515.032	12162.39
515.4	12269.06
515.767	12322.84
516.135	12350.41
516.502	12187.93
516.869	12354.25
517.237	12404.42
517.604	12366.91
517.972	12420.69
518.339	12458.43
518.706	12429.96
519.073	12498.43
519.44	12577.52
519.808	12580.69
520.175	12563.51
520.542	12712.89
520.909	12676.05
521.276	12601.48
521.643	12732.77
522.009	12709.95
522.376	12702.72
522.743	12758.99
523.11	12834.24
523.477	12958.98
523.843	12941.35
524.21	13032.43
524.577	13031.3
524.943	13039.43
525.31	12990.17
525.676	13022.03
526.043	13107.45
526.409	13118.07
526.776	13104.06
527.142	13078.98
527.508	13169.15
527.874	13220.67
528.241	13166.66
528.607	13183.61
528.973	13263.38
529.339	13136.38
529.705	13206.43
530.071	13282.81
530.437	13238.97
530.803	13209.6
531.169	13224.96
531.535	13164.85
531.901	13074.23
532.267	13119.43
532.632	13154
532.998	13171.18
533.364	13197.62
533.73	13131.18
534.095	13185.42
534.461	13210.5
534.826	13136.15
535.192	13113.33
535.557	13142.71
535.923	13107.45
536.288	13043.72
536.653	13053.22
537.019	12989.26
537.384	12978.19
537.749	12950.39
538.114	12978.19
538.479	12889.6
538.845	12888.7
539.21	12765.31
539.575	12702.94
539.94	12763.28
540.305	12756.05
540.67	12689.38
541.034	12715.82
541.399	12667.69
541.764	12609.61
542.129	12586.56
542.494	12526.45
542.858	12509.5
543.223	12424.76
543.587	12405.1
543.952	12368.71
544.316	12431.76
544.681	12234.71
545.045	12271.09
545.41	12284.42
545.774	12201.04
546.138	12215.95
546.503	12115.84
546.867	12064.99
547.231	12117.2
547.595	12042.17
547.959	11989.97
548.324	11987.71
548.688	11957.2
549.052	11913.36
549.416	11919.91
549.779	11855.28
550.143	11819.8
550.507	11858.45
550.871	11837.2
551.235	11685.57
551.599	11777.09
551.962	11678.56
552.326	11676.76
552.689	11674.72
553.053	11551.33
553.417	11550.43
553.78	11638.34
554.143	11495.74
554.507	11581.62
554.87	11499.36
555.234	11569.64
555.597	11487.61
555.96	11433.82
556.323	11472.47
556.686	11426.59
557.05	11434.5
557.413	11360.15
557.776	11387.05
558.139	11346.59
558.502	11296.88
558.865	11301.4
559.228	11357.89
559.59	11298.23
559.953	11268.86
560.316	11359.93
560.679	11233.38
561.041	11323.77
561.404	11341.85
561.767	11329.19
562.129	11277.9
562.492	11277.44
562.854	11191.8
563.217	11258.69
563.579	11230.44
563.941	11281.51
564.304	11327.16
564.666	11290.1
565.028	11277.22
565.39	11349.98
565.753	11328.29
566.115	11332.36
566.477	11330.32
566.839	11347.72
567.201	11410.32
567.563	11420.72
567.925	11440.15
568.287	11405.12
568.648	11399.7
569.01	11398.34
569.372	11471.79
569.734	11392.69
570.095	11455.29
570.457	11428.63
570.819	11423.43
571.18	11325.13
571.542	11442.41
571.903	11408.74
572.265	11472.01
572.626	11472.69
572.987	11374.84
573.349	11426.37
573.71	11545.69
574.071	11505.23
574.432	11467.95
574.794	11563.99
575.155	11442.64
575.516	11479.47
575.877	11491.45
576.238	11536.19
576.599	11497.78
576.96	11510.43
577.32	11599.02
577.681	11541.62
578.042	11558.11
578.403	11531.67
578.763	11452.35
579.124	11558.57
579.485	11515.86
579.845	11569.64
580.206	11478.57
580.566	11508.85
580.927	11550.43
581.287	11516.08
581.648	11455.74
582.008	11541.62
582.368	11496.19
582.728	11459.81
583.089	11463.88
583.449	11486.93
583.809	11420.94
584.169	11467.72
584.529	11438.12
584.889	11521.96
585.249	11421.17
585.609	11394.5
585.969	11467.04
586.329	11393.15
586.688	11466.14
587.048	11401.28
587.408	11275.18
587.768	11365.8
588.127	11357.89
588.487	11327.39
588.846	11349.08
589.206	11313.15
589.565	11317.89
589.925	11330.55
590.284	11272.02
590.643	11328.06
591.003	11206.03
591.362	11241.96
591.721	11317.67
592.08	11274.96
592.44	11244.45
592.799	11299.36
593.158	11143.21
593.517	11236.54
593.876	11265.92
594.235	11167.16
594.593	11189.54
594.952	11244.22
595.311	11191.57
595.67	11198.8
596.029	11259.82
596.387	11263.66
596.746	11171.23
597.104	11192.02
597.463	11140.5
597.822	11210.55
598.18	11175.75
598.538	11076.09
598.897	11191.34
599.255	11109.54
599.613	11267.95
599.972	11158.35
600.33	11151.57
600.688	11144.34
601.046	11138.46
601.404	11241.06
601.762	11174.4
602.12	11232.25
602.478	11168.07
602.836	11163.1
603.194	11118.8
603.552	11133.49
603.91	11091.91
604.268	11001.52
604.625	11031.12
604.983	11116.54
605.341	11011.46
605.698	11142.31
606.056	11093.49
606.413	11116.32
606.771	11164.23
607.128	11180.05
607.485	11088.3
607.843	11057.34
608.2	11192.47
608.557	11176.88
608.914	11161.29
609.272	11196.09
609.629	11286.71
609.986	11204
610.343	11146.6
610.7	11256.65
611.057	11060.05
611.414	11161.51
611.771	11219.82
612.127	11186.82
612.484	11168.75
612.841	11178.24
613.198	11187.95
613.554	11220.5
613.911	11249.42
614.267	11285.58
614.624	11285.35
614.98	11245.13
615.337	11291.45
615.693	11308.4
616.05	11308.4
616.406	11352.47
616.762	11305.01
617.118	11300.49
617.475	11230.44
617.831	11395.63
618.187	11350.89
618.543	11345.01
618.899	11358.57
619.255	11390.89
619.611	11392.47
619.967	11310.21
620.323	11449.19
620.678	11317.22
621.034	11386.14
621.39	11300.72
621.746	11258.24
622.101	11472.24
622.457	11355.86
622.812	11307.05
623.168	11418.91
623.523	11456.87
623.879	11489.42
624.234	11429.76
624.589	11462.07
624.945	11464.33
625.3	11407.61
625.655	11363.54
626.01	11459.36
626.365	11365.8
626.72	11385.92
627.075	11368.97
627.43	11364.67
627.785	11317.67
628.14	11330.32
628.495	11377.1
628.85	11397.21
629.205	11336.88
629.559	11378.01
629.914	11289.87
630.269	11301.85
630.623	11278.35
630.978	11288.74
631.332	11258.69
631.687	11198.12
632.041	11248.07
632.396	11263.66
632.75	11199.48
633.104	11258.01
633.459	11188.86
633.813	11194.28
634.167	11164.23
634.521	11204.45
634.875	11202.42
635.229	11200.38
635.583	11088.52
635.937	11105.02
636.291	11083.78
636.645	11132.36
636.999	11100.5
637.352	11072.7
637.706	11046.26
638.06	11056.21
638.413	11021.41
638.767	10991.12
639.121	10994.29
639.474	10984.8
639.828	10980.5
640.181	10973.72
640.534	10975.08
640.888	10922.2
641.241	10905.7
641.594	10914.29
641.947	10896.66
642.301	10871.35
642.654	10886.04
643.007	10917.68
643.36	10852.37
643.713	10852.82
644.066	10919.49
644.419	10790.68
644.771	10750.9
645.124	10664.8
645.477	10650.79
645.83	10674.52
646.182	10556.78
646.535	10577.8
646.888	10547.97
647.24	10500.06
647.593	10607.86
647.945	10542.77
648.298	10507.07
648.65	10487.86
649.002	10541.87
649.355	10564.92
649.707	10530.12
650.059	10543
650.411	10648.53
650.763	10680.17
651.115	10756.78
651.467	10761.98
651.819	10745.03
652.171	10737.57
652.523	10740.28
652.875	10719.04
653.227	10689.21
653.578	10773.5
653.93	10807.85
654.282	10700.96
654.633	10748.19
654.985	10790
655.337	10736.21
655.688	10770.11
656.039	10762.43
656.391	10677.01
656.742	10744.12
657.094	10753.16
657.445	10769.21
657.796	10735.76
658.147	10748.64
658.498	10782.99
658.849	10836.33
659.2	10761.75
659.551	10810.79
659.902	10795.42
660.253	10850.34
660.604	10750.23
660.955	10781.64
661.306	10854.63
661.656	10866.83
662.007	10848.08
662.358	10803.78
662.708	10861.41
663.059	10872.48
663.409	10843.78
663.76	10880.17
664.11	10838.59
664.461	10890.34
664.811	10843.78
665.161	10909.09
665.511	10806.27
665.862	10858.47
666.212	10935.08
666.562	10931.92
666.912	10861.18
667.262	10827.96
667.612	10877.68
667.962	10876.1
668.312	10871.58
668.662	10909.32
669.011	10840.17
669.361	10825.93
669.711	10841.3
670.06	10885.82
670.41	10816.89
670.76	10870.22
671.109	10883.56
671.459	10818.02
671.808	10793.84
672.157	10825.03
672.507	10719.04
672.856	10812.37
673.205	10785.25
673.554	10798.13
673.904	10752.94
674.253	10844.91
674.602	10753.62
674.951	10585.03
675.3	10585.03
675.649	10716.1
675.998	10681.08
676.346	10738.7
676.695	10760.17
677.044	10672.71
677.393	10695.99
677.741	10687.63
678.09	10688.08
678.438	10625.71
678.787	10721.07
679.135	10608.76
679.484	10569.67
679.832	10560.85
680.181	10543
680.529	10506.84
680.877	10496.9
681.225	10479.72
681.573	10522.89
681.922	10459.84
682.27	10469.1
682.618	10462.32
682.966	10386.17
683.314	10404.25
683.661	10400.86
684.009	10342.33
684.357	10331.71
684.705	10341.2
685.053	10305.49
685.4	10299.16
685.748	10260.52
686.095	10192.5
686.443	10193.63
686.79	10162.22
687.138	10214.87
687.485	10126.06
687.832	10118.83
688.18	10134.87
688.527	10121.54
688.874	10085.61
689.221	10023.01
689.568	9927.87
689.915	10018.95
690.262	9950.02
690.609	9897.59
690.956	9843.58
691.303	9825.73
691.65	9679.29
691.997	9797.48
692.344	9724.04
692.69	9750.93
693.037	9644.94
693.383	9552.07
693.73	9611.95
694.077	9505.06
694.423	9536.25
694.769	9463.93
695.116	9455.34
695.462	9402.69
695.808	9387.32
696.155	9425.29
696.501	9298.06
696.847	9384.39
697.193	9298.96
697.539	9308
697.885	9238.4
698.231	9202.92
698.577	9197.95
698.923	9161.34
699.269	9093.09
699.614	9028.01
699.96	9055.13
700.306	8996.15
700.651	8928.8
700.997	8925.64
701.342	8913.89
701.688	8827.56
702.033	8837.73
702.379	8778.3
702.724	8768.13
703.069	8804.06
703.415	8734.46
703.76	8662.15
704.105	8715.03
704.45	8659.43
704.795	8596.61
705.14	8576.5
705.485	8521.81
705.83	8465.09
706.175	8499.44
706.52	8502.6
706.865	8484.75
707.209	8408.82
707.554	8369.05
707.899	8414.47
708.243	8396.39
708.588	8327.69
708.932	8282.27
709.277	8285.88
709.621	8234.13
709.966	8287.69
710.31	8186.23
710.654	8117.07
710.998	8103.29
711.342	8164.08
711.687	8128.6
712.031	8084.31
712.375	8090.63
712.719	8088.6
713.063	8033.91
713.407	8043.63
713.75	8032.56
714.094	8037.53
714.438	8005.89
714.782	7955.27
715.125	7927.7
715.469	7909.62
715.812	7911.43
716.156	7870.75
716.499	7900.13
716.843	7863.07
717.186	7850.19
717.53	7983.97
717.873	7857.19
718.216	7830.75
718.559	7794.6
718.902	7771.1
719.246	7844.99
719.589	7758.44
719.932	7712.11
720.275	7741.94
720.617	7718.89
720.96	7649.97
721.303	7737.65
721.646	7699.23
721.989	7636.18
722.331	7669.4
722.674	7618.33
723.016	7639.12
723.359	7618.78
723.701	7666.69
724.044	7628.73
724.386	7581.72
724.729	7617.65
725.071	7606.81
725.413	7617.88
725.755	7632.34
726.097	7538.33
726.439	7512.8
726.782	7609.97
727.124	7626.47
727.465	7530.88
727.807	7581.27
728.149	7555.28
728.491	7564.32
728.833	7563.42
729.175	7515.06
729.516	7629.4
729.858	7562.29
730.199	7566.35
730.541	7541.72
730.882	7479.13
731.224	7578.11
731.565	7502.18
731.906	7546.92
732.248	7470.76
732.589	7439.58
732.93	7496.3
733.271	7494.72
733.612	7512.8
733.953	7525.9
734.294	7483.42
734.635	7524.77
734.976	7535.62
735.317	7459.01
735.658	7514.6
735.999	7583.53
736.339	7525.45
736.68	7488.62
737.021	7511.67
737.361	7497.43
737.702	7565.68
738.042	7556.86
738.383	7511.67
738.723	7531.1
739.063	7572.46
739.404	7605.68
739.744	7604.55
740.084	7617.2
740.424	7628.73
740.764	7624.66
741.104	7640.93
741.444	7690.42
741.784	7687.03
742.124	7721.15
742.464	7746.01
742.804	7738.55
743.143	7764.99
743.483	7799.12
743.823	7766.58
744.162	7839.57
744.502	7871.88
744.841	7901.26
745.181	7959.79
745.52	7910.75
745.86	7997.3
746.199	8051.09
746.538	8103.97
746.877	8119.56
747.216	8126.57
747.556	8177.41
747.895	8193.68
748.234	8245.88
748.573	8305.54
748.911	8375.15
749.25	8446.78
749.589	8541.47
749.928	8591.41
750.267	8625.76
750.605	8771.29
750.944	8718.19
751.283	8783.95
751.621	8946.21
751.96	8991.85
752.298	9101.68
752.636	9170.83
752.975	9239.98
753.313	9345.97
753.651	9484.95
753.989	9540.77
754.327	9623.93
754.666	9742.12
755.004	9793.87
755.342	10061.2
755.679	10117.7
756.017	10224.59
756.355	10368.77
756.693	10490.35
757.031	10653.73
757.368	10736.21
757.706	10864.8
758.044	11034.06
758.381	11267.73
758.719	11347.5
759.056	11509.3
759.394	11624.78
