Data from hue_250_FLMS001491_00057.txt Node
Date: Tue Feb 07 16:01:10 GMT 2017
User: dcchb
Spectrometer: FLMS00149
Trigger mode: 0
Integration Time (sec): 2.000000E-2
Scans to average: 10
Electric dark correction enabled: true
Nonlinearity correction enabled: false
Boxcar width: 0
XAxis mode: Wavelengths
Number of Pixels in Spectrum: 2048
>>>>>Begin Spectral Data<<<<<
341.393	-17.94
341.776	-17.94
342.16	-17.94
342.543	-71.04
342.927	-89.57
343.31	-66.75
343.693	-65.17
344.077	-68.56
344.46	-50.25
344.843	-76.69
345.226	-50.25
345.61	-31.5
345.993	-19.07
346.376	-1.44
346.759	8.73
347.142	17.99
347.525	50.08
347.908	59.57
348.291	90.76
348.674	86.92
349.057	115.62
349.44	125.56
349.823	151.1
350.206	177.09
350.588	214.37
350.971	200.36
351.354	205.33
351.737	226.58
352.119	221.38
352.502	253.24
352.884	261.83
353.267	261.83
353.65	271.32
354.032	277.2
354.414	290.3
354.797	309.06
355.179	289.63
355.562	322.17
355.944	307.7
356.326	321.49
356.709	298.21
357.091	332.34
357.473	338.89
357.855	335.73
358.238	329.4
358.62	325.33
359.002	326.91
359.384	326.69
359.766	318.78
360.148	307.7
360.53	340.47
360.912	328.04
361.294	296.86
361.676	311.55
362.057	318.1
362.439	336.63
362.821	342.96
363.203	312.45
363.584	318.32
363.966	321.04
364.348	306.35
364.729	315.61
365.111	293.69
365.493	309.74
365.874	307.48
366.256	296.86
366.637	291.21
367.019	298.21
367.4	304.31
367.781	288.27
368.163	288.95
368.544	309.29
368.925	315.16
369.306	323.3
369.688	302.28
370.069	305.9
370.45	330.3
370.831	309.06
371.212	305.67
371.593	322.84
371.974	280.36
372.355	328.27
372.736	279
373.117	318.1
373.498	296.18
373.879	289.4
374.26	296.86
374.641	314.48
375.021	301.38
375.402	283.07
375.783	322.84
376.163	356.29
376.544	320.13
376.925	314.03
377.305	321.04
377.686	312.68
378.066	319.23
378.447	320.13
378.827	323.3
379.208	304.09
379.588	313.81
379.968	344.54
380.349	286.69
380.729	346.57
381.109	320.36
381.489	339.12
381.87	314.94
382.25	339.79
382.63	335.73
383.01	345.89
383.39	305.67
383.77	340.02
384.15	339.57
384.53	346.35
384.91	346.57
385.29	337.76
385.67	349.74
386.049	349.06
386.429	370.3
386.809	352
387.189	346.35
387.568	372.11
387.948	346.57
388.328	351.09
388.707	369.4
389.087	355.39
389.466	365.78
389.846	350.64
390.225	357.42
390.605	365.56
390.984	366.69
391.363	352.22
391.743	373.92
392.122	374.37
392.501	368.27
392.881	356.06
393.26	384.31
393.639	370.53
394.018	385.67
394.397	375.27
394.776	370.98
395.155	392.22
395.534	395.84
395.913	383.63
396.292	389.51
396.671	395.16
397.05	391.77
397.429	409.17
397.808	405.55
398.186	399.68
398.565	379.79
398.944	373.46
399.323	409.62
399.701	404.2
400.08	410.98
400.458	418.44
400.837	400.58
401.215	424.08
401.594	442.84
401.972	428.38
402.351	453.91
402.729	417.53
403.107	421.6
403.486	426.34
403.864	442.62
404.242	430.64
404.62	426.57
404.999	446.23
405.377	435.61
405.755	451.2
406.133	461.82
406.511	474.25
406.889	469.96
407.267	470.41
407.645	481.26
408.023	474.93
408.401	462.28
408.779	480.58
409.156	510.18
409.534	508.38
409.912	497.98
410.29	514.93
410.667	516.96
411.045	522.84
411.422	514.7
411.8	501.6
412.178	533.01
412.555	546.79
412.933	552.9
413.31	553.12
413.687	550.41
414.065	556.51
414.442	583.63
414.819	590.86
415.197	612.55
415.574	610.52
415.951	583.63
416.328	610.07
416.705	616.85
417.082	614.36
417.46	627.7
417.837	628.15
418.214	611.65
418.591	638.32
418.967	662.5
419.344	649.84
419.721	666.79
420.098	654.81
420.475	678.99
420.852	684.64
421.228	710.63
421.605	711.99
421.982	713.57
422.358	727.13
422.735	734.59
423.111	749.05
423.488	741.59
423.864	763.51
424.241	786.34
424.617	784.3
424.994	772.32
425.37	806.67
425.746	795.37
426.123	839.67
426.499	830.63
426.875	827.24
427.251	846.9
427.627	867.01
428.003	865.43
428.379	867.24
428.756	867.46
429.132	890.06
429.507	904.52
429.883	910.63
430.259	948.14
430.635	910.4
431.011	959.44
431.387	969.16
431.763	979.32
432.138	977.52
432.514	1000.79
432.89	993.11
433.265	1027.01
433.641	1046.22
434.016	1055.03
434.392	1065.65
434.767	1095.48
435.143	1104.74
435.518	1104.07
435.894	1146.33
436.269	1130.06
436.644	1167.34
437.02	1185.42
437.395	1199.66
437.77	1224.52
438.145	1228.58
438.52	1238.07
438.895	1260.45
439.271	1260.9
439.646	1271.07
440.021	1281.01
440.395	1323.27
440.77	1311.52
441.145	1324.85
441.52	1346.09
441.895	1376.38
442.27	1387.9
442.645	1389.94
443.019	1405.08
443.394	1421.35
443.769	1421.35
444.143	1424.28
444.518	1401.01
444.892	1443.49
445.267	1459.54
445.641	1457.96
446.016	1505.19
446.39	1499.31
446.764	1506.32
447.139	1505.19
447.513	1540.89
447.887	1533.43
448.262	1533.66
448.636	1547.45
449.01	1558.07
449.384	1555.13
449.758	1578.86
450.132	1624.51
450.506	1606.88
450.88	1642.81
451.254	1621.34
451.628	1627.9
452.002	1679.19
452.376	1655.69
452.75	1701.57
453.123	1725.52
453.497	1730.94
453.871	1760.77
454.244	1794.9
454.618	1793.31
454.992	1795.57
455.365	1806.42
455.739	1848.91
456.112	1869.7
456.486	1873.76
456.859	1906.98
457.232	1931.84
457.606	1891.16
457.979	1916.02
458.352	1991.28
458.725	2030.82
459.099	2020.43
459.472	2043.25
459.845	2078.28
460.218	2102.23
460.591	2096.58
460.964	2106.98
461.337	2138.84
461.71	2154.21
462.083	2208.67
462.456	2236.01
462.829	2223.13
463.201	2290.93
463.574	2265.39
463.947	2301.78
464.32	2342
464.692	2376.35
465.065	2395.56
465.438	2413.19
465.81	2437.14
466.183	2448.66
466.555	2496.35
466.928	2500.64
467.3	2505.61
467.672	2565.72
468.045	2612.73
468.417	2645.27
468.789	2625.38
469.161	2622.9
469.534	2673.74
469.906	2771.59
470.278	2743.8
470.65	2784.93
471.022	2843.91
471.394	2873.96
471.766	2906.51
472.138	2929.1
472.51	3019.04
472.882	3036.45
473.253	3030.57
473.625	3071.25
473.997	3135.88
474.369	3174.3
474.74	3220.62
475.112	3255.65
475.484	3329.55
475.855	3369.54
476.227	3386.49
476.598	3483.21
476.97	3474.17
477.341	3538.58
477.713	3608.41
478.084	3596.88
478.455	3676.88
478.827	3745.81
479.198	3819.48
479.569	3866.93
479.94	3924.78
480.311	3940.83
480.682	4065.35
481.053	4086.36
481.424	4198.9
481.795	4180.37
482.166	4224.89
482.537	4305.34
482.908	4356.18
483.279	4396.64
483.65	4474.6
484.021	4605.22
484.391	4583.52
484.762	4605.44
485.133	4656.29
485.503	4711.43
485.874	4777.64
486.244	4830.3
486.615	4905.1
486.985	5003.17
487.356	5060.35
487.726	5056.73
488.097	5194.81
488.467	5203.62
488.837	5244.52
489.207	5340.11
489.578	5392.32
489.948	5467.12
490.318	5520
490.688	5529.94
491.058	5560.9
491.428	5637.28
491.798	5703.49
492.168	5769.26
492.538	5811.51
492.908	5858.97
493.278	5937.39
493.648	6005.63
494.017	6006.09
494.387	6028.23
494.757	6133.77
495.126	6144.84
495.496	6148.45
495.866	6203.37
496.235	6293.54
496.605	6330.6
496.974	6360.65
497.344	6351.16
497.713	6426.19
498.082	6450.14
498.452	6519.07
498.821	6527.88
499.19	6505.73
499.559	6515.22
499.928	6618.05
500.298	6661.89
500.667	6720.42
501.036	6698.5
501.405	6734.2
501.774	6749.34
502.143	6770.58
502.512	6772.17
502.88	6829.34
503.249	6858.49
503.618	6903.69
503.987	6890.13
504.356	6982.33
504.724	6979.62
505.093	6970.58
505.462	7000.18
505.83	7038.6
506.199	7070.92
506.567	7145.26
506.936	7171.25
507.304	7211.93
507.672	7228.88
508.041	7212.15
508.409	7285.83
508.777	7319.5
509.145	7334.86
509.514	7362.43
509.882	7286.5
510.25	7415.09
510.618	7458.25
510.986	7423
511.354	7509.55
511.722	7523.79
512.09	7569.66
512.458	7566.72
512.826	7657.12
513.193	7582.09
513.561	7589.09
513.929	7692.59
514.297	7700.5
514.664	7743.44
515.032	7701.63
515.4	7742.08
515.767	7817.11
516.135	7883.32
516.502	7733.27
516.869	7882.42
517.237	7864.79
517.604	7811.91
517.972	7902.53
518.339	7883.78
518.706	7889.88
519.073	7931.46
519.44	7914.74
519.808	7928.75
520.175	7928.52
520.542	8068.18
520.909	8005.58
521.276	8029.76
521.643	8093.04
522.009	8111.57
522.376	8167.84
522.743	8114.73
523.11	8280.83
523.477	8245.12
523.843	8241.51
524.21	8313.82
524.577	8386.81
524.943	8346.59
525.31	8374.38
525.676	8467.49
526.043	8394.95
526.409	8476.08
526.776	8542.29
527.142	8519.01
527.508	8472.23
527.874	8566.92
528.241	8559.46
528.607	8583.87
528.973	8611.21
529.339	8539.8
529.705	8655.96
530.071	8645.79
530.437	8630.87
530.803	8706.13
531.169	8694.15
531.535	8663.19
531.901	8738.44
532.267	8726.01
532.632	8749.29
532.998	8733.02
533.364	8801.94
533.73	8762.4
534.095	8804.66
534.461	8825.45
534.826	8800.36
535.192	8843.75
535.557	8799.46
535.923	8788.16
536.288	8840.13
536.653	8807.82
537.019	8759.46
537.384	8789.06
537.749	8886.24
538.114	8776.41
538.479	8792.68
538.845	8808.27
539.21	8811.43
539.575	8791.32
539.94	8809.85
540.305	8828.84
540.67	8735.73
541.034	8762.62
541.399	8753.58
541.764	8787.48
542.129	8774.6
542.494	8840.36
542.858	8769.4
543.223	8759.68
543.587	8853.24
543.952	8830.42
544.316	8781.61
544.681	8771.89
545.045	8826.58
545.41	8817.31
545.774	8779.57
546.138	8749.74
546.503	8777.54
546.867	8710.87
547.231	8780.48
547.595	8768.05
547.959	8789.97
548.324	8753.36
548.688	8733.24
549.052	8732.12
549.416	8774.6
549.779	8738.44
550.143	8761.94
550.507	8835.39
550.871	8735.05
551.235	8753.13
551.599	8788.61
551.962	8717.88
552.326	8713.58
552.689	8754.94
553.053	8739.35
553.417	8780.25
553.78	8773.02
554.143	8761.27
554.507	8790.19
554.87	8770.76
555.234	8890.08
555.597	8808.72
555.96	8777.99
556.323	8820.93
556.686	8787.48
557.05	8858.44
557.413	8796.07
557.776	8864.09
558.139	8852.11
558.502	8866.35
558.865	8897.99
559.228	8930.98
559.59	8942.28
559.953	8962.39
560.316	8939.57
560.679	8963.97
561.041	9020.47
561.404	9038.55
561.767	9040.58
562.129	9011.43
562.492	9070.41
562.854	9101.14
563.217	9102.05
563.579	9072.67
563.941	9153.57
564.304	9139.56
564.666	9200.58
565.028	9229.96
565.39	9138.66
565.753	9241.03
566.115	9273.34
566.477	9331.87
566.839	9342.95
567.201	9331.87
567.563	9366.9
567.925	9435.83
568.287	9378.2
568.648	9353.34
569.01	9467.46
569.372	9549.49
569.734	9454.36
570.095	9501.59
570.457	9504.98
570.819	9557.63
571.18	9537.07
571.542	9608.7
571.903	9561.7
572.265	9640.34
572.626	9684.63
572.987	9703.16
573.349	9720.79
573.71	9726.44
574.071	9775.48
574.432	9777.06
574.794	9862.48
575.155	9805.08
575.516	9853.44
575.877	9876.04
576.238	9880.56
576.599	9952.2
576.96	9936.83
577.32	9954
577.681	9937.06
578.042	10022.02
578.403	10056.37
578.763	10015.25
579.124	10047.79
579.485	10024.74
579.845	10097.28
580.206	10172.98
580.566	10112.64
580.927	10151.51
581.287	10265.86
581.648	10156.26
582.008	10186.77
582.368	10245.75
582.728	10229.25
583.089	10244.84
583.449	10131.17
583.809	10293.43
584.169	10331.4
584.529	10302.24
584.889	10333.88
585.249	10369.13
585.609	10272.87
585.969	10376.82
586.329	10356.93
586.688	10438.96
587.048	10428.57
587.408	10342.69
587.768	10351.06
588.127	10367.55
588.487	10331.62
588.846	10473.31
589.206	10448.68
589.565	10486.19
589.925	10534.33
590.284	10479.87
590.643	10499.75
591.003	10540.43
591.362	10510.6
591.721	10551.95
592.08	10525.51
592.44	10677.83
592.799	10598.73
593.158	10490.26
593.517	10531.16
593.876	10579.52
594.235	10589.47
594.593	10609.58
594.952	10610.03
595.311	10588.34
595.67	10622.23
596.029	10667.66
596.387	10662.46
596.746	10691.84
597.104	10637.15
597.463	10583.14
597.822	10701.55
598.18	10720.99
598.538	10636.92
598.897	10676.47
599.255	10620.65
599.613	10751.5
599.972	10750.82
600.33	10807.77
600.688	10778.16
601.046	10742.68
601.404	10779.07
601.762	10758.73
602.12	10810.25
602.478	10736.58
602.836	10764.15
603.194	10722.57
603.552	10805.96
603.91	10772.29
604.268	10801.44
604.625	10800.08
604.983	10812.06
605.341	10742.46
605.698	10857.26
606.056	10842.34
606.413	10829.91
606.771	10952.62
607.128	10906.3
607.485	10822.91
607.843	10844.6
608.2	10905.39
608.557	10926.63
608.914	10912.17
609.272	10996.01
609.629	10944.71
609.986	11089.12
610.343	10981.32
610.7	11011.6
611.057	10984.03
611.414	10985.62
611.771	11006.18
612.127	11028.1
612.484	10980.87
612.841	11036.46
613.198	11017.7
613.554	11132.05
613.911	11036.91
614.267	11021.32
614.624	11041.43
614.98	11079.17
615.337	11123.46
615.693	11122.79
616.05	11105.61
616.406	11155.55
616.762	11110.36
617.118	11071.49
617.475	11132.28
617.831	11167.76
618.187	11180.41
618.543	11240.75
618.899	11255.44
619.255	11189.9
619.611	11251.14
619.967	11194.42
620.323	11266.29
620.678	11291.82
621.034	11171.6
621.39	11232.39
621.746	11147.19
622.101	11272.39
622.457	11312.84
622.812	11224.25
623.168	11297.25
623.523	11282.78
623.879	11264.03
624.234	11134.54
624.589	11171.82
624.945	11254.53
625.3	11258.6
625.655	11203.69
626.01	11314.87
626.365	11285.49
626.72	11230.81
627.075	11220.86
627.43	11165.72
627.785	11170.69
628.14	11217.7
628.495	11224.48
628.85	11227.87
629.205	11238.49
629.559	11185.16
629.914	11227.64
630.269	11191.03
630.623	11058.83
630.978	11131.83
631.332	11165.95
631.687	11185.61
632.041	11058.61
632.396	11181.77
632.75	11120.53
633.104	11091.83
633.459	11080.98
633.813	11020.87
634.167	11054.77
634.521	10978.16
634.875	11060.87
635.229	11042.79
635.583	10913.07
635.937	10966.86
636.291	10933.41
636.645	10999.17
636.999	10944.71
637.352	10946.07
637.706	10898.84
638.06	10998.04
638.413	10883.92
638.767	10906.75
639.121	10881.21
639.474	10786.3
639.828	10774.77
640.181	10880.99
640.534	10786.98
640.888	10773.64
641.241	10758.5
641.594	10736.13
641.947	10805.51
642.301	10746.53
642.654	10755.11
643.007	10721.67
643.36	10768.9
643.713	10672.18
644.066	10761.67
644.419	10615.46
644.771	10665.4
645.124	10580.43
645.477	10534.78
645.83	10396.03
646.182	10453.65
646.535	10413.43
646.888	10366.42
647.24	10336.82
647.593	10292.98
647.945	10361.45
648.298	10307.21
648.65	10382.24
649.002	10266.76
649.355	10318.06
649.707	10288.68
650.059	10318.97
650.411	10484.16
650.763	10455.46
651.115	10593.76
651.467	10537.27
651.819	10535.01
652.171	10584.27
652.523	10496.81
652.875	10521.22
653.227	10474.89
653.578	10595.79
653.93	10531.39
654.282	10464.05
654.633	10480.77
654.985	10481.67
655.337	10512.41
655.688	10538.85
656.039	10535.46
656.391	10472.63
656.742	10494.78
657.094	10541.56
657.445	10504.05
657.796	10538.62
658.147	10419.3
658.498	10391.51
658.849	10536.59
659.2	10503.37
659.551	10454.33
659.902	10515.34
660.253	10457.72
660.604	10490.71
660.955	10456.59
661.306	10499.07
661.656	10452.75
662.007	10495.46
662.358	10537.27
662.708	10468.79
663.059	10438.96
663.409	10430.6
663.76	10604.83
664.11	10546.08
664.461	10506.53
664.811	10501.11
665.161	10497.04
665.511	10531.16
665.862	10510.15
666.212	10473.31
666.562	10505.18
666.912	10367.1
667.262	10481.45
667.612	10422.24
667.962	10475.12
668.312	10453.2
668.662	10534.33
669.011	10459.98
669.361	10461.11
669.711	10455.69
670.06	10382.24
670.41	10435.57
670.76	10494.1
671.109	10480.54
671.459	10454.33
671.808	10473.31
672.157	10491.39
672.507	10369.13
672.856	10395.8
673.205	10379.98
673.554	10439.87
673.904	10374.56
674.253	10399.87
674.602	10367.33
674.951	10267.22
675.3	10117.39
675.649	10288.01
675.998	10389.92
676.346	10274.45
676.695	10427.44
677.044	10309.47
677.393	10225.64
677.741	10344.95
678.09	10270.61
678.438	10264.05
678.787	10201.91
679.135	10229.93
679.484	10197.16
679.832	10244.62
680.181	10147.22
680.529	10202.81
680.877	10121.91
681.225	10186.09
681.573	10103.6
681.922	10043.49
682.27	9976.38
682.618	10055.02
682.966	10031.29
683.314	10024.28
683.661	9994.45
684.009	9987.22
684.357	9996.26
684.705	9962.14
685.053	9990.61
685.4	9929.82
685.748	9918.3
686.095	9897.96
686.443	9835.36
686.79	9837.4
687.138	9794.01
687.485	9802.37
687.832	9704.97
688.18	9725.08
688.527	9734.12
688.874	9678.76
689.221	9690.28
689.568	9624.75
689.915	9638.53
690.262	9640.11
690.609	9549.49
690.956	9525.99
691.303	9555.37
691.65	9494.13
691.997	9464.07
692.344	9423.62
692.69	9455.26
693.037	9433.34
693.383	9383.17
693.73	9388.59
694.077	9281.48
694.423	9264.76
694.769	9328.48
695.116	9274.25
695.462	9215.04
695.808	9243.74
696.155	9234.93
696.501	9172.1
696.847	9060.47
697.193	9046.46
697.539	9056.85
697.885	8996.74
698.231	8888.5
698.577	8914.48
698.923	8940.02
699.269	8889.4
699.614	8886.46
699.96	8854.6
700.306	8855.28
700.651	8733.7
700.997	8732.12
701.342	8666.13
701.688	8672.23
702.033	8682.62
702.379	8622.51
702.724	8648.28
703.069	8587.26
703.415	8468.62
703.76	8541.61
704.105	8542.06
704.45	8454.61
704.795	8410.09
705.14	8462.97
705.485	8395.17
705.83	8342.52
706.175	8340.03
706.52	8327.61
706.865	8283.99
707.209	8330.09
707.554	8219.36
707.899	8258.91
708.243	8207.61
708.588	8156.54
708.932	8155.86
709.277	8184.11
709.621	8143.2
709.966	8016.2
710.31	8081.06
710.654	7949.08
710.998	8041.06
711.342	8025.01
711.687	8026.82
712.031	7994.28
712.375	7900.72
712.719	7954.06
713.063	7917.22
713.407	7999.03
713.75	7940.95
714.094	7903.21
714.438	7877.45
714.782	7848.3
715.125	7802.42
715.469	7862.08
715.812	7711.8
716.156	7790.9
716.499	7824.34
716.843	7728.53
717.186	7755.87
717.53	7758.81
717.873	7731.24
718.216	7771.24
718.559	7672.48
718.902	7623.67
719.246	7649.88
719.589	7688.98
719.932	7667.06
720.275	7652.6
720.617	7629.32
720.96	7575.99
721.303	7605.14
721.646	7616.44
721.989	7569.43
722.331	7595.65
722.674	7506.16
723.016	7596.1
723.359	7524.24
723.701	7542.99
724.044	7488.31
724.386	7513.39
724.729	7503.67
725.071	7494.86
725.413	7534.63
725.755	7479.04
726.097	7437.01
726.439	7435.2
726.782	7450.79
727.124	7464.8
727.465	7444.69
727.807	7451.47
728.149	7397.69
728.491	7401.98
728.833	7443.34
729.175	7375.77
729.516	7415.09
729.858	7410.34
730.199	7370.12
730.541	7374.18
730.882	7405.37
731.224	7405.14
731.565	7384.35
731.906	7365.6
732.248	7401.75
732.589	7293.51
732.93	7350.68
733.271	7312.49
733.612	7365.6
733.953	7342.1
734.294	7343.22
734.635	7349.55
734.976	7292.83
735.317	7303.45
735.658	7359.95
735.999	7338.71
736.339	7347.07
736.68	7320.17
737.021	7320.4
737.361	7276.11
737.702	7375.31
738.042	7329.67
738.383	7341.64
738.723	7383.9
739.063	7275.43
739.404	7334.86
739.744	7324.24
740.084	7285.6
740.424	7319.95
740.764	7324.69
741.104	7338.25
741.444	7324.92
741.784	7285.15
742.124	7327.86
742.464	7333.96
742.804	7324.02
743.143	7341.19
743.483	7443.56
743.823	7387.07
744.162	7418.03
744.502	7392.49
744.841	7365.15
745.181	7457.8
745.52	7459.83
745.86	7498.93
746.199	7487.18
746.538	7512.94
746.877	7515.65
747.216	7583.44
747.556	7605.36
747.895	7613.27
748.234	7661.63
748.573	7683.1
748.911	7705.02
749.25	7762.2
749.589	7818.92
749.928	7880.39
750.267	7878.58
750.605	7963.77
750.944	7966.03
751.283	7976.88
751.621	8106.37
751.96	8045.35
752.298	8148.63
752.636	8273.14
752.975	8224.78
753.313	8322.86
753.651	8366.25
753.989	8435.17
754.327	8552.91
754.666	8626.13
755.004	8656.64
755.342	8784.32
755.679	8818.21
756.017	8848.95
756.355	9020.7
756.693	9010.53
757.031	9220.69
757.368	9243.97
757.706	9327.81
758.044	9486.45
758.381	9592.21
758.719	9636.05
759.056	9742.26
759.394	9796.95
759.731	9886.21
760.068	10021.8
760.405	10080.55
760.743	10174.34
761.08	10241.45
761.417	10459.53
761.754	10475.12
762.091	10537.94
762.428	10686.19
762.765	10742.68
763.102	10887.31
763.438	11023.13
