Data from hue_350_FLMS001491_5.txt Node
Date: Mon Feb 06 15:37:28 GMT 2017
User: dcchb
Spectrometer: FLMS00149
Trigger mode: 0
Integration Time (sec): 2.000000E-2
Scans to average: 10
Electric dark correction enabled: true
Nonlinearity correction enabled: false
Boxcar width: 0
XAxis mode: Wavelengths
Number of Pixels in Spectrum: 2048
>>>>>Begin Spectral Data<<<<<
341.393	-6.02
341.776	-6.02
342.16	-6.02
342.543	-55.06
342.927	-61.83
343.31	-62.06
343.693	-76.98
344.077	-62.74
344.46	-47.6
344.843	-69.07
345.226	-47.37
345.61	-34.72
345.993	-13.7
346.376	14.55
346.759	-3.76
347.142	22.01
347.525	40.31
347.908	66.98
348.291	69.01
348.674	85.05
349.057	120.08
349.44	132.51
349.823	145.62
350.206	165.05
350.588	195.56
350.971	220.19
351.354	226.29
351.737	235.11
352.119	243.24
352.502	249.34
352.884	262.45
353.267	286.18
353.65	274.2
354.032	325.5
354.414	294.77
354.797	311.26
355.179	323.24
355.562	325.73
355.944	327.08
356.326	348.1
356.709	359.17
357.091	343.8
357.473	356.23
357.855	352.62
358.238	337.93
358.62	339.51
359.002	349.91
359.384	342.45
359.766	340.87
360.148	345.39
360.53	332.05
360.912	342
361.294	349.45
361.676	338.83
362.057	332.51
362.439	336.8
362.821	333.41
363.203	321.21
363.584	337.03
363.966	327.76
364.348	316.23
364.729	341.09
365.111	310.36
365.493	341.54
365.874	344.71
366.256	328.21
366.637	321.66
367.019	311.26
367.4	318.49
367.781	311.71
368.163	313.52
368.544	323.47
368.925	314.88
369.306	345.84
369.688	322.11
370.069	323.92
370.45	324.82
370.831	327.08
371.212	329.34
371.593	308.1
371.974	301.55
372.355	319.17
372.736	327.99
373.117	342.9
373.498	326.86
373.879	311.71
374.26	315.78
374.641	324.14
375.021	314.88
375.402	313.97
375.783	303.35
376.163	329.34
376.544	332.05
376.925	319.4
377.305	316.69
377.686	316.46
378.066	345.61
378.447	329.79
378.827	350.81
379.208	323.47
379.588	337.48
379.968	332.96
380.349	322.34
380.729	326.4
381.109	358.72
381.489	341.77
381.87	346.06
382.25	346.52
382.63	342.9
383.01	353.3
383.39	331.15
383.77	350.58
384.15	352.39
384.53	335.67
384.91	348.78
385.29	336.35
385.67	342.9
386.049	358.04
386.429	342.9
386.809	356.91
387.189	355.56
387.568	360.98
387.948	364.14
388.328	359.85
388.707	381.54
389.087	365.72
389.466	356.91
389.846	342
390.225	381.54
390.605	357.36
390.984	351.71
391.363	375.44
391.743	379.96
392.122	375.44
392.501	371.83
392.881	397.59
393.26	376.35
393.639	379.28
394.018	361.43
394.397	390.58
394.776	376.57
395.155	376.35
395.534	390.58
395.913	372.28
396.292	378.15
396.671	374.76
397.05	381.54
397.429	391.94
397.808	385.61
398.186	397.81
398.565	395.33
398.944	395.78
399.323	412.28
399.701	397.81
400.08	387.65
400.458	412.28
400.837	401.2
401.215	397.59
401.594	431.94
401.972	401.43
402.351	411.6
402.729	405.05
403.107	395.78
403.486	414.31
403.864	391.26
404.242	419.06
404.62	405.27
404.999	419.73
405.377	433.07
405.755	406.4
406.133	447.3
406.511	449.56
406.889	458.83
407.267	423.12
407.645	439.62
408.023	432.16
408.401	453.63
408.779	454.08
409.156	433.07
409.534	458.15
409.912	445.72
410.29	456.12
410.667	452.28
411.045	465.16
411.422	443.01
411.8	477.13
412.178	483.69
412.555	477.36
412.933	469.9
413.31	483.91
413.687	484.37
414.065	483.24
414.442	497.47
414.819	504.03
415.197	514.65
415.574	509.45
415.951	489.79
416.328	489.79
416.705	508.55
417.082	500.64
417.46	508.32
417.837	519.62
418.214	521.65
418.591	526.4
418.967	544.48
419.344	539.96
419.721	552.61
420.098	549
420.475	530.01
420.852	549.45
421.228	538.6
421.605	532.95
421.982	547.41
422.358	562.33
422.735	580.63
423.111	553.29
423.488	565.95
423.864	556.91
424.241	564.59
424.617	583.35
424.994	571.6
425.37	597.36
425.746	592.84
426.123	579.5
426.499	586.28
426.875	586.96
427.251	611.37
427.627	628.32
428.003	640.75
428.379	622.67
428.756	641.2
429.132	638.03
429.507	642.1
429.883	620.18
430.259	673.51
430.635	632.84
431.011	678.48
431.387	664.7
431.763	672.84
432.138	679.39
432.514	665.6
432.89	670.35
433.265	700.63
433.641	683.91
434.016	710.35
434.392	730.46
434.767	716
435.143	727.52
435.518	712.83
435.894	727.07
436.269	735.66
436.644	763.23
437.02	740.86
437.395	743.79
437.77	752.38
438.145	783.34
438.52	778.37
438.895	780.63
439.271	782.21
439.646	783.79
440.021	781.99
440.395	811.59
440.77	790.35
441.145	814.07
441.52	807.52
441.895	797.35
442.27	821.31
442.645	810.23
443.019	871.7
443.394	837.8
443.769	821.98
444.143	857.01
444.518	863.11
444.892	852.04
445.267	859.27
445.641	855.43
446.016	866.73
446.39	849.55
446.764	865.6
447.139	885.03
447.513	863.34
447.887	888.42
448.262	875.32
448.636	892.94
449.01	883.23
449.384	893.39
449.758	873.51
450.132	907.63
450.506	914.64
450.88	904.69
451.254	922.55
451.628	941.08
452.002	939.04
452.376	925.71
452.75	980.62
453.123	925.26
453.497	992.38
453.871	962.09
454.244	1002.54
454.618	988.53
454.992	1007.06
455.365	1024.69
455.739	979.95
456.112	1025.14
456.486	1032.37
456.859	1033.73
457.232	1085.25
457.606	1034.86
457.979	1068.76
458.352	1063.79
458.725	1077.34
459.099	1091.81
459.472	1093.16
459.845	1121.41
460.218	1122.09
460.591	1141.07
460.964	1131.81
461.337	1155.76
461.71	1164.8
462.083	1167.74
462.456	1206.15
462.829	1192.37
463.201	1185.59
463.574	1205.7
463.947	1227.4
464.32	1262.2
464.692	1240.5
465.065	1260.39
465.438	1264.01
465.81	1318.92
466.183	1315.76
466.555	1309.88
466.928	1347.17
467.3	1331.35
467.672	1363.44
468.045	1369.09
468.417	1391.01
468.789	1395.53
469.161	1432.59
469.534	1449.99
469.906	1466.26
470.278	1480.72
470.65	1482.08
471.022	1516.66
471.394	1523.66
471.766	1542.87
472.138	1571.57
472.51	1593.72
472.882	1599.82
473.253	1612.02
473.625	1657.67
473.997	1699.93
474.369	1713.49
474.74	1702.19
475.112	1783.54
475.484	1775.41
475.855	1772.69
476.227	1829.64
476.598	1838.91
476.97	1855.63
477.341	1905.57
477.713	1939.92
478.084	1944.89
478.455	2004.1
478.827	2022.4
479.198	2076.41
479.569	2059.47
479.94	2137.43
480.311	2199.35
480.682	2207.71
481.053	2267.82
481.424	2311.44
481.795	2331.77
482.166	2333.58
482.537	2386.91
482.908	2454.71
483.279	2457.2
483.65	2497.87
484.021	2544.88
484.391	2557.53
484.762	2616.51
485.133	2621.48
485.503	2643.86
485.874	2717.3
486.244	2700.58
486.615	2822.38
486.985	2823.06
487.356	2883.85
487.726	2905.77
488.097	2957.3
488.467	2990.97
488.837	3050.17
489.207	3086.56
489.578	3103.51
489.948	3178.76
490.318	3200
490.688	3200.68
491.058	3276.16
491.428	3290.85
491.798	3343.27
492.168	3395.25
492.538	3430.73
492.908	3500.11
493.278	3503.72
493.648	3526.09
494.017	3553.66
494.387	3625.07
494.757	3618.75
495.126	3683.38
495.496	3689.03
495.866	3759.99
496.235	3782.81
496.605	3824.39
496.974	3784.39
497.344	3893.54
497.713	3858.74
498.082	3870.72
498.452	3950.94
498.821	3967.21
499.19	3990.49
499.559	4003.37
499.928	4049.7
500.298	4069.13
500.667	4132.41
501.036	4141.22
501.405	4133.99
501.774	4171.05
502.143	4210.6
502.512	4203.82
502.88	4238.84
503.249	4257.37
503.618	4306.41
503.987	4265.74
504.356	4352.74
504.724	4352.06
505.093	4341.89
505.462	4372.17
505.83	4431.38
506.199	4405.62
506.567	4471.15
506.936	4453.08
507.304	4457.59
507.672	4493.3
508.041	4510.25
508.409	4612.62
508.777	4672.96
509.145	4690.13
509.514	4683.8
509.882	4708.66
510.25	4653.52
510.618	4757.93
510.986	4695.33
511.354	4789.11
511.722	4809.22
512.09	4827.08
512.458	4844.48
512.826	4866.62
513.193	4912.05
513.561	4862.56
513.929	4950.92
514.297	4909.11
514.664	4976.9
515.032	4960.63
515.4	5021.2
515.767	4997.69
516.135	5041.76
516.502	4960.18
516.869	5114.53
517.237	5129.67
517.604	5077.01
517.972	5165.82
518.339	5147.29
518.706	5169.89
519.073	5152.94
519.44	5165.82
519.808	5242.43
520.175	5229.78
520.542	5273.62
520.909	5302.32
521.276	5352.03
521.643	5352.49
522.009	5387.97
522.376	5407.85
522.743	5385.03
523.11	5444.01
523.477	5496.21
523.843	5519.71
524.21	5541.63
524.577	5608.75
524.943	5620.73
525.31	5606.72
525.676	5704.34
526.043	5724.23
526.409	5738.46
526.776	5759.48
527.142	5760.84
527.508	5773.27
527.874	5825.02
528.241	5874.96
528.607	5915.86
528.973	5924.9
529.339	5931.23
529.705	5987.72
530.071	6036.08
530.437	6099.36
530.803	6102.75
531.169	6097.78
531.535	6136.87
531.901	6142.97
532.267	6173.26
532.632	6247.83
532.998	6232.24
533.364	6289.86
533.73	6263.87
534.095	6336.87
534.461	6350.2
534.826	6334.16
535.192	6422.29
535.557	6450.76
535.923	6444.89
536.288	6522.85
536.653	6529.63
537.019	6558.78
537.384	6545.9
537.749	6594.49
538.114	6555.62
538.479	6640.14
538.845	6677.42
539.21	6646.24
539.575	6662.28
539.94	6668.16
540.305	6778.89
540.67	6777.76
541.034	6761.94
541.399	6841.26
541.764	6791.77
542.129	6897.53
542.494	6930.07
542.858	6893.01
543.223	6928.49
543.587	7015.95
543.952	6952.44
544.316	7003.29
544.681	7059.79
545.045	7099.79
545.41	7169.84
545.774	7166
546.138	7167.58
546.503	7181.82
546.867	7116.28
547.231	7228.37
547.595	7275.15
547.959	7387.01
548.324	7334.58
548.688	7342.72
549.052	7392.43
549.416	7414.35
549.779	7368.7
550.143	7388.14
550.507	7503.16
550.871	7507.91
551.235	7491.41
551.599	7555.37
551.962	7571.41
552.326	7556.5
552.689	7687.79
553.053	7642.14
553.417	7633.78
553.78	7766.43
554.143	7689.6
554.507	7777.51
554.87	7789.48
555.234	7784.29
555.597	7829.03
555.96	7846.43
556.323	7820.67
556.686	7830.84
557.05	7906.09
557.413	8006.2
557.776	7957.84
558.139	7960.55
558.502	8054.11
558.865	8076.48
559.228	8068.12
559.59	8119.65
559.953	8136.37
560.316	8190.83
560.679	8200.32
561.041	8189.7
561.404	8328.68
561.767	8391.95
562.129	8240.09
562.492	8373.42
562.854	8385.63
563.217	8381.33
563.579	8400.09
563.941	8460.65
564.304	8483.93
564.666	8567.32
565.028	8493.65
565.39	8534.55
565.753	8562.8
566.115	8587.88
566.477	8687.09
566.839	8621.33
567.201	8770.7
567.563	8729.12
567.925	8862.22
568.287	8833.75
568.648	8796.24
569.01	8927.08
569.372	8946.52
569.734	8909.46
570.095	8962.11
570.457	9024.25
570.819	9078.49
571.18	9107.19
571.542	9205.49
571.903	9195.1
572.265	9263.34
572.626	9280.07
572.987	9308.09
573.349	9334.3
573.71	9442.32
574.071	9449.78
574.432	9516.67
574.794	9634.63
575.155	9634.63
575.516	9584.24
575.877	9685.48
576.238	9871.46
576.599	9898.13
576.96	9926.15
577.32	9969.99
577.681	10020.16
578.042	10112.36
578.403	10185.81
578.763	10238.69
579.124	10345.35
579.485	10465.12
579.845	10608.85
580.206	10595.96
580.566	10746.69
580.927	10779.69
581.287	11019.68
581.648	11058.1
582.008	11316.85
582.368	11367.02
582.728	11526.56
583.089	11575.15
583.449	11768.36
583.809	11858.76
584.169	12087.22
584.529	12285.41
584.889	12505.97
585.249	12631.84
585.609	12728.56
585.969	13116.8
586.329	13232.73
586.688	13413.07
587.048	13560.86
587.408	13713.4
587.768	13942.54
588.127	14182.31
588.487	14311.8
588.846	14639.02
589.206	14786.59
589.565	15080.14
589.925	15370.53
590.284	15576.17
590.643	15791.31
591.003	16067.46
591.362	16438.3
591.721	16624.05
592.08	16888.91
592.44	17138.39
592.799	17405.95
593.158	17644.14
593.517	17972.49
593.876	18202.54
594.235	18408.19
594.593	18836.2
594.952	19115.51
595.311	19238
595.67	19553.47
596.029	19964.08
596.387	20185.09
596.746	20569.71
597.104	20738.75
597.463	21107.1
597.822	21299.86
598.18	21554.55
598.538	21819.17
598.897	22175.55
599.255	22318.14
599.613	22805.81
599.972	22934.17
600.33	23318.12
600.688	23424.78
601.046	23859.12
601.404	24154.03
601.762	24329.84
602.12	24689.61
602.478	25034.23
602.836	25167.56
603.194	25423.82
603.552	25670.6
603.91	25844.38
604.268	26147.19
604.625	26395.77
604.983	26611.59
605.341	26871.02
605.698	27267.62
606.056	27469.87
606.413	27583.09
606.771	28000.7
607.128	28145.33
607.485	28272.11
607.843	28478.43
608.2	28991.86
608.557	29124.74
608.914	29254.46
609.272	29572.64
609.629	29845.18
609.986	30017.83
610.343	30180.08
610.7	30549.34
611.057	30723.34
611.414	30839.27
611.771	31021.19
612.127	31371.92
612.484	31493.49
612.841	31787.27
613.198	31787.27
613.554	31894.61
613.911	32112.01
614.267	32253.7
614.624	32403.98
614.98	32577.76
615.337	32883.29
615.693	33036.73
616.05	33025.88
616.406	33408.47
616.762	33433.56
617.118	33427.23
617.475	33758.07
617.831	33904.5
618.187	33964.16
618.543	34227.21
618.899	34374.1
619.255	34461.55
619.611	34561.66
619.967	34834.65
620.323	34936.57
620.678	34846.85
621.034	35079.16
621.39	35145.83
621.746	35076.22
622.101	35734.51
622.457	35492.71
622.812	35507.85
623.168	35744
623.523	35850.22
623.879	35986.94
624.234	35920.27
624.589	36038.23
624.945	36154.84
625.3	36229.64
625.655	36333.82
626.01	36365.46
626.365	36556.64
626.72	36639.35
627.075	36638.67
627.43	36547.6
627.785	36686.8
628.14	36802.05
628.495	36720.25
628.85	36927.25
629.205	36877.08
629.559	37182.84
629.914	36986.91
630.269	36987.59
630.623	36969.73
630.978	36922.28
631.332	37075.49
631.687	37245.89
632.041	37140.13
632.396	37036.17
632.75	37011.54
633.104	37117.3
633.459	37061.48
633.813	37213.34
634.167	37206.34
634.521	37282.95
634.875	37298.54
635.229	37158.2
635.583	37127.47
635.937	37221.7
636.291	37230.97
636.645	37300.57
636.999	37175.83
637.352	37369.95
637.706	37081.82
638.06	37225.77
638.413	37279.1
638.767	37089.96
639.121	37198.65
639.474	36993.24
639.828	37060.58
640.181	37178.09
640.534	37202.72
640.888	37078.43
641.241	37042.95
641.594	37014.25
641.947	37182.61
642.301	37159.56
642.654	37192.78
643.007	37068.94
643.36	37056.51
643.713	36989.62
644.066	37116.17
644.419	36776.29
644.771	36693.81
645.124	36434.38
645.477	36387.15
645.83	36170.89
646.182	36133.15
646.535	35861.97
646.888	35991.23
647.24	35734.29
647.593	36087.05
647.945	36015.41
648.298	35890.21
648.65	35768.64
649.002	35686.6
649.355	35833.04
649.707	35789.88
650.059	35988.97
650.411	36363.65
650.763	36441.61
651.115	36757.31
651.467	36677.54
651.819	36655.39
652.171	36627.14
652.523	36545.11
652.875	36580.37
653.227	36506.02
653.578	36791.66
653.93	36713.7
654.282	36365.46
654.633	36430.77
654.985	36523.87
655.337	36557.09
655.688	36484.1
656.039	36682.74
656.391	36303.76
656.742	36329.52
657.094	36490.88
657.445	36618.56
657.796	36397.09
658.147	36368.17
658.498	36372.69
658.849	36442.29
659.2	36396.87
659.551	36306.25
659.902	36519.58
660.253	36426.47
660.604	36535.4
660.955	36266.48
661.306	36460.59
661.656	36376.3
662.007	36201.84
662.358	36317.77
662.708	36383.99
663.059	36156.65
663.409	36007.5
663.76	36308.28
664.11	36334.04
664.461	36250.66
664.811	36141.06
665.161	36306.47
665.511	36070.55
665.862	36266.7
666.212	36285.01
666.562	36357.77
666.912	36236.87
667.262	35968.18
667.612	36172.47
667.962	36121.17
668.312	36195.07
668.662	36264.22
669.011	36111.23
669.361	36064.9
669.711	36083.88
670.06	35982.19
670.41	36074.84
670.76	35898.58
671.109	36146.48
671.459	35958.46
671.808	35926.82
672.157	36186.03
672.507	35819.48
672.856	35849.31
673.205	35927.73
673.554	35967.73
673.904	35953.49
674.253	36104.9
674.602	35888.63
674.951	35476.44
675.3	35248.65
675.649	35860.16
675.998	35783.32
676.346	35859.71
676.695	35970.44
677.044	35611.13
677.393	35766.15
677.741	35903.77
678.09	35707.39
678.438	35615.19
678.787	35806.6
679.135	35751.46
679.484	35605.48
679.832	35625.81
680.181	35399.38
680.529	35492.94
680.877	35396.67
681.225	35267.18
681.573	35616.78
681.922	35218.37
682.27	35143.79
682.618	35126.39
682.966	35060.41
683.314	34992.39
683.661	35028.99
684.009	34845.04
684.357	34816.12
684.705	34697.7
685.053	34840.98
685.4	34850.69
685.748	34593.75
686.095	34609.12
686.443	34515.11
686.79	34462.46
687.138	34609.8
687.485	34503.36
687.832	34417.48
688.18	34507.43
688.527	34149.02
688.874	34244.61
689.221	34131.39
689.568	34138.85
689.915	33983.15
690.262	33998.96
690.609	33867.67
690.956	33681.23
691.303	33676.94
691.65	33581.12
691.997	33586.77
692.344	33341.81
692.69	33338.64
693.037	33283.28
693.383	33082.38
693.73	33262.71
694.077	32970.97
694.423	33049.61
694.769	33008.93
695.116	32839.22
695.462	32775.72
695.808	32782.5
696.155	32721.26
696.501	32546.57
696.847	32457.31
697.193	32263.64
697.539	32432.68
697.885	32226.81
698.231	32139.13
698.577	32094.38
698.923	32078.79
699.269	31828.17
699.614	31707.95
699.96	31603.77
700.306	31689.65
700.651	31657.56
700.997	31458.47
701.342	31451.69
701.688	31290.79
702.033	31271.13
702.379	31319.49
702.724	31149.55
703.069	31210.34
703.415	30920.18
703.76	30828.88
704.105	30893.51
704.45	30854.87
704.795	30692.61
705.14	30563.12
705.485	30456.91
705.83	30274.54
706.175	30377.59
706.52	30309.8
706.865	30202.91
707.209	30296.46
707.554	30172.62
707.899	30163.81
708.243	30089.69
708.588	29977.15
708.932	29704.16
709.277	29766.99
709.621	29753.88
709.966	29563.15
710.31	29633.2
710.654	29466.88
710.998	29503.04
711.342	29508.91
711.687	29462.13
712.031	29291.52
712.375	29189.83
712.719	29113.67
713.063	29094.01
713.407	29185.53
713.75	28937.63
714.094	28938.98
714.438	28901.92
714.782	28920.45
715.125	28754.13
715.469	28735.15
715.812	28694.02
716.156	28567.47
716.499	28682.49
716.843	28634.13
717.186	28463.74
717.53	28489.96
717.873	28488.6
718.216	28418.09
718.559	28353.46
718.902	28240.02
719.246	28268.27
719.589	28084.54
719.932	28009.52
720.275	28094.94
720.617	27939.46
720.96	27942.85
721.303	27871.89
721.646	27874.38
721.989	27647.72
722.331	27799.35
722.674	27628.06
723.016	27706.7
723.359	27537.21
723.701	27515.07
724.044	27498.12
724.386	27230.56
724.729	27463.77
725.071	27308.07
725.413	27285.02
725.755	27364.11
726.097	27181.06
726.439	27077.56
726.782	27218.8
727.124	27285.02
727.465	27025.59
727.807	27141.97
728.149	26964.57
728.491	27010
728.833	27019.04
729.175	26884.12
729.516	26819.94
729.858	26750.12
730.199	26819.49
730.541	26792.6
730.882	26663.11
731.224	26801.87
731.565	26673.28
731.906	26559.39
732.248	26589.67
732.589	26380.86
732.93	26415.21
733.271	26380.41
733.612	26427.19
733.953	26449.33
734.294	26182.9
734.635	26246.4
734.976	26347.19
735.317	26117.14
735.658	26058.83
735.999	26241.65
736.339	26034.43
736.68	26130.25
737.021	25954.66
737.361	25920.53
737.702	26003.69
738.042	26039.63
738.383	25848.44
738.723	25925.5
739.063	25676.02
739.404	25792.4
739.744	25762.57
740.084	25714.89
740.424	25755.57
740.764	25598.73
741.104	25645.06
741.444	25435.8
741.784	25541.33
742.124	25512.41
742.464	25495.23
742.804	25324.16
743.143	25293.21
743.483	25463.82
743.823	25306.76
744.162	25193.32
744.502	25283.71
744.841	25216.82
745.181	25294.11
745.52	25057.73
745.86	25200.78
746.199	25066.77
746.538	25161.01
746.877	25105.19
747.216	25050.73
747.556	24917.17
747.895	25067
748.234	24783.61
748.573	24913.78
748.911	24778.19
749.25	24881.46
749.589	24703.16
749.928	24702.26
750.267	24752.43
750.605	24697.97
750.944	24685.09
751.283	24481.25
751.621	24563.28
751.96	24452.78
752.298	24373
752.636	24463.4
752.975	24325.09
753.313	24288.26
753.651	24367.58
753.989	24217.75
754.327	24183.4
754.666	24126.91
755.004	23980.47
755.342	24035.16
755.679	24018.21
756.017	23801.94
756.355	23971.21
756.693	23760.82
757.031	23833.81
757.368	23760.59
757.706	23802.85
758.044	23520.37
758.381	23677.43
758.719	23501.16
759.056	23485.34
759.394	23420.26
759.731	23299.81
760.068	23178.46
760.405	23062.53
