Data from hue_260_FLMS001491_00018.txt Node
Date: Tue Feb 07 15:58:39 GMT 2017
User: dcchb
Spectrometer: FLMS00149
Trigger mode: 0
Integration Time (sec): 2.000000E-2
Scans to average: 10
Electric dark correction enabled: true
Nonlinearity correction enabled: false
Boxcar width: 0
XAxis mode: Wavelengths
Number of Pixels in Spectrum: 2048
>>>>>Begin Spectral Data<<<<<
341.393	-7.91
341.776	-7.91
342.16	-7.91
342.543	-49.26
342.927	-88.36
343.31	-56.5
343.693	-86.55
344.077	-59.66
344.46	-60.56
344.843	-41.81
345.226	-42.26
345.61	-32.77
345.993	-25.76
346.376	-15.14
346.759	13.11
347.142	25.08
347.525	58.76
347.908	47.23
348.291	74.8
348.674	100.79
349.057	101.24
349.44	120
349.823	141.69
350.206	164.74
350.588	181.46
350.971	192.99
351.354	232.31
351.737	219.66
352.119	240.45
352.502	238.64
352.884	265.53
353.267	267.79
353.65	291.07
354.032	277.96
354.414	280.67
354.797	302.14
355.179	303.72
355.562	298.3
355.944	312.76
356.326	309.6
356.709	327.9
357.091	328.8
357.473	348.01
357.855	322.03
358.238	348.01
358.62	319.99
359.002	328.35
359.384	319.09
359.766	319.09
360.148	334.45
360.53	334.68
360.912	337.84
361.294	318.64
361.676	320.44
362.057	332.42
362.439	333.1
362.821	319.99
363.203	319.54
363.584	307.11
363.966	308.01
364.348	298.75
364.729	303.49
365.111	311.4
365.493	319.99
365.874	323.38
366.256	311.63
366.637	300.56
367.019	317.05
367.4	303.04
367.781	313.89
368.163	297.17
368.544	293.78
368.925	293.33
369.306	313.21
369.688	317.96
370.069	299.65
370.45	303.49
370.831	312.99
371.212	308.47
371.593	306.88
371.974	298.3
372.355	298.3
372.736	290.84
373.117	303.49
373.498	313.66
373.879	310.27
374.26	318.86
374.641	310.05
375.021	318.41
375.402	312.08
375.783	315.7
376.163	317.28
376.544	311.18
376.925	316.38
377.305	322.7
377.686	319.99
378.066	323.61
378.447	307.56
378.827	318.18
379.208	332.87
379.588	293.78
379.968	303.72
380.349	313.66
380.729	324.51
381.109	343.95
381.489	334.91
381.87	329.71
382.25	307.11
382.63	344.17
383.01	340.1
383.39	332.42
383.77	335.13
384.15	327.67
384.53	319.99
384.91	333.78
385.29	330.84
385.67	340.56
386.049	338.97
386.429	356.37
386.809	333.55
387.189	355.92
387.568	337.62
387.948	357.5
388.328	350.5
388.707	352.99
389.087	362.25
389.466	359.09
389.846	336.49
390.225	348.01
390.605	356.15
390.984	360.22
391.363	372.65
391.743	374.45
392.122	375.36
392.501	363.38
392.881	366.09
393.26	357.28
393.639	368.58
394.018	378.3
394.397	380.1
394.776	343.95
395.155	372.42
395.534	379.2
395.913	385.98
396.292	394.79
396.671	397.96
397.05	397.05
397.429	399.54
397.808	396.6
398.186	380.55
398.565	403.15
398.944	386.43
399.323	402.7
399.701	391.85
400.08	415.36
400.458	404.06
400.837	405.87
401.215	410.84
401.594	429.14
401.972	410.84
402.351	393.44
402.729	421.23
403.107	428.92
403.486	421.01
403.864	436.37
404.242	443.6
404.62	434.34
404.999	450.61
405.377	454.68
405.755	442.47
406.133	459.87
406.511	446.99
406.889	470.27
407.267	465.98
407.645	454
408.023	447.22
408.401	496.03
408.779	484.28
409.156	491.51
409.534	473.89
409.912	492.64
410.29	506.88
410.667	505.3
411.045	532.42
411.422	501
411.8	494.68
412.178	537.84
412.555	536.94
412.933	528.35
413.31	555.92
413.687	553.66
414.065	559.76
414.442	580.78
414.819	598.18
415.197	584.39
415.574	596.14
415.951	593.88
416.328	600.89
416.705	603.37
417.082	615.8
417.46	618.06
417.837	647.89
418.214	639.53
418.591	632.07
418.967	635.92
419.344	656.93
419.721	668.68
420.098	664.39
420.475	700.77
420.852	665.75
421.228	715.01
421.605	723.82
421.982	737.83
422.358	713.65
422.735	737.83
423.111	746.2
423.488	753.43
423.864	764.05
424.241	795.91
424.617	796.36
424.994	797.49
425.37	833.88
425.746	813.31
426.123	834.33
426.499	839.75
426.875	855.8
427.251	856.47
427.627	883.14
428.003	888.34
428.379	914.55
428.756	932.63
429.132	911.61
429.507	921.33
429.883	932.63
430.259	946.42
430.635	956.59
431.011	972.86
431.387	985.74
431.763	1016.24
432.138	1008.11
432.514	1031.61
432.89	1026.19
433.265	1038.84
433.641	1082.68
434.016	1073.87
434.392	1098.73
434.767	1149.12
435.143	1129.69
435.518	1160.87
435.894	1190.25
436.269	1178.95
436.644	1223.47
437.02	1222.57
437.395	1213.98
437.77	1251.72
438.145	1248.55
438.52	1289.68
438.895	1328.55
439.271	1294.2
439.646	1338.04
440.021	1347.99
440.395	1353.86
440.77	1328.78
441.145	1391.38
441.52	1406.29
441.895	1386.86
442.27	1423.24
442.645	1430.92
443.019	1447.42
443.394	1465.27
443.769	1501.43
444.143	1447.87
444.518	1480.87
444.892	1501.43
445.267	1514.54
445.641	1504.14
446.016	1535.78
446.39	1545.72
446.764	1547.98
447.139	1565.38
447.513	1561.31
447.887	1586.62
448.262	1588.43
448.636	1618.71
449.01	1643.35
449.384	1639.5
449.758	1661.2
450.132	1679.96
450.506	1693.51
450.88	1682.22
451.254	1682.44
451.628	1712.27
452.002	1735.32
452.376	1752.5
452.75	1767.64
453.123	1776.9
453.497	1825.04
453.871	1822.32
454.244	1851.48
454.618	1852.83
454.992	1846.51
455.365	1864.36
455.739	1947.52
456.112	1905.94
456.486	1920.63
456.859	1971.7
457.232	2009.44
457.606	1996.11
457.979	2021.42
458.352	2036.33
458.725	2097.57
459.099	2076.33
459.472	2092.6
459.845	2116.55
460.218	2167.63
460.591	2157.91
460.964	2202.43
461.337	2217.12
461.71	2250.34
462.083	2286.27
462.456	2276.32
462.829	2270.67
463.201	2353.84
463.574	2341.18
463.947	2379.6
464.32	2399.03
464.692	2429.77
465.065	2475.87
465.438	2480.16
465.81	2490.1
466.183	2533.04
466.555	2583.43
466.928	2564.9
467.3	2564
467.672	2632.25
468.045	2709.76
468.417	2698.01
468.789	2685.58
469.161	2748.63
469.534	2755.18
469.906	2825.24
470.278	2844.67
470.65	2911.79
471.022	2939.81
471.394	2961.28
471.766	2986.59
472.138	3018.9
472.51	3041.5
472.882	3103.42
473.253	3134.61
473.625	3182.74
473.997	3252.8
474.369	3275.85
474.74	3307.94
475.112	3338.67
475.484	3395.62
475.855	3430.64
476.227	3419.12
476.598	3522.17
476.97	3566.69
477.341	3637.19
477.713	3622.05
478.084	3691.88
478.455	3765.32
478.827	3802.84
479.198	3890.97
479.569	3892.55
479.94	3985.43
480.311	4019.56
480.682	4076.73
481.053	4200.12
481.424	4217.52
481.795	4239.44
482.166	4328.47
482.537	4319.43
482.908	4384.74
483.279	4443.05
483.65	4501.8
484.021	4622.25
484.391	4664.06
484.762	4697.05
485.133	4767.11
485.503	4731.63
485.874	4890.49
486.244	4893.66
486.615	5019.53
486.985	5032.41
487.356	5163.25
487.726	5154.67
488.097	5183.37
488.467	5255.46
488.837	5327.77
489.207	5356.02
489.578	5475.34
489.948	5449.12
490.318	5580.19
490.688	5556.46
491.058	5627.42
491.428	5725.5
491.798	5672.62
492.168	5832.16
492.538	5854.08
492.908	5877.13
493.278	5940.18
493.648	5988.09
494.017	6008.66
494.387	6081.42
494.757	6085.94
495.126	6146.05
495.496	6194.64
495.866	6175.88
496.235	6289.33
496.605	6265.37
496.974	6375.2
497.344	6361.64
497.713	6394.86
498.082	6459.04
498.452	6455.65
498.821	6551.69
499.19	6479.83
499.559	6612.26
499.928	6607.96
500.298	6676.21
500.667	6712.59
501.036	6633.05
501.405	6759.37
501.774	6782.19
502.143	6755.3
502.512	6801.63
502.88	6818.35
503.249	6835.75
503.618	6860.84
503.987	6875.07
504.356	6989.87
504.724	6945.81
505.093	6961.4
505.462	6960.04
505.83	7045.69
506.199	7032.58
506.567	7106.03
506.936	7051.34
507.304	7125.91
507.672	7165.91
508.041	7191.68
508.409	7132.02
508.777	7255.18
509.145	7246.82
509.514	7265.12
509.882	7269.19
510.25	7318.68
510.618	7287.94
510.986	7324.33
511.354	7395.29
511.722	7497.43
512.09	7436.64
512.458	7440.03
512.826	7516.86
513.193	7575.62
513.561	7543.98
513.929	7571.55
514.297	7644.54
514.664	7636.18
515.032	7672.11
515.4	7616.07
515.767	7653.13
516.135	7701.04
516.502	7613.36
516.869	7752.56
517.237	7721.6
517.604	7673.92
517.972	7726.58
518.339	7705.79
518.706	7793.24
519.073	7767.25
519.44	7861.49
519.808	7861.49
520.175	7879.11
520.542	7877.08
520.909	7840.02
521.276	7861.04
521.643	7954.37
522.009	7993.24
522.376	8001.15
522.743	8000.47
523.11	8032.33
523.477	8081.37
523.843	8065.32
524.21	8140.12
524.577	8118.88
524.943	8136.51
525.31	8124.98
525.676	8215.6
526.043	8245.21
526.409	8269.39
526.776	8278.43
527.142	8220.57
527.508	8260.57
527.874	8316.39
528.241	8333.79
528.607	8353.68
528.973	8369.05
529.339	8363.4
529.705	8343.96
530.071	8420.8
530.437	8414.92
530.803	8448.37
531.169	8450.85
531.535	8421.47
531.901	8394.81
532.267	8414.24
532.632	8477.29
532.998	8453.11
533.364	8463.51
533.73	8403.17
534.095	8475.26
534.461	8502.83
534.826	8549.15
535.192	8558.42
535.557	8493.79
535.923	8531.98
536.288	8567.46
536.653	8543.28
537.019	8560.23
537.384	8564.75
537.749	8444.07
538.114	8560.23
538.479	8498.53
538.845	8513
539.21	8497.4
539.575	8547.12
539.94	8553
540.305	8495.82
540.67	8490.17
541.034	8482.71
541.399	8570.4
541.764	8463.73
542.129	8498.08
542.494	8503.96
542.858	8477.29
543.223	8498.99
543.587	8535.14
543.952	8503.05
544.316	8429.38
544.681	8475.71
545.045	8468.48
545.41	8469.61
545.774	8432.32
546.138	8496.73
546.503	8472.09
546.867	8418.76
547.231	8457.86
547.595	8490.17
547.959	8416.5
548.324	8453.56
548.688	8419.89
549.052	8388.48
549.416	8475.03
549.779	8428.7
550.143	8403.62
550.507	8428.48
550.871	8450.63
551.235	8353.45
551.599	8410.4
551.962	8410.4
552.326	8404.98
552.689	8395.26
553.053	8420.57
553.417	8372.89
553.78	8399.1
554.143	8423.28
554.507	8451.76
554.87	8439.78
555.234	8429.38
555.597	8453.79
555.96	8411.3
556.323	8450.85
556.686	8431.87
557.05	8395.03
557.413	8451.3
557.776	8498.76
558.139	8491.98
558.502	8474.13
558.865	8503.28
559.228	8543.28
559.59	8496.73
559.953	8528.36
560.316	8611.07
560.679	8537.18
561.041	8590.06
561.404	8560
561.767	8628.47
562.129	8604.75
562.492	8626.21
562.854	8640.9
563.217	8604.07
563.579	8675.48
563.941	8649.94
564.304	8673.22
564.666	8810.62
565.028	8710.96
565.39	8726.32
565.753	8783.27
566.115	8801.58
566.477	8800.22
566.839	8871.86
567.201	8903.72
567.563	8864.17
567.925	8925.87
568.287	8905.3
568.648	8907.79
569.01	8934.45
569.372	8999.31
569.734	8991.18
570.095	9080.44
570.457	9038.41
570.819	9053.77
571.18	9081.34
571.542	9092.42
571.903	9183.26
572.265	9152.53
572.626	9136.26
572.987	9162.92
573.349	9221
573.71	9281.56
574.071	9192.53
574.432	9348.91
574.794	9344.16
575.155	9359.98
575.516	9314.56
575.877	9354.33
576.238	9360.66
576.599	9343.03
576.96	9423.71
577.32	9396.14
577.681	9496.7
578.042	9451.73
578.403	9481.33
578.763	9488.56
579.124	9558.39
579.485	9561.78
579.845	9618.73
580.206	9653.53
580.566	9566.98
580.927	9690.82
581.287	9656.24
581.648	9577.6
582.008	9675.68
582.368	9615.79
582.728	9697.37
583.089	9735.34
583.449	9691.72
583.809	9770.14
584.169	9731.72
584.529	9774.88
584.889	9845.62
585.249	9752.96
585.609	9795.67
585.969	9795.67
586.329	9823.02
586.688	9899.63
587.048	9897.82
587.408	9778.5
587.768	9862.11
588.127	9899.4
588.487	9921.1
588.846	9929.23
589.206	9839.06
589.565	9959.96
589.925	9984.37
590.284	9987.08
590.643	9949.34
591.003	10005.84
591.362	9997.7
591.721	10011.26
592.08	10028.44
592.44	10086.74
592.799	10024.37
593.158	10036.57
593.517	10097.59
593.876	10122.67
594.235	10076.8
594.593	10061.43
594.952	10099.85
595.311	10152.5
595.67	10138.26
596.029	10185.04
596.387	10200.86
596.746	10232.95
597.104	10133.97
597.463	10189.79
597.822	10195.66
598.18	10225.72
598.538	10142.11
598.897	10254.19
599.255	10187.75
599.613	10321.76
599.972	10256.68
600.33	10300.07
600.688	10209.22
601.046	10219.17
601.404	10289.67
601.762	10273.18
602.12	10319.5
602.478	10335.32
602.836	10329.22
603.194	10303.91
603.552	10316.79
603.91	10270.01
604.268	10326.28
604.625	10260.07
604.983	10327.19
605.341	10266.4
605.698	10340.52
606.056	10337.13
606.413	10300.29
606.771	10450.35
607.128	10401.76
607.485	10368.54
607.843	10375.77
608.2	10380.74
608.557	10465.49
608.914	10398.6
609.272	10452.83
609.629	10436.79
609.986	10523.79
610.343	10457.35
610.7	10520.63
611.057	10506.84
611.414	10522.44
611.771	10486.28
612.127	10522.66
612.484	10563.79
612.841	10513.62
613.198	10559.27
613.554	10475.88
613.911	10600.17
614.267	10644.01
614.624	10578.03
614.98	10632.71
615.337	10623.68
615.693	10641.75
616.05	10585.48
616.406	10693.05
616.762	10634.3
617.118	10625.71
617.475	10602.66
617.831	10710.45
618.187	10693.28
618.543	10656.89
618.899	10635.65
619.255	10760.17
619.611	10650.79
619.967	10766.04
620.323	10780.28
620.678	10701.19
621.034	10615.99
621.39	10624.35
621.746	10660.96
622.101	10833.16
622.457	10659.38
622.812	10813.05
623.168	10731.24
623.523	10732.15
623.879	10775.76
624.234	10750.45
624.589	10788.42
624.945	10702.77
625.3	10704.13
625.655	10758.14
626.01	10734.18
626.365	10746.16
626.72	10678.59
627.075	10711.36
627.43	10705.26
627.785	10705.71
628.14	10592.26
628.495	10684.46
628.85	10711.36
629.205	10642.21
629.559	10669.78
629.914	10642.88
630.269	10655.54
630.623	10630.23
630.978	10600.85
631.332	10652.15
631.687	10697.12
632.041	10575.99
632.396	10615.77
632.75	10466.62
633.104	10540.29
633.459	10505.26
633.813	10518.59
634.167	10433.85
634.521	10492.61
634.875	10444.47
635.229	10487.86
635.583	10449.22
635.937	10458.03
636.291	10412.16
636.645	10391.59
636.999	10401.53
637.352	10416.45
637.706	10368.99
638.06	10352.72
638.413	10325.15
638.767	10357.02
639.121	10352.72
639.474	10336.23
639.828	10328.99
640.181	10348.2
640.534	10273.4
640.888	10257.13
641.241	10244.7
641.594	10265.72
641.947	10326.51
642.301	10229.56
642.654	10307.3
643.007	10215.78
643.36	10228.66
643.713	10204.25
644.066	10244.7
644.419	10166.51
644.771	10108.43
645.124	10024.14
645.477	9996.8
645.83	9979.17
646.182	9863.47
646.535	9889.46
646.888	9927.2
647.24	9835.67
647.593	9908.67
647.945	9902.79
648.298	9807.43
648.65	9802.91
649.002	9821.44
649.355	9824.6
649.707	9805.39
650.059	9865.05
650.411	9986.4
650.763	10092.62
651.115	10162.67
651.467	10140.98
651.819	10093.97
652.171	10063.01
652.523	10018.49
652.875	10042.45
653.227	10030.92
653.578	10033.41
653.93	10093.75
654.282	10069.34
654.633	9993.64
654.985	10067.98
655.337	9974.43
655.688	10004.48
656.039	10042.22
656.391	9996.35
656.742	9989.12
657.094	9983.24
657.445	10052.62
657.796	9987.08
658.147	9989.57
658.498	9985.73
658.849	9967.65
659.2	9988.66
659.551	10055.1
659.902	10054.42
660.253	9931.26
660.604	10030.7
660.955	9987.31
661.306	10037.93
661.656	10001.54
662.007	10042.9
662.358	10003.13
662.708	10016.23
663.059	10040.19
663.409	9938.04
663.76	10036.12
664.11	10146.63
664.461	9971.04
664.811	10050.36
665.161	10037.7
665.511	10020.08
665.862	10089
666.212	10120.19
666.562	10064.59
666.912	10034.76
667.262	10005.16
667.612	10015.33
667.962	10008.1
668.312	10087.64
668.662	10063.92
669.011	10009
669.361	10007.87
669.711	9977.82
670.06	9947.08
670.41	9912.06
670.76	9991.83
671.109	10058.27
671.459	10063.69
671.808	10004.26
672.157	9917.71
672.507	9931.49
672.856	9950.7
673.205	9965.39
673.554	9955.44
673.904	9895.78
674.253	9996.57
674.602	9918.16
674.951	9744.38
675.3	9735.11
675.649	9830.93
675.998	9846.97
676.346	9857.37
676.695	9835
677.044	9779.63
677.393	9805.84
677.741	9899.17
678.09	9864.37
678.438	9819.63
678.787	9819.63
679.135	9822.11
679.484	9796.35
679.832	9745.51
680.181	9686.52
680.529	9688.78
680.877	9740.31
681.225	9767.2
681.573	9736.69
681.922	9622.12
682.27	9623.25
682.618	9686.75
682.966	9658.96
683.314	9612.63
683.661	9565.17
684.009	9545.96
684.357	9518.17
684.705	9476.59
685.053	9468
685.4	9483.82
685.748	9492.63
686.095	9440.66
686.443	9395.23
686.79	9401.33
687.138	9357.04
687.485	9364.05
687.832	9300.32
688.18	9376.25
688.527	9271.17
688.874	9297.83
689.221	9301.22
689.568	9284.28
689.915	9188.01
690.262	9149.14
690.609	9167.67
690.956	9128.35
691.303	9022.36
691.65	9049.03
691.997	9068.01
692.344	8941.91
692.69	8948.92
693.037	8972.65
693.383	8894.23
693.73	8901.01
694.077	8758.41
694.423	8814.91
694.769	8810.39
695.116	8776.04
695.462	8792.99
695.808	8743.27
696.155	8745.53
696.501	8637.51
696.847	8594.35
697.193	8573.56
697.539	8624.18
697.885	8540.79
698.231	8462.83
698.577	8499.44
698.923	8460.34
699.269	8430.06
699.614	8394.36
699.96	8351.64
700.306	8331.53
700.651	8264.42
700.997	8272.78
701.342	8271.65
701.688	8213.34
702.033	8206.79
702.379	8224.42
702.724	8122.95
703.069	8174.25
703.415	8071.2
703.76	8030.52
704.105	8056.96
704.45	8098.32
704.795	8046.34
705.14	8000.24
705.485	7968.15
705.83	7968.38
706.175	7975.61
706.52	7913.69
706.865	7899.45
707.209	7879.11
707.554	7782.85
707.899	7825.56
708.243	7750.3
708.588	7693.81
708.932	7718.67
709.277	7657.88
709.621	7668.27
709.966	7649.06
710.31	7643.87
710.654	7579.69
710.998	7594.15
711.342	7640.03
711.687	7579.01
712.031	7587.82
712.375	7558.9
712.719	7481.39
713.063	7521.84
713.407	7499.92
713.75	7423.08
714.094	7479.13
714.438	7498.56
714.782	7470.99
715.125	7424.44
715.469	7458.79
715.812	7371.33
716.156	7352.8
716.499	7389.18
716.843	7359.35
717.186	7379.69
717.53	7309.86
717.873	7352.35
718.216	7326.14
718.559	7302.86
718.902	7240.49
719.246	7259.92
719.589	7257.44
719.932	7243.2
720.275	7208.17
720.617	7243.43
720.96	7234.16
721.303	7197.78
721.646	7233.26
721.989	7122.3
722.331	7198.23
722.674	7157.55
723.016	7212.69
723.359	7146.03
723.701	7184.9
724.044	7142.19
724.386	7044.79
724.729	7190.32
725.071	7082.3
725.413	7094.5
725.755	7094.05
726.097	7074.16
726.439	7018.12
726.782	7081.4
727.124	7068.74
727.465	7052.24
727.807	7018.12
728.149	7032.81
728.491	7032.81
728.833	7061.28
729.175	7039.81
729.516	7045.24
729.858	7002.53
730.199	7011.79
730.541	7022.41
730.882	6991.45
731.224	7069.19
731.565	6988.52
731.906	7055.86
732.248	7019.25
732.589	6978.8
732.93	6971.34
733.271	6978.57
733.612	6985.35
733.953	7002.08
734.294	6996.65
734.635	6929.76
734.976	6994.62
735.317	6998.91
735.658	6988.74
735.999	6960.49
736.339	6958.46
736.68	7011.34
737.021	6911
737.361	6949.2
737.702	7012.47
738.042	6920.95
738.383	6977.44
738.723	6998.01
739.063	6954.17
739.404	6988.29
739.744	7006.82
740.084	7000.04
740.424	6976.77
740.764	6989.42
741.104	7092.24
741.444	6969.99
741.784	6993.94
742.124	7064.9
742.464	7084.11
742.804	7057.22
743.143	7104.9
743.483	7165.01
743.823	7037.1
744.162	7149.42
744.502	7123.43
744.841	7065.58
745.181	7189.87
745.52	7166.59
745.86	7242.75
746.199	7267.38
746.538	7250.88
746.877	7306.25
747.216	7295.18
747.556	7370.65
747.895	7331.33
748.234	7385.57
748.573	7445.45
748.911	7507.83
749.25	7532.23
749.589	7586.69
749.928	7656.3
750.267	7690.87
750.605	7728.61
750.944	7813.81
751.283	7781.49
751.621	7868.27
751.96	7946.23
752.298	8040.24
752.636	8115.04
752.975	8168.82
753.313	8236.85
753.651	8332.44
753.989	8385.32
754.327	8447.24
754.666	8506.44
755.004	8673.9
755.342	8704.86
755.679	8857.85
756.017	8942.14
756.355	8983.72
756.693	9038.86
757.031	9272.98
757.368	9319.53
757.706	9494.21
758.044	9556.58
758.381	9660.76
758.719	9740.76
759.056	9886.97
759.394	10010.81
759.731	10058.04
760.068	10166.29
760.405	10316.11
760.743	10389.11
761.08	10549.1
761.417	10607.86
761.754	10779.83
762.091	10912.93
762.428	11013.04
762.765	11162.42
763.102	11275.64
763.438	11385.46
763.775	11559.24
764.112	11648.96
764.449	11768.5
764.785	11917.65
765.122	12003.75
765.458	12004.66
