Data from hue_240_FLMS001491_00062.txt Node
Date: Tue Feb 07 16:35:47 GMT 2017
User: dcchb
Spectrometer: FLMS00149
Trigger mode: 0
Integration Time (sec): 2.000000E-2
Scans to average: 10
Electric dark correction enabled: true
Nonlinearity correction enabled: false
Boxcar width: 0
XAxis mode: Wavelengths
Number of Pixels in Spectrum: 2048
>>>>>Begin Spectral Data<<<<<
341.393	-10.56
341.776	-10.56
342.16	-10.56
342.543	-65.93
342.927	-58.93
343.31	-81.3
343.693	-57.8
344.077	-31.13
344.46	-48.76
344.843	-50.79
345.226	-40.17
345.61	-34.29
345.993	-39.04
346.376	-12.37
346.759	0.73
347.142	27.85
347.525	37.8
347.908	49.32
348.291	84.57
348.674	96.33
349.057	99.04
349.44	130.9
349.823	146.04
350.206	172.71
350.588	183.55
350.971	197.34
351.354	216.32
351.737	231.91
352.119	243.67
352.502	248.41
352.884	250.9
353.267	257.45
353.65	295.64
354.032	291.57
354.414	291.57
354.797	288.18
355.179	304.46
355.562	290.67
355.944	315.98
356.326	334.28
356.709	320.27
357.091	310.78
357.473	327.73
357.855	335.64
358.238	325.92
358.62	348.97
359.002	343.32
359.384	316.21
359.766	315.75
360.148	325.02
360.53	311.69
360.912	316.88
361.294	330.44
361.676	316.21
362.057	314.4
362.439	329.09
362.821	318.92
363.203	311.23
363.584	314.4
363.966	315.08
364.348	304
364.729	308.75
365.111	316.21
365.493	307.62
365.874	308.97
366.256	308.3
366.637	301.74
367.019	286.6
367.4	302.87
367.781	313.95
368.163	299.48
368.544	304.46
368.925	297.9
369.306	320.27
369.688	313.72
370.069	316.43
370.45	325.25
370.831	308.3
371.212	305.59
371.593	282.99
371.974	299.48
372.355	301.29
372.736	311.01
373.117	304
373.498	317.56
373.879	320.05
374.26	292.7
374.641	310.78
375.021	301.97
375.402	319.37
375.783	334.96
376.163	315.53
376.544	330.67
376.925	329.77
377.305	317.56
377.686	304.68
378.066	322.53
378.447	324.57
378.827	335.41
379.208	329.54
379.588	335.41
379.968	325.7
380.349	339.71
380.729	323.89
381.109	321.86
381.489	330.44
381.87	336.77
382.25	348.52
382.63	325.92
383.01	343.55
383.39	340.39
383.77	344
384.15	355.08
384.53	346.71
384.91	337.67
385.29	339.71
385.67	333.83
386.049	351.46
386.429	340.39
386.809	332.03
387.189	323.21
387.568	357.34
387.948	355.3
388.328	349.65
388.707	361.4
389.087	339.71
389.466	353.72
389.846	353.27
390.225	349.2
390.605	375.64
390.984	376.09
391.363	375.19
391.743	361.63
392.122	361.18
392.501	367.73
392.881	366.6
393.26	353.95
393.639	386.94
394.018	403.44
394.397	379.48
394.776	373.61
395.155	393.72
395.534	372.25
395.913	371.35
396.292	373.61
396.671	382.19
397.05	380.61
397.429	407.5
397.808	380.16
398.186	377.9
398.565	390.1
398.944	413.83
399.323	404.34
399.701	396.2
400.08	401.4
400.458	375.64
400.837	394.4
401.215	400.05
401.594	409.54
401.972	421.06
402.351	410.67
402.729	425.13
403.107	418.35
403.486	416.09
403.864	424
404.242	424.45
404.62	447.28
404.999	442.08
405.377	445.92
405.755	456.54
406.133	459.93
406.511	446.6
406.889	449.08
407.267	473.94
407.645	463.55
408.023	462.64
408.401	468.07
408.779	455.86
409.156	474.17
409.534	476.88
409.912	461.97
410.29	505.81
410.667	520.49
411.045	496.54
411.422	503.55
411.8	498.57
412.178	523.66
412.555	525.92
412.933	522.53
413.31	527.05
413.687	564.34
414.065	542.19
414.442	563.43
414.819	549.87
415.197	571.11
415.574	561.85
415.951	587.84
416.328	590.78
416.705	590.78
417.082	581.74
417.46	609.98
417.837	612.7
418.214	630.77
418.591	607.95
418.967	628.06
419.344	664.22
419.721	647.27
420.098	657.89
420.475	656.31
420.852	651.56
421.228	656.76
421.605	675.97
421.982	681.62
422.358	695.41
422.735	709.42
423.111	703.77
423.488	723.65
423.864	750.09
424.241	739.02
424.617	768.17
424.994	774.73
425.37	760.49
425.746	755.52
426.123	742.41
426.499	771.79
426.875	802.07
427.251	806.81
427.627	827.15
428.003	838.9
428.379	825.35
428.756	838.23
429.132	874.38
429.507	883.88
429.883	878
430.259	870.77
430.635	886.13
431.011	881.84
431.387	903.54
431.763	915.06
432.138	926.13
432.514	940.14
432.89	942.63
433.265	959.81
433.641	973.36
434.016	998
434.392	1006.81
434.767	1055.85
435.143	1044.55
435.518	1048.84
435.894	1052.46
436.269	1092.23
436.644	1078.9
437.02	1122.06
437.395	1124.32
437.77	1141.95
438.145	1174.26
438.52	1162.51
438.895	1167.94
439.271	1174.04
439.646	1183.98
440.021	1226.24
440.395	1239.8
440.77	1238.89
441.145	1241.61
441.52	1256.29
441.895	1285.67
442.27	1297.42
442.645	1288.61
443.019	1322.28
443.394	1307.59
443.769	1325.22
444.143	1336.74
444.518	1357.99
444.892	1353.47
445.267	1369.06
445.641	1346.46
446.016	1390.98
446.39	1388.27
446.764	1408.61
447.139	1425.33
447.513	1431.21
447.887	1433.92
448.262	1427.36
448.636	1448.38
449.01	1476.85
449.384	1480.7
449.758	1489.51
450.132	1538.32
450.506	1539.23
450.88	1538.77
451.254	1506.91
451.628	1535.16
452.002	1564.31
452.376	1551.2
452.75	1595.72
453.123	1573.57
453.497	1630.52
453.871	1631.88
454.244	1638.88
454.618	1638.21
454.992	1691.09
455.365	1700.35
455.739	1721.59
456.112	1753.23
456.486	1738.09
456.859	1774.47
457.232	1808.37
457.606	1785.77
457.979	1813.34
458.352	1858.99
458.725	1852.89
459.099	1879.78
459.472	1918.42
459.845	1939.89
460.218	1956.39
460.591	1945.32
460.964	1962.49
461.337	2001.13
461.71	2017.4
462.083	2047.01
462.456	2048.14
462.829	2077.29
463.201	2128.81
463.574	2086.33
463.947	2133.11
464.32	2167.46
464.692	2177.85
465.065	2202.48
465.438	2213.78
465.81	2235.7
466.183	2253.56
466.555	2299.66
466.928	2332.88
467.3	2321.35
467.672	2367.23
468.045	2423.72
468.417	2439.09
468.789	2428.69
469.161	2445.64
469.534	2488.13
469.906	2562.02
470.278	2570.38
470.65	2613.77
471.022	2611.29
471.394	2679.76
471.766	2663.26
472.138	2708.46
472.51	2782.13
472.882	2802.02
473.253	2834.11
473.625	2853.99
473.997	2939.19
474.369	2951.84
474.74	2949.13
475.112	3011.05
475.484	3041.78
475.855	3089.01
476.227	3086.98
476.598	3189.8
476.97	3213.08
477.341	3308.22
477.713	3324.94
478.084	3311.61
478.455	3397.93
478.827	3435.9
479.198	3539.4
479.569	3545.73
479.94	3626.4
480.311	3663.69
480.682	3705.5
481.053	3774.87
481.424	3818.26
481.795	3838.6
482.166	3924.7
482.537	3944.59
482.908	4024.58
483.279	4062.32
483.65	4127.86
484.021	4222.54
484.391	4297.8
484.762	4254.63
485.133	4270.9
485.503	4355.42
485.874	4382.77
486.244	4468.64
486.615	4506.83
486.985	4559.71
487.356	4596.55
487.726	4667.96
488.097	4690.78
488.467	4757.45
488.837	4848.06
489.207	4918.12
489.578	4994.28
489.948	4993.6
490.318	5055.52
490.688	5058.23
491.058	5145.01
491.428	5234.5
491.798	5268.84
492.168	5321.05
492.538	5347.71
492.908	5356.07
493.278	5476.07
493.648	5436.98
494.017	5541.38
494.387	5532.34
494.757	5568.27
495.126	5610.98
495.496	5652.34
495.866	5688.27
496.235	5714.71
496.605	5797.87
496.974	5770.07
497.344	5808.72
497.713	5857.53
498.082	5884.65
498.452	6003.97
498.821	5977.53
499.19	5963.29
499.559	6040.58
499.928	6061.37
500.298	6099.11
500.667	6109.95
501.036	6094.81
501.405	6166.22
501.774	6144.3
502.143	6300
502.512	6283.51
502.88	6304.75
503.249	6251.19
503.618	6272.21
503.987	6292.55
504.356	6370.74
504.724	6383.17
505.093	6398.53
505.462	6455.03
505.83	6479.43
506.199	6470.17
506.567	6560.79
506.936	6515.37
507.304	6630.39
507.672	6572.54
508.041	6677.17
508.409	6618.87
508.777	6679.43
509.145	6714.46
509.514	6724.63
509.882	6699.99
510.25	6776.38
510.618	6835.36
510.986	6766.43
511.354	6894.79
511.722	6852.31
512.09	6901.57
512.458	6913.1
512.826	6938.86
513.193	6950.16
513.561	6979.99
513.929	7016.82
514.297	7066.76
514.664	7096.37
515.032	7121
515.4	7143.6
515.767	7100.43
516.135	7142.47
516.502	7118.29
516.869	7236.25
517.237	7169.81
517.604	7195.35
517.972	7186.99
518.339	7250.94
518.706	7223.82
519.073	7265.85
519.44	7288.9
519.808	7359.19
520.175	7373.42
520.542	7417.94
520.909	7350.6
521.276	7415.68
521.643	7377.04
522.009	7447.77
522.376	7501.33
522.743	7440.09
523.11	7557.6
523.477	7611.16
523.843	7594.89
524.21	7652.51
524.577	7671.27
524.943	7680.98
525.31	7647.99
525.676	7674.66
526.043	7777.03
526.409	7707.65
526.776	7814.99
527.142	7724.83
527.508	7829.91
527.874	7834.65
528.241	7872.84
528.607	7860.41
528.973	7872.39
529.339	7916.46
529.705	7952.16
530.071	7977.25
530.437	7991.03
530.803	7945.38
531.169	7984.03
531.535	7962.78
531.901	7956.68
532.267	7924.82
532.632	8018.83
532.998	8004.59
533.364	8012.5
533.73	8054.31
534.095	8116.68
534.461	8085.72
534.826	7985.61
535.192	8097.24
535.557	8125.72
535.923	8040.75
536.288	8043.91
536.653	8050.24
537.019	7969.34
537.384	8086.85
537.749	8039.62
538.114	8037.36
538.479	7999.39
538.845	8027.87
539.21	8026.96
539.575	7962.11
539.94	8025.16
540.305	8019.73
540.67	7958.72
541.034	8011.15
541.399	8056.79
541.764	8032.61
542.129	8105.61
542.494	8023.35
542.858	8096.57
543.223	8046.85
543.587	8058.38
543.952	8043.23
544.316	8009.34
544.681	8011.6
545.045	8000.3
545.41	8002.56
545.774	8031.71
546.138	7989.68
546.503	7951.26
546.867	8001.2
547.231	8020.18
547.595	7978.38
547.959	7992.61
548.324	7976.8
548.688	7941.32
549.052	7934.76
549.416	7941.54
549.779	7945.38
550.143	7983.58
550.507	7974.99
550.871	7945.38
551.235	7908.1
551.599	7987.42
551.962	7972.28
552.326	7951.03
552.689	8008.21
553.053	7912.62
553.417	7876.46
553.78	7979.28
554.143	7981.54
554.507	7933.63
554.87	7893.86
555.234	8032.61
555.597	7965.5
555.96	8006.17
556.323	7984.93
556.686	7989
557.05	7964.14
557.413	7987.19
557.776	7950.13
558.139	8078.49
558.502	7979.06
558.865	8007.98
559.228	8108.32
559.59	8052.5
559.953	8088.66
560.316	8095.21
560.679	8112.84
561.041	8115.55
561.404	8120.52
561.767	8222.67
562.129	8095.44
562.492	8221.99
562.854	8186.06
563.217	8230.8
563.579	8184.93
563.941	8264.02
564.304	8279.39
564.666	8255.21
565.028	8290.91
565.39	8341.98
565.753	8416.56
566.115	8360.06
566.477	8328.88
566.839	8430.12
567.201	8417.91
567.563	8379.72
567.925	8454.3
568.287	8431.47
568.648	8441.64
569.01	8557.35
569.372	8540.4
569.734	8535.88
570.095	8555.54
570.457	8570.9
570.819	8564.8
571.18	8535.2
571.542	8694.97
571.903	8645.48
572.265	8665.37
572.626	8661.3
572.987	8707.85
573.349	8704.23
573.71	8758.24
574.071	8732.93
574.432	8783.1
574.794	8844.12
575.155	8849.99
575.516	8830.78
575.877	8790.56
576.238	8864.91
576.599	8951.69
576.96	8880.73
577.32	8900.61
577.681	8969.99
578.042	9012.25
578.403	8956.88
578.763	8972.02
579.124	8985.13
579.485	9038.24
579.845	9094.73
580.206	9021.74
580.566	9049.54
580.927	9069.65
581.287	9114.85
581.648	9096.99
582.008	9151.68
582.368	9075.75
582.728	9094.96
583.089	9141.96
583.449	9115.97
583.809	9186.93
584.169	9216.09
584.529	9210.89
584.889	9227.61
585.249	9152.81
585.609	9152.13
585.969	9240.94
586.329	9243.43
586.688	9224.9
587.048	9271.68
587.408	9280.72
587.768	9187.84
588.127	9235.52
588.487	9267.61
588.846	9319.81
589.206	9333.6
589.565	9189.87
589.925	9326.14
590.284	9270.1
590.643	9294.95
591.003	9376.76
591.362	9357.1
591.721	9294.95
592.08	9331.79
592.44	9382.41
592.799	9404.55
593.158	9379.24
593.517	9423.99
593.876	9382.63
594.235	9400.26
594.593	9344.44
594.952	9447.04
595.311	9413.37
595.67	9442.97
596.029	9483.65
596.387	9458.34
596.746	9481.84
597.104	9450.66
597.463	9461.5
597.822	9503.99
598.18	9463.08
598.538	9437.77
598.897	9470.99
599.255	9426.48
599.613	9613.36
599.972	9432.8
600.33	9478.68
600.688	9478.45
601.046	9455.18
601.404	9543.31
601.762	9499.69
602.12	9601.84
602.478	9534.72
602.836	9558.45
603.194	9499.92
603.552	9532.91
603.91	9561.84
604.268	9586.47
604.625	9595.28
604.983	9649.97
605.341	9523.42
605.698	9594.83
606.056	9568.39
606.413	9582.4
606.771	9600.26
607.128	9586.25
607.485	9613.14
607.843	9583.31
608.2	9673.25
608.557	9699.91
608.914	9610.43
609.272	9676.64
609.629	9658.11
609.986	9720.7
610.343	9636.87
610.7	9715.06
611.057	9748.73
611.414	9701.95
611.771	9684.55
612.127	9732.46
612.484	9735.39
612.841	9745.79
613.198	9687.26
613.554	9754.83
613.911	9814.71
614.267	9732
614.624	9682.51
614.98	9750.53
615.337	9805
615.693	9805.22
616.05	9814.71
616.406	9840.25
616.762	9847.03
617.118	9789.4
617.475	9827.37
617.831	9852.45
618.187	9911.66
618.543	9884.09
618.899	9932.45
619.255	9871.89
619.611	9877.99
619.967	9965.9
620.323	9976.29
620.678	9901.94
621.034	9844.77
621.39	9855.16
621.746	9888.84
622.101	9993.01
622.457	9878.67
622.812	9941.04
623.168	9924.99
623.523	9964.31
623.879	9987.14
624.234	9838.89
624.589	9957.08
624.945	9925.22
625.3	9920.02
625.655	9891.32
626.01	9962.51
626.365	9938.1
626.72	9915.73
627.075	9947.82
627.43	9974.71
627.785	9926.58
628.14	9946.91
628.495	9840.25
628.85	9880.93
629.205	9906.69
629.559	9885.45
629.914	9908.04
630.269	9869.63
630.623	9743.76
630.978	9837.76
631.332	9850.87
631.687	9825.33
632.041	9768.61
632.396	9857.42
632.75	9868.72
633.104	9884.32
633.459	9788.05
633.813	9742.85
634.167	9701.5
634.521	9793.25
634.875	9793.02
635.229	9706.47
635.583	9691.55
635.937	9727.71
636.291	9604.1
636.645	9674.38
636.999	9670.31
637.352	9667.6
637.706	9644.1
638.06	9637.32
638.413	9604.1
638.767	9588.73
639.121	9556.19
639.474	9556.19
639.828	9517.55
640.181	9581.95
640.534	9617.88
640.888	9485.91
641.241	9484.33
641.594	9512.8
641.947	9556.19
642.301	9501.05
642.654	9532.46
643.007	9517.55
643.36	9478.68
643.713	9468.06
644.066	9538.11
644.419	9481.39
644.771	9365.23
645.124	9346.93
645.477	9282.07
645.83	9218.8
646.182	9159.82
646.535	9206.37
646.888	9148.06
647.24	9151.45
647.593	9136.31
647.945	9116.65
648.298	9079.82
648.65	9087.28
649.002	9087.28
649.355	9135.86
649.707	8989.88
650.059	9157.33
650.411	9260.6
650.763	9252.47
651.115	9398.45
651.467	9383.99
651.819	9336.08
652.171	9352.13
652.523	9307.16
652.875	9330.88
653.227	9184.9
653.578	9325.46
653.93	9281.62
654.282	9277.78
654.633	9247.95
654.985	9229.42
655.337	9181.74
655.688	9299.47
656.039	9304.9
656.391	9141.74
656.742	9245.92
657.094	9245.92
657.445	9275.52
657.796	9265.35
658.147	9197.55
658.498	9256.76
658.849	9291.34
659.2	9231
659.551	9212.47
659.902	9333.37
660.253	9246.82
660.604	9236.65
660.955	9199.36
661.306	9239.36
661.656	9228.74
662.007	9285.01
662.358	9243.88
662.708	9248.85
663.059	9300.83
663.409	9232.36
663.76	9289.3
664.11	9200.04
664.461	9288.63
664.811	9290.43
665.161	9334.05
665.511	9229.19
665.862	9254.05
666.212	9266.93
666.562	9275.07
666.912	9263.09
667.262	9264.9
667.612	9219.7
667.962	9286.59
668.312	9247.95
668.662	9331.11
669.011	9220.38
669.361	9214.05
669.711	9265.58
670.06	9187.16
670.41	9187.39
670.76	9228.74
671.109	9256.54
671.459	9190.55
671.808	9149.65
672.157	9275.52
672.507	9147.61
672.856	9144.9
673.205	9119.14
673.554	9203.2
673.904	9151.68
674.253	9162.53
674.602	9137.9
674.951	9046.82
675.3	8989.42
675.649	9115.75
675.998	9142.19
676.346	9110.1
676.695	9093.83
677.044	9065.58
677.393	9157.33
677.741	9149.42
678.09	9056.09
678.438	9019.25
678.787	9078.01
679.135	9056.99
679.484	9024.9
679.832	9020.84
680.181	8959.37
680.529	9030.1
680.877	8969.76
681.225	8932.25
681.573	8981.06
681.922	8896.55
682.27	8965.92
682.618	8926.38
682.966	8888.41
683.314	8947.17
683.661	8870.78
684.009	8824.23
684.357	8786.49
684.705	8797.79
685.053	8835.76
685.4	8754.63
685.748	8717.12
686.095	8731.35
686.443	8656.1
686.79	8658.36
687.138	8673.5
687.485	8628.76
687.832	8605.03
688.18	8581.75
688.527	8611.81
688.874	8546.27
689.221	8544.24
689.568	8492.04
689.915	8441.19
690.262	8460.4
690.609	8458.59
690.956	8439.38
691.303	8449.55
691.65	8332.49
691.997	8344.02
692.344	8345.83
692.69	8356.22
693.037	8319.61
693.383	8223.34
693.73	8301.31
694.077	8246.62
694.423	8188.32
694.769	8200.52
695.116	8137.02
695.462	8159.84
695.808	8106.96
696.155	8152.38
696.501	8033.29
696.847	7998.04
697.193	7965.04
697.539	7953.52
697.885	7951.26
698.231	7915.33
698.577	7865.16
698.923	7836.23
699.269	7862.45
699.614	7757.59
699.96	7746.52
700.306	7763.69
700.651	7759.4
700.997	7692.06
701.342	7657.93
701.688	7691.83
702.033	7643.02
702.379	7648.22
702.724	7599.63
703.069	7612.06
703.415	7537.03
703.76	7546.52
704.105	7514.89
704.45	7529.8
704.795	7443.7
705.14	7514.21
705.485	7376.36
705.83	7386.53
706.175	7431.95
706.52	7342.01
706.865	7328.68
707.209	7338.17
707.554	7357.83
707.899	7342.91
708.243	7261.33
708.588	7224.05
708.932	7220.21
709.277	7182.47
709.621	7204.16
709.966	7181.56
710.31	7145.18
710.654	7135.91
710.998	7127.1
711.342	7131.39
711.687	7130.26
712.031	7029.02
712.375	7012.53
712.719	7044.62
713.063	6993.54
713.407	7086.65
713.75	6962.59
714.094	7042.58
714.438	6925.52
714.782	6963.26
715.125	6927.78
715.469	6976.37
715.812	6875.36
716.156	6914.68
716.499	6866.54
716.843	6839.88
717.186	6841.91
717.53	6910.38
717.873	6838.07
718.216	6802.14
718.559	6795.13
718.902	6771.18
719.246	6812.76
719.589	6765.98
719.932	6711.29
720.275	6728.24
720.617	6758.07
720.96	6751.52
721.303	6730.5
721.646	6710.16
721.989	6709.71
722.331	6679.88
722.674	6668.81
723.016	6741.35
723.359	6702.03
723.701	6690.95
724.044	6665.64
724.386	6629.71
724.729	6638.53
725.071	6683.27
725.413	6647.57
725.755	6645.31
726.097	6596.49
726.439	6543.16
726.782	6584.97
727.124	6625.64
727.465	6612.99
727.807	6611.41
728.149	6544.29
728.491	6570.73
728.833	6609.6
729.175	6572.54
729.516	6551.52
729.858	6564.4
730.199	6531.64
730.541	6507.91
730.882	6518.3
731.224	6559.88
731.565	6523.95
731.906	6486.21
732.248	6531.86
732.589	6517.85
732.93	6482.37
733.271	6540.9
733.612	6507.46
733.953	6503.39
734.294	6542.03
734.635	6474.24
734.976	6491.86
735.317	6482.37
735.658	6479.89
735.999	6493.67
736.339	6446.44
736.68	6506.33
737.021	6480.56
737.361	6548.58
737.702	6530.28
738.042	6540.22
738.383	6483.95
738.723	6533.9
739.063	6509.94
739.404	6485.31
739.744	6499.77
740.084	6461.13
740.424	6569.6
740.764	6516.5
741.104	6527.79
741.444	6460.23
741.784	6456.61
742.124	6543.39
742.464	6550.17
742.804	6560.34
743.143	6580
743.483	6567.12
743.823	6501.35
744.162	6613.44
744.502	6619.09
744.841	6616.38
745.181	6627.23
745.52	6638.53
745.86	6647.11
746.199	6702.71
746.538	6700.45
746.877	6772.76
747.216	6762.59
747.556	6786.77
747.895	6755.36
748.234	6822.02
748.573	6810.05
748.911	6850.95
749.25	6925.3
749.589	6947.9
749.928	6983.83
750.267	7041.91
750.605	7020.44
750.944	7096.14
751.283	7101.56
751.621	7204.84
751.96	7175.91
752.298	7273.31
752.636	7349.69
752.975	7339.07
753.313	7403.7
753.651	7534.77
753.989	7575.45
754.327	7600.76
754.666	7617.71
755.004	7747.65
755.342	7830.59
755.679	7898.38
756.017	7993.74
756.355	8083.69
756.693	8094.53
757.031	8216.34
757.368	8236.22
757.706	8321.65
758.044	8338.14
758.381	8521.64
758.719	8593.73
759.056	8680.05
759.394	8769.77
759.731	8874.85
760.068	8897.22
760.405	9006.37
760.743	9106.48
761.08	9200.94
761.417	9270.32
761.754	9348.06
762.091	9501.05
762.428	9504.44
762.765	9639.8
763.102	9765.68
763.438	9789.4
763.775	9813.13
764.112	9955.5
764.449	10062.84
764.785	10135.16
765.122	10181.26
765.458	10257.64
765.795	10321.37
766.131	10437.75
766.467	10505.77
766.804	10585.99
767.14	10517.29
767.476	10713.22
767.812	10720.45
768.148	10777.4
768.485	10831.41
768.821	10870.73
769.157	10921.58
769.492	11006.77
769.828	11151.4
