Data from hue_130_FLMS001491_00089.txt Node
Date: Tue Feb 07 16:58:13 GMT 2017
User: dcchb
Spectrometer: FLMS00149
Trigger mode: 0
Integration Time (sec): 2.000000E-2
Scans to average: 10
Electric dark correction enabled: true
Nonlinearity correction enabled: false
Boxcar width: 0
XAxis mode: Wavelengths
Number of Pixels in Spectrum: 2048
>>>>>Begin Spectral Data<<<<<
341.393	-9.69
341.776	-9.69
342.16	-9.69
342.543	-66.41
342.927	-75.45
343.31	-49.24
343.693	-61.67
344.077	-84.72
344.46	-53.53
344.843	-39.29
345.226	-54.66
345.61	-48.56
345.993	-18.28
346.376	0.71
346.759	11.33
347.142	26.92
347.525	38.22
347.908	61.5
348.291	63.98
348.674	93.81
349.057	113.47
349.44	114.15
349.823	140.14
350.206	172.68
350.588	199.8
350.971	213.81
351.354	222.62
351.737	234.37
352.119	274.82
352.502	255.84
352.884	279.79
353.267	277.08
353.65	303.75
354.032	301.26
354.414	317.76
354.797	310.53
355.179	316.4
355.562	307.59
355.944	334.71
356.326	338.78
356.709	332.45
357.091	330.19
357.473	347.36
357.855	357.76
358.238	363.41
358.62	327.48
359.002	330.42
359.384	337.87
359.766	340.36
360.148	342.62
360.53	344.65
360.912	339.45
361.294	354.37
361.676	328.38
362.057	339.23
362.439	333.58
362.821	330.19
363.203	333.8
363.584	330.42
363.966	304.65
364.348	314.6
364.729	324.99
365.111	324.77
365.493	328.38
365.874	310.3
366.256	317.08
366.637	334.93
367.019	327.93
367.4	326.35
367.781	320.92
368.163	340.36
368.544	313.47
368.925	315.27
369.306	318.89
369.688	330.19
370.069	312.11
370.45	333.13
370.831	318.44
371.212	303.07
371.593	328.38
371.974	314.37
372.355	312.79
372.736	333.13
373.117	325.67
373.498	328.16
373.879	314.14
374.26	318.21
374.641	329.29
375.021	325.44
375.402	330.19
375.783	321.83
376.163	341.04
376.544	336.29
376.925	337.65
377.305	315.95
377.686	330.87
378.066	323.41
378.447	326.57
378.827	331.32
379.208	336.06
379.588	338.32
379.968	332.22
380.349	352.79
380.729	338.1
381.109	327.7
381.489	336.97
381.87	360.02
382.25	374.93
382.63	344.88
383.01	331.77
383.39	350.98
383.77	353.47
384.15	358.44
384.53	349.4
384.91	363.41
385.29	338.78
385.67	339.45
386.049	358.21
386.429	356.18
386.809	359.79
387.189	368.15
387.568	349.17
387.948	356.4
388.328	357.31
388.707	363.18
389.087	357.53
389.466	356.86
389.846	372.22
390.225	376.52
390.605	376.52
390.984	382.39
391.363	387.36
391.743	402.96
392.122	393.92
392.501	400.7
392.881	380.13
393.26	389.4
393.639	381.49
394.018	392.56
394.397	384.65
394.776	404.54
395.155	398.89
395.534	379
395.913	384.2
396.292	414.03
396.671	409.73
397.05	396.63
397.429	404.09
397.808	402.96
398.186	410.19
398.565	391.2
398.944	399.11
399.323	415.38
399.701	413.35
400.08	423.97
400.458	400.92
400.837	390.98
401.215	411.32
401.594	416.51
401.972	409.51
402.351	421.71
402.729	409.96
403.107	428.27
403.486	411.54
403.864	418.55
404.242	418.77
404.62	417.64
404.999	427.81
405.377	446.12
405.755	440.02
406.133	439.11
406.511	452.22
406.889	465.55
407.267	433.92
407.645	437.98
408.023	441.37
408.401	467.13
408.779	448.6
409.156	469.17
409.534	465.33
409.912	459.23
410.29	470.3
410.667	484.31
411.045	458.77
411.422	471.88
411.8	476.85
412.178	489.28
412.555	506.91
412.933	484.08
413.31	481.37
413.687	505.78
414.065	510.75
414.442	510.07
414.819	495.83
415.197	516.17
415.574	511.65
415.951	517.53
416.328	510.75
416.705	519.34
417.082	498.55
417.46	517.98
417.837	518.66
418.214	532.44
418.591	526.12
418.967	549.84
419.344	526.79
419.721	499.45
420.098	549.17
420.475	552.33
420.852	526.57
421.228	555.72
421.605	559.11
421.982	556.4
422.358	564.31
422.735	561.82
423.111	563.86
423.488	568.83
423.864	543.74
424.241	581.03
424.617	567.02
424.994	575.61
425.37	584.65
425.746	588.26
426.123	587.13
426.499	600.01
426.875	601.37
427.251	599.11
427.627	620.58
428.003	620.35
428.379	624.64
428.756	635.49
429.132	650.18
429.507	636.85
429.883	650.63
430.259	648.82
430.635	647.92
431.011	657.86
431.387	672.1
431.763	659.67
432.138	656.96
432.514	680.01
432.89	675.94
433.265	692.44
433.641	686.79
434.016	709.84
434.392	710.07
434.767	738.77
435.143	728.37
435.518	750.29
435.894	736.73
436.269	702.16
436.644	744.42
437.02	752.32
437.395	750.07
437.77	783.51
438.145	790.06
438.52	798.88
438.895	782.83
439.271	793.45
439.646	792.78
440.021	821.93
440.395	800.69
440.77	800.46
441.145	821.48
441.52	818.54
441.895	809.72
442.27	822.83
442.645	824.19
443.019	834.58
443.394	849.95
443.769	860.8
444.143	865.54
444.518	861.25
444.892	877.07
445.267	874.13
445.641	873
446.016	892.66
446.39	884.07
446.764	889.72
447.139	904.41
447.513	900.8
447.887	919.78
448.262	887.69
448.636	903.73
449.01	949.83
449.384	907.8
449.758	960.45
450.132	939.66
450.506	950.29
450.88	964.97
451.254	962.94
451.628	976.95
452.002	995.48
452.376	979.89
452.75	990.06
453.123	1010.4
453.497	1026.67
453.871	1028.48
454.244	1032.77
454.618	1037.97
454.992	1065.99
455.365	1078.64
455.739	1095.82
456.112	1074.35
456.486	1089.94
456.859	1128.13
457.232	1146.66
457.606	1126.78
457.979	1125.42
458.352	1168.81
458.725	1168.13
459.099	1165.42
459.472	1229.37
459.845	1212.43
460.218	1247
460.591	1215.36
460.964	1260.79
461.337	1279.77
461.71	1314.34
462.083	1325.87
462.456	1305.76
462.829	1301.46
463.201	1348.02
463.574	1348.24
463.947	1368.81
464.32	1409.26
464.692	1396.83
465.065	1409.71
465.438	1438.41
465.81	1491.06
466.183	1487.67
466.555	1529.71
466.928	1532.64
467.3	1511.85
467.672	1594.34
468.045	1654.45
468.417	1632.53
468.789	1655.8
469.161	1668.91
469.534	1703.03
469.906	1719.08
470.278	1757.95
470.65	1775.35
471.022	1835.46
471.394	1899.87
471.766	1887.66
472.138	1909.81
472.51	1971.05
472.882	1985.96
473.253	2061.89
473.625	2108.9
473.997	2110.71
474.369	2170.37
474.74	2207.65
475.112	2256.92
475.484	2304.6
475.855	2363.13
476.227	2404.48
476.598	2454.43
476.97	2547.98
477.341	2593.18
477.713	2701.65
478.084	2714.76
478.455	2804.25
478.827	2858.94
479.198	2962.21
479.569	2984.13
479.94	3119.04
480.311	3135.31
480.682	3225.25
481.053	3356.78
481.424	3462.54
481.795	3545.47
482.166	3606.04
482.537	3755.64
482.908	3801.06
483.279	3906.37
483.65	3991.11
484.021	4175.96
484.391	4230.43
484.762	4331.21
485.133	4380.25
485.503	4488.5
485.874	4658.21
486.244	4765.78
486.615	4902.72
486.985	5014.81
487.356	5127.58
487.726	5242.6
488.097	5467.91
488.467	5497.06
488.837	5671.74
489.207	5788.58
489.578	5991.51
489.948	6074.9
490.318	6201
490.688	6259.75
491.058	6469.46
491.428	6607.76
491.798	6721.43
492.168	6935.89
492.538	7021.54
492.908	7228.76
493.278	7346.05
493.648	7448.65
494.017	7591.24
494.387	7675.08
494.757	7801.41
495.126	7933.6
495.496	8011.57
495.866	8203.43
496.235	8319.81
496.605	8353.25
496.974	8570.65
497.344	8722.96
497.713	8773.81
498.082	8947.82
498.452	9046.57
498.821	9129.28
499.19	9230.29
499.559	9379.89
499.928	9507.12
500.298	9596.39
500.667	9700.56
501.036	9753.9
501.405	9833.89
501.774	9962.48
502.143	10112.98
502.512	10074.11
502.88	10279.53
503.249	10353.2
503.618	10402.92
503.987	10438.62
504.356	10533.54
504.724	10658.51
505.093	10745.96
505.462	10766.98
505.83	10886.97
506.199	10964.71
506.567	11136.68
506.936	11169.45
507.304	11335.55
507.672	11301.43
508.041	11415.1
508.409	11524.92
508.777	11534.19
509.145	11649.67
509.514	11714.52
509.882	11827.51
510.25	11768.76
510.618	11859.15
510.986	11915.2
511.354	12026.38
511.722	12114.06
512.09	12153.61
512.458	12142.76
512.826	12290.78
513.193	12280.61
513.561	12338.23
513.929	12404.22
514.297	12550.88
514.664	12596.08
515.032	12598.79
515.4	12699.81
515.767	12713.82
516.135	12768.96
516.502	12672.92
516.869	12853.25
517.237	12929.63
517.604	12819.13
517.972	12983.42
518.339	13079.46
518.706	12903.42
519.073	12967.14
519.44	13100.47
519.808	13110.42
520.175	13157.65
520.542	13231.32
520.909	13331.43
521.276	13288.04
521.643	13343.86
522.009	13388.38
522.376	13469.73
522.743	13440.58
523.11	13503.85
523.477	13583.4
523.843	13645.77
524.21	13727.58
524.577	13784.52
524.943	13783.17
525.31	13743.85
525.676	13939.1
526.043	13904.07
526.409	13907.01
526.776	13994.24
527.142	13918.53
527.508	13945.42
527.874	14052.31
528.241	14026.33
528.607	13994.69
528.973	14085.31
529.339	14063.39
529.705	14136.38
530.071	14135.02
530.437	14200.11
530.803	14216.38
531.169	14170.05
531.535	14192.65
531.901	14181.58
532.267	14094.8
532.632	14154.01
532.998	14136.83
533.364	14157.17
533.73	14140
534.095	14231.97
534.461	14168.47
534.826	14169.37
535.192	14146.77
535.557	14200.11
535.923	14085.99
536.288	14134.8
536.653	14139.09
537.019	14048.25
537.384	14106.55
537.749	14061.13
538.114	13989.49
538.479	13932.32
538.845	13980
539.21	13879.89
539.575	13994.24
539.94	13940.68
540.305	13954.46
540.67	13852.32
541.034	13904.52
541.399	13840.79
541.764	13740.46
542.129	13747.46
542.494	13744.53
542.858	13724.19
543.223	13618.65
543.587	13781.13
543.952	13669.73
544.316	13598.77
544.681	13585.43
545.045	13642.61
545.41	13551.31
545.774	13500.24
546.138	13477.41
546.503	13543.63
546.867	13406.23
547.231	13465.89
547.595	13457.08
547.959	13416.4
548.324	13433.57
548.688	13282.62
549.052	13277.19
549.416	13281.03
549.779	13255.27
550.143	13143.64
550.507	13245.1
550.871	13133.02
551.235	13091.44
551.599	13193.13
551.962	13040.59
552.326	13085.56
552.689	13089.63
553.053	13074.26
553.417	12951.78
553.78	13115.16
554.143	13002.62
554.507	12995.62
554.87	13001.95
555.234	13066.35
555.597	12890.08
555.96	12951.1
556.323	12837.66
556.686	12907.03
557.05	12943.64
557.413	12868.39
557.776	12890.99
558.139	12928.95
558.502	12916.3
558.865	12795.17
559.228	12915.39
559.59	12861.84
559.953	12860.26
560.316	12911.1
560.679	12895.73
561.041	12909.07
561.404	12951.78
561.767	13086.24
562.129	12948.84
562.492	13041.27
562.854	12976.86
563.217	12944.09
563.579	12985.9
563.941	12976.41
564.304	13041.27
564.666	12965.11
565.028	13000.82
565.39	12978.9
565.753	13105.22
566.115	13025.67
566.477	13088.72
566.839	13104.99
567.201	13102.73
567.563	13148.61
567.925	13137.08
568.287	13214.6
568.648	13186.35
569.01	13140.7
569.372	13180.92
569.734	13132.34
570.095	13228.83
570.457	13213.47
570.819	13234.26
571.18	13126.91
571.542	13274.71
571.903	13359.45
572.265	13376.17
572.626	13338.66
572.987	13344.08
573.349	13379.79
573.71	13338.66
574.071	13388.83
574.432	13330.98
574.794	13519.67
575.155	13500.69
575.516	13401.71
575.877	13391.54
576.238	13492.55
576.599	13462.73
576.96	13448.94
577.32	13473.57
577.681	13434.7
578.042	13481.03
578.403	13480.13
578.763	13467.7
579.124	13436.51
579.485	13534.14
579.845	13549.28
580.206	13408.04
580.566	13495.27
580.927	13534.81
581.287	13556.51
581.648	13495.94
582.008	13528.49
582.368	13474.25
582.728	13408.04
583.089	13430.18
583.449	13445.1
583.809	13483.06
584.169	13457.08
584.529	13374.82
584.889	13548.82
585.249	13409.62
585.609	13336.85
585.969	13468.37
586.329	13345.67
586.688	13520.8
587.048	13402.61
587.408	13409.39
587.768	13396.74
588.127	13347.7
588.487	13242.84
588.846	13387.47
589.206	13315.38
589.565	13242.17
589.925	13332.79
590.284	13207.14
590.643	13348.38
591.003	13314.48
591.362	13299.57
591.721	13250.98
592.08	13308.6
592.44	13292.79
592.799	13262.05
593.158	13269.51
593.517	13301.15
593.876	13308.83
594.235	13173.02
594.593	13199.91
594.952	13190.19
595.311	13240.58
595.67	13287.81
596.029	13293.69
596.387	13301.83
596.746	13312.22
597.104	13156.74
597.463	13194.26
597.822	13255.05
598.18	13160.36
598.538	13123.52
598.897	13187.03
599.255	13145.9
599.613	13295.95
599.972	13109.06
600.33	13265.44
600.688	13192
601.046	13122.85
601.404	13291.88
601.762	13234.03
602.12	13298.66
602.478	13239.68
602.836	13341.15
603.194	13257.53
603.552	13121.04
603.91	13213.01
604.268	13213.69
604.625	13178.21
604.983	13223.41
605.341	13152.9
605.698	13171.66
606.056	13150.64
606.413	13270.19
606.771	13156.74
607.128	13267.25
607.485	13234.93
607.843	13212.34
608.2	13215.5
608.557	13220.25
608.914	13228.61
609.272	13335.72
609.629	13344.08
609.986	13296.18
610.343	13286.46
610.7	13408.72
611.057	13361.71
611.414	13341.15
611.771	13309.51
612.127	13370.3
612.484	13388.15
612.841	13428.6
613.198	13336.63
613.554	13451.43
613.911	13389.73
614.267	13413.91
614.624	13433.57
614.98	13414.59
615.337	13415.49
615.693	13498.66
616.05	13463.63
616.406	13441.48
616.762	13468.37
617.118	13410.98
617.475	13509.5
617.831	13512.44
618.187	13504.08
618.543	13556.51
618.899	13476.06
619.255	13593.57
619.611	13517.86
619.967	13554.25
620.323	13696.17
620.678	13622.72
621.034	13488.04
621.39	13557.41
621.746	13534.36
622.101	13714.7
622.457	13684.64
622.812	13603.51
623.168	13617.3
623.523	13578.65
623.879	13695.04
624.234	13609.16
624.589	13593.57
624.945	13599.67
625.3	13545.43
625.655	13722.15
626.01	13543.85
626.365	13644.64
626.72	13596.05
627.075	13527.58
627.43	13655.26
627.785	13622.95
628.14	13627.92
628.495	13581.82
628.85	13645.32
629.205	13506.79
629.559	13537.3
629.914	13514.25
630.269	13587.02
630.623	13518.09
630.978	13473.57
631.332	13522.84
631.687	13444.65
632.041	13480.58
632.396	13513.57
632.75	13427.25
633.104	13536.62
633.459	13407.59
633.813	13366
634.167	13408.04
634.521	13445.32
634.875	13391.99
635.229	13353.35
635.583	13359.68
635.937	13311.09
636.291	13284.65
636.645	13325.33
636.999	13217.08
637.352	13237.19
637.706	13260.92
638.06	13231.32
638.413	13209.62
638.767	13233.8
639.121	13218.44
639.474	13057.31
639.828	13088.5
640.181	13162.17
640.534	13156.29
640.888	13055.28
641.241	13001.72
641.594	13014.38
641.947	13075.39
642.301	13055.05
642.654	13060.48
643.007	13060.7
643.36	12960.59
643.713	13034.04
644.066	13073.36
644.419	12948.61
644.771	12921.95
645.124	12808.51
645.477	12718.79
645.83	12695.74
646.182	12694.16
646.535	12631.79
646.888	12599.47
647.24	12570.77
647.593	12631.11
647.945	12580.49
648.298	12516.99
648.65	12588.62
649.002	12560.38
649.355	12607.83
649.707	12556.08
650.059	12621.84
650.411	12719.47
650.763	12731.9
651.115	12839.69
651.467	12872.01
651.819	12867.71
652.171	12926.24
652.523	12780.03
652.875	12799.01
653.227	12754.04
653.578	12870.65
653.93	12841.5
654.282	12839.92
654.633	12716.3
654.985	12808.96
655.337	12829.07
655.688	12910.65
656.039	12887.15
656.391	12800.37
656.742	12778
657.094	12804.44
657.445	12868.62
657.796	12781.84
658.147	12748.39
658.498	12814.38
658.849	12838.33
659.2	12757.21
659.551	12799.24
659.902	12886.02
660.253	12820.93
660.604	12806.7
660.955	12736.64
661.306	12843.98
661.656	12877.2
662.007	12821.61
662.358	12794.72
662.708	12817.54
663.059	12895.28
663.409	12824.32
663.76	12877.2
664.11	12798.79
664.461	12853.93
664.811	12934.15
665.161	12873.59
665.511	12842.63
665.862	12886.7
666.212	12924.21
666.562	12895.73
666.912	12839.92
667.262	12866.13
667.612	12815.96
667.962	12975.28
668.312	12918.11
668.662	12885.11
669.011	12823.42
669.361	12823.42
669.711	12859.58
670.06	12796.75
670.41	12787.71
670.76	12826.58
671.109	12842.63
671.459	12862.74
671.808	12796.08
672.157	12767.6
672.507	12705.91
672.856	12720.15
673.205	12727.6
673.554	12750.2
673.904	12656.64
674.253	12899.58
674.602	12789.75
674.951	12658.68
675.3	12494.61
675.649	12727.38
675.998	12641.73
676.346	12641.73
676.695	12705.46
677.044	12651
677.393	12711.56
677.741	12652.58
678.09	12657.1
678.438	12632.24
678.787	12601.28
679.135	12564.44
679.484	12537.55
679.832	12608.28
680.181	12464.11
680.529	12552.24
680.877	12465.24
681.225	12439.25
681.573	12485.12
681.922	12397.44
682.27	12378.01
682.618	12381.62
682.966	12382.3
683.314	12391.34
683.661	12320.16
684.009	12200.39
684.357	12288.07
684.705	12152.48
685.053	12245.13
685.4	12278.35
685.748	12100.05
686.095	12070.67
686.443	12013.72
686.79	12002.65
687.138	12072.03
687.485	12109.09
687.832	12010.79
688.18	11920.17
688.527	11965.82
688.874	11800.17
689.221	11895.31
689.568	11935.31
689.915	11808.08
690.262	11815.08
690.609	11757.01
690.956	11765.14
691.303	11718.36
691.65	11611.93
691.997	11663.9
692.344	11538.03
692.69	11570.57
693.037	11507.07
693.383	11447.18
693.73	11554.3
694.077	11404.02
694.423	11306.85
694.769	11378.49
695.116	11372.61
695.462	11278.15
695.808	11189.56
696.155	11239.73
696.501	11096.01
696.847	11188.21
697.193	11010.36
697.539	10945.28
697.885	10926.29
698.231	10951.6
698.577	10940.53
698.923	10905.73
699.269	10876.8
699.614	10782.34
699.96	10696.47
700.306	10773.53
700.651	10715.9
700.997	10686.98
701.342	10665.28
701.688	10654.89
702.033	10598.17
702.379	10523.37
702.724	10531.28
703.069	10490.6
703.415	10411.73
703.76	10402.24
704.105	10381
704.45	10362.02
704.795	10282.24
705.14	10211.29
705.485	10234.34
705.83	10169.48
706.175	10175.58
706.52	10176.94
706.865	10076.6
707.209	10056.94
707.554	10040.67
707.899	10101.01
708.243	10041.57
708.588	9990.5
708.932	9921.58
709.277	9876.15
709.621	9875.93
709.966	9786.66
710.31	9823.95
710.654	9713.45
710.998	9750.51
711.342	9718.64
711.687	9780.56
712.031	9722.48
712.375	9644.97
712.719	9680.68
713.063	9635.48
713.407	9683.84
713.75	9667.34
714.094	9627.57
714.438	9550.51
714.782	9531.98
715.125	9508.93
715.469	9557.97
715.812	9471.19
716.156	9446.79
716.499	9451.76
716.843	9471.19
717.186	9425.32
717.53	9453.34
717.873	9397.75
718.216	9416.28
718.559	9316.17
718.902	9299.9
719.246	9333.12
719.589	9231.65
719.932	9251.08
720.275	9299.44
720.617	9297.41
720.96	9231.2
721.303	9278.43
721.646	9287.02
721.989	9263.74
722.331	9249.95
722.674	9160.92
723.016	9198.43
723.359	9175.83
723.701	9193.01
724.044	9126.34
724.386	9103.29
724.729	9104.42
725.071	9181.26
725.413	9089.96
725.755	9169.28
726.097	9077.3
726.439	9033.46
726.782	9058.1
727.124	9080.24
727.465	9137.19
727.807	9039.79
728.149	9027.59
728.491	8981.26
728.833	9049.73
729.175	9057.19
729.516	9062.61
729.858	8970.41
730.199	9027.36
730.541	9059.68
730.882	8974.93
731.224	9059
731.565	8970.19
731.906	9033.92
732.248	9007.93
732.589	9000.92
732.93	8913.69
733.271	8955.27
733.612	9047.25
733.953	9054.03
734.294	8977.65
734.635	9003.18
734.976	9006.8
735.317	8955.72
735.658	9043.86
735.999	9002.96
736.339	8933.35
736.68	9071.88
737.021	9016.51
737.361	8924.54
737.702	8979
738.042	8984.65
738.383	8905.78
738.723	8979
739.063	8968.61
739.404	9093.12
739.744	9054.93
740.084	8952.34
740.424	9028.27
740.764	9064.2
741.104	9138.32
741.444	9074.14
741.784	9094.93
742.124	9102.61
742.464	9073.24
742.804	9085.89
743.143	9176.96
743.483	9170.41
743.823	9141.93
744.162	9177.87
744.502	9293.12
744.841	9249.05
745.181	9303.74
745.52	9313.23
745.86	9348.48
746.199	9372.21
746.538	9400.01
746.877	9451.08
747.216	9533.56
747.556	9540.79
747.895	9589.38
748.234	9629.61
748.573	9678.87
748.911	9669.38
749.25	9830.5
749.589	9870.73
749.928	9878.86
750.267	10004.96
750.605	10046.32
750.944	10161.34
751.283	10204.28
751.621	10325.41
751.96	10343.71
752.298	10425.74
752.636	10489.24
752.975	10662.8
753.313	10681.56
753.651	10836.35
753.989	10817.6
754.327	10960.42
754.666	11111.37
755.004	11211.94
755.342	11278.15
755.679	11449.22
756.017	11571.7
756.355	11801.07
756.693	11821.64
757.031	12088.75
757.368	12120.84
757.706	12204.68
758.044	12396.09
758.381	12507.04
758.719	12740.26
