Data from hue_350_FLMS001491_68.txt Node
Date: Mon Feb 06 15:38:22 GMT 2017
User: dcchb
Spectrometer: FLMS00149
Trigger mode: 0
Integration Time (sec): 2.000000E-2
Scans to average: 10
Electric dark correction enabled: true
Nonlinearity correction enabled: false
Boxcar width: 0
XAxis mode: Wavelengths
Number of Pixels in Spectrum: 2048
>>>>>Begin Spectral Data<<<<<
341.393	-15.3
341.776	-15.3
342.16	-15.3
342.543	-82.41
342.927	-75.18
343.31	-37.22
343.693	-63.43
344.077	-59.14
344.46	-49.65
344.843	-58.46
345.226	-60.94
345.61	-55.3
345.993	-31.57
346.376	0.07
346.759	10.69
347.142	8.88
347.525	46.4
347.908	65.61
348.291	82.33
348.674	82.33
349.057	119.39
349.44	123.91
349.823	146.51
350.206	179.5
350.588	203.91
350.971	204.13
351.354	236.9
351.737	225.38
352.119	234.64
352.502	245.71
352.884	282.78
353.267	264.02
353.65	284.81
354.032	294.07
354.414	304.47
354.797	324.13
355.179	325.49
355.562	329.78
355.944	327.52
356.326	320.29
356.709	350.57
357.091	327.07
357.473	326.39
357.855	334.98
358.238	321.42
358.62	324.13
359.002	351.7
359.384	326.62
359.766	336.78
360.148	326.16
360.53	331.14
360.912	332.49
361.294	326.39
361.676	314.64
362.057	329.33
362.439	341.76
362.821	365.48
363.203	314.19
363.584	330.23
363.966	310.12
364.348	315.77
364.729	292.27
365.111	319.61
365.493	326.39
365.874	331.59
366.256	317.58
366.637	304.02
367.019	301.98
367.4	303.79
367.781	314.41
368.163	316.45
368.544	292.72
368.925	302.89
369.306	305.83
369.688	294.98
370.069	306.28
370.45	298.82
370.831	304.7
371.212	311.7
371.593	310.8
371.974	299.95
372.355	286.84
372.736	321.19
373.117	286.62
373.498	298.37
373.879	322.1
374.26	331.81
374.641	327.07
375.021	310.8
375.402	317.12
375.783	322.1
376.163	304.24
376.544	310.12
376.925	314.86
377.305	306.73
377.686	341.53
378.066	306.5
378.447	318.48
378.827	346.95
379.208	303.11
379.588	345.37
379.968	315.77
380.349	313.51
380.729	310.57
381.109	340.4
381.489	344.69
381.87	335.2
382.25	324.13
382.63	334.07
383.01	323.9
383.39	343.56
383.77	329.33
384.15	333.17
384.53	347.86
384.91	324.36
385.29	354.41
385.67	340.17
386.049	339.27
386.429	331.59
386.809	358.03
387.189	332.27
387.568	360.06
387.948	363.68
388.328	347.18
388.707	337.69
389.087	334.53
389.466	337.91
389.846	335.88
390.225	359.16
390.605	364.81
390.984	350.57
391.363	344.92
391.743	347.63
392.122	345.15
392.501	350.12
392.881	346.95
393.26	359.84
393.639	361.64
394.018	347.63
394.397	360.74
394.776	370
395.155	355.99
395.534	366.39
395.913	367.52
396.292	371.36
396.671	377.46
397.05	364.13
397.429	389.89
397.808	386.28
398.186	372.04
398.565	365.48
398.944	384.92
399.323	368.65
399.701	381.76
400.08	387.86
400.458	409.1
400.837	384.47
401.215	382.21
401.594	392.6
401.972	384.92
402.351	404.81
402.729	407.74
403.107	408.87
403.486	400.74
403.864	397.57
404.242	400.74
404.62	387.86
404.999	411.13
405.377	384.92
405.755	389.21
406.133	391.25
406.511	397.12
406.889	410.91
407.267	397.35
407.645	407.97
408.023	397.8
408.401	415.2
408.779	416.56
409.156	412.72
409.534	433.28
409.912	426.5
410.29	433.96
410.667	437.12
411.045	417.01
411.422	419.95
411.8	446.16
412.178	438.25
412.555	455.65
412.933	424.69
413.31	453.84
413.687	452.04
414.065	437.57
414.442	474.18
414.819	461.98
415.197	465.6
415.574	468.98
415.951	469.66
416.328	493.62
416.705	471.7
417.082	490
417.46	480.51
417.837	487.74
418.214	476.44
418.591	504.92
418.967	501.07
419.344	513.96
419.721	510.79
420.098	506.72
420.475	513.96
420.852	519.83
421.228	525.48
421.605	529.1
421.982	528.42
422.358	522.77
422.735	519.38
423.111	547.4
423.488	531.58
423.864	547.17
424.241	546.95
424.617	535.2
424.994	531.13
425.37	541.53
425.746	532.03
426.123	553.95
426.499	561.86
426.875	573.16
427.251	567.51
427.627	582.2
428.003	587.17
428.379	577
428.756	570.9
429.132	570.9
429.507	601.86
429.883	594.63
430.259	604.8
430.635	617.46
431.011	604.12
431.387	637.79
431.763	630.79
432.138	635.76
432.514	612.94
432.89	642.31
433.265	649.32
433.641	653.61
434.016	641.86
434.392	644.8
434.767	662.2
435.143	664.46
435.518	671.69
435.894	695.19
436.269	664.46
436.644	673.5
437.02	680.73
437.395	701.97
437.77	699.26
438.145	695.42
438.52	705.59
438.895	707.17
439.271	753.05
439.646	708.3
440.021	720.73
440.395	738.13
440.77	741.75
441.145	732.48
441.52	721.86
441.895	750.33
442.27	740.84
442.645	774.29
443.019	746.72
443.394	759.82
443.769	779.94
444.143	768.41
444.518	765.7
444.892	791.91
445.267	777.45
445.641	788.3
446.016	785.59
446.39	776.77
446.764	791.91
447.139	811.12
447.513	791.24
447.887	796.43
448.262	802.76
448.636	824
449.01	819.03
449.384	808.18
449.758	826.26
450.132	846.15
450.506	843.66
450.88	840.73
451.254	817.22
451.628	838.92
452.002	828.75
452.376	860.61
452.75	868.75
453.123	867.17
453.497	876.88
453.871	879.14
454.244	887.28
454.618	905.13
454.992	887.28
455.365	905.58
455.739	923.44
456.112	908.97
456.486	934.51
456.859	929.09
457.232	968.18
457.606	958.69
457.979	948.29
458.352	983.1
458.725	992.36
459.099	987.16
459.472	999.82
459.845	1005.92
460.218	1033.94
460.591	1019.25
460.964	1025.13
461.337	1040.04
461.71	1058.57
462.083	1071.23
462.456	1046.14
462.829	1077.33
463.201	1070.78
463.574	1095.86
463.947	1090.44
464.32	1118.23
464.692	1131.34
465.065	1105.35
465.438	1135.41
465.81	1160.94
466.183	1170.44
466.555	1205.46
466.928	1216.54
467.3	1214.05
467.672	1206.37
468.045	1233.48
468.417	1251.34
468.789	1242.98
469.161	1257.66
469.534	1259.47
469.906	1314.84
470.278	1327.95
470.65	1334.05
471.022	1358.9
471.394	1361.39
471.766	1388.96
472.138	1390.32
472.51	1408.85
472.882	1426.25
473.253	1463.53
473.625	1479.81
473.997	1500.37
474.369	1503.31
474.74	1525.91
475.112	1565.68
475.484	1576.75
475.855	1581.95
476.227	1608.84
476.598	1627.82
476.97	1677.77
477.341	1687.03
477.713	1721.61
478.084	1756.41
478.455	1767.93
478.827	1826.92
479.198	1846.58
479.569	1867.14
479.94	1924.77
480.311	1910.3
480.682	1975.16
481.053	2004.76
481.424	2023.07
481.795	2057.42
482.166	2074.59
482.537	2110.75
482.908	2171.76
483.279	2189.17
483.65	2214.93
484.021	2258.54
484.391	2310.29
484.762	2296.51
485.133	2307.35
485.503	2361.14
485.874	2395.71
486.244	2402.72
486.615	2491.76
486.985	2528.37
487.356	2574.24
487.726	2562.49
488.097	2617.18
488.467	2623.73
488.837	2710.06
489.207	2755.25
489.578	2792.09
489.948	2801.35
490.318	2849.49
490.688	2842.48
491.058	2913.44
491.428	2930.84
491.798	2994.12
492.168	3042.7
492.538	3029.14
492.908	3048.35
493.278	3094.68
493.648	3139.2
494.017	3170.83
494.387	3222.58
494.757	3188.69
495.126	3274.79
495.496	3298.74
495.866	3302.81
496.235	3334.9
496.605	3371.06
496.974	3350.72
497.344	3447.44
497.713	3425.29
498.082	3429.58
498.452	3476.36
498.821	3462.35
499.19	3514.1
499.559	3536.7
499.928	3596.59
500.298	3566.08
500.667	3637.72
501.036	3609.02
501.405	3637.94
501.774	3631.84
502.143	3700.31
502.512	3701.22
502.88	3713.65
503.249	3765.4
503.618	3780.99
503.987	3801.78
504.356	3798.39
504.724	3799.74
505.093	3854.43
505.462	3883.81
505.83	3864.83
506.199	3880.87
506.567	3929.46
506.936	3948.44
507.304	3980.53
507.672	4010.59
508.041	3994.54
508.409	4022.56
508.777	4033.18
509.145	4051.26
509.514	4047.42
509.882	4116.57
510.25	4095.33
510.618	4156.35
510.986	4153.18
511.354	4165.38
511.722	4205.38
512.09	4226.85
512.458	4211.03
512.826	4243.8
513.193	4231.6
513.561	4263.46
513.929	4302.33
514.297	4291.26
514.664	4337.13
515.032	4304.14
515.4	4342.33
515.767	4345.04
516.135	4407.64
516.502	4347.53
516.869	4447.41
517.237	4434.08
517.604	4465.04
517.972	4477.92
518.339	4477.47
518.706	4504.36
519.073	4495.77
519.44	4502.1
519.808	4590.01
520.175	4558.14
520.542	4549.56
520.909	4619.61
521.276	4621.19
521.643	4611.93
522.009	4707.52
522.376	4677.46
522.743	4716.33
523.11	4720.4
523.477	4705.48
523.843	4787.52
524.21	4809.89
524.577	4862.54
524.943	4859.83
525.31	4875.2
525.676	4894.41
526.043	4948.42
526.409	4893.5
526.776	4988.87
527.142	4977.34
527.508	4976.89
527.874	5049.2
528.241	5079.26
528.607	5083.33
528.973	5069.09
529.339	5095.3
529.705	5153.83
530.071	5160.39
530.437	5228.63
530.803	5222.53
531.169	5246.71
531.535	5241.97
531.901	5294.17
532.267	5287.16
532.632	5339.37
532.998	5358.12
533.364	5387.73
533.73	5400.83
534.095	5424.11
534.461	5438.8
534.826	5482.41
535.192	5467.05
535.557	5559.47
535.923	5535.97
536.288	5533.26
536.653	5534.16
537.019	5610.32
537.384	5576.65
537.749	5626.59
538.114	5678.11
538.479	5679.92
538.845	5674.95
539.21	5712.91
539.575	5746.13
539.94	5749.75
540.305	5782.29
540.67	5772.35
541.034	5816.64
541.399	5841.05
541.764	5892.8
542.129	5882.85
542.494	5876.98
542.858	5980.7
543.223	5955.62
543.587	5988.16
543.952	5996.52
544.316	6055.73
544.681	6066.8
545.045	6087.82
545.41	6133.69
545.774	6184.54
546.138	6157.65
546.503	6160.59
546.867	6141.83
547.231	6196.07
547.595	6295.72
547.959	6292.56
548.324	6279
548.688	6342.95
549.052	6345.21
549.416	6296.85
549.779	6374.82
550.143	6358.1
550.507	6436.74
550.871	6441.26
551.235	6420.69
551.599	6504.31
551.962	6433.35
552.326	6514.02
552.689	6563.51
553.053	6530.07
553.417	6542.95
553.78	6655.04
554.143	6643.29
554.507	6651.87
554.87	6641.03
555.234	6715.83
555.597	6683.74
555.96	6718.31
556.323	6802.38
556.686	6730.06
557.05	6758.54
557.413	6808.71
557.776	6800.12
558.139	6820.46
558.502	6830.4
558.865	6862.26
559.228	6967.8
559.59	6938.87
559.953	6902.71
560.316	6987.68
560.679	7014.58
561.041	7061.58
561.404	7036.27
561.767	7122.37
562.129	7084.86
562.492	7119.43
562.854	7113.56
563.217	7159.43
563.579	7162.59
563.941	7249.6
564.304	7206.43
564.666	7320.33
565.028	7273.55
565.39	7313.78
565.753	7345.41
566.115	7363.04
566.477	7407.33
566.839	7388.12
567.201	7472.87
567.563	7465.64
567.925	7560.32
568.287	7541.57
568.648	7573.43
569.01	7594.22
569.372	7707.66
569.734	7641.23
570.095	7727.1
570.457	7713.77
570.819	7782.24
571.18	7756.25
571.542	7851.84
571.903	7797.38
572.265	7941.56
572.626	7932.52
572.987	7998.96
573.349	8072.85
573.71	8088.67
574.071	8109.24
574.432	8105.62
574.794	8203.47
575.155	8283.24
575.516	8248.89
575.877	8387.65
576.238	8381.77
576.599	8460.64
576.96	8500.64
577.32	8597.58
577.681	8686.4
578.042	8773.63
578.403	8797.35
578.763	8904.7
579.124	8983.11
579.485	9059.49
579.845	9167.97
580.206	9212.48
580.566	9351.92
580.927	9442.99
581.287	9608.63
581.648	9632.59
582.008	9827.61
582.368	9915.97
582.728	10051.78
583.089	10211.78
583.449	10299.01
583.809	10406.8
584.169	10666.91
584.529	10728.6
584.889	10999.56
585.249	11193.67
585.609	11242.49
585.969	11532.87
586.329	11596.6
586.688	11893.54
587.048	12119.3
587.408	12221.67
587.768	12475
588.127	12658.49
588.487	12768.1
588.846	13204.92
589.206	13339.15
589.565	13557.68
589.925	13932.81
590.284	14048.51
590.643	14309.98
591.003	14547.48
591.362	14935.5
591.721	15095.49
592.08	15323.96
592.44	15678.53
592.799	15909.48
593.158	16203.26
593.517	16410.94
593.876	16718.73
594.235	16993.3
594.593	17323.23
594.952	17609.33
595.311	17906.49
595.67	18175.64
596.029	18488.62
596.387	18828.5
596.746	19062.17
597.104	19387.58
597.463	19568.37
597.822	19906.67
598.18	20136.26
598.538	20336.49
598.897	20801.33
599.255	20917.71
599.613	21510.01
599.972	21641.54
600.33	22013.5
600.688	22071.81
601.046	22529.42
601.404	22837.66
601.762	23117.88
602.12	23578.21
602.478	23661.14
602.836	23957.18
603.194	24145.65
603.552	24471.29
603.91	24646.88
604.268	24992.41
604.625	25214.1
604.983	25591.71
605.341	25633.29
605.698	26065.15
606.056	26235.54
606.413	26525.7
606.771	26902.19
607.128	26934.5
607.485	27214.04
607.843	27416.75
608.2	27778.1
608.557	28040.46
608.914	28121.59
609.272	28554.57
609.629	28838.86
609.986	29203.14
610.343	29197.49
610.7	29452.4
611.057	29682.68
611.414	29751.38
611.771	30032.28
612.127	30374.19
612.484	30453.28
612.841	30818.02
613.198	30751.8
613.554	31030.67
613.911	31350.88
614.267	31538.45
614.624	31490.77
614.98	31759.01
615.337	32026.8
615.693	32129.62
616.05	32239.9
616.406	32518.31
616.762	32488.03
617.118	32560.12
617.475	32942.71
617.831	33068.58
618.187	33251.85
618.543	33375.69
618.899	33636.25
619.255	33798.28
619.611	33896.13
619.967	34029.91
620.323	34160.53
620.678	34245.27
621.034	34268.32
621.39	34322.11
621.746	34350.35
622.101	34846.84
622.457	34706.5
622.812	34939.72
623.168	34987.85
623.523	35083.67
623.879	35191.01
624.234	35170.9
624.589	35303.55
624.945	35609.3
625.3	35646.14
625.655	35600.72
626.01	35702.41
626.365	35906.47
626.72	35853.59
627.075	35928.62
627.43	35973.59
627.785	35835.06
628.14	36151.66
628.495	36223.07
628.85	36293.58
629.205	36123.64
629.559	36449.51
629.914	36334.93
630.269	36430.07
630.623	36397.31
630.978	36227.82
631.332	36637.07
631.687	36637.3
632.041	36470.07
632.396	36623.06
632.75	36417.87
633.104	36540.35
633.459	36397.53
633.813	36608.83
634.167	36483.18
634.521	36659.22
634.875	36606.34
635.229	36664.64
635.583	36552.33
635.937	36572.44
636.291	36491.31
636.645	36580.13
636.999	36409.96
637.352	36735.83
637.706	36496.96
638.06	36589.39
638.413	36574.7
638.767	36563.63
639.121	36639.56
639.474	36483.63
639.828	36522.95
640.181	36621.03
640.534	36632.1
640.888	36432.78
641.241	36360.7
641.594	36437.3
641.947	36576.96
642.301	36528.38
642.654	36564.31
643.007	36585.55
643.36	36416.51
643.713	36400.47
644.066	36623.51
644.419	36330.64
644.771	36224.43
645.124	35834.61
645.477	35743.76
645.83	35617.21
646.182	35623.31
646.535	35305.13
646.888	35595.52
647.24	35198.92
647.593	35523.66
647.945	35392.59
648.298	35250.44
648.65	35217
649.002	35173.84
649.355	35425.58
649.707	35236.66
650.059	35396.2
650.411	35793.48
650.763	35850.88
651.115	36236.18
651.467	36220.36
651.819	36193.47
652.171	36048.39
652.523	35983.53
652.875	36095.62
653.227	35828.06
653.578	36206.35
653.93	36039.57
654.282	35875.51
654.633	35874.83
654.985	35773.59
655.337	35988.5
655.688	35899.24
656.039	36042.96
656.391	35581.73
656.742	35839.13
657.094	35742.18
657.445	35960.03
657.796	35914.15
658.147	35764.1
658.498	35865.34
658.849	35933.36
659.2	35975.4
659.551	35713.03
659.902	35794.61
660.253	35796.64
660.604	35922.97
660.955	35685.23
661.306	35927.71
661.656	35718.91
662.007	35807.49
662.358	35730.88
662.708	35753.48
663.059	35677.32
663.409	35521.4
663.76	35673.71
664.11	35558.91
664.461	35812.46
664.811	35626.93
665.161	35693.6
665.511	35549.87
665.862	35739.92
666.212	35833.03
666.562	35714.16
666.912	35643.2
667.262	35617.21
667.612	35548.51
667.962	35641.39
668.312	35542.86
668.662	35845.46
669.011	35636.65
669.361	35634.16
669.711	35518.46
670.06	35500.83
670.41	35450.66
670.76	35430.55
671.109	35628.74
671.459	35574.95
671.808	35422.42
672.157	35468.97
672.507	35192.14
672.856	35210.9
673.205	35420.61
673.554	35361.4
673.904	35229.2
674.253	35443.88
674.602	35308.97
674.951	34936.33
675.3	34805.26
675.649	35244.79
675.998	35256.77
676.346	35243.44
676.695	35312.36
677.044	35046.38
677.393	35207.05
677.741	35298.35
678.09	35224.91
678.438	35066.04
678.787	35065.82
679.135	35031.01
679.484	34935.2
679.832	34968.87
680.181	34927.06
680.529	35063.56
680.877	35020.62
681.225	34746.95
681.573	34940.39
681.922	34805.26
682.27	34569.56
682.618	34779.72
682.966	34608.43
683.314	34535.21
683.661	34569.11
684.009	34389.45
684.357	34222.22
684.705	34293.18
685.053	34313.07
685.4	34183.58
685.748	34068.78
686.095	34088.21
686.443	34049.57
686.79	33985.17
687.138	33962.34
687.485	33914.89
687.832	33858.16
688.18	33890.25
688.527	33717.83
688.874	33606.64
689.221	33669.47
689.568	33544.27
689.915	33461.56
690.262	33376.14
690.609	33345.41
690.956	33317.61
691.303	33228.58
691.65	33074.68
691.997	33046.21
692.344	32886.66
692.69	33007.56
693.037	32837.4
693.383	32645.31
693.73	32860.9
694.077	32562.15
694.423	32534.81
694.769	32435.6
695.116	32305.21
695.462	32356.73
695.808	32175.27
696.155	32142.05
696.501	32025.67
696.847	32093.46
697.193	31730.76
697.539	31974.37
697.885	31668.84
698.231	31522.41
698.577	31621.61
698.923	31444.89
699.269	31392.24
699.614	31329.19
699.96	31210.78
700.306	31196.76
700.651	31148.63
700.997	31087.16
701.342	30980.27
701.688	30987.28
702.033	30799.94
702.379	30740.96
702.724	30634.97
703.069	30815.53
703.415	30365.37
703.76	30347.3
704.105	30410.34
704.45	30364.47
704.795	30275.88
705.14	30107.53
705.485	30078.6
705.83	29855.56
706.175	30059.17
706.52	29893.3
706.865	29675.22
707.209	29787.31
707.554	29673.41
707.899	29731.49
708.243	29557.03
708.588	29439.07
708.932	29331.73
709.277	29290.15
709.621	29331.95
709.966	29174.67
710.31	29176.03
710.654	28906.66
710.998	29032.53
711.342	28927.9
711.687	28819.43
712.031	28793.89
712.375	28679.54
712.719	28699.88
713.063	28770.16
713.407	28748.69
713.75	28604.06
714.094	28577.4
714.438	28366.78
714.782	28465.08
715.125	28287.91
715.469	28414.01
715.812	28191.19
716.156	28069.16
716.499	28178.54
716.843	28246.79
717.186	27979
717.53	28130.63
717.873	28108.03
718.216	27955.49
718.559	27896.06
718.902	27771.54
719.246	27739
719.589	27633.69
719.932	27576.97
720.275	27609.51
720.617	27492.46
720.96	27563.64
721.303	27455.62
721.646	27503.3
721.989	27263.99
722.331	27415.17
722.674	27263.31
723.016	27322.52
723.359	27240.48
723.701	27221.5
724.044	26981.06
724.386	26841.4
724.729	27008.85
725.071	26973.82
725.413	26929.08
725.755	27002.3
726.097	26810.67
726.439	26728.63
726.782	26691.8
727.124	26719.59
727.465	26590.33
727.807	26631.91
728.149	26527.06
728.491	26451.13
728.833	26513.05
729.175	26450.45
729.516	26295.88
729.858	26357.12
730.199	26296.33
730.541	26320.51
730.882	26281.19
731.224	26354.86
731.565	26181.3
731.906	26158.03
732.248	26221.08
732.589	26021.99
732.93	25896.34
733.271	26076.45
733.612	26060.85
733.953	26039.84
734.294	25775.21
734.635	25748.77
734.976	25871.48
735.317	25540.42
735.658	25684.37
735.999	25690.24
736.339	25657.7
736.68	25694.99
737.021	25575.67
737.361	25532.05
737.702	25622
738.042	25449.12
738.383	25459.74
738.723	25422.9
739.063	25388.78
739.404	25409.8
739.744	25268.11
740.084	25271.5
740.424	25299.29
740.764	25156.92
741.104	25245.96
741.444	25108.34
741.784	25057.26
742.124	24982.69
742.464	24967.78
742.804	24912.64
743.143	24876.48
743.483	24910.6
743.823	24791.06
744.162	24737.73
744.502	24878.74
744.841	24695.47
745.181	24784.73
745.52	24771.4
745.86	24732.53
746.199	24600.33
746.538	24558.75
746.877	24698.4
747.216	24556.94
747.556	24598.52
747.895	24527.11
748.234	24418.86
748.573	24222.94
748.911	24306.1
749.25	24387
749.589	24332.76
749.928	24329.37
750.267	24286.89
750.605	24238.08
750.944	24079.21
751.283	24051.87
751.621	24134.58
751.96	24058.42
752.298	23971.19
752.636	23978.2
752.975	23827.92
753.313	23716.06
753.651	23893.68
753.989	23722.16
754.327	23755.15
754.666	23553.8
755.004	23641.03
755.342	23552.9
755.679	23574.37
756.017	23454.37
756.355	23600.81
756.693	23387.25
757.031	23431.32
757.368	23314.94
757.706	23239.01
758.044	23233.58
758.381	23294.15
758.719	23141.61
759.056	23114.04
759.394	23032.23
759.731	22876.98
760.068	22855.97
760.405	22789.08
760.743	22694.84
761.08	22737.1
761.417	22580.27
