Data from hue_160_FLMS001491_00042.txt Node
Date: Tue Feb 07 16:51:13 GMT 2017
User: dcchb
Spectrometer: FLMS00149
Trigger mode: 0
Integration Time (sec): 2.000000E-2
Scans to average: 10
Electric dark correction enabled: true
Nonlinearity correction enabled: false
Boxcar width: 0
XAxis mode: Wavelengths
Number of Pixels in Spectrum: 2048
>>>>>Begin Spectral Data<<<<<
341.393	-14.14
341.776	-14.14
342.16	-14.14
342.543	-56.85
342.927	-52.1
343.31	-84.64
343.693	-78.77
344.077	-63.85
344.46	-87.81
344.843	-65.89
345.226	-23.18
345.61	-47.36
345.993	-9.62
346.376	6.88
346.759	3.71
347.142	40.32
347.525	46.65
347.908	48.69
348.291	90.04
348.674	104.73
349.057	120.1
349.44	146.99
349.823	143.37
350.206	164.39
350.588	194.9
350.971	207.1
351.354	235.8
351.737	229.7
352.119	254.1
352.502	245.29
352.884	285.06
353.267	278.51
353.65	306.31
354.032	297.94
354.414	304.27
354.797	310.15
355.179	308.57
355.562	315.12
355.944	310.37
356.326	336.81
356.709	342.91
357.091	329.13
357.473	356.47
357.855	341.11
358.238	342.69
358.62	359.64
359.002	337.04
359.384	337.49
359.766	341.56
360.148	330.71
360.53	350.15
360.912	312.63
361.294	329.58
361.676	328.45
362.057	346.98
362.439	336.81
362.821	339.3
363.203	329.58
363.584	339.07
363.966	315.34
364.348	311.96
364.729	324.16
365.111	313.76
365.493	324.61
365.874	308.34
366.256	324.38
366.637	305.4
367.019	315.34
367.4	325.74
367.781	297.94
368.163	314.89
368.544	323.03
368.925	315.8
369.306	334.78
369.688	297.94
370.069	309.92
370.45	320.32
370.831	306.31
371.212	318.51
371.593	321.45
371.974	303.59
372.355	319.86
372.736	327.1
373.117	338.85
373.498	296.14
373.879	318.96
374.26	330.71
374.641	327.77
375.021	333.65
375.402	325.51
375.783	314.44
376.163	311.05
376.544	340.65
376.925	328.45
377.305	334.1
377.686	338.4
378.066	332.29
378.447	345.17
378.827	350.6
379.208	361.67
379.588	326.19
379.968	321.9
380.349	334.33
380.729	323.03
381.109	341.78
381.489	346.08
381.87	353.54
382.25	325.29
382.63	304.05
383.01	344.27
383.39	336.81
383.77	344.04
384.15	341.33
384.53	347.43
384.91	331.39
385.29	340.2
385.67	350.15
386.049	348.34
386.429	336.36
386.809	348.56
387.189	367.32
387.568	361.9
387.948	351.5
388.328	342.24
388.707	354.44
389.087	370.03
389.466	375
389.846	356.02
390.225	332.75
390.605	355.8
390.984	339.3
391.363	346.76
391.743	356.25
392.122	371.61
392.501	373.87
392.881	374.33
393.26	369.58
393.639	377.94
394.018	382.69
394.397	377.04
394.776	365.29
395.155	388.79
395.534	392.18
395.913	382.01
396.292	374.78
396.671	381.11
397.05	373.87
397.429	390.37
397.808	376.13
398.186	363.03
398.565	379.3
398.944	388.34
399.323	395.79
399.701	375.91
400.08	412.97
400.458	409.13
400.837	399.86
401.215	369.58
401.594	391.5
401.972	396.25
402.351	409.58
402.729	419.52
403.107	374.1
403.486	404.16
403.864	400.99
404.242	406.19
404.62	419.3
404.999	410.03
405.377	411.16
405.755	413.2
406.133	416.59
406.511	425.62
406.889	448.9
407.267	437.83
407.645	439.41
408.023	417.72
408.401	433.99
408.779	410.94
409.156	447.77
409.534	444.15
409.912	432.4
410.29	469.01
410.667	457.94
411.045	462.69
411.422	464.04
411.8	472.18
412.178	491.61
412.555	478.05
412.933	468.79
413.31	498.84
413.687	478.05
414.065	474.21
414.442	501.33
414.819	481.67
415.197	492.97
415.574	504.27
415.951	495.91
416.328	511.05
416.705	501.78
417.082	495.23
417.46	523.47
417.837	491.84
418.214	510.82
418.591	511.5
418.967	539.29
419.344	526.86
419.721	537.26
420.098	527.99
420.475	546.3
420.852	535.9
421.228	557.82
421.605	541.33
421.982	561.21
422.358	555.34
422.735	553.3
423.111	553.98
423.488	553.3
423.864	557.82
424.241	577.26
424.617	551.72
424.994	569.12
425.37	575
425.746	554.66
426.123	582
426.499	576.35
426.875	607.54
427.251	571.16
427.627	621.55
428.003	605.96
428.379	607.77
428.756	613.19
429.132	637.6
429.507	638.05
429.883	640.31
430.259	630.82
430.635	642.79
431.011	653.19
431.387	672.85
431.763	654.54
432.138	668.33
432.514	680.76
432.89	673.53
433.265	698.16
433.641	687.31
434.016	676.24
434.392	718.72
434.767	726.63
435.143	712.17
435.518	725.73
435.894	718.05
436.269	740.87
436.644	749.68
437.02	748.55
437.395	764.15
437.77	764.6
438.145	764.15
438.52	781.32
438.895	777.48
439.271	796.46
439.646	799.4
440.021	792.62
440.395	797.82
440.77	810.47
441.145	815.67
441.52	842.34
441.895	826.74
442.27	852.73
442.645	853.41
443.019	837.82
443.394	829
443.769	873.75
444.143	830.59
444.518	867.42
444.892	850.02
445.267	855.22
445.641	872.39
446.016	882.11
446.39	898.15
446.764	894.76
447.139	904.93
447.513	902.22
447.887	915.56
448.262	918.49
448.636	923.24
449.01	899.06
449.384	937.7
449.758	963.24
450.132	973.86
450.506	937.25
450.88	964.14
451.254	969.11
451.628	958.27
452.002	982.45
452.376	1020.86
452.75	978.38
453.123	1018.83
453.497	1015.67
453.871	1045.72
454.244	1048.88
454.618	1047.98
454.992	1082.1
455.365	1086.17
455.739	1107.19
456.112	1089.11
456.486	1115.78
456.859	1123.69
457.232	1155.32
457.606	1148.54
457.979	1158.03
458.352	1202.78
458.725	1206.62
459.099	1211.59
459.472	1200.97
459.845	1231.25
460.218	1235.32
460.591	1279.16
460.964	1283.68
461.337	1291.36
461.71	1314.41
462.083	1317.8
462.456	1377.69
462.829	1367.29
463.201	1349.22
463.574	1384.92
463.947	1389.67
464.32	1442.32
464.692	1406.62
465.065	1496.56
465.438	1477.57
465.81	1514.18
466.183	1518.03
466.555	1564.58
466.928	1561.19
467.3	1563.45
467.672	1609.77
468.045	1630.34
468.417	1654.29
468.789	1638.25
469.161	1713.27
469.534	1770.67
469.906	1772.03
470.278	1812.03
470.65	1843.44
471.022	1880.05
471.394	1905.13
471.766	1914.4
472.138	1987.84
472.51	2034.17
472.882	2059.48
473.253	2059.25
473.625	2131.34
473.997	2148.97
474.369	2198.01
474.74	2271.23
475.112	2327.5
475.484	2375.63
475.855	2425.57
476.227	2425.57
476.598	2554.38
476.97	2600.03
477.341	2655.4
477.713	2736.3
478.084	2746.47
478.455	2861.94
478.827	2917.31
479.198	3019.45
479.569	3052
479.94	3162.28
480.311	3234.36
480.682	3339.22
481.053	3464.19
481.424	3503.06
481.795	3578.08
482.166	3670.28
482.537	3757.97
482.908	3881.58
483.279	3895.36
483.65	4082.03
484.021	4171.74
484.391	4282.25
484.762	4402.24
485.133	4444.05
485.503	4553.2
485.874	4670.71
486.244	4774.89
486.615	4902.34
486.985	5009.23
487.356	5173.52
487.726	5248.77
488.097	5403.57
488.467	5506.85
488.837	5684.47
489.207	5791.36
489.578	5952.48
489.948	6056.89
490.318	6154.29
490.688	6243.78
491.058	6443.77
491.428	6576.88
491.798	6621.17
492.168	6862.07
492.538	6886.02
492.908	7109.06
493.278	7179.57
493.648	7338.21
494.017	7405.33
494.387	7540.01
494.757	7653.23
495.126	7720.8
495.496	7900.68
495.866	8010.74
496.235	8149.04
496.605	8209.15
496.974	8307.45
497.344	8417.28
497.713	8489.59
498.082	8630.15
498.452	8757.16
498.821	8814.33
499.19	8922.12
499.559	9003.03
499.928	9105.17
500.298	9210.7
500.667	9284.6
501.036	9415.9
501.405	9477.36
501.774	9509.91
502.143	9636.91
502.512	9691.6
502.88	9774.08
503.249	9800.29
503.618	9883.45
503.987	9939.05
504.356	10020.17
504.724	10123.67
505.093	10161.19
505.462	10172.49
505.83	10289.09
506.199	10386.04
506.567	10540.16
506.936	10515.08
507.304	10591.68
507.672	10696.54
508.041	10767.27
508.409	10855.41
508.777	10842.98
509.145	10927.72
509.514	11002.97
509.882	11028.96
510.25	10984.89
510.618	11067.15
510.986	11205.68
511.354	11176.75
511.722	11268.96
512.09	11358.22
512.458	11325
512.826	11435.73
513.193	11440.7
513.561	11434.6
513.929	11579.23
514.297	11618.32
514.664	11623.75
515.032	11670.07
515.4	11673.24
515.767	11731.99
516.135	11744.65
516.502	11670.3
516.869	11869.39
517.237	11921.37
517.604	11819.45
517.972	11933.34
518.339	11916.17
518.706	12010.86
519.073	11931.31
519.44	12020.57
519.808	12095.15
520.175	12005.66
520.542	12206.11
520.909	12195.71
521.276	12162.94
521.643	12219.44
522.009	12240.68
522.376	12283.84
522.743	12331.53
523.11	12366.55
523.477	12416.95
523.843	12430.05
524.21	12488.13
524.577	12633.44
524.943	12480
525.31	12572.65
525.676	12607
526.043	12623.5
526.409	12628.92
526.776	12723.83
527.142	12618.07
527.508	12626.89
527.874	12703.95
528.241	12672.76
528.607	12666.43
528.973	12756.83
529.339	12661.69
529.705	12731.97
530.071	12804.28
530.437	12803.38
530.803	12773.77
531.169	12822.36
531.535	12663.27
531.901	12667.11
532.267	12665.75
532.632	12650.84
532.998	12746.88
533.364	12735.36
533.73	12689.48
534.095	12740.55
534.461	12709.37
534.826	12722.02
535.192	12626.89
535.557	12684.06
535.923	12616.04
536.288	12544.18
536.653	12548.92
537.019	12461.92
537.384	12557.06
537.749	12505.31
538.114	12461.92
538.479	12365.42
538.845	12488.36
539.21	12321.81
539.575	12341.7
539.94	12245.43
540.305	12288.59
540.67	12252.88
541.034	12143.06
541.399	12188.03
541.764	12170.17
542.129	12070.97
542.494	12049.5
542.858	12167.24
543.223	12084.75
543.587	12077.75
543.952	11961.82
544.316	11904.19
544.681	11893.8
545.045	11966.56
545.41	11916.17
545.774	11855.15
546.138	11834.59
546.503	11802.05
546.867	11640.92
547.231	11752.78
547.595	11711.43
547.959	11650.87
548.324	11646.8
548.688	11672.11
549.052	11646.35
549.416	11532.45
549.779	11534.94
550.143	11506.69
550.507	11473.7
550.871	11477.76
551.235	11482.73
551.599	11414.94
551.962	11303.76
552.326	11371.1
552.689	11321.61
553.053	11292.46
553.417	11228.73
553.78	11248.16
554.143	11187.38
554.507	11225.11
554.87	11150.31
555.234	11262.85
555.597	11088.62
555.96	11110.99
556.323	11150.54
556.686	11128.17
557.05	11163.87
557.413	11092.01
557.776	11048.4
558.139	11092.01
558.502	11029.19
558.865	11089.52
559.228	11053.59
559.59	10986.25
559.953	11007.95
560.316	11159.35
560.679	11031.22
561.041	11108.73
561.404	11083.88
561.767	11113.48
562.129	11093.14
562.492	11085.23
562.854	11047.49
563.217	10997.1
563.579	11057.21
563.941	11108.28
564.304	11075.51
564.666	11113.93
565.028	11141.73
565.39	11089.07
565.753	11171.33
566.115	11104.21
566.477	11187.83
566.839	11179.24
567.201	11220.82
567.563	11128.62
567.925	11193.48
568.287	11228.05
568.648	11123.87
569.01	11238.9
569.372	11196.41
569.734	11209.07
570.095	11295.17
570.457	11264.21
570.819	11242.06
571.18	11242.29
571.542	11328.39
571.903	11244.55
572.265	11329.97
572.626	11210.65
572.987	11369.97
573.349	11416.07
573.71	11263.76
574.071	11297.2
574.432	11336.3
574.794	11450.19
575.155	11426.47
575.516	11394.83
575.877	11395.96
576.238	11411.55
576.599	11409.97
576.96	11318.22
577.32	11424.21
577.681	11441.15
578.042	11437.09
578.403	11401.61
578.763	11357.31
579.124	11424.21
579.485	11422.4
579.845	11477.76
580.206	11435.96
580.566	11445.22
580.927	11433.47
581.287	11485.9
581.648	11428.5
582.008	11471.21
582.368	11502.62
582.728	11419.91
583.089	11439.12
583.449	11375.17
583.809	11397.99
584.169	11470.31
584.529	11338.56
584.889	11478.44
585.249	11354.15
585.609	11371.78
585.969	11429.63
586.329	11385.79
586.688	11409.97
587.048	11347.15
587.408	11331.55
587.768	11263.53
588.127	11271.44
588.487	11325
588.846	11330.65
589.206	11175.4
589.565	11235.74
589.925	11273.47
590.284	11243.42
590.643	11271.89
591.003	11276.41
591.362	11317.09
591.721	11222.4
592.08	11228.96
592.44	11255.17
592.799	11180.6
593.158	11272.8
593.517	11216.08
593.876	11270.09
594.235	11198.67
594.593	11224.21
594.952	11203.42
595.311	11084.33
595.67	11159.81
596.029	11186.25
596.387	11236.41
596.746	11185.34
597.104	11155.51
597.463	11105.34
597.822	11230.99
598.18	11176.3
598.538	11073.03
598.897	11179.92
599.255	11092.91
599.613	11253.59
599.972	11162.97
600.33	11188.73
600.688	11085.91
601.046	11177.88
601.404	11248.16
601.762	11205.91
602.12	11280.48
602.478	11202.74
602.836	11182.18
603.194	11130.43
603.552	11212.91
603.91	11074.38
604.268	11203.87
604.625	11125.68
604.983	11170.65
605.341	11161.16
605.698	11131.78
606.056	11151.22
606.413	11156.42
606.771	11192.35
607.128	11154.61
607.485	11169.07
607.843	11144.21
608.2	11177.88
608.557	11250.2
608.914	11148.05
609.272	11217.43
609.629	11236.41
609.986	11292.23
610.343	11255.4
610.7	11197.09
611.057	11289.52
611.414	11294.72
611.771	11243.19
612.127	11271.67
612.484	11350.08
612.841	11353.25
613.198	11326.81
613.554	11325.45
613.911	11368.61
614.267	11392.79
614.624	11376.75
614.98	11358.44
615.337	11310.76
615.693	11362.06
616.05	11340.37
616.406	11444.32
616.762	11271.21
617.118	11405.9
617.475	11332.23
617.831	11375.39
618.187	11405.22
618.543	11427.82
618.899	11452.23
619.255	11433.24
619.611	11493.36
619.967	11481.83
620.323	11523.41
620.678	11405.9
621.034	11449.52
621.39	11425.79
621.746	11411.1
622.101	11542.17
622.457	11390.53
622.812	11458.78
623.168	11494.49
623.523	11480.47
623.879	11522.28
624.234	11532.45
624.589	11473.47
624.945	11438.67
625.3	11535.39
625.655	11489.06
626.01	11521.15
626.365	11455.62
626.72	11459.46
627.075	11543.52
627.43	11451.32
627.785	11432.57
628.14	11499.01
628.495	11450.19
628.85	11430.76
629.205	11353.7
629.559	11512.11
629.914	11381.72
630.269	11383.98
630.623	11421.72
630.978	11421.72
631.332	11359.12
631.687	11414.04
632.041	11377.65
632.396	11335.85
632.75	11350.53
633.104	11343.98
633.459	11294.27
633.813	11312.8
634.167	11259.92
634.521	11358.9
634.875	11376.07
635.229	11230.99
635.583	11232.8
635.937	11257.66
636.291	11152.8
636.645	11206.81
636.999	11142.4
637.352	11243.42
637.706	11128.39
638.06	11177.88
638.413	11184.66
638.767	11145.12
639.121	11093.82
639.474	11045.46
639.828	11066.02
640.181	11118
640.534	11059.7
640.888	11032.58
641.241	10991.22
641.594	11053.37
641.947	10979.02
642.301	10983.09
642.654	11037.77
643.007	11112.8
643.36	10978.57
643.713	10977.66
644.066	10964.1
644.419	10911.9
644.771	10918
645.124	10815.18
645.477	10719.82
645.83	10718.01
646.182	10715.98
646.535	10628.29
646.888	10647.28
647.24	10531.57
647.593	10608.41
647.945	10661.06
648.298	10565.7
648.65	10555.08
649.002	10500.16
649.355	10626.03
649.707	10593.27
650.059	10560.95
650.411	10768.18
650.763	10776.54
651.115	10869.19
651.467	10824.45
651.819	10856.99
652.171	10922.3
652.523	10790.55
652.875	10797.56
653.227	10799.14
653.578	10881.62
653.93	10924.56
654.282	10751.45
654.633	10735.18
654.985	10783.77
655.337	10814.05
655.688	10822.41
656.039	10903.77
656.391	10737.67
656.742	10800.94
657.094	10782.64
657.445	10844.56
657.796	10802.98
658.147	10832.36
658.498	10828.29
658.849	10854.28
659.2	10855.86
659.551	10832.13
659.902	10870.77
660.253	10871
660.604	10883.88
660.955	10756.88
661.306	10908.29
661.656	10875.07
662.007	10881.17
662.358	10899.02
662.708	10833.26
663.059	10904.22
663.409	10820.83
663.76	10898.34
664.11	10889.98
664.461	10885.69
664.811	10903.09
665.161	10907.83
665.511	10950.32
665.862	10857.89
666.212	10954.16
666.562	10952.13
666.912	10883.2
667.262	10855.86
667.612	10893.82
667.962	10845.92
668.312	10881.17
668.662	10958.23
669.011	10812.47
669.361	10859.93
669.711	10848.85
670.06	10873.03
670.41	10875.29
670.76	10774.28
671.109	10905.8
671.459	10845.24
671.808	10800.72
672.157	10842.3
672.507	10767.27
672.856	10745.13
673.205	10752.13
673.554	10767.5
673.904	10777.67
674.253	10802.75
674.602	10681.17
674.951	10609.09
675.3	10582.19
675.649	10753.71
675.998	10667.61
676.346	10792.58
676.695	10749.87
677.044	10672.59
677.393	10727.27
677.741	10726.37
678.09	10621.51
678.438	10628.29
678.787	10613.15
679.135	10716.65
679.484	10580.61
679.832	10585.13
680.181	10566.6
680.529	10608.41
680.877	10564.34
681.225	10500.16
681.573	10578.58
681.922	10484.12
682.27	10418.13
682.618	10409.99
682.966	10447.96
683.314	10459.48
683.661	10408.86
684.009	10374.06
684.357	10327.06
684.705	10383.33
685.053	10328.41
685.4	10302.88
685.748	10259.49
686.095	10252.71
686.443	10247.06
686.79	10214.97
687.138	10093.39
687.485	10165.03
687.832	10228.76
688.18	10136.33
688.527	10172.26
688.874	10012.26
689.221	10030.34
689.568	10065.82
689.915	9982.66
690.262	10008.65
690.609	9980.63
690.956	9900.86
691.303	9949.67
691.65	9808.2
691.997	9874.42
692.344	9761.65
692.69	9768.2
693.037	9761.2
693.383	9696.34
693.73	9690.24
694.077	9611.15
694.423	9606.17
694.769	9568.66
695.116	9519.4
695.462	9513.07
695.808	9432.39
696.155	9544.03
696.501	9384.03
696.847	9325.96
697.193	9359.4
697.539	9358.5
697.885	9287.76
698.231	9239.18
698.577	9262.45
698.923	9212.06
699.269	9143.81
699.614	9221.1
699.96	9125.96
700.306	9090.48
700.651	9077.37
700.997	8993.76
701.342	8968
701.688	8942.01
702.033	8924.16
702.379	8887.77
702.724	8837.15
703.069	8890.49
703.415	8767.33
703.76	8806.65
704.105	8763.71
704.45	8701.34
704.795	8692.3
705.14	8618.18
705.485	8649.81
705.83	8592.19
706.175	8575.24
706.52	8550.38
706.865	8518.97
707.209	8552.19
707.554	8507.9
707.899	8528.01
708.243	8451.63
708.588	8402.14
708.932	8345.87
709.277	8351.07
709.621	8415.92
709.966	8378.64
710.31	8308.35
710.654	8271.52
710.998	8266.55
711.342	8291.41
711.687	8197.4
712.031	8216.61
712.375	8152.88
712.719	8198.98
713.063	8164.18
713.407	8236.72
713.75	8080.11
714.094	8148.36
714.438	8114.01
714.782	8057.06
715.125	8120.79
715.469	8109.04
715.812	8040.11
716.156	7973.45
716.499	8023.16
716.843	8004.86
717.186	7954.24
717.53	7996.72
717.873	8027.01
718.216	7924.86
718.559	7891.64
718.902	7888.25
719.246	7977.97
719.589	7875.15
719.932	7826.79
720.275	7861.14
720.617	7878.54
720.96	7881.02
721.303	7875.37
721.646	7834.24
721.989	7809.61
722.331	7831.53
722.674	7786.79
723.016	7877.18
723.359	7802.83
723.701	7836.5
724.044	7768.26
724.386	7784.98
724.729	7739.1
725.071	7744.53
725.413	7747.47
725.755	7743.85
726.097	7749.95
726.439	7697.75
726.782	7688.94
727.124	7812.77
727.465	7716.73
727.807	7708.37
728.149	7686.68
728.491	7726.22
728.833	7749.05
729.175	7668.82
729.516	7709.5
729.858	7667.02
730.199	7747.47
730.541	7641.03
730.882	7660.46
731.224	7695.04
731.565	7631.76
731.906	7601.25
732.248	7643.29
732.589	7615.27
732.93	7638.09
733.271	7626.57
733.612	7646.68
733.953	7606.45
734.294	7581.37
734.635	7575.27
734.976	7658.88
735.317	7535.95
735.658	7562.16
735.999	7666.56
736.339	7610.97
736.68	7589.5
737.021	7620.92
737.361	7598.09
737.702	7671.08
738.042	7642.38
738.383	7603.97
738.723	7713.12
739.063	7670.41
739.404	7714.92
739.744	7648.71
740.084	7651.88
740.424	7703.85
740.764	7778.65
741.104	7793.34
741.444	7747.92
741.784	7770.06
742.124	7761.93
742.464	7792.66
742.804	7728.26
743.143	7788.14
743.483	7856.39
743.823	7845.09
744.162	7838.54
744.502	7927.8
744.841	7968.25
745.181	7960.57
745.52	7972.77
745.86	8029.94
746.199	8001.92
746.538	8056.61
746.877	8135.03
747.216	8218.64
747.556	8250.96
747.895	8260.22
748.234	8238.98
748.573	8345.87
748.911	8356.94
749.25	8401.46
749.589	8382.7
749.928	8514.45
750.267	8580.21
750.605	8689.36
750.944	8670.83
751.283	8724.39
751.621	8880.77
751.96	8941.56
752.298	9018.17
752.636	9135.9
752.975	9176.81
753.313	9165.06
753.651	9353.98
753.989	9478.72
754.327	9516.23
754.666	9706.96
755.004	9788.99
755.342	9993.73
755.679	9956.22
756.017	10100.4
756.355	10270.34
756.693	10402.99
757.031	10483.44
757.368	10618.12
757.706	10751.45
758.044	10903.77
758.381	11093.37
758.719	11114.61
759.056	11353.92
759.394	11471.66
759.731	11566.57
760.068	11704.65
760.405	11858.77
