Data from hue_100_FLMS001491_00069.txt Node
Date: Tue Feb 07 17:03:31 GMT 2017
User: dcchb
Spectrometer: FLMS00149
Trigger mode: 0
Integration Time (sec): 2.000000E-2
Scans to average: 10
Electric dark correction enabled: true
Nonlinearity correction enabled: false
Boxcar width: 0
XAxis mode: Wavelengths
Number of Pixels in Spectrum: 2048
>>>>>Begin Spectral Data<<<<<
341.393	-10.8
341.776	-10.8
342.16	-10.8
342.543	-35.66
342.927	-60.07
343.31	-60.75
343.693	-67.53
344.077	-62.1
344.46	-66.62
344.843	-57.36
345.226	-37.92
345.61	-43.35
345.993	-34.76
346.376	-26.17
346.759	10.66
347.142	37.1
347.525	47.72
347.908	57.22
348.291	92.7
348.674	80.27
349.057	130.89
349.44	135.18
349.823	140.38
350.206	164.78
350.588	201.62
350.971	190.32
351.354	229.87
351.737	242.97
352.119	266.48
352.502	290.43
352.884	282.52
353.267	291.79
353.65	297.21
354.032	294.05
354.414	321.39
354.797	338.11
355.179	336.53
355.562	343.08
355.944	313.48
356.326	321.39
356.709	334.95
357.091	332.69
357.473	343.99
357.855	336.3
358.238	345.34
358.62	339.47
359.002	342.63
359.384	345.12
359.766	360.71
360.148	341.95
360.53	362.29
360.912	359.81
361.294	357.77
361.676	324.55
362.057	327.27
362.439	353.25
362.821	324.78
363.203	331.56
363.584	332.69
363.966	317.32
364.348	312.12
364.729	327.94
365.111	321.84
365.493	331.56
365.874	320.03
366.256	333.14
366.637	310.99
367.019	309.19
367.4	299.24
367.781	337.89
368.163	319.58
368.544	322.97
368.925	309.19
369.306	328.17
369.688	321.39
370.069	310.77
370.45	317.77
370.831	328.62
371.212	297.66
371.593	312.58
371.974	341.5
372.355	325.23
372.736	309.19
373.117	311.67
373.498	327.27
373.879	329.07
374.26	313.48
374.641	323.65
375.021	331.56
375.402	315.51
375.783	323.2
376.163	350.54
376.544	313.25
376.925	350.09
377.305	327.94
377.686	321.84
378.066	336.98
378.447	346.02
378.827	341.73
379.208	347.6
379.588	330.43
379.968	341.05
380.349	335.17
380.729	338.11
381.109	330.2
381.489	326.36
381.87	373.14
382.25	352.12
382.63	361.61
383.01	353.03
383.39	350.09
383.77	348.28
384.15	346.25
384.53	367.94
384.91	380.6
385.29	369.07
385.67	366.59
386.049	358.45
386.429	366.13
386.809	366.59
387.189	374.72
387.568	380.37
387.948	379.02
388.328	380.82
388.707	364.55
389.087	371.56
389.466	366.13
389.846	383.08
390.225	366.81
390.605	377.66
390.984	400.03
391.363	388.96
391.743	387.6
392.122	374.04
392.501	391.9
392.881	390.31
393.26	373.59
393.639	394.83
394.018	389.18
394.397	391.44
394.776	411.56
395.155	389.18
395.534	395.06
395.913	391.22
396.292	400.26
396.671	393.93
397.05	414.04
397.429	419.24
397.808	435.51
398.186	415.4
398.565	401.16
398.944	413.36
399.323	414.27
399.701	420.37
400.08	407.72
400.458	416.98
400.837	440.48
401.215	431.67
401.594	419.47
401.972	433.7
402.351	414.72
402.729	423.76
403.107	419.92
403.486	445.68
403.864	463.31
404.242	447.94
404.62	429.64
404.999	445.91
405.377	450.88
405.755	436.64
406.133	467.37
406.511	461.5
406.889	467.83
407.267	430.31
407.645	458.56
408.023	460.82
408.401	458.56
408.779	465.11
409.156	487.04
409.534	486.36
409.912	481.61
410.29	463.76
410.667	467.15
411.045	475.28
411.422	510.54
411.8	521.38
412.178	480.71
412.555	480.48
412.933	514.15
413.31	520.03
413.687	496.53
414.065	515.06
414.442	544.43
414.819	538.11
415.197	541.05
415.574	513.93
415.951	537.66
416.328	549.41
416.705	538.56
417.082	532.23
417.46	541.5
417.837	553.02
418.214	550.76
418.591	564.77
418.967	566.58
419.344	575.39
419.721	595.96
420.098	558.67
420.475	594.38
420.852	592.8
421.228	583.08
421.605	576.3
421.982	587.37
422.358	602.51
422.735	626.47
423.111	583.98
423.488	592.8
423.864	614.04
424.241	610.2
424.617	634.38
424.994	621.72
425.37	644.09
425.746	634.38
426.123	640.48
426.499	638.67
426.875	622.17
427.251	672.57
427.627	662.4
428.003	641.83
428.379	675.05
428.756	658.56
429.132	694.71
429.507	662.62
429.883	678.44
430.259	701.49
430.635	683.41
431.011	685.67
431.387	736.07
431.763	727.93
432.138	713.02
432.514	724.09
432.89	724.54
433.265	754.82
433.641	740.36
434.016	759.34
434.392	761.83
434.767	773.36
435.143	778.78
435.518	784.2
435.894	779.46
436.269	807.93
436.644	811.55
437.02	815.16
437.395	830.3
437.77	813.35
438.145	842.51
438.52	835.73
438.895	848.38
439.271	852.9
439.646	879.34
440.021	854.48
440.395	868.49
440.77	869.4
441.145	891.54
441.52	896.52
441.895	879.57
442.27	893.58
442.645	908.72
443.019	914.37
443.394	937.42
443.769	943.97
444.143	934.93
444.518	931.32
444.892	915.95
445.267	958.21
445.641	948.49
446.016	948.72
446.39	967.47
446.764	966.8
447.139	974.25
447.513	973.12
447.887	978.77
448.262	994.14
448.636	1013.12
449.01	1020.13
449.384	1005.21
449.758	1008.83
450.132	1042.95
450.506	1037.08
450.88	1053.57
451.254	1059.9
451.628	1073.01
452.002	1083.4
452.376	1080.01
452.75	1083.63
453.123	1094.25
453.497	1151.42
453.871	1130.86
454.244	1130.18
454.618	1158.2
454.992	1154.59
455.365	1149.16
455.739	1185.77
456.112	1180.8
456.486	1217.64
456.859	1215.15
457.232	1244.08
457.606	1246.79
457.979	1244.08
458.352	1287.47
458.725	1297.41
459.099	1339.67
459.472	1327.24
459.845	1324.08
460.218	1387.58
460.591	1365.2
460.964	1377.41
461.337	1407.91
461.71	1413.79
462.083	1447.46
462.456	1451.98
462.829	1442.26
463.201	1500.34
463.574	1507.35
463.947	1545.76
464.32	1525.43
464.692	1585.76
465.065	1578.31
465.438	1603.16
465.81	1640.9
466.183	1690.85
466.555	1704.86
466.928	1707.57
467.3	1731.75
467.672	1745.08
468.045	1804.74
468.417	1853.55
468.789	1863.95
469.161	1851.75
469.534	1886.55
469.906	1941.01
470.278	1967
470.65	2024.62
471.022	2055.13
471.394	2095.81
471.766	2090.16
472.138	2142.36
472.51	2197.27
472.882	2274.11
473.253	2254.9
473.625	2301.45
473.997	2408.11
474.369	2471.84
474.74	2507.1
475.112	2568.34
475.484	2603.14
475.855	2650.82
476.227	2702.34
476.598	2837.71
476.97	2855.56
477.341	2941.43
477.713	2987.53
478.084	3075.44
478.455	3160.64
478.827	3237.7
479.198	3323.12
479.569	3364.47
479.94	3523.57
480.311	3600.85
480.682	3728.98
481.053	3825.48
481.424	3889.21
481.795	3996.55
482.166	4096.43
482.537	4199.71
482.908	4354.73
483.279	4444.9
483.65	4617.1
484.021	4671.56
484.391	4798.33
484.762	4911.1
485.133	5068.38
485.503	5171.43
485.874	5409.84
486.244	5489.84
486.615	5620.69
486.985	5752.43
487.356	5912.2
487.726	6057.74
488.097	6216.15
488.467	6281.69
488.837	6536.59
489.207	6657.49
489.578	6884.38
489.948	7015.45
490.318	7202.79
490.688	7270.36
491.058	7458.15
491.428	7633.74
491.798	7826.05
492.168	8074.41
492.538	8139.49
492.908	8243.22
493.278	8515.07
493.648	8571.34
494.017	8828.51
494.387	8911.67
494.757	9168.61
495.126	9237.77
495.496	9387.14
495.866	9468.27
496.235	9741.71
496.605	9868.48
496.974	9958.88
497.344	10136.05
497.713	10288.36
498.082	10443.38
498.452	10550.05
498.821	10654.23
499.19	10743.94
499.559	11008.79
499.928	11044.5
500.298	11209.92
500.667	11331.27
501.036	11425.73
501.405	11610.13
501.774	11692.62
502.143	11757.47
502.512	11885.15
502.88	12034.75
503.249	12062.78
503.618	12322.88
503.987	12374.86
504.356	12387.97
504.724	12524.01
505.093	12622.76
505.462	12712.25
505.83	12832.7
506.199	12919.48
506.567	13150.43
506.936	13179.58
507.304	13301.84
507.672	13412.57
508.041	13458.45
508.409	13615.05
508.777	13666.35
509.145	13805.1
509.514	13739.12
509.882	13942.05
510.25	13982.5
510.618	14091.2
510.986	14086.45
511.354	14203.74
511.722	14309.5
512.09	14410.28
512.458	14413.9
512.826	14530.73
513.193	14549.04
513.561	14686.44
513.929	14749.94
514.297	14800.78
514.664	14887.11
515.032	14947.67
515.4	15005.75
515.767	15029.25
516.135	15118.74
516.502	15019.76
516.869	15236.48
517.237	15305.85
517.604	15202.58
517.972	15482.12
518.339	15516.7
518.706	15410.26
519.073	15454.33
519.44	15524.83
519.808	15710.82
520.175	15608.45
520.542	15758.72
520.909	15828.55
521.276	15806.18
521.643	15834.65
522.009	15909.68
522.376	15996.01
522.743	15998.72
523.11	16173.85
523.477	16282.33
523.843	16342.89
524.21	16467.63
524.577	16460.17
524.943	16448.65
525.31	16454.75
525.676	16576.1
526.043	16694.52
526.409	16619.04
526.776	16752.82
527.142	16658.36
527.508	16759.38
527.874	16827.62
528.241	16847.96
528.607	16759.15
528.973	16902.87
529.339	16866.27
529.705	16975.87
530.071	16986.94
530.437	17057.22
530.803	16940.61
531.169	17014.06
531.535	17031.23
531.901	17008.18
532.267	17004.79
532.632	17080.05
532.998	17003.89
533.364	17004.57
533.73	16976.09
534.095	17063.1
534.461	17067.84
534.826	17032.81
535.192	17001.18
535.557	17098.58
535.923	17026.26
536.288	16965.7
536.653	16944
537.019	16840.5
537.384	16933.61
537.749	16925.47
538.114	16867.4
538.479	16926.83
538.845	16870.56
539.21	16853.38
539.575	16749.66
539.94	16670.11
540.305	16749.21
540.67	16649.1
541.034	16697.23
541.399	16622.66
541.764	16634.18
542.129	16587.63
542.494	16688.42
542.858	16587.4
543.223	16517.57
543.587	16565.48
543.952	16358.26
544.316	16473.51
544.681	16416.79
545.045	16353.51
545.41	16358.03
545.774	16316.45
546.138	16227.64
546.503	16251.82
546.867	16252.04
547.231	16175.44
547.595	16160.52
547.959	16154.87
548.324	16156.68
548.688	16065.38
549.052	16056.57
549.416	15980.64
549.779	15953.07
550.143	15938.83
550.507	15963.69
550.871	15958.72
551.235	15794.43
551.599	15903.35
551.962	15891.6
552.326	15868.33
552.689	15696.8
553.053	15711.04
553.417	15750.81
553.78	15799.4
554.143	15640.99
554.507	15671.04
554.87	15589.01
555.234	15785.16
555.597	15586.98
555.96	15706.75
556.323	15601.21
556.686	15551.95
557.05	15575
557.413	15575.9
557.776	15588.56
558.139	15560.54
558.502	15544.27
558.865	15530.71
559.228	15584.04
559.59	15590.82
559.953	15540.2
560.316	15689.8
560.679	15662.46
561.041	15758.95
561.404	15653.87
561.767	15684.6
562.129	15611.38
562.492	15737.71
562.854	15577.71
563.217	15596.02
563.579	15580.65
563.941	15746.75
564.304	15647.54
564.666	15687.54
565.028	15684.38
565.39	15746.52
565.753	15813.86
566.115	15778.16
566.477	15760.98
566.839	15872.17
567.201	15856.8
567.563	15862.22
567.925	15840.98
568.287	15842.34
568.648	15920.3
569.01	15903.35
569.372	15927.53
569.734	15953.97
570.095	15958.27
570.457	15956.46
570.819	15955.1
571.18	15921.88
571.542	16039.17
571.903	16064.7
572.265	16041.2
572.626	16026.06
572.987	16043.01
573.349	16069.22
573.71	16123.69
574.071	16165.72
574.432	16147.87
574.794	16254.08
575.155	16125.27
575.516	16246.39
575.877	16229.22
576.238	16188.09
576.599	16286.85
576.96	16212.5
577.32	16246.17
577.681	16270.58
578.042	16269.22
578.403	16259.05
578.763	16131.82
579.124	16265.15
579.485	16339.95
579.845	16207.75
580.206	16312.83
580.566	16148.77
580.927	16283
581.287	16219.73
581.648	16094.08
582.008	16250.24
582.368	16241.88
582.728	16307.64
583.089	16220.41
583.449	16252.27
583.809	16250.01
584.169	16294.76
584.529	16138.6
584.889	16272.16
585.249	16103.8
585.609	16027.19
585.969	16139.96
586.329	16177.92
586.688	16110.35
587.048	16138.38
587.408	16088.21
587.768	16091.37
588.127	16124.14
588.487	16037.13
588.846	16122.33
589.206	15935.44
589.565	16033.97
589.925	16104.25
590.284	16128.88
590.643	15969.11
591.003	16122.1
591.362	16047.53
591.721	16008.44
592.08	16076.68
592.44	16099.73
592.799	15989.68
593.158	15977.7
593.517	15924.37
593.876	15903.13
594.235	15963.01
594.593	15944.48
594.952	15962.33
595.311	15889.12
595.67	15953.07
596.029	16017.02
596.387	15926.86
596.746	15972.73
597.104	15882.34
597.463	15906.06
597.822	15952.17
598.18	15871.26
598.538	15838.04
598.897	15959.17
599.255	15837.82
599.613	15979.28
599.972	15978.61
600.33	15892.73
600.688	15792.4
601.046	15927.31
601.404	15975.22
601.762	15964.14
602.12	16012.05
602.478	15901.77
602.836	15960.75
603.194	15817.71
603.552	15927.31
603.91	15812.96
604.268	15956.01
604.625	15909.91
604.983	15902.9
605.341	15887.53
605.698	15862.9
606.056	15923.47
606.413	15919.85
606.771	15933.41
607.128	16000.07
607.485	15902.22
607.843	16007.76
608.2	15907.65
608.557	16049.11
608.914	15969.57
609.272	16078.94
609.629	16041.65
609.986	16146.74
610.343	16035.55
610.7	16076.23
611.057	16092.73
611.414	15998.94
611.771	16059.28
612.127	16214.31
612.484	16130.92
612.841	16194.42
613.198	16131.82
613.554	16113.52
613.911	16246.17
614.267	16178.83
614.624	16143.8
614.98	16144.93
615.337	16234.64
615.693	16180.18
616.05	16218.6
616.406	16374.75
616.762	16163.01
617.118	16207.53
617.475	16203.23
617.831	16359.39
618.187	16263.12
618.543	16364.13
618.899	16331.59
619.255	16374.75
619.611	16395.32
619.967	16354.87
620.323	16474.19
620.678	16396.9
621.034	16407.07
621.39	16334.75
621.746	16327.52
622.101	16531.59
622.457	16345.38
622.812	16433.06
623.168	16440.06
623.523	16349.67
623.879	16528.42
624.234	16449.78
624.589	16445.71
624.945	16516.44
625.3	16448.2
625.655	16338.37
626.01	16386.05
626.365	16468.76
626.72	16365.49
627.075	16435.32
627.43	16372.49
627.785	16411.59
628.14	16430.8
628.495	16368.2
628.85	16406.62
629.205	16274.19
629.559	16401.65
629.914	16278.71
630.269	16351.02
630.623	16336.56
630.978	16221.76
631.332	16300.86
631.687	16330.46
632.041	16237.13
632.396	16328.88
632.75	16226.73
633.104	16230.8
633.459	16134.99
633.813	16098.38
634.167	16066.74
634.521	16138.38
634.875	16157.81
635.229	16081.88
635.583	16096.34
635.937	16054.31
636.291	16053.18
636.645	16056.12
636.999	15978.15
637.352	16036.68
637.706	16010.92
638.06	16026.74
638.413	15956.68
638.767	15944.03
639.121	15920.53
639.474	15707.88
639.828	15872.62
640.181	15860.42
640.534	15863.81
640.888	15781.32
641.241	15727.54
641.594	15732.06
641.947	15732.96
642.301	15762.11
642.654	15813.19
643.007	15765.28
643.36	15794.43
643.713	15744.71
644.066	15818.61
644.419	15682.79
644.771	15599.86
645.124	15464.72
645.477	15391.73
645.83	15387.43
646.182	15352.41
646.535	15230.83
646.888	15267.44
647.24	15180.43
647.593	15202.35
647.945	15191.06
648.298	15086.65
648.65	15125.97
649.002	15087.56
649.355	15133.43
649.707	15146.31
650.059	15208.91
650.411	15418.62
650.763	15405.96
651.115	15495
651.467	15510.37
651.819	15476.7
652.171	15516.02
652.523	15480.54
652.875	15579.75
653.227	15408
653.578	15515.11
653.93	15528.45
654.282	15408.9
654.633	15449.81
654.985	15491.39
655.337	15456.36
655.688	15556.7
656.039	15597.15
656.391	15358.73
656.742	15537.71
657.094	15476.02
657.445	15631.27
657.796	15490.93
658.147	15462.23
658.498	15455.68
658.849	15587.88
659.2	15538.16
659.551	15430.37
659.902	15589.91
660.253	15516.92
660.604	15548.56
660.955	15446.42
661.306	15544.72
661.656	15474.21
662.007	15505.62
662.358	15547.88
662.708	15506.53
663.059	15552.18
663.409	15523.02
663.76	15521.44
664.11	15528.22
664.461	15548.56
664.811	15632.17
665.161	15600.99
665.511	15492.74
665.862	15556.92
666.212	15631.5
666.562	15592.63
666.912	15576.13
667.262	15607.77
667.612	15608.9
667.962	15592.85
668.312	15460.2
668.662	15693.42
669.011	15560.54
669.361	15648.22
669.711	15610.48
670.06	15525.06
670.41	15518.5
670.76	15529.58
671.109	15651.61
671.459	15507.88
671.808	15552.63
672.157	15490.03
672.507	15366.87
672.856	15444.61
673.205	15429.02
673.554	15484.16
673.904	15422.24
674.253	15511.5
674.602	15379.75
674.951	15128.91
675.3	15007.56
675.649	15343.82
675.998	15314.67
676.346	15271.05
676.695	15399.19
677.044	15229.92
677.393	15249.58
677.741	15310.15
678.09	15263.37
678.438	15182.47
678.787	15168.46
679.135	15253.2
679.484	15204.16
679.832	15179.08
680.181	15179.76
680.529	15115.58
680.877	15028.8
681.225	15053.43
681.573	15133.43
681.922	14980.21
682.27	14980.44
682.618	15058.18
682.966	14978.18
683.314	14989.7
683.661	14886.43
684.009	14824.06
684.357	14758.3
684.705	14783.61
685.053	14773.67
685.4	14748.58
685.748	14653.67
686.095	14576.61
686.443	14504.75
686.79	14560.79
687.138	14612.09
687.485	14571.18
687.832	14417.52
688.18	14490.06
688.527	14403.96
688.874	14345.65
689.221	14389.95
689.568	14304.53
689.915	14290.06
690.262	14307.24
690.609	14256.62
690.956	14157.18
691.303	14120.35
691.65	14066.57
691.997	14039
692.344	13989.05
692.69	13922.16
693.037	13872.45
693.383	13841.26
693.73	13862.73
694.077	13799.23
694.423	13800.58
694.769	13727.82
695.116	13724.43
695.462	13657.99
695.808	13533.25
696.155	13619.12
696.501	13447.37
696.847	13423.19
697.193	13363.76
697.539	13434.72
697.885	13312.23
698.231	13214.61
698.577	13227.72
698.923	13126.7
699.269	13117.66
699.614	13011.9
699.96	12971.68
700.306	12965.35
700.651	12968.97
700.997	12849.42
701.342	12859.14
701.688	12806.49
702.033	12796.09
702.379	12738.01
702.724	12612.82
703.069	12735.75
703.415	12562.2
703.76	12572.82
704.105	12564.68
704.45	12454.63
704.795	12412.37
705.14	12344.58
705.485	12354.29
705.83	12250.57
706.175	12277.23
706.52	12302.32
706.865	12195.65
707.209	12144.58
707.554	12151.59
707.899	12077.46
708.243	12090.57
708.588	12016.22
708.932	11897.13
709.277	11917.7
709.621	11922.89
709.966	11819.84
710.31	11797.02
710.654	11739.62
710.998	11768.32
711.342	11755.89
711.687	11723.35
712.031	11662.56
712.375	11667.98
712.719	11613.75
713.063	11575.78
713.407	11677.02
713.75	11590.7
714.094	11534.65
714.438	11538.04
714.782	11552.51
715.125	11486.97
715.469	11539.4
715.812	11439.06
716.156	11323.81
716.499	11369.23
716.843	11393.87
717.186	11301.21
717.53	11408.1
717.873	11386.41
718.216	11284.94
718.559	11203.36
718.902	11203.36
719.246	11270.71
719.589	11205.17
719.932	11139.86
720.275	11140.77
720.617	11185.28
720.96	11179.41
721.303	11104.38
721.646	11152.74
721.989	11030.94
722.331	11041.33
722.674	11106.42
723.016	11057.83
723.359	10989.58
723.701	11043.82
724.044	11028.68
724.386	10892.41
724.729	11044.27
725.071	11035.68
725.413	11030.94
725.755	11037.04
726.097	11002.24
726.439	10986.87
726.782	10895.35
727.124	10964.73
727.465	10858.74
727.807	10934.67
728.149	10908.23
728.491	10903.94
728.833	10896.71
729.175	10895.12
729.516	10811.28
729.858	10845.18
730.199	10870.04
730.541	10834.33
730.882	10883.15
731.224	10849.7
731.565	10817.61
731.906	10806.99
732.248	10778.52
732.589	10722.25
732.93	10775.13
733.271	10756.82
733.612	10769.02
733.953	10802.7
734.294	10795.46
734.635	10734.22
734.976	10843.37
735.317	10768.12
735.658	10846.76
735.999	10810.61
736.339	10850.38
736.68	10849.93
737.021	10825.07
737.361	10813.32
737.702	10861
738.042	10808.8
738.383	10892.41
738.723	10924.05
739.063	10867.55
739.404	10941.9
739.744	10909.36
740.084	10898.74
740.424	10914.78
740.764	10808.8
741.104	10967.66
741.444	10893.32
741.784	10951.39
742.124	11013.09
742.464	10999.53
742.804	11003.82
743.143	10989.13
743.483	11021.9
743.823	11011.73
744.162	11035.68
744.502	11135.57
744.841	11078.62
745.181	11210.82
745.52	11166.3
745.86	11249.01
746.199	11435.45
746.538	11357.03
746.877	11507.76
747.216	11501.43
747.556	11601.09
747.895	11598.83
748.234	11667.76
748.573	11731.03
748.911	11799.73
749.25	11879.73
749.589	11852.61
749.928	12044.02
750.267	11984.81
750.605	12144.81
750.944	12220.06
751.283	12299.15
751.621	12444.01
751.96	12487.62
752.298	12641.97
752.636	12705.92
752.975	12726.49
753.313	12800.61
753.651	13091.22
753.989	13093.94
754.327	13205.8
754.666	13318.56
755.004	13465.9
755.342	13676.74
755.679	13824.76
756.017	13953.35
