Data from hue_26_FLMS001491_00035.txt Node
Date: Tue Feb 07 17:13:54 GMT 2017
User: dcchb
Spectrometer: FLMS00149
Trigger mode: 0
Integration Time (sec): 2.000000E-2
Scans to average: 10
Electric dark correction enabled: true
Nonlinearity correction enabled: false
Boxcar width: 0
XAxis mode: Wavelengths
Number of Pixels in Spectrum: 2048
>>>>>Begin Spectral Data<<<<<
341.393	-9.77
341.776	-9.77
342.16	-9.77
342.543	-60.39
342.927	-68.53
343.31	-80.96
343.693	-52.26
344.077	-87.74
344.46	-51.35
344.843	-66.72
345.226	-34.63
345.61	-26.04
345.993	-12.94
346.376	-9.1
346.759	24.8
347.142	27.06
347.525	18.47
347.908	58.47
348.291	74.97
348.674	97.79
349.057	120.17
349.44	128.3
349.823	160.62
350.206	180.96
350.588	207.17
350.971	218.02
351.354	226.6
351.737	233.84
352.119	259.6
352.502	279.71
352.884	289.2
353.267	283.1
353.65	309.99
354.032	299.37
354.414	307.51
354.797	341.18
355.179	327.17
355.562	331.23
355.944	309.77
356.326	314.96
356.709	336.43
357.091	330.78
357.473	313.16
357.855	315.64
358.238	385.24
358.62	352.02
359.002	341.63
359.384	334.62
359.766	326.49
360.148	329.65
360.53	344.12
360.912	346.15
361.294	335.75
361.676	334.17
362.057	330.1
362.439	319.48
362.821	322.87
363.203	318.35
363.584	296.88
363.966	334.85
364.348	334.4
364.729	335.08
365.111	314.06
365.493	296.88
365.874	332.82
366.256	329.65
366.637	316.32
367.019	338.24
367.4	337.11
367.781	316.09
368.163	315.87
368.544	329.88
368.925	303.89
369.306	333.49
369.688	317.68
370.069	323.32
370.45	305.02
370.831	316.55
371.212	302.53
371.593	337.34
371.974	319.26
372.355	333.04
372.736	320.39
373.117	312.25
373.498	314.29
373.879	319.26
374.26	322.42
374.641	319.03
375.021	337.34
375.402	311.57
375.783	307.73
376.163	303.66
376.544	328.97
376.925	354.51
377.305	332.82
377.686	354.51
378.066	355.87
378.447	331.46
378.827	334.62
379.208	338.47
379.588	307.05
379.968	355.64
380.349	346.83
380.729	327.62
381.109	338.92
381.489	338.47
381.87	338.01
382.25	336.21
382.63	345.25
383.01	337.11
383.39	335.53
383.77	351.35
384.15	355.41
384.53	342.08
384.91	318.58
385.29	361.06
385.67	338.47
386.049	360.16
386.429	355.41
386.809	337.79
387.189	340.05
387.568	375.98
387.948	357.22
388.328	363.78
388.707	369.2
389.087	367.84
389.466	357.67
389.846	359.71
390.225	382.53
390.605	372.59
390.984	345.47
391.363	367.17
391.743	367.39
392.122	359.71
392.501	362.87
392.881	392.7
393.26	377.33
393.639	352.48
394.018	393.83
394.397	388.41
394.776	408.52
395.155	397.67
395.534	373.72
395.913	373.72
396.292	389.76
396.671	380.5
397.05	397.45
397.429	379.59
397.808	381.85
398.186	380.27
398.565	395.41
398.944	396.09
399.323	396.77
399.701	374.4
400.08	388.18
400.458	377.33
400.837	418.46
401.215	422.76
401.594	388.41
401.972	426.37
402.351	411.68
402.729	404.9
403.107	419.59
403.486	428.41
403.864	422.53
404.242	415.07
404.62	423.89
404.999	432.7
405.377	440.16
405.755	421.63
406.133	427.73
406.511	444
406.889	425.47
407.267	445.13
407.645	474.06
408.023	431.12
408.401	447.84
408.779	464.34
409.156	458.69
409.534	442.42
409.912	460.04
410.29	471.34
410.667	443.77
411.045	473.6
411.422	468.86
411.8	476.09
412.178	483.77
412.555	472.02
412.933	477.45
413.31	481.29
413.687	476.77
414.065	473.83
414.442	473.83
414.819	472.25
415.197	511.57
415.574	516.09
415.951	490.78
416.328	502.08
416.705	499.14
417.082	501.63
417.46	514.51
417.837	514.51
418.214	511.12
418.591	524.9
418.967	518.57
419.344	530.33
419.721	529.2
420.098	546.37
420.475	511.12
420.852	519.93
421.228	551.57
421.605	545.47
421.982	532.81
422.358	539.82
422.735	563.09
423.111	538.91
423.488	545.92
423.864	559.93
424.241	555.18
424.617	551.57
424.994	558.12
425.37	555.64
425.746	556.31
426.123	558.35
426.499	570.55
426.875	580.95
427.251	613.94
427.627	586.59
428.003	574.84
428.379	606.48
428.756	600.15
429.132	604.22
429.507	620.94
429.883	627.5
430.259	645.8
430.635	636.54
431.011	646.48
431.387	653.49
431.763	642.19
432.138	648.29
432.514	644.67
432.89	657.1
433.265	652.36
433.641	665.46
434.016	657.1
434.392	692.35
434.767	693.03
435.143	669.76
435.518	702.52
435.894	709.08
436.269	709.53
436.644	707.27
437.02	709.3
437.395	713.37
437.77	731.9
438.145	742.52
438.52	714.73
438.895	754.73
439.271	749.98
439.646	749.53
440.021	769.64
440.395	767.61
440.77	753.37
441.145	765.8
441.52	757.21
441.895	791.11
442.27	772.13
442.645	796.31
443.019	788.85
443.394	809.19
443.769	787.27
444.143	787.27
444.518	811
444.892	821.16
445.267	808.96
445.641	826.59
446.016	821.16
446.39	841.5
446.764	841.73
447.139	843.76
447.513	834.27
447.887	834.95
448.262	846.25
448.636	840.83
449.01	861.39
449.384	873.59
449.758	892.35
450.132	887.15
450.506	883.76
450.88	882.63
451.254	886.47
451.628	874.27
452.002	892.8
452.376	921.05
452.75	913.59
453.123	925.34
453.497	914.04
453.871	943.2
454.244	971.9
454.618	961.95
454.992	978.9
455.365	960.14
455.739	992.23
456.112	1017.09
456.486	986.58
456.859	1029.97
457.232	1029.07
457.606	1020.03
457.979	1015.28
458.352	1042.4
458.725	1054.83
459.099	1058.9
459.472	1085.56
459.845	1097.99
460.218	1120.37
460.591	1089.63
460.964	1108.84
461.337	1129.63
461.71	1134.83
462.083	1151.55
462.456	1135.51
462.829	1143.19
463.201	1210.08
463.574	1198.33
463.947	1212.34
464.32	1256.86
464.692	1226.58
465.065	1274.94
465.438	1280.81
465.81	1290.08
466.183	1293.92
466.555	1335.05
466.928	1344.77
467.3	1336.86
467.672	1365.78
468.045	1380.25
468.417	1384.99
468.789	1386.8
469.161	1451.43
469.534	1437.19
469.906	1476.29
470.278	1489.62
470.65	1530.07
471.022	1527.13
471.394	1552.45
471.766	1561.26
472.138	1598.77
472.51	1626.12
472.882	1637.87
473.253	1667.24
473.625	1696.4
473.997	1702.5
474.369	1729.39
474.74	1780.91
475.112	1792.66
475.484	1822.49
475.855	1866.79
476.227	1882.38
476.598	1929.38
476.97	1931.64
477.341	2009.83
477.713	2046.44
478.084	2044.41
478.455	2111.07
478.827	2160.79
479.198	2226.33
479.569	2175.93
479.94	2241.01
480.311	2303.61
480.682	2359.88
481.053	2407.56
481.424	2442.82
481.795	2455.92
482.166	2496.38
482.537	2549.48
482.908	2631.96
483.279	2643.04
483.65	2706.54
484.021	2747.22
484.391	2829.25
484.762	2847.33
485.133	2887.55
485.503	2932.52
485.874	3017.94
486.244	3052.97
486.615	3099.3
486.985	3170.26
487.356	3191.27
487.726	3251.38
488.097	3352.17
488.467	3356.47
488.837	3412.51
489.207	3476.91
489.578	3499.74
489.948	3592.62
490.318	3592.17
490.688	3620.41
491.058	3755.32
491.428	3781.09
491.798	3884.14
492.168	3951.7
492.538	3973.4
492.908	3992.61
493.278	4044.58
493.648	4046.84
494.017	4125.48
494.387	4143.79
494.757	4258.14
495.126	4295.65
495.496	4295.2
495.866	4321.64
496.235	4374.07
496.605	4423.78
496.974	4494.74
497.344	4596.66
497.713	4542.87
498.082	4581.52
498.452	4619.71
498.821	4696.54
499.19	4720.95
499.559	4721.85
499.928	4755.98
500.298	4842.3
500.667	4843.21
501.036	4868.29
501.405	4895.18
501.774	4891.11
502.143	4948.74
502.512	4973.37
502.88	5040.26
503.249	5072.8
503.618	5094.27
503.987	5112.58
504.356	5147.83
504.724	5136.08
505.093	5207.26
505.462	5191.22
505.83	5227.83
506.199	5299.92
506.567	5375.85
506.936	5381.72
507.304	5469.18
507.672	5453.59
508.041	5529.29
508.409	5480.03
508.777	5566.8
509.145	5589.85
509.514	5533.58
509.882	5562.06
510.25	5582.85
510.618	5683.64
510.986	5725.67
511.354	5696.97
511.722	5774.25
512.09	5813.35
512.458	5758.66
512.826	5872.78
513.193	5908.94
513.561	5851.77
513.929	5912.78
514.297	5962.05
514.664	5959.11
515.032	5962.27
515.4	5987.58
515.767	6035.72
516.135	6117.3
516.502	6046.56
516.869	6149.39
517.237	6184.87
517.604	6136.28
517.972	6192.78
518.339	6251.98
518.706	6228.25
519.073	6254.47
519.44	6263.28
519.808	6393
520.175	6303.28
520.542	6387.57
520.909	6432.54
521.276	6416.5
521.643	6514.35
522.009	6540.34
522.376	6568.36
522.743	6644.74
523.11	6663.72
523.477	6688.58
523.843	6712.08
524.21	6802.7
524.577	6766.32
524.943	6850.84
525.31	6848.58
525.676	6923.6
526.043	6949.59
526.409	6973.32
526.776	7045.63
527.142	7053.32
527.508	7126.31
527.874	7132.86
528.241	7211.28
528.607	7175.12
528.973	7289.24
529.339	7269.81
529.705	7346.19
530.071	7364.72
530.437	7423.7
530.803	7440.65
531.169	7489.69
531.535	7425.51
531.901	7494.66
532.267	7523.81
532.632	7585.05
532.998	7599.52
533.364	7627.77
533.73	7717.48
534.095	7798.16
534.461	7737.82
534.826	7781.66
535.192	7811.72
535.557	7878.61
535.923	7853.52
536.288	7942.33
536.653	8010.35
537.019	7969.68
537.384	8072.95
537.749	8117.24
538.114	8037.47
538.479	8055.78
538.845	8144.59
539.21	8084.25
539.575	8186.17
539.94	8250.57
540.305	8254.64
540.67	8246.28
541.034	8315.43
541.399	8322.66
541.764	8393.62
542.129	8377.12
542.494	8439.5
542.858	8439.72
543.223	8551.36
543.587	8549.32
543.952	8524.24
544.316	8636.78
544.681	8543
545.045	8664.35
545.41	8676.1
545.774	8726.49
546.138	8777.79
546.503	8722.65
546.867	8807.4
547.231	8888.75
547.595	8891.46
547.959	8893.72
548.324	8859.6
548.688	8994.74
549.052	9000.38
549.416	9004.45
549.779	9033.6
550.143	9069.08
550.507	9214.16
550.871	9114.96
551.235	9169.87
551.599	9199.48
551.962	9194.96
552.326	9266.37
552.689	9307.5
553.053	9298
553.417	9313.82
553.78	9444.44
554.143	9422.75
554.507	9388.4
554.87	9490.09
555.234	9545.91
555.597	9477.66
555.96	9575.96
556.323	9560.82
556.686	9561.27
557.05	9704.32
557.413	9666.13
557.776	9692.57
558.139	9790.19
558.502	9807.82
558.865	9835.84
559.228	9779.35
559.59	9921.04
559.953	9892.79
560.316	9979.79
560.679	9998.1
561.041	10061.83
561.404	10058.66
561.767	10163.97
562.129	10004.43
562.492	10202.84
562.854	10190.18
563.217	10196.74
563.579	10247.81
563.941	10375.04
564.304	10302.72
564.666	10444.64
565.028	10449.61
565.39	10511.53
565.753	10484.64
566.115	10537.29
566.477	10610.74
566.839	10584.75
567.201	10649.38
567.563	10703.84
567.925	10687.35
568.287	10763.05
568.648	10796.95
569.01	10868.13
569.372	10958.75
569.734	10829.26
570.095	10982.93
570.457	10990.16
570.819	11103.61
571.18	11099.31
571.542	11195.13
571.903	11242.36
572.265	11279.65
572.626	11282.81
572.987	11336.82
573.349	11417.27
573.71	11429.25
574.071	11540.66
574.432	11658.39
574.794	11735.68
575.155	11725.51
575.516	11707.88
575.877	11807.32
576.238	11883.92
576.599	11978.16
576.96	12082.11
577.32	12182
577.681	12224.25
578.042	12380.86
578.403	12353.97
578.763	12478.03
579.124	12588.54
579.485	12725.03
579.845	12844.13
580.206	12800.28
580.566	13024.91
580.927	13103.55
581.287	13333.38
581.648	13315.07
582.008	13589.87
582.368	13666.02
582.728	13893.14
583.089	13984.89
583.449	14155.05
583.809	14262.62
584.169	14621.03
584.529	14697.64
584.889	14967.91
585.249	15125.87
585.609	15181.92
585.969	15534.22
586.329	15635.24
586.688	15847.66
587.048	16110.71
587.408	16305.28
587.768	16592.28
588.127	16690.58
588.487	16936.9
588.846	17365.14
589.206	17434.06
589.565	17703.21
589.925	18033.14
590.284	18287.6
590.643	18581.38
591.003	18867.02
591.362	19239.44
591.721	19394.24
592.08	19660.9
592.44	19966.42
592.799	20302.23
593.158	20584.04
593.517	20783.13
593.876	21061.76
594.235	21451.36
594.593	21704.46
594.952	22120.49
595.311	22265.12
595.67	22645.68
596.029	22947.81
596.387	23267.58
596.746	23556.16
597.104	23744.18
597.463	24114.11
597.822	24489.02
598.18	24807.43
598.538	24988.89
598.897	25378.94
599.255	25522.21
599.613	26111.8
599.972	26297.56
600.33	26522.18
600.688	26815.28
601.046	27086.24
601.404	27361.71
601.762	27696.39
602.12	28110.16
602.478	28315.13
602.836	28763.93
603.194	28798.73
603.552	29100.65
603.91	29331.15
604.268	29731.82
604.625	29718.03
604.983	30198.25
605.341	30355.08
605.698	30807.5
606.056	31086.58
606.413	31226.24
606.771	31512.56
607.128	31750.97
607.485	31970.18
607.843	32145.54
608.2	32545.98
608.557	32873.2
608.914	32932.18
609.272	33283.14
609.629	33538.95
609.986	33764.93
610.343	33822.33
610.7	34331.47
611.057	34326.72
611.414	34481.97
611.771	34864.79
612.127	35092.81
612.484	35282.41
612.841	35479.69
613.198	35561.27
613.554	35839.45
613.911	36093.01
614.267	36290.51
614.624	36400.12
614.98	36627.46
615.337	36932.08
615.693	37070.16
616.05	37081.23
616.406	37484.83
616.762	37474.21
617.118	37621.78
617.475	37735.22
617.831	37913.52
618.187	38090.02
618.543	38099.73
618.899	38471.93
619.255	38512.38
619.611	38676.67
619.967	38891.35
620.323	39069.88
620.678	38904.23
621.034	39075.07
621.39	39191.23
621.746	39192.81
622.101	39770.65
622.457	39543.31
622.812	39806.81
623.168	39997.99
623.523	39976.75
623.879	40180.36
624.234	39984.65
624.589	40214.25
624.945	40339.9
625.3	40472.78
625.655	40485.88
626.01	40602.49
626.365	40725.65
626.72	40722.94
627.075	40601.81
627.43	40800.68
627.785	40805.42
628.14	40973.78
628.495	41086.77
628.85	41036.15
629.205	40885.2
629.559	41209.71
629.914	41001.13
630.269	41240.67
630.623	41261.23
630.978	41249.71
631.332	41402.92
631.687	41470.94
632.041	41348.46
632.396	41490.83
632.75	41332.42
633.104	41352.3
633.459	41335.13
633.813	41413.32
634.167	41493.09
634.521	41308.24
634.875	41573.99
635.229	41400.66
635.583	41154.57
635.937	41469.81
636.291	41384.84
636.645	41512.07
636.999	41303.04
637.352	41520.89
637.706	41396.82
638.06	41578.06
638.413	41435.46
638.767	41383.49
639.121	41421
639.474	41268.24
639.828	41353.88
640.181	41457.38
640.534	41310.95
640.888	41247.22
641.241	41179.43
641.594	41151.63
641.947	41437.95
642.301	41310.04
642.654	41401.79
643.007	41438.4
643.36	41223.49
643.713	41235.92
644.066	41281.8
644.419	41085.64
644.771	40879.55
645.124	40656.73
645.477	40446.56
645.83	40328.37
646.182	40064.2
646.535	40091.54
646.888	40319.34
647.24	40006.35
647.593	40237.98
647.945	40202.28
648.298	39953.7
648.65	39923.19
649.002	39945.33
649.355	40038.21
649.707	40057.87
650.059	40172.22
650.411	40665.09
650.763	40705.99
651.115	41091.74
651.467	40875.48
651.819	40875.25
652.171	40828.47
652.523	40780.79
652.875	40800
653.227	40593.9
653.578	40886.1
653.93	40763.84
654.282	40749.15
654.633	40547.8
654.985	40746.22
655.337	40761.13
655.688	40936.49
656.039	40820.11
656.391	40523.62
656.742	40646.56
657.094	40685.65
657.445	40780.11
657.796	40554.13
658.147	40673
658.498	40579.44
658.849	40725.65
659.2	40588.25
659.551	40516.84
659.902	40708.93
660.253	40475.26
660.604	40637.97
660.955	40476.39
661.306	40566.33
661.656	40480.01
662.007	40494.7
662.358	40510.97
662.708	40578.09
663.059	40563.4
663.409	40297.87
663.76	40570.18
664.11	40470.74
664.461	40502.83
664.811	40692.21
665.161	40383.51
665.511	40437.3
665.862	40385.1
666.212	40512.55
666.562	40489.73
666.912	40437.3
667.262	40315.27
667.612	40429.84
667.962	40427.13
668.312	40375.15
668.662	40532.66
669.011	40468.48
669.361	40336.06
669.711	40387.58
670.06	40285.89
670.41	40298.77
670.76	40177.64
671.109	40434.13
671.459	40252.9
671.808	40225.55
672.157	40404.3
672.507	39989.63
672.856	40085.9
673.205	40185.78
673.554	40313.01
673.904	40136.74
674.253	40378.77
674.602	40207.25
674.951	39637.32
675.3	39494.5
675.649	40294.48
675.998	39906.69
676.346	40076.63
676.695	40167.93
677.044	39806.81
677.393	40003.19
677.741	40087.7
678.09	39926.58
678.438	39766.13
678.787	39789.86
679.135	39739.01
679.484	39573.82
679.832	39796.64
680.181	39661.27
680.529	39673.7
680.877	39553.25
681.225	39494.95
681.573	39617.43
681.922	39412.47
682.27	39380.38
682.618	39334.73
682.966	39351.68
683.314	39272.36
683.661	39226.26
684.009	39120.5
684.357	39157.56
684.705	39102.42
685.053	39014.51
685.4	38977.9
685.748	38880.96
686.095	38937.68
686.443	38709.66
686.79	38730.45
687.138	38696.33
687.485	38793.27
687.832	38530.68
688.18	38574.07
688.527	38314.87
688.874	38392.83
689.221	38156.68
689.568	38292.72
689.915	38193.74
690.262	38114.65
690.609	37934.77
690.956	37895.22
691.303	37913.75
691.65	37675.79
691.997	37733.87
692.344	37563.02
692.69	37471.95
693.037	37298.4
693.383	37197.38
693.73	37371.39
694.077	37013.21
694.423	36969.59
694.769	36895.47
695.116	36948.35
695.462	36786.09
695.808	36774.12
696.155	36756.94
696.501	36515.37
696.847	36482.6
697.193	36284.41
697.539	36528.25
697.885	36068.83
698.231	36118.09
698.577	36123.29
698.923	36114.7
699.269	35802.17
699.614	35634.49
699.96	35512.91
700.306	35621.83
700.651	35490.54
700.997	35377.77
701.342	35345
701.688	35197.89
702.033	35199.24
702.379	35177.1
702.724	35007.84
703.069	35117.89
703.415	34730.78
703.76	34705.92
704.105	34735.98
704.45	34604.91
704.795	34526.95
705.14	34394.07
705.485	34357.01
705.83	34284.01
706.175	34210.8
706.52	34136
706.865	33989.78
707.209	34067.75
707.554	33853.97
707.899	33947.75
708.243	33785.72
708.588	33769.23
708.932	33416.92
709.277	33484.26
709.621	33528.78
709.966	33325.62
710.31	33296.24
710.654	33117.49
710.998	33163.82
711.342	33212.4
711.687	33030.71
712.031	33004.73
712.375	32866.65
712.719	32869.59
713.063	32799.99
713.407	32879.08
713.75	32543.72
714.094	32600.89
714.438	32444.51
714.782	32463.72
715.125	32327
715.469	32302.15
715.812	32265.08
716.156	32063.28
716.499	32080
716.843	32182.83
717.186	32143.96
717.53	32107.8
717.873	32051.76
718.216	31906.22
718.559	31936.96
718.902	31677.3
719.246	31701.93
719.589	31550.98
719.932	31545.1
720.275	31484.77
720.617	31552.79
720.96	31344.2
721.303	31523.86
721.646	31351.89
721.989	31261.49
722.331	31306.92
722.674	31238.67
723.016	31161.84
723.359	31167.94
723.701	31213.59
724.044	30979.02
724.386	30900.15
724.729	30984.44
725.071	30950.99
725.413	30901.05
725.755	30820.6
726.097	30685.46
726.439	30594.85
726.782	30515.53
727.124	30726.59
727.465	30566.82
727.807	30380.61
728.149	30416.09
728.491	30368.41
728.833	30377.9
729.175	30292.48
729.516	30153.5
729.858	30095.65
730.199	30119.83
730.541	30111.24
730.882	29998.25
731.224	30257.68
731.565	29883
731.906	29930
732.248	29922.55
732.589	29684.36
732.93	29643.23
733.271	29719.39
733.612	29759.16
733.953	29741.99
734.294	29631.03
734.635	29513.52
734.976	29636.9
735.317	29505.61
735.658	29494.54
735.999	29471.94
736.339	29478.72
736.68	29527.3
737.021	29384.48
737.361	29228.1
737.702	29424.03
738.042	29197.82
738.383	29310.36
738.723	29175.9
739.063	29132.51
739.404	29035.79
739.744	29052.74
740.084	28924.83
740.424	29009.8
740.764	28954.21
741.104	28997.15
741.444	28861.11
741.784	28783.37
742.124	28824.95
742.464	28721.45
742.804	28727.78
743.143	28581.11
743.483	28567.1
743.823	28449.82
744.162	28393.32
744.502	28498.18
744.841	28377.95
745.181	28537.5
745.52	28445.98
745.86	28418.41
746.199	28322.59
746.538	28285.3
746.877	28452.08
747.216	28362.14
747.556	28200.78
747.895	28191.74
748.234	28015.7
748.573	28017.51
748.911	28070.39
749.25	27987.23
749.589	27911.3
749.928	27900.45
750.267	27876.05
750.605	27855.93
750.944	27788.14
751.283	27688.48
751.621	27737.97
751.96	27546.79
752.298	27660.46
752.636	27704.3
752.975	27469.05
753.313	27340.69
753.651	27415.72
753.989	27271.09
754.327	27373.69
754.666	27195.61
755.004	27234.71
755.342	27242.39
755.679	26957.88
756.017	27022.06
756.355	26957.88
756.693	26956.3
757.031	27038.55
757.368	26804.44
757.706	26747.49
758.044	26693.93
758.381	26769.41
758.719	26624.1
759.056	26597.44
759.394	26490.77
759.731	26468.63
760.068	26279.93
