Data from hue_80_FLMS001491_23.txt Node
Date: Mon Feb 06 15:22:43 GMT 2017
User: dcchb
Spectrometer: FLMS00149
Trigger mode: 0
Integration Time (sec): 2.000000E-2
Scans to average: 10
Electric dark correction enabled: true
Nonlinearity correction enabled: false
Boxcar width: 0
XAxis mode: Wavelengths
Number of Pixels in Spectrum: 2048
>>>>>Begin Spectral Data<<<<<
341.393	-2.71
341.776	-2.71
342.16	-2.71
342.543	-72.31
342.927	-64.63
343.31	-83.84
343.693	-57.17
344.077	-77.51
344.46	-58.53
344.843	-34.35
345.226	-33.9
345.61	-40.22
345.993	-29.83
346.376	-13.33
346.759	-4.52
347.142	18.53
347.525	37.51
347.908	69.83
348.291	88.59
348.674	106.89
349.057	111.86
349.44	123.84
349.823	147.79
350.206	152.31
350.588	178.53
350.971	187.79
351.354	241.58
351.737	236.6
352.119	237.28
352.502	273.89
352.884	260.56
353.267	274.8
353.65	270.73
354.032	291.07
354.414	307.11
354.797	314.12
355.179	307.11
355.562	316.15
355.944	328.13
356.326	324.06
356.709	340.1
357.091	338.52
357.473	319.77
357.855	331.97
358.238	339.43
358.62	330.84
359.002	309.82
359.384	343.04
359.766	345.75
360.148	336.71
360.53	347.11
360.912	321.8
361.294	311.63
361.676	306.21
362.057	331.52
362.439	316.38
362.821	327.22
363.203	323.83
363.584	296.49
363.966	309.37
364.348	341.91
364.729	332.19
365.111	305.75
365.493	306.21
365.874	294.68
366.256	292.2
366.637	304.85
367.019	318.64
367.4	334.68
367.781	317.96
368.163	305.3
368.544	297.39
368.925	294.91
369.306	310.27
369.688	306.88
370.069	311.4
370.45	316.38
370.831	324.06
371.212	325.87
371.593	317.96
371.974	308.92
372.355	334
372.736	328.35
373.117	323.83
373.498	297.17
373.879	296.72
374.26	316.6
374.641	317.05
375.021	307.56
375.402	315.7
375.783	304.4
376.163	340.56
376.544	332.65
376.925	333.1
377.305	317.96
377.686	314.79
378.066	325.19
378.447	315.92
378.827	310.5
379.208	320.67
379.588	304.85
379.968	325.42
380.349	342.59
380.729	313.44
381.109	338.3
381.489	339.2
381.87	329.93
382.25	344.17
382.63	319.77
383.01	348.24
383.39	343.27
383.77	324.74
384.15	330.16
384.53	332.87
384.91	297.85
385.29	347.56
385.67	355.47
386.049	338.97
386.429	345.3
386.809	338.97
387.189	333.55
387.568	355.02
387.948	349.82
388.328	351.4
388.707	353.89
389.087	348.69
389.466	348.01
389.846	344.85
390.225	352.99
390.605	365.87
390.984	362.25
391.363	376.94
391.743	353.66
392.122	345.53
392.501	359.99
392.881	344.17
393.26	355.24
393.639	347.11
394.018	330.16
394.397	370.39
394.776	379.43
395.155	359.76
395.534	368.58
395.913	352.53
396.292	385.3
396.671	364.28
397.05	375.58
397.429	386.88
397.808	376.49
398.186	382.14
398.565	390.5
398.944	371.97
399.323	373.32
399.701	386.2
400.08	380.33
400.458	398.86
400.837	384.17
401.215	392.98
401.594	393.21
401.972	370.61
402.351	402.93
402.729	386.88
403.107	402.25
403.486	395.02
403.864	386.66
404.242	391.4
404.62	409.03
404.999	388.69
405.377	413.32
405.755	412.64
406.133	416.03
406.511	428.01
406.889	402.48
407.267	415.58
407.645	426.2
408.023	409.93
408.401	421.68
408.779	416.71
409.156	408.58
409.534	420.1
409.912	425.3
410.29	445.86
410.667	430.5
411.045	407.9
411.422	430.5
411.8	419.88
412.178	450.61
412.555	442.7
412.933	450.84
413.31	438.41
413.687	470.04
414.065	456.26
414.442	472.3
414.819	451.51
415.197	439.31
415.574	486.54
415.951	445.86
416.328	454.68
416.705	466.43
417.082	485.64
417.46	467.11
417.837	493.55
418.214	477.95
418.591	484.51
418.967	478.41
419.344	482.7
419.721	490.16
420.098	505.75
420.475	493.09
420.852	492.42
421.228	497.61
421.605	512.3
421.982	503.04
422.358	500.55
422.735	500.1
423.111	492.87
423.488	521.57
423.864	525.18
424.241	532.87
424.617	536.26
424.994	521.57
425.37	537.16
425.746	525.18
426.123	542.13
426.499	538.06
426.875	559.53
427.251	569.93
427.627	565.86
428.003	543.26
428.379	569.48
428.756	559.76
429.132	561.57
429.507	580.55
429.883	551.4
430.259	570.83
430.635	596.14
431.011	613.09
431.387	575.8
431.763	594.79
432.138	612.41
432.514	622.36
432.89	600.66
433.265	615.35
433.641	629.14
434.016	614.67
434.392	611.96
434.767	627.55
435.143	605.41
435.518	635.92
435.894	653.54
436.269	663.71
436.644	647.44
437.02	671.17
437.395	660.77
437.77	672.52
438.145	670.72
438.52	679.76
438.895	701.9
439.271	691.06
439.646	696.7
440.021	711.17
440.395	688.8
440.77	714.33
441.145	706.2
441.52	733.99
441.895	707.1
442.27	727.89
442.645	713.65
443.019	733.99
443.394	729.02
443.769	731.05
444.143	738.51
444.518	747.78
444.892	730.83
445.267	777.15
445.641	764.73
446.016	766.53
446.39	778.06
446.764	775.35
447.139	766.31
447.513	764.95
447.887	766.53
448.262	806.31
448.636	785.74
449.01	805.63
449.384	800.2
449.758	823.26
450.132	830.03
450.506	842.69
450.88	834.55
451.254	826.64
451.628	829.36
452.002	840.2
452.376	855.34
452.75	869.58
453.123	865.97
453.497	836.59
453.871	886.3
454.244	872.97
454.618	895.57
454.992	897.15
455.365	903.48
455.739	920.43
456.112	915.23
456.486	956.81
456.859	976.92
457.232	949.13
457.606	980.77
457.979	976.02
458.352	995.45
458.725	1057.37
459.099	1030.71
459.472	1003.36
459.845	1026.87
460.218	1040.42
460.591	1029.13
460.964	1032.97
461.337	1047.43
461.71	1093.76
462.083	1101.67
462.456	1089.69
462.829	1107.77
463.201	1147.31
463.574	1116.35
463.947	1168.1
464.32	1170.36
464.692	1189.35
465.065	1189.35
465.438	1243.13
465.81	1235.45
466.183	1239.52
466.555	1281.32
466.928	1296.24
467.3	1324.03
467.672	1321.1
468.045	1340.08
468.417	1322.45
468.789	1370.59
469.161	1405.61
469.534	1442.67
469.906	1452.39
470.278	1450.13
470.65	1466.63
471.022	1489
471.394	1561.77
471.766	1579.85
472.138	1605.38
472.51	1635.44
472.882	1694.87
473.253	1723.57
473.625	1749.78
473.997	1745.72
474.369	1815.77
474.74	1822.32
475.112	1895.54
475.484	1917.01
475.855	1968.54
476.227	2020.96
476.598	2061.41
476.97	2108.87
477.341	2169.21
477.713	2254.18
478.084	2250.56
478.455	2333.95
478.827	2390.22
479.198	2481.52
479.569	2503.66
479.94	2609.65
480.311	2647.61
480.682	2714.73
481.053	2810.32
481.424	2868.17
481.795	2956.53
482.166	3034.04
482.537	3092.12
482.908	3216.64
483.279	3293.47
483.65	3416.63
484.021	3460.25
484.391	3564.2
484.762	3637.42
485.133	3771.2
485.503	3847.81
485.874	3964.19
486.244	4053.23
486.615	4176.61
486.985	4274.01
487.356	4407.34
487.726	4579.31
488.097	4667.9
488.467	4787.67
488.837	4911.74
489.207	5068.12
489.578	5141.33
489.948	5262.46
490.318	5422.46
490.688	5503.58
491.058	5660.87
491.428	5783.58
491.798	5912.84
492.168	6129.33
492.538	6166.39
492.908	6267.86
493.278	6471.92
493.648	6545.36
494.017	6693.84
494.387	6861.97
494.757	6979.7
495.126	7160.04
495.496	7151.9
495.866	7298.57
496.235	7484.1
496.605	7566.81
496.974	7745.79
497.344	7896.74
497.713	7974.48
498.082	8141.93
498.452	8263.96
498.821	8418.31
499.19	8501.92
499.559	8574.92
499.928	8693.1
500.298	8889.71
500.667	8978.07
501.036	9003.15
501.405	9096.48
501.774	9199.76
502.143	9381.45
502.512	9415.12
502.88	9555.23
503.249	9656.24
503.618	9799.52
503.987	9846.52
504.356	9935.33
504.724	10018.49
505.093	10191.82
505.462	10254.42
505.83	10327.19
506.199	10457.13
506.567	10661.41
506.936	10718.14
507.304	10749.55
507.672	10922.42
508.041	10959.94
508.409	11058.92
508.777	11200.84
509.145	11228.41
509.514	11292.36
509.882	11369.19
510.25	11463.88
510.618	11566.48
510.986	11649.86
511.354	11791.55
511.722	11846.92
512.09	11949.97
512.458	11916.97
512.826	12108.16
513.193	12138.21
513.561	12170.75
513.929	12338.43
514.297	12384.08
514.664	12479.67
515.032	12476.73
515.4	12613.68
515.767	12639.22
516.135	12766.9
516.502	12753.56
516.869	12963.5
517.237	12956.72
517.604	12916.27
517.972	13061.35
518.339	13112.2
518.706	13131.41
519.073	13227
519.44	13268.13
519.808	13381.8
520.175	13394.68
520.542	13549.47
520.909	13582.24
521.276	13634.9
521.643	13725.29
522.009	13795.8
522.376	13969.58
522.743	13883.02
523.11	13992.63
523.477	14164.83
523.843	14183.36
524.21	14327.53
524.577	14334.99
524.943	14369.34
525.31	14467.64
525.676	14517.81
526.043	14546.51
526.409	14607.3
526.776	14694.98
527.142	14786.5
527.508	14782.66
527.874	14843.23
528.241	14956.22
528.607	14883.22
528.973	14972.26
529.339	14991.7
529.705	15099.94
530.071	15189.66
530.437	15127.74
530.803	15196.21
531.169	15311.69
531.535	15268.98
531.901	15243.44
532.267	15207.51
532.632	15346.49
532.998	15373.16
533.364	15422.19
533.73	15424.68
534.095	15481.85
534.461	15534.28
534.826	15535.18
535.192	15555.07
535.557	15580.83
535.923	15575.41
536.288	15638.01
536.653	15639.81
537.019	15582.87
537.384	15591.45
537.749	15646.59
538.114	15572.25
538.479	15622.41
538.845	15601.62
539.21	15549.65
539.575	15556.65
539.94	15587.39
540.305	15661.06
540.67	15645.69
541.034	15668.06
541.399	15608.86
541.764	15669.87
542.129	15738.8
542.494	15650.44
542.858	15645.69
543.223	15645.46
543.587	15719.59
543.952	15642.3
544.316	15581.96
544.681	15576.99
545.045	15680.04
545.41	15613.83
545.774	15711.9
546.138	15551.68
546.503	15557.56
546.867	15628.06
547.231	15572.7
547.595	15656.09
547.959	15575.18
548.324	15568.4
548.688	15636.88
549.052	15576.99
549.416	15595.97
549.779	15472.59
550.143	15540.38
550.507	15589.87
550.871	15613.6
551.235	15558.01
551.599	15709.64
551.962	15663.77
552.326	15589.19
552.689	15662.41
553.053	15514.17
553.417	15580.61
553.78	15707.61
554.143	15510.33
554.507	15584.22
554.87	15635.75
555.234	15718
555.597	15618.8
555.96	15679.81
556.323	15638.91
556.686	15652.02
557.05	15777.44
557.413	15744.9
557.776	15742.86
558.139	15736.76
558.502	15747.83
558.865	15682.53
559.228	15769.75
559.59	15806.82
559.953	15798.68
560.316	16008.84
560.679	15879.81
561.041	15970.43
561.404	15989.41
561.767	16115.51
562.129	15946.7
562.492	16092.91
562.854	16108.73
563.217	16040.26
563.579	16077.77
563.941	16149.63
564.304	16152.57
564.666	16181.72
565.028	16259.69
565.39	16327.25
565.753	16292.23
566.115	16344.2
566.477	16275.73
566.839	16340.36
567.201	16413.35
567.563	16449.29
567.925	16505.1
568.287	16496.52
568.648	16535.61
569.01	16547.59
569.372	16693.12
569.734	16664.87
570.095	16758.88
570.457	16738.77
570.819	16732.89
571.18	16754.14
571.542	16823.06
571.903	16822.61
572.265	16833
572.626	16866.22
572.987	16934.7
573.349	16915.26
573.71	16978.99
574.071	16941.25
574.432	17003.17
574.794	17132.2
575.155	17050.17
575.516	16975.6
575.877	17148.48
576.238	17097.18
576.599	17145.99
576.96	17230.96
577.32	17171.75
577.681	17268.92
578.042	17143.96
578.403	17244.07
578.763	17232.99
579.124	17245.2
579.485	17265.53
579.845	17204.07
580.206	17216.27
580.566	17216.27
580.927	17251.3
581.287	17278.87
581.648	17222.15
582.008	17331.97
582.368	17329.71
582.728	17360.22
583.089	17325.87
583.449	17244.52
583.809	17256.27
584.169	17307.34
584.529	17291.97
584.889	17379.43
585.249	17275.25
585.609	17122.94
585.969	17346.89
586.329	17253.11
586.688	17290.84
587.048	17292.88
587.408	17195.03
587.768	17268.02
588.127	17252.65
588.487	17260.79
588.846	17264.63
589.206	17117.74
589.565	17181.24
589.925	17209.04
590.284	17304.86
590.643	17191.41
591.003	17240.22
591.362	17150.28
591.721	17200.68
592.08	17194.35
592.44	17273.9
592.799	17180.57
593.158	17200.68
593.517	17225.08
593.876	17256.72
594.235	17142.37
594.593	17117.74
594.952	17270.96
595.311	17080.23
595.67	17149.38
596.029	17262.14
596.387	17219.89
596.746	17224.41
597.104	17162.49
597.463	17279.32
597.822	17221.02
598.18	17033.45
598.538	17217.17
598.897	17277.06
599.255	17054.69
599.613	17305.31
599.972	17185.54
600.33	17176.95
600.688	17216.27
601.046	17226.89
601.404	17253.56
601.762	17319.32
602.12	17343.5
602.478	17237.96
602.836	17305.76
603.194	17170.62
603.552	17187.57
603.91	17169.27
604.268	17254.91
604.625	17174.01
604.983	17312.99
605.341	17157.06
605.698	17188.7
606.056	17326.1
606.413	17283.61
606.771	17378.3
607.128	17258.08
607.485	17205.65
607.843	17252.88
608.2	17366.32
608.557	17403.61
608.914	17337.85
609.272	17415.59
609.629	17448.35
609.986	17483.16
610.343	17469.82
610.7	17595.24
611.057	17526.32
611.414	17478.86
611.771	17584.4
612.127	17559.76
612.484	17559.54
612.841	17583.94
613.198	17620.33
613.554	17529.48
613.911	17664.39
614.267	17588.01
614.624	17582.81
614.98	17687.22
615.337	17747.33
615.693	17737.39
616.05	17661.91
616.406	17853.32
616.762	17734.9
617.118	17858.74
617.475	17711.85
617.831	17761.34
618.187	17829.36
618.543	17851.96
618.899	17891.06
619.255	17862.36
619.611	17838.85
619.967	17918.85
620.323	17929.92
620.678	17821.68
621.034	17843.82
621.39	17790.27
621.746	17821.23
622.101	18066.42
622.457	17823.49
622.812	17924.95
623.168	17999.53
623.523	17909.81
623.879	18028.68
624.234	17922.24
624.589	18011.28
624.945	17941.68
625.3	17992.52
625.655	18021.67
626.01	18078.39
626.365	17945.06
626.72	17999.3
627.075	17880.43
627.43	17920.66
627.785	17923.6
628.14	17939.42
628.495	18021.9
628.85	17961.34
629.205	17839.76
629.559	17972.63
629.914	17939.42
630.269	17895.12
630.623	17931.73
630.978	17849.25
631.332	17916.59
631.687	17893.31
632.041	17837.5
632.396	17884.73
632.75	17772.19
633.104	17859.87
633.459	17771.96
633.813	17750.49
634.167	17683.38
634.521	17733.77
634.875	17788.68
635.229	17671.17
635.583	17640.67
635.937	17552.98
636.291	17595.24
636.645	17634.79
636.999	17582.36
637.352	17602.48
637.706	17482.48
638.06	17664.17
638.413	17508.24
638.767	17390.73
639.121	17482.48
639.474	17362.03
639.828	17400.45
640.181	17421.46
640.534	17430.73
640.888	17466.21
641.241	17341.01
641.594	17348.47
641.947	17465.76
642.301	17400.22
642.654	17433.67
643.007	17358.87
643.36	17319.09
643.713	17341.01
644.066	17398.64
644.419	17300.11
644.771	17159.55
645.124	16994.58
645.477	16954.36
645.83	16878.88
646.182	16815.38
646.535	16741.03
646.888	16764.08
647.24	16697.87
647.593	16812.21
647.945	16718.88
648.298	16626.23
648.65	16668.94
649.002	16681.82
649.355	16639.79
649.707	16652.44
650.059	16743.74
650.411	16960.01
650.763	16993.45
651.115	17165.65
651.467	17071.42
651.819	17222.82
652.171	17150.96
652.523	17057.18
652.875	17079.55
653.227	16983.28
653.578	17075.03
653.93	17091.53
654.282	16987.35
654.633	17063.28
654.985	17073.22
655.337	17058.53
655.688	16968.37
656.039	17083.84
656.391	16924.98
656.742	16937.18
657.094	17012.21
657.445	17169.72
657.796	16998.65
658.147	16975.37
658.498	17057.63
658.849	16997.07
659.2	17046.78
659.551	16929.72
659.902	16966.79
660.253	16983.51
660.604	17148.7
660.955	16908.71
661.306	17074.81
661.656	16999.78
662.007	17007.69
662.358	16985.54
662.708	16945.09
663.059	16971.76
663.409	16941.25
663.76	17075.26
664.11	17006.56
664.461	17051.08
664.811	16994.36
665.161	17071.19
665.511	17014.92
665.862	17154.35
666.212	17099.44
666.562	17163.39
666.912	17035.71
667.262	17025.77
667.612	17075.48
667.962	17107.57
668.312	17083.84
668.662	17142.15
669.011	17098.99
669.361	16964.98
669.711	17034.81
670.06	17005.65
670.41	17057.86
670.76	16970.4
671.109	17042.04
671.459	16980.57
671.808	16967.01
672.157	17004.52
672.507	16877.07
672.856	16832.33
673.205	16867.58
673.554	16919.1
673.904	16891.31
674.253	16964.98
674.602	16849.27
674.951	16637.08
675.3	16571.77
675.649	16831.87
675.998	16838.43
676.346	16755.72
676.695	16940.35
677.044	16770.86
677.393	16687.02
677.741	16870.52
678.09	16773.8
678.438	16742.16
678.787	16655.83
679.135	16771.31
679.484	16535.61
679.832	16710.3
680.181	16609.05
680.529	16684.53
680.877	16643.86
681.225	16639.34
681.573	16652.22
681.922	16533.8
682.27	16412.68
682.618	16509.4
682.966	16355.05
683.314	16439.34
683.661	16315.05
684.009	16276.41
684.357	16248.39
684.705	16386.46
685.053	16290.42
685.4	16169.52
685.748	16122.51
686.095	16149.86
686.443	16115.51
686.79	16102.63
687.138	16091.1
687.485	16110.31
687.832	15951.44
688.18	16020.82
688.527	15946.47
688.874	15835.29
689.221	15806.59
689.568	15825.57
689.915	15793.48
690.262	15736.76
690.609	15656.99
690.956	15602.53
691.303	15534.28
691.65	15579.93
691.997	15506.03
692.344	15385.58
692.69	15412.7
693.037	15379.93
693.383	15230.56
693.73	15230.11
694.077	15201.86
694.423	15200.73
694.769	15117.57
695.116	15073.05
695.462	14992.6
695.808	15054.52
696.155	14972.71
696.501	14856.33
696.847	14848.65
697.193	14774.75
697.539	14732.72
697.885	14631.48
698.231	14582.44
698.577	14668.09
698.923	14548.09
699.269	14510.35
699.614	14418.6
699.96	14352.39
700.306	14428.77
700.651	14346.06
700.997	14243.47
701.342	14286.86
701.688	14181.55
702.033	14173.41
702.379	14117.37
702.724	14051.83
703.069	14035.34
703.415	13906.08
703.76	13895.91
704.105	13880.76
704.45	13857.71
704.795	13768
705.14	13796.7
705.485	13681
705.83	13583.37
706.175	13666.31
706.52	13643.94
706.865	13527.33
707.209	13538.85
707.554	13456.14
707.899	13497.5
708.243	13403.94
708.588	13387.44
708.932	13257.28
709.277	13206.66
709.621	13243.27
709.966	13174.12
710.31	13218.86
710.654	13100.22
710.998	13092.99
711.342	13118.07
711.687	12980.68
712.031	13020.9
712.375	12850.06
712.719	12881.7
713.063	12872.2
713.407	12916.27
713.75	12880.57
714.094	12801.25
714.438	12675.6
714.782	12780.45
715.125	12645.54
715.469	12795.37
715.812	12659.55
716.156	12637.63
716.499	12686.67
716.843	12618.43
717.186	12487.58
717.53	12629.5
717.873	12681.47
718.216	12588.6
718.559	12516.28
718.902	12468.15
719.246	12507.69
719.589	12470.63
719.932	12400.35
720.275	12402.61
720.617	12388.15
720.96	12382.95
721.303	12371.65
721.646	12342.95
721.989	12311.54
722.331	12380.69
722.674	12395.61
723.016	12250.75
723.359	12342.27
723.701	12302.05
724.044	12273.12
724.386	12196.52
724.729	12226.35
725.071	12282.61
725.413	12224.76
725.755	12175.95
726.097	12094.15
726.439	12134.14
726.782	12061.38
727.124	12181.6
727.465	12089.4
727.807	12042.17
728.149	12020.47
728.491	11968.5
728.833	12150.19
729.175	12026.12
729.516	12098.89
729.858	12039.68
730.199	11961.27
730.541	11971.21
730.882	11924.43
731.224	12083.98
731.565	11969.4
731.906	11963.53
732.248	12053.92
732.589	11929.4
732.93	11864.55
733.271	11892.12
733.612	11961.49
733.953	11912.46
734.294	11961.27
734.635	11902.51
734.976	11920.82
735.317	11869.97
735.658	11889.4
735.999	11961.27
736.339	11843.98
736.68	11963.08
737.021	11928.27
737.361	11860.48
737.702	12034.49
738.042	11997.88
738.383	11897.77
738.723	11916.52
739.063	11935.73
739.404	11949.97
739.744	11939.12
740.084	11931.44
740.424	11919.46
740.764	11922.17
741.104	11914.49
741.444	11894.15
741.784	11955.17
742.124	11982.96
742.464	12018.67
742.804	11974.15
743.143	12039.68
743.483	12036.75
743.823	12053.47
744.162	12074.94
744.502	12198.32
744.841	12131.21
745.181	12230.86
745.52	12208.72
745.86	12248.27
746.199	12243.07
746.538	12282.61
746.877	12265.89
747.216	12336.17
747.556	12379.34
747.895	12503.17
748.234	12448.94
748.573	12524.87
748.911	12567.58
749.25	12655.26
749.589	12618.43
749.928	12665.88
750.267	12802.6
750.605	12769.38
750.944	12794.01
751.283	12986.33
751.621	13055.25
751.96	13054.12
752.298	13125.3
752.636	13274.45
752.975	13343.6
753.313	13280.78
753.651	13492.75
753.989	13513.32
754.327	13574.11
754.666	13645.97
755.004	13778.85
755.342	13875.12
755.679	13854.55
756.017	13952.85
756.355	14043.47
756.693	14175.9
757.031	14385.84
