Data from hue_170_FLMS001491_00071.txt Node
Date: Tue Feb 07 16:49:09 GMT 2017
User: dcchb
Spectrometer: FLMS00149
Trigger mode: 0
Integration Time (sec): 2.000000E-2
Scans to average: 10
Electric dark correction enabled: true
Nonlinearity correction enabled: false
Boxcar width: 0
XAxis mode: Wavelengths
Number of Pixels in Spectrum: 2048
>>>>>Begin Spectral Data<<<<<
341.393	-12.27
341.776	-12.27
342.16	-12.27
342.543	-72.61
342.927	-71.03
343.31	-79.84
343.693	-91.37
344.077	-59.28
344.46	-61.99
344.843	-56.57
345.226	-53.4
345.61	-38.04
345.993	-11.82
346.376	-16.12
346.759	-5.72
347.142	21.85
347.525	63.88
347.908	66.82
348.291	91.45
348.674	94.16
349.057	135.97
349.44	151.79
349.823	140.94
350.206	164.44
350.588	175.74
350.971	199.02
351.354	241.73
351.737	238.12
352.119	232.47
352.502	264.33
352.884	282.18
353.267	276.08
353.65	286.02
354.032	304.1
354.414	307.72
354.797	309.75
355.179	300.26
355.562	332.8
355.944	325.34
356.326	329.19
356.709	333.48
357.091	326.7
357.473	339.81
357.855	331.45
358.238	346.36
358.62	351.56
359.002	352.01
359.384	343.2
359.766	328.06
360.148	331.22
360.53	341.62
360.912	329.41
361.294	334.16
361.676	325.57
362.057	312.24
362.439	340.03
362.821	334.84
363.203	335.97
363.584	309.3
363.966	296.19
364.348	320.6
364.729	331.67
365.111	326.02
365.493	325.8
365.874	308.85
366.256	319.69
366.637	325.12
367.019	331.67
367.4	313.37
367.781	307.27
368.163	313.14
368.544	302.75
368.925	293.03
369.306	316.76
369.688	289.41
370.069	282.63
370.45	325.8
370.831	319.47
371.212	287.61
371.593	311.56
371.974	335.29
372.355	307.49
372.736	313.14
373.117	332.8
373.498	312.69
373.879	301.16
374.26	320.15
374.641	310.43
375.021	321.05
375.402	311.11
375.783	304.55
376.163	322.86
376.544	335.29
376.925	311.11
377.305	317.44
377.686	323.08
378.066	317.89
378.447	319.47
378.827	328.51
379.208	331.45
379.588	330.77
379.968	329.64
380.349	319.47
380.729	349.3
381.109	334.61
381.489	341.39
381.87	338.68
382.25	326.47
382.63	321.73
383.01	346.59
383.39	339.81
383.77	325.34
384.15	332.12
384.53	329.86
384.91	335.97
385.29	333.25
385.67	341.62
386.049	336.64
386.429	322.63
386.809	340.03
387.189	348.39
387.568	335.74
387.948	344.33
388.328	370.32
388.707	344.55
389.087	345.23
389.466	356.98
389.846	359.02
390.225	362.63
390.605	356.98
390.984	332.8
391.363	344.1
391.743	354.04
392.122	367.83
392.501	372.35
392.881	361.5
393.26	365.34
393.639	372.12
394.018	371.9
394.397	375.29
394.776	368.06
395.155	360.82
395.534	384.1
395.913	375.96
396.292	371.22
396.671	369.86
397.05	394.72
397.429	393.14
397.808	387.04
398.186	389.52
398.565	376.19
398.944	399.92
399.323	400.37
399.701	387.26
400.08	379.35
400.458	382.07
400.837	383.87
401.215	379.35
401.594	398.79
401.972	407.83
402.351	411.67
402.729	398.56
403.107	404.44
403.486	411.9
403.864	400.6
404.242	431.78
404.62	428.39
404.999	417.77
405.377	407.38
405.755	404.66
406.133	401.73
406.511	435.85
406.889	424.1
407.267	439.47
407.645	438.79
408.023	426.36
408.401	434.95
408.779	435.85
409.156	448.96
409.534	448.73
409.912	444.21
410.29	466.36
410.667	448.51
411.045	471.1
411.422	470.65
411.8	481.5
412.178	490.09
412.555	474.27
412.933	515.85
413.31	500.71
413.687	487.6
414.065	514.49
414.442	515.4
414.819	524.66
415.197	506.58
415.574	523.53
415.951	530.31
416.328	554.49
416.705	538.67
417.082	543.42
417.46	540.03
417.837	540.71
418.214	552.46
418.591	547.94
418.967	563.76
419.344	552.46
419.721	573.25
420.098	562.63
420.475	580.25
420.852	595.62
421.228	613.7
421.605	589.52
421.982	622.96
422.358	603.3
422.735	613.92
423.111	621.38
423.488	640.59
423.864	622.29
424.241	647.37
424.617	652.57
424.994	656.41
425.37	655.73
425.746	654.83
426.123	692.11
426.499	667.93
426.875	689.85
427.251	684.21
427.627	704.54
428.003	697.31
428.379	729.63
428.756	707.93
429.132	738.67
429.507	709.06
429.883	740.93
430.259	728.27
430.635	748.38
431.011	766.46
431.387	756.75
431.763	769.4
432.138	757.65
432.514	789.74
432.89	792.45
433.265	815.5
433.641	807.82
434.016	823.41
434.392	829.29
434.767	854.14
435.143	866.57
435.518	851.21
435.894	864.99
436.269	885.1
436.644	892.34
437.02	894.6
437.395	933.92
437.77	938.89
438.145	958.1
438.52	956.29
438.895	935.05
439.271	977.3
439.646	987.47
440.021	998.55
440.395	1013.91
440.77	991.99
441.145	995.61
441.52	1000.58
441.895	1046.68
442.27	1050.07
442.645	1064.53
443.019	1068.15
443.394	1091.65
443.769	1068.6
444.143	1076.06
444.518	1097.3
444.892	1080.58
445.267	1097.98
445.641	1108.15
446.016	1155.61
446.39	1144.98
446.764	1142.27
447.139	1141.37
447.513	1156.28
447.887	1156.51
448.262	1172.55
448.636	1192.21
449.01	1169.16
449.384	1192.44
449.758	1197.41
450.132	1222.95
450.506	1253.91
450.88	1242.61
451.254	1263.85
451.628	1250.97
452.002	1268.14
452.376	1272.89
452.75	1324.87
453.123	1297.3
453.497	1335.71
453.871	1315.15
454.244	1361.25
454.618	1391.98
454.992	1356.05
455.365	1404.41
455.739	1430.4
456.112	1447.8
456.486	1443.96
456.859	1466.78
457.232	1496.84
457.606	1492.32
457.979	1482.15
458.352	1520.34
458.725	1564.18
459.099	1570.96
459.472	1587.46
459.845	1598.76
460.218	1630.39
460.591	1687.57
460.964	1657.06
461.337	1676.04
461.71	1725.99
462.083	1730.73
462.456	1739.32
462.829	1787.68
463.201	1808.02
463.574	1811.63
463.947	1836.72
464.32	1875.59
464.692	1889.82
465.065	1925.08
465.438	1955.36
465.81	1961.91
466.183	1978.18
466.555	2037.84
466.928	2070.84
467.3	2038.07
467.672	2108.57
468.045	2161.91
468.417	2162.36
468.789	2225.18
469.161	2227.67
469.534	2297.27
469.906	2348.79
470.278	2359.64
470.65	2349.7
471.022	2466.53
471.394	2452.29
471.766	2551.27
472.138	2545.63
472.51	2641.44
472.882	2692.74
473.253	2718.73
473.625	2794.21
473.997	2846.18
474.369	2898.16
474.74	2947.87
475.112	2980.19
475.484	3094.76
475.855	3150.36
476.227	3211.82
476.598	3264.02
476.97	3365.26
477.341	3399.39
477.713	3479.39
478.084	3523.23
478.455	3621.53
478.827	3703.33
479.198	3865.82
479.569	3866.04
479.94	3973.16
480.311	4066.72
480.682	4161.85
481.053	4321.62
481.424	4384.9
481.795	4492.01
482.166	4541.5
482.537	4626.25
482.908	4789.86
483.279	4864.66
483.65	5018.55
484.021	5128.83
484.391	5212.22
484.762	5306.23
485.133	5333.8
485.503	5480.46
485.874	5577.41
486.244	5745.54
486.615	5848.59
486.985	5932.65
487.356	6150.28
487.726	6214
488.097	6355.02
488.467	6445.18
488.837	6639.08
489.207	6712.97
489.578	6879.75
489.948	6955
490.318	7073.42
490.688	7157.26
491.058	7348.89
491.428	7447.87
491.798	7500.3
492.168	7747.52
492.538	7821.19
492.908	7927.18
493.278	8112.03
493.648	8163.56
494.017	8261.41
494.387	8363.55
494.757	8541.85
495.126	8610.32
495.496	8653.04
495.866	8704.56
496.235	8926.47
496.605	8988.85
496.974	9055.28
497.344	9165.34
497.713	9281.27
498.082	9394.94
498.452	9477.87
498.821	9478.1
499.19	9545.67
499.559	9651.43
499.928	9765.55
500.298	9803.97
500.667	9916.05
501.036	9941.14
501.405	10003.96
501.774	10082.6
502.143	10224.97
502.512	10196.95
502.88	10356.72
503.249	10330.51
503.618	10457.28
503.987	10474.23
504.356	10519.65
504.724	10589.48
505.093	10602.14
505.462	10615.47
505.83	10701.12
506.199	10747.9
506.567	10972.52
506.936	10947.21
507.304	11007.32
507.672	11041.9
508.041	11090.71
508.409	11165.51
508.777	11216.58
509.145	11350.37
509.514	11190.82
509.882	11290.25
510.25	11340.2
510.618	11448.67
510.986	11426.75
511.354	11496.8
511.722	11492.96
512.09	11612.73
512.458	11546.07
512.826	11639.17
513.193	11673.75
513.561	11641.21
513.929	11722.11
514.297	11794.65
514.664	11896.11
515.032	11834.42
515.4	11884.81
515.767	11905.38
516.135	11924.81
516.502	11771.82
516.869	12007.07
517.237	12045.49
517.604	11959.39
517.972	12113.96
518.339	12075.77
518.706	12020.18
519.073	12098.14
519.44	12127.75
519.808	12268.08
520.175	12087.52
520.542	12269.89
520.909	12254.3
521.276	12232.38
521.643	12346.95
522.009	12323.9
522.376	12418.81
522.743	12415.87
523.11	12457.68
523.477	12498.36
523.843	12478.47
524.21	12543.33
524.577	12525.7
524.943	12587.62
525.31	12608.86
525.676	12636.89
526.043	12683.21
526.409	12663.1
526.776	12699.93
527.142	12695.19
527.508	12656.77
527.874	12691.8
528.241	12702.19
528.607	12668.75
528.973	12761.4
529.339	12661.97
529.705	12705.36
530.071	12763.44
530.437	12728.41
530.803	12765.92
531.169	12794.62
531.535	12674.4
531.901	12665.13
532.267	12652.03
532.632	12713.04
532.998	12726.6
533.364	12592.59
533.73	12560.05
534.095	12591.46
534.461	12660.84
534.826	12582.88
535.192	12537.23
535.557	12602.08
535.923	12506.72
536.288	12494.74
536.653	12498.36
537.019	12384.24
537.384	12388.3
537.749	12330.45
538.114	12291.81
538.479	12262.66
538.845	12240.51
539.21	12177.24
539.575	12185.15
539.94	12100.4
540.305	12109.67
540.67	12003
541.034	12033.06
541.399	12008.43
541.764	11990.35
542.129	11948.09
542.494	11846.4
542.858	11844.82
543.223	11813.4
543.587	11778.15
543.952	11715.55
544.316	11684.59
544.681	11672.16
545.045	11666.06
545.41	11637.36
545.774	11591.71
546.138	11554.2
546.503	11550.81
546.867	11417.93
547.231	11509.46
547.595	11448.44
547.959	11395.79
548.324	11302.46
548.688	11305.39
549.052	11263.36
549.416	11226.75
549.779	11163.48
550.143	11130.03
550.507	11131.61
550.871	11166.64
551.235	11008.91
551.599	11065.4
551.962	10982.24
552.326	10946.99
552.689	10997.83
553.053	10870.38
553.417	10895.69
553.78	10953.31
554.143	10730.72
554.507	10826.99
554.87	10781.34
555.234	10783.83
555.597	10753.32
555.96	10682.13
556.323	10788.8
556.686	10726.65
557.05	10724.17
557.413	10637.62
557.776	10592.65
558.139	10646.88
558.502	10619.99
558.865	10556.94
559.228	10572.31
559.59	10577.5
559.953	10593.55
560.316	10475.59
560.679	10478.98
561.041	10478.98
561.404	10545.87
561.767	10575.7
562.129	10471.97
562.492	10542.93
562.854	10525.08
563.217	10464.51
563.579	10460.22
563.941	10560.78
564.304	10546.09
564.666	10563.72
565.028	10497.28
565.39	10515.13
565.753	10575.7
566.115	10543.38
566.477	10604.4
566.839	10593.55
567.201	10605.3
567.563	10579.99
567.925	10670.84
568.287	10610.27
568.648	10558.3
569.01	10568.92
569.372	10652.98
569.734	10598.07
570.095	10630.84
570.457	10589.71
570.819	10616.6
571.18	10554.45
571.542	10646.43
571.903	10584.06
572.265	10665.19
572.626	10637.84
572.987	10682.36
573.349	10693.21
573.71	10685.52
574.071	10591.29
574.432	10704.51
574.794	10699.54
575.155	10673.55
575.516	10659.54
575.877	10699.76
576.238	10655.92
576.599	10662.25
576.96	10600.1
577.32	10646.66
577.681	10744.96
578.042	10755.35
578.403	10702.47
578.763	10722.81
579.124	10744.96
579.485	10723.94
579.845	10759.42
580.206	10734.56
580.566	10644.62
580.927	10708.12
581.287	10780.66
581.648	10672.87
582.008	10658.41
582.368	10673.1
582.728	10680.33
583.089	10634.68
583.449	10623.15
583.809	10648.46
584.169	10629.25
584.529	10606.2
584.889	10640.78
585.249	10593.32
585.609	10528.01
585.969	10597.84
586.329	10560.33
586.688	10499.54
587.048	10570.05
587.408	10497.51
587.768	10497.73
588.127	10504.51
588.487	10538.64
588.846	10496.6
589.206	10477.39
589.565	10539.54
589.925	10589.03
590.284	10519.88
590.643	10466.77
591.003	10496.15
591.362	10523.27
591.721	10519.65
592.08	10528.92
592.44	10403.05
592.799	10452.54
593.158	10459.09
593.517	10459.77
593.876	10458.41
594.235	10389.71
594.593	10408.7
594.952	10445.98
595.311	10354.91
595.67	10385.65
596.029	10482.37
596.387	10354.46
596.746	10429.26
597.104	10314.69
597.463	10405.98
597.822	10408.02
598.18	10365.31
598.538	10337.74
598.897	10417.06
599.255	10269.26
599.613	10446.21
599.972	10373.22
600.33	10338.19
600.688	10331.18
601.046	10395.36
601.404	10406.21
601.762	10358.08
602.12	10379.09
602.478	10340
602.836	10407.11
603.194	10269.94
603.552	10341.35
603.91	10276.5
604.268	10291.64
604.625	10296.83
604.983	10349.49
605.341	10259.55
605.698	10391.52
606.056	10316.49
606.413	10282.6
606.771	10379.77
607.128	10305.42
607.485	10299.77
607.843	10300.22
608.2	10427
608.557	10418.86
608.914	10348.58
609.272	10387.23
609.629	10412.99
609.986	10428.58
610.343	10411.18
610.7	10384.06
611.057	10425.64
611.414	10388.81
611.771	10387.9
612.127	10433.1
612.484	10401.24
612.841	10457.28
613.198	10473.33
613.554	10408.92
613.911	10467
614.267	10452.99
614.624	10451.18
614.98	10513.78
615.337	10528.47
615.693	10480.11
616.05	10485.98
616.406	10507.9
616.762	10516.26
617.118	10423.61
617.475	10497.28
617.831	10485.53
618.187	10562.36
618.543	10510.39
618.899	10571.63
619.255	10516.49
619.611	10573.44
619.967	10623.15
620.323	10621.8
620.678	10602.36
621.034	10532.08
621.39	10564.62
621.746	10532.76
622.101	10616.15
622.457	10552.65
622.812	10597.84
623.168	10562.82
623.523	10601.23
623.879	10662.93
624.234	10521.91
624.589	10615.7
624.945	10617.05
625.3	10606.88
625.655	10567.34
626.01	10557.84
626.365	10573.66
626.72	10529.14
627.075	10563.95
627.43	10553.1
627.785	10553.78
628.14	10505.42
628.495	10575.92
628.85	10530.5
629.205	10486.21
629.559	10529.37
629.914	10502.7
630.269	10509.26
630.623	10501.8
630.978	10481.91
631.332	10472.2
631.687	10544.74
632.041	10481.69
632.396	10499.54
632.75	10484.85
633.104	10377.96
633.459	10399.66
633.813	10372.54
634.167	10432.88
634.521	10316.27
634.875	10412.08
635.229	10343.39
635.583	10372.76
635.937	10368.24
636.291	10302.71
636.645	10380.9
636.999	10297.74
637.352	10363.05
637.706	10218.19
638.06	10340
638.413	10269.04
638.767	10282.14
639.121	10205.31
639.474	10109.49
639.828	10216.38
640.181	10259.77
640.534	10205.08
640.888	10191.98
641.241	10075.14
641.594	10170.74
641.947	10149.94
642.301	10137.29
642.654	10177.97
643.007	10180
643.36	10142.49
643.713	10158.31
644.066	10203.5
644.419	10128.02
644.771	10089.61
645.124	9990.4
645.477	9958.09
645.83	9908.14
646.182	9846.9
646.535	9823.17
646.888	9808.03
647.24	9788.15
647.593	9864.75
647.945	9844.42
648.298	9763.06
648.65	9765.1
649.002	9804.19
649.355	9846
649.707	9787.24
650.059	9820.01
650.411	9930.52
650.763	9969.61
651.115	10079.44
651.467	10059.1
651.819	10003.28
652.171	10099.55
652.523	9961.25
652.875	9960.57
653.227	9969.84
653.578	10101.13
653.93	10029.27
654.282	9954.7
654.633	9984.53
654.985	9949.05
655.337	9985.66
655.688	10045.09
656.039	10037.41
656.391	9984.98
656.742	9996.5
657.094	10004.86
657.445	10000.57
657.796	10009.16
658.147	10014.13
658.498	9995.37
658.849	10022.72
659.2	10032.43
659.551	10029.72
659.902	10052.32
660.253	10035.6
660.604	10088.48
660.955	9982.49
661.306	10088.03
661.656	10116.73
662.007	10082.15
662.358	10086.44
662.708	10043.73
663.059	10151.75
663.409	10021.36
663.76	10123.28
664.11	10128.7
664.461	10123.28
664.811	10192.2
665.161	10105.2
665.511	10071.98
665.862	10168.48
666.212	10205.99
666.562	10144.75
666.912	10123.73
667.262	10070.17
667.612	10083.96
667.962	10102.71
668.312	10129.83
668.662	10191.07
669.011	10107.23
669.361	10094.81
669.711	10126.44
670.06	10055.03
670.41	10109.72
670.76	10043.06
671.109	10080.57
671.459	10072.43
671.808	10074.24
672.157	10109.72
672.507	10005.77
672.856	10041.7
673.205	10001.25
673.554	10059.1
673.904	9992.89
674.253	9985.2
674.602	9984.3
674.951	9843.51
675.3	9810.97
675.649	9986.33
675.998	9946.79
676.346	9927.35
676.695	9993.79
677.044	9904.98
677.393	9817.52
677.741	9932.1
678.09	9892.55
678.438	9857.07
678.787	9843.96
679.135	9880.57
679.484	9789.05
679.832	9854.36
680.181	9771.65
680.529	9771.42
680.877	9794.47
681.225	9749.28
681.573	9833.34
681.922	9780.69
682.27	9749.96
682.618	9731.42
682.966	9676.74
683.314	9740.46
683.661	9627.02
684.009	9646
684.357	9621.15
684.705	9534.82
685.053	9581.6
685.4	9580.02
685.748	9583.63
686.095	9476.06
686.443	9481.26
686.79	9507.7
687.138	9480.58
687.485	9507.48
687.832	9417.08
688.18	9499.79
688.527	9364.43
688.874	9401.04
689.221	9336.18
689.568	9249.63
689.915	9318.33
690.262	9303.41
690.609	9267.03
690.956	9236.3
691.303	9216.86
691.65	9076.75
691.997	9124.21
692.344	9060.48
692.69	9093.7
693.037	9072.23
693.383	9003.99
693.73	8993.82
694.077	8893.93
694.423	8933.03
694.769	8877.44
695.116	8834.05
695.462	8855.06
695.808	8835.63
696.155	8833.37
696.501	8708.63
696.847	8751.79
697.193	8692.13
697.539	8726.03
697.885	8585.69
698.231	8602.42
698.577	8610.1
698.923	8533.72
699.269	8478.35
699.614	8401.06
699.96	8450.78
700.306	8453.27
700.651	8358.13
700.997	8334.63
701.342	8359.03
701.688	8322.65
702.033	8219.83
702.379	8236.32
702.724	8207.4
703.069	8275.64
703.415	8132.82
703.76	8093.5
704.105	8131.69
704.45	7997.69
704.795	8032.94
705.14	8023.45
705.485	8004.46
705.83	7992.26
706.175	7998.59
706.52	7915.65
706.865	7864.36
707.209	7830.91
707.554	7823.23
707.899	7825.94
708.243	7751.14
708.588	7748.88
708.932	7740.97
709.277	7740.52
709.621	7739.84
709.966	7674.98
710.31	7698.26
710.654	7631.59
710.998	7631.82
711.342	7609.67
711.687	7586.85
712.031	7607.86
712.375	7530.58
712.719	7519.51
713.063	7507.08
713.407	7522.44
713.75	7502.56
714.094	7463.46
714.438	7479.51
714.782	7433.86
715.125	7351.37
715.469	7409.45
715.812	7355.89
716.156	7368.55
716.499	7283.81
716.843	7348.66
717.186	7263.02
717.53	7347.08
717.873	7336.91
718.216	7259.63
718.559	7242
718.902	7200.64
719.246	7226.86
719.589	7239.51
719.932	7195.67
720.275	7225.5
720.617	7197.03
720.96	7148.22
721.303	7203.13
721.646	7129.01
721.989	7174.88
722.331	7164.49
722.674	7267.08
723.016	7155.45
723.359	7192.28
723.701	7175.33
724.044	7131.95
724.386	7097.14
724.729	7141.66
725.071	7117.93
725.413	7141.89
725.755	7092.4
726.097	7114.54
726.439	7016.92
726.782	7041.33
727.124	7118.61
727.465	7068.67
727.807	7090.82
728.149	7051.95
728.491	7075.9
728.833	7052.63
729.175	7039.97
729.516	7038.84
729.858	7053.98
730.199	7016.92
730.541	7074.55
730.882	7082.91
731.224	7034.77
731.565	7088.1
731.906	7026.86
732.248	7072.51
732.589	7004.49
732.93	7070.93
733.271	6983.25
733.612	7059.4
733.953	7096.47
734.294	7033.87
734.635	7054.21
734.976	7033.64
735.317	7040.42
735.658	7063.92
735.999	7105.28
736.339	7072.06
736.68	7107.31
737.021	7066.86
737.361	7003.59
737.702	7097.14
738.042	7128.33
738.383	7063.25
738.723	7125.39
739.063	7169.46
739.404	7205.62
739.744	7159.74
740.084	7148.67
740.424	7145.73
740.764	7130.82
741.104	7164.26
741.444	7180.53
741.784	7226.41
742.124	7200.87
742.464	7252.62
742.804	7280.42
743.143	7272.28
743.483	7243.35
743.823	7256.24
744.162	7276.57
744.502	7336.69
744.841	7360.87
745.181	7452.16
745.52	7456
745.86	7482.22
746.199	7476.57
746.538	7515.66
746.877	7615.1
747.216	7665.26
747.556	7757.47
747.895	7798.82
748.234	7769.67
748.573	7854.86
748.911	7901.19
749.25	7923.11
749.589	7980.28
749.928	8054.18
750.267	8164.91
750.605	8174.63
750.944	8293.72
751.283	8309.54
751.621	8457.33
751.96	8499.37
752.298	8569.42
752.636	8708.17
752.975	8725.12
753.313	8819.81
753.651	9022.07
753.989	9057.77
754.327	9192.46
754.666	9320.59
755.004	9397.65
755.342	9528.49
755.679	9608.26
756.017	9764.42
756.355	9920.35
756.693	9976.84
757.031	10232.2
757.368	10320.79
757.706	10428.13
758.044	10636.03
758.381	10775.24
758.719	10843.94
759.056	11106.76
759.394	11269.69
759.731	11348.33
760.068	11511.94
760.405	11652.73
760.743	11860.86
761.08	12078.93
