Data from hue_330_FLMS001491_37.txt Node
Date: Mon Feb 06 15:45:19 GMT 2017
User: dcchb
Spectrometer: FLMS00149
Trigger mode: 0
Integration Time (sec): 2.000000E-2
Scans to average: 10
Electric dark correction enabled: true
Nonlinearity correction enabled: false
Boxcar width: 0
XAxis mode: Wavelengths
Number of Pixels in Spectrum: 2048
>>>>>Begin Spectral Data<<<<<
341.393	-14.39
341.776	-14.39
342.16	-14.39
342.543	-46.71
342.927	-58.23
343.31	-91.9
343.693	-72.24
344.077	-58.46
344.46	-54.84
344.843	-48.52
345.226	-55.3
345.61	-30.44
345.993	-13.94
346.376	6.4
346.759	7.53
347.142	38.71
347.525	35.1
347.908	65.15
348.291	84.81
348.674	95.66
349.057	92.27
349.44	133.4
349.823	115.55
350.206	164.13
350.588	188.54
350.971	208.2
351.354	221.53
351.737	233.28
352.119	267.86
352.502	264.24
352.884	285.26
353.267	271.93
353.65	306.5
354.032	330.46
354.414	299.95
354.797	334.75
355.179	314.19
355.562	330.23
355.944	323.9
356.326	331.14
356.709	311.47
357.091	346.28
357.473	339.04
357.855	329.78
358.238	342.66
358.62	345.37
359.002	327.75
359.384	329.55
359.766	344.47
360.148	320.97
360.53	343.56
360.912	353.73
361.294	344.02
361.676	325.03
362.057	334.75
362.439	334.98
362.821	324.13
363.203	314.41
363.584	327.29
363.966	301.53
364.348	310.57
364.729	332.04
365.111	320.29
365.493	311.25
365.874	308.54
366.256	322.1
366.637	337.24
367.019	345.82
367.4	309.89
367.781	296.11
368.163	324.58
368.544	306.96
368.925	321.87
369.306	309.44
369.688	316.9
370.069	309.22
370.45	314.64
370.831	315.54
371.212	323.68
371.593	315.99
371.974	318.71
372.355	325.94
372.736	305.83
373.117	313.96
373.498	332.04
373.879	314.86
374.26	325.03
374.641	323.68
375.021	296.33
375.402	311.7
375.783	308.31
376.163	344.92
376.544	315.99
376.925	330.68
377.305	320.97
377.686	318.93
378.066	334.07
378.447	324.13
378.827	329.33
379.208	341.76
379.588	337.69
379.968	338.59
380.349	344.47
380.729	328.2
381.109	337.01
381.489	340.17
381.87	322.55
382.25	315.09
382.63	342.43
383.01	321.19
383.39	339.5
383.77	341.08
384.15	337.24
384.53	336.11
384.91	329.78
385.29	353.73
385.67	361.19
386.049	355.09
386.429	347.86
386.809	349.44
387.189	345.37
387.568	352.6
387.948	341.3
388.328	338.37
388.707	373.85
389.087	357.12
389.466	344.24
389.846	368.2
390.225	346.95
390.605	344.69
390.984	370.68
391.363	366.16
391.743	359.84
392.122	346.28
392.501	388.99
392.881	390.34
393.26	356.67
393.639	386.73
394.018	377.69
394.397	366.61
394.776	386.05
395.155	393.28
395.534	354.19
395.913	381.76
396.292	367.07
396.671	393.96
397.05	380.17
397.429	404.58
397.808	378.82
398.186	372.26
398.565	361.87
398.944	371.13
399.323	376.78
399.701	378.59
400.08	393.51
400.458	394.18
400.837	407.07
401.215	389.44
401.594	407.29
401.972	389.66
402.351	396.9
402.729	416.33
403.107	406.61
403.486	398.93
403.864	409.33
404.242	383.11
404.62	400.51
404.999	413.62
405.377	424.24
405.755	431.7
406.133	407.07
406.511	417.01
406.889	433.28
407.267	414.97
407.645	433.96
408.023	441.64
408.401	452.26
408.779	461.75
409.156	440.74
409.534	447.97
409.912	451.13
410.29	459.49
410.667	479.83
411.045	482.77
411.422	479.38
411.8	470.34
412.178	468.53
412.555	475.54
412.933	494.29
413.31	505.14
413.687	511.7
414.065	501.75
414.442	499.27
414.819	518.02
415.197	519.15
415.574	520.51
415.951	553.5
416.328	520.51
416.705	553.95
417.082	559.38
417.46	562.32
417.837	558.93
418.214	561.19
418.591	553.05
418.967	568.42
419.344	583.56
419.721	599.83
420.098	583.11
420.475	600.05
420.852	609.09
421.228	608.87
421.605	629.21
421.982	611.13
422.358	607.74
422.735	613.39
423.111	629.66
423.488	657.45
423.864	621.98
424.241	645.7
424.617	674.86
424.994	677.11
425.37	664.46
425.746	669.21
426.123	645.93
426.499	676.21
426.875	706.72
427.251	718.24
427.627	709.88
428.003	738.36
428.379	710.79
428.756	707.17
429.132	741.97
429.507	730.9
429.883	723.44
430.259	750.11
430.635	774.06
431.011	772.93
431.387	816.77
431.763	776.1
432.138	794.17
432.514	820.16
432.89	799.37
433.265	824.91
433.641	826.49
434.016	845.92
434.392	835.3
434.767	866.94
435.143	843.44
435.518	872.82
435.894	893.38
436.269	899.03
436.644	897.9
437.02	885.02
437.395	909.43
437.77	908.75
438.145	911.69
438.52	918.46
438.895	942.64
439.271	940.38
439.646	977.9
440.021	958.92
440.395	950.1
440.77	955.3
441.145	968.41
441.52	993.49
441.895	996.2
442.27	1018.8
442.645	976.32
443.019	992.81
443.394	995.98
443.769	985.36
444.143	996.43
444.518	1013.38
444.892	996.88
445.267	1014.96
445.641	1040.95
446.016	1010.67
446.39	1026.48
446.764	1065.81
447.139	1040.95
447.513	1041.17
447.887	1065.58
448.262	1055.86
448.636	1042.98
449.01	1073.04
449.384	1081.62
449.758	1072.58
450.132	1059.25
450.506	1072.36
450.88	1077.56
451.254	1080.49
451.628	1088.63
452.002	1134.96
452.376	1111.91
452.75	1121.62
453.123	1119.36
453.497	1140.38
453.871	1120.95
454.244	1166.82
454.618	1135.18
454.992	1153.94
455.365	1181.06
455.739	1199.81
456.112	1171.79
456.486	1207.27
456.859	1208.63
457.232	1199.81
457.606	1213.15
457.979	1219.7
458.352	1237.33
458.725	1225.12
459.099	1260.6
459.472	1284.1
459.845	1267.38
460.218	1299.02
460.591	1296.99
460.964	1313.93
461.337	1311
461.71	1322.97
462.083	1334.95
462.456	1348.74
462.829	1329.08
463.201	1375.4
463.574	1360.26
463.947	1383.99
464.32	1407.72
464.692	1429.19
465.065	1391.9
465.438	1403.42
465.81	1433.25
466.183	1455.17
466.555	1455.85
466.928	1465.12
467.3	1482.29
467.672	1497.21
468.045	1510.31
468.417	1511.9
468.789	1527.04
469.161	1545.79
469.534	1551.89
469.906	1587.15
470.278	1605.23
470.65	1604.32
471.022	1614.27
471.394	1655.85
471.766	1665.34
472.138	1675.73
472.51	1673.47
472.882	1703.3
473.253	1735.39
473.625	1733.58
473.997	1761.38
474.369	1781.27
474.74	1776.75
475.112	1816.29
475.484	1842.73
475.855	1865.11
476.227	1901.49
476.598	1921.15
476.97	1959.34
477.341	1948.27
477.713	1987.59
478.084	1977.87
478.455	2052.67
478.827	2031.2
479.198	2113.01
479.569	2121.14
479.94	2124.31
480.311	2169.96
480.682	2193.46
481.053	2258.99
481.424	2234.59
481.795	2240.46
482.166	2301.25
482.537	2322.5
482.908	2366.34
483.279	2377.18
483.65	2390.97
484.021	2421.02
484.391	2464.41
484.762	2468.93
485.133	2483.85
485.503	2510.51
485.874	2568.14
486.244	2556.39
486.615	2599.32
486.985	2630.28
487.356	2672.09
487.726	2665.54
488.097	2733.56
488.467	2729.04
488.837	2810.84
489.207	2830.28
489.578	2846.55
489.948	2847.45
490.318	2887.9
490.688	2904.63
491.058	2955.25
491.428	2958.64
491.798	3016.26
492.168	3035.47
492.538	3045.41
492.908	3086.77
493.278	3110.5
493.648	3114.56
494.017	3155.92
494.387	3139.2
494.757	3211.06
495.126	3230.95
495.496	3221.68
495.866	3235.47
496.235	3260.78
496.605	3288.57
496.974	3299.19
497.344	3331.06
497.713	3311.62
498.082	3351.39
498.452	3418.96
498.821	3373.77
499.19	3442.47
499.559	3374.22
499.928	3440.88
500.298	3461
500.667	3496.02
501.036	3468
501.405	3497.38
501.774	3542.12
502.143	3519.98
502.512	3546.87
502.88	3581.22
503.249	3554.78
503.618	3602.46
503.987	3612.18
504.356	3592.29
504.724	3615.34
505.093	3616.25
505.462	3653.08
505.83	3685.85
506.199	3680.2
506.567	3703.7
506.936	3698.28
507.304	3766.07
507.672	3774.43
508.041	3764.72
508.409	3785.28
508.777	3731.27
509.145	3823.25
509.514	3778.73
509.882	3809.69
510.25	3808.78
510.618	3841.1
510.986	3849.69
511.354	3858.5
511.722	3900.08
512.09	3896.24
512.458	3849.01
512.826	3906.63
513.193	3891.49
513.561	3933.75
513.929	4005.39
514.297	4013.75
514.664	4005.39
515.032	4001.55
515.4	3995.45
515.767	4018.72
516.135	4049.23
516.502	4007.42
516.869	4096.91
517.237	4017.37
517.604	4030.93
517.972	4093.75
518.339	4083.58
518.706	4065.95
519.073	4053.07
519.44	4086.29
519.808	4133.07
520.175	4125.16
520.542	4143.24
520.909	4168.77
521.276	4156.12
521.643	4210.81
522.009	4232.5
522.376	4216.68
522.743	4252.84
523.11	4251.94
523.477	4306.62
523.843	4300.75
524.21	4344.59
524.577	4343.69
524.943	4335.78
525.31	4327.41
525.676	4414.87
526.043	4402.67
526.409	4406.96
526.776	4417.81
527.142	4407.19
527.508	4496.22
527.874	4547.52
528.241	4547.52
528.607	4514.75
528.973	4580.29
529.339	4587.29
529.705	4579.16
530.071	4624.13
530.437	4655.32
530.803	4660.74
531.169	4691.92
531.535	4680.17
531.901	4701.42
532.267	4743.9
532.632	4776.89
532.998	4778.02
533.364	4776.44
533.73	4805.59
534.095	4878.13
534.461	4849.21
534.826	4863.45
535.192	4897.12
535.557	4978.7
535.923	4956.32
536.288	4947.51
536.653	4970.34
537.019	4939.38
537.384	5012.82
537.749	5046.04
538.114	5044.01
538.479	5048.3
538.845	5069.54
539.21	5076.55
539.575	5129.88
539.94	5150.67
540.305	5135.75
540.67	5163.32
541.034	5179.37
541.399	5219.82
541.764	5246.71
542.129	5224.11
542.494	5301.17
542.858	5299.82
543.223	5274.06
543.587	5258.01
543.952	5368.74
544.316	5361.96
544.681	5380.49
545.045	5445.58
545.41	5443.77
545.774	5494.39
546.138	5470.44
546.503	5503.43
546.867	5495.97
547.231	5531.68
547.595	5535.07
547.959	5606.48
548.324	5618.45
548.688	5599.47
549.052	5638.11
549.416	5644.22
549.779	5659.81
550.143	5661.84
550.507	5754.95
550.871	5704.55
551.235	5672.46
551.599	5791.78
551.962	5805.34
552.326	5786.36
552.689	5805.57
553.053	5806.02
553.417	5866.58
553.78	5879.24
554.143	5900.48
554.507	5908.62
554.87	5901.16
555.234	5947.26
555.597	5937.99
555.96	5993.81
556.323	5987.26
556.686	5996.98
557.05	6037.43
557.413	6046.01
557.776	6061.61
558.139	6110.42
558.502	6094.37
558.865	6085.33
559.228	6100.48
559.59	6164.65
559.953	6154.49
560.316	6177.08
560.679	6194.94
561.041	6293.92
561.404	6274.48
561.767	6217.76
562.129	6248.49
562.492	6298.21
562.854	6304.76
563.217	6301.6
563.579	6311.32
563.941	6362.84
564.304	6394.7
564.666	6395.16
565.028	6390.64
565.39	6454.59
565.753	6468.6
566.115	6461.14
566.477	6507.92
566.839	6496.85
567.201	6592.44
567.563	6545.21
567.925	6638.09
568.287	6640.57
568.648	6701.36
569.01	6700.23
569.372	6735.03
569.734	6695.26
570.095	6787.46
570.457	6790.63
570.819	6841.25
571.18	6776.62
571.542	6912.43
571.903	6886.9
572.265	6932.77
572.626	6975.93
572.987	6963.28
573.349	7086.66
573.71	7091.64
574.071	7104.52
574.432	7190.84
574.794	7289.6
575.155	7280.11
575.516	7297.73
575.877	7393.55
576.238	7456.37
576.599	7545.41
576.96	7572.53
577.32	7593.09
577.681	7731.17
578.042	7769.81
578.403	7917.15
578.763	7934.78
579.124	7965.51
579.485	8104.49
579.845	8306.29
580.206	8335.9
580.566	8418.61
580.927	8541.31
581.287	8724.59
581.648	8856.79
582.008	8956.45
582.368	9045.93
582.728	9229.21
583.089	9329.32
583.449	9504.23
583.809	9664
584.169	9787.38
584.529	9986.25
584.889	10164.32
585.249	10343.98
585.609	10509.62
585.969	10772.44
586.329	10910.52
586.688	11189.15
587.048	11365.65
587.408	11552.08
587.768	11740.78
588.127	11956.59
588.487	12159.75
588.846	12594.54
589.206	12690.36
589.565	12955.44
589.925	13254.64
590.284	13479.49
590.643	13736.21
591.003	14004.67
591.362	14287.15
591.721	14461.61
592.08	14775.5
592.44	15104.53
592.799	15389.5
593.158	15630.17
593.517	15958.97
593.876	16238.51
594.235	16376.82
594.593	16751.49
594.952	17090.02
595.311	17261.31
595.67	17584.02
596.029	17989.43
596.387	18292.7
596.746	18645
597.104	18751.89
597.463	19023.53
597.822	19488.6
598.18	19619.89
598.538	19805.88
598.897	20336.03
599.255	20399.08
599.613	20978.95
599.972	21143.24
600.33	21430.69
600.688	21609.45
601.046	21980.06
601.404	22303.44
601.762	22519.93
602.12	22986.58
602.478	23158.56
602.836	23396.52
603.194	23621.14
603.552	23833.57
603.91	23985.88
604.268	24422.48
604.625	24627.9
604.983	24871.73
605.341	24969.36
605.698	25365.51
606.056	25713.52
606.413	25898.6
606.771	26126.84
607.128	26417.91
607.485	26573.61
607.843	26754.17
608.2	27086.59
608.557	27416.75
608.914	27464.43
609.272	27875.5
609.629	28038.88
609.986	28403.39
610.343	28441.36
610.7	28780.56
611.057	28881.12
611.414	29001.12
611.771	29236.82
612.127	29606.52
612.484	29621.21
612.841	29970.36
613.198	30020.07
613.554	30161.99
613.911	30449.21
614.267	30583.67
614.624	30663.45
614.98	30913.38
615.337	31222.07
615.693	31364.67
616.05	31500.49
616.406	31747.71
616.762	31753.13
617.118	31849.85
617.475	32202.39
617.831	32262.95
618.187	32344.98
618.543	32664.97
618.899	32880.56
619.255	32956.27
619.611	32959.88
619.967	33261.57
620.323	33368.23
620.678	33287.78
621.034	33335.24
621.39	33460.21
621.746	33685.74
622.101	34129.79
622.457	33851.61
622.812	33973.87
623.168	34159.4
623.523	34328.43
623.879	34379.28
624.234	34269.45
624.589	34375.44
624.945	34736.33
625.3	34665.37
625.655	34816.33
626.01	34853.17
626.365	34985.59
626.72	34968.42
627.075	34951.69
627.43	35021.75
627.785	35162.08
628.14	35298.35
628.495	35340.84
628.85	35162.54
629.205	35310.1
629.559	35509.87
629.914	35360.5
630.269	35522.3
630.623	35525.69
630.978	35462.87
631.332	35733.82
631.687	35836.42
632.041	35735.4
632.396	35736.98
632.75	35711.22
633.104	35854.95
633.459	35673.03
633.813	35744.44
634.167	35715.06
634.521	35677.55
634.875	35801.16
635.229	35833.25
635.583	35602.07
635.937	35742.41
636.291	35704.89
636.645	35809.3
636.999	35673.71
637.352	35853.14
637.706	35634.84
638.06	35965.45
638.413	35690.88
638.767	35687.04
639.121	35790.77
639.474	35662.64
639.828	35656.08
640.181	35715.29
640.534	35713.48
640.888	35803.65
641.241	35512.13
641.594	35742.63
641.947	35808.62
642.301	35685.91
642.654	35656.76
643.007	35814.5
643.36	35671.9
643.713	35736.98
644.066	35743.31
644.419	35775.63
644.771	35340.16
645.124	35135.87
645.477	34991.24
645.83	34810.68
646.182	34717.8
646.535	34698.14
646.888	34665.15
647.24	34520.07
647.593	34735.2
647.945	34670.35
648.298	34531.37
648.65	34444.59
649.002	34529.56
649.355	34565.26
649.707	34499.05
650.059	34691.36
650.411	35095.19
650.763	35186.49
651.115	35441.85
651.467	35298.8
651.819	35479.14
652.171	35337.22
652.523	35130.45
652.875	35273.27
653.227	35094.97
653.578	35349.88
653.93	35158.92
654.282	35292.93
654.633	35056.78
654.985	35151.01
655.337	35226.71
655.688	35180.39
656.039	35309.42
656.391	35051.8
656.742	35116.66
657.094	35088.41
657.445	35249.09
657.796	35092.48
658.147	35006.38
658.498	35099.71
658.849	35174.51
659.2	34972.03
659.551	35021.75
659.902	35113.5
660.253	35063.33
660.604	35114.85
660.955	34959.6
661.306	35169.54
661.656	35037.34
662.007	35119.6
662.358	34991.92
662.708	34965.25
663.059	35005.48
663.409	34799.83
663.76	35121.18
664.11	34974.52
664.461	34927.06
664.811	35082.09
665.161	34939.04
665.511	34958.93
665.862	34981.52
666.212	35123.89
666.562	34981.52
666.912	34906.27
667.262	34824.69
667.612	34951.47
667.962	34834.86
668.312	34923.45
668.662	35082.76
669.011	34967.74
669.361	34933.16
669.711	34751.25
670.06	34776.56
670.41	34671.48
670.76	34856.78
671.109	34827.63
671.459	34877.8
671.808	34790.34
672.157	34876.22
672.507	34577.01
672.856	34594.64
673.205	34751.47
673.554	34808.87
673.904	34668.99
674.253	34788.76
674.602	34671.02
674.951	34230.58
675.3	34122.79
675.649	34570.91
675.998	34729.33
676.346	34605.94
676.695	34603.91
677.044	34429.67
677.393	34593.74
677.741	34681.19
678.09	34414.08
678.438	34428.77
678.787	34415.44
679.135	34478.49
679.484	34355.78
679.832	34436
680.181	34288.21
680.529	34418.15
680.877	34237.36
681.225	34105.39
681.573	34475.77
681.922	34106.07
682.27	34090.93
682.618	34095.45
682.966	33954.66
683.314	34005.73
683.661	33939.29
684.009	33855
684.357	33736.13
684.705	33664.72
685.053	33708.11
685.4	33704.5
685.748	33466.08
686.095	33503.82
686.443	33418.4
686.79	33410.04
687.138	33381.57
687.485	33478.74
687.832	33335.69
688.18	33254.79
688.527	33097.28
688.874	33315.13
689.221	33067.45
689.568	33065.64
689.915	32877.4
690.262	32934.12
690.609	32837.63
690.956	32745.65
691.303	32791.3
691.65	32657.52
691.997	32573.9
692.344	32266.11
692.69	32381.14
693.037	32373
693.383	32163.52
693.73	32242.84
694.077	32067.93
694.423	32128.94
694.769	31850.31
695.116	31844.88
695.462	31852.11
695.808	31747.26
696.155	31728.5
696.501	31537.09
696.847	31555.17
697.193	31282.41
697.539	31554.72
697.885	31353.82
698.231	31102.76
698.577	31217.1
698.923	31152.25
699.269	30977.56
699.614	30832.71
699.96	30751.35
700.306	30789.54
700.651	30604.24
700.997	30570.11
701.342	30508.65
701.688	30544.8
702.033	30394.07
702.379	30309.56
702.724	30208.77
703.069	30298.71
703.415	29948.21
703.76	29993.18
704.105	29965.84
704.45	29850.59
704.795	29785.05
705.14	29747.99
705.485	29663.25
705.83	29529.46
706.175	29540.54
706.52	29605.17
706.865	29296.02
707.209	29416.92
707.554	29226.42
707.899	29231.39
708.243	29177.83
708.588	29102.58
708.932	28966.31
709.277	28910.27
709.621	28968.12
709.966	28920.21
710.31	28795.02
710.654	28607.68
710.998	28655.81
711.342	28613.56
711.687	28473.67
712.031	28389.83
712.375	28281.13
712.719	28380.34
713.063	28314.58
713.407	28408.14
713.75	28199.1
714.094	28117.07
714.438	28105.77
714.782	28135.6
715.125	27859.68
715.469	27951.88
715.812	27825.78
716.156	27598.44
716.499	27616.29
716.843	27602.51
717.186	27524.09
717.53	27608.38
717.873	27593.47
718.216	27564.77
718.559	27433.47
718.902	27265.12
719.246	27358.22
719.589	27225.34
719.932	27246.13
720.275	27161.16
720.617	27143.09
720.96	27077.78
721.303	27183.54
721.646	26986.48
721.989	26877.1
722.331	26920.72
722.674	26936.99
723.016	26821.74
723.359	26756.2
723.701	26901.96
724.044	26699.71
724.386	26531.35
724.729	26641.86
725.071	26618.35
725.413	26621.29
725.755	26609.09
726.097	26430.56
726.439	26381.98
726.782	26276.44
727.124	26433.95
727.465	26265.59
727.807	26398.47
728.149	26171.59
728.491	26200.29
728.833	26152.38
729.175	26028.54
729.516	25962.33
729.858	25942.21
730.199	26063.79
730.541	25958.94
730.882	25826.28
731.224	25959.84
731.565	25749.45
731.906	25809.34
732.248	25882.1
732.589	25759.85
732.93	25622.9
733.271	25571.15
733.612	25689.56
733.953	25682.79
734.294	25645.05
734.635	25379.97
734.976	25650.7
735.317	25431.72
735.658	25413.41
735.999	25434.66
736.339	25388.56
736.68	25429.23
737.021	25281.89
737.361	25226.98
737.702	25276.69
738.042	25243.02
738.383	25050.03
738.723	25272.17
739.063	25009.36
739.404	24997.15
739.744	25080.54
740.084	24846.87
740.424	24905.4
740.764	24796.71
741.104	24969.58
741.444	24727.33
741.784	24680.78
742.124	24789.02
742.464	24699.08
742.804	24618.63
743.143	24639.42
743.483	24699.08
743.823	24457.51
744.162	24596.94
744.502	24500.22
744.841	24397.4
745.181	24449.37
745.52	24379.09
745.86	24338.19
746.199	24238.08
746.538	24290.05
746.877	24351.07
747.216	24380.45
747.556	24191.75
747.895	24250.73
748.234	24043.28
748.573	24025.43
748.911	23975.03
749.25	24034.47
749.589	23855.49
749.928	23886.22
750.267	23930.06
750.605	23806
750.944	23778.43
751.283	23805.77
751.621	23784.3
751.96	23594.93
752.298	23525.78
752.636	23620.92
752.975	23511.77
753.313	23395.61
753.651	23442.84
753.989	23442.17
754.327	23409.4
754.666	23197.2
755.004	23268.39
755.342	23220.7
755.679	23158.78
756.017	23031.78
756.355	23085.57
756.693	23014.83
757.031	22965.34
757.368	23006.7
757.706	22867.27
758.044	22751.79
758.381	22802.41
758.719	22826.14
759.056	22699.59
759.394	22585.24
759.731	22537.56
760.068	22388.41
