Data from hue_60_FLMS001491_78.txt Node
Date: Mon Feb 06 15:17:54 GMT 2017
User: dcchb
Spectrometer: FLMS00149
Trigger mode: 0
Integration Time (sec): 2.000000E-2
Scans to average: 10
Electric dark correction enabled: true
Nonlinearity correction enabled: false
Boxcar width: 0
XAxis mode: Wavelengths
Number of Pixels in Spectrum: 2048
>>>>>Begin Spectral Data<<<<<
341.393	2.56
341.776	2.56
342.16	2.56
342.543	-44.9
342.927	-60.04
343.31	-61.17
343.693	-87.16
344.077	-45.35
344.46	-55.07
344.843	-73.6
345.226	-51.91
345.61	-41.28
345.993	-13.94
346.376	11.82
346.759	4.36
347.142	31.71
347.525	32.84
347.908	46.85
348.291	83.01
348.674	97.7
349.057	121.2
349.44	128.88
349.823	146.51
350.206	160.29
350.588	207.3
350.971	209.1
351.354	231.02
351.737	250.23
352.119	252.27
352.502	283
352.884	275.32
353.267	280.52
353.65	311.93
354.032	303.79
354.414	304.47
354.797	332.94
355.179	319.38
355.562	332.49
355.944	347.63
356.326	352.83
356.709	341.76
357.091	361.64
357.473	355.77
357.855	348.54
358.238	365.94
358.62	339.95
359.002	336.78
359.384	333.62
359.766	339.95
360.148	338.82
360.53	358.03
360.912	339.72
361.294	334.98
361.676	339.04
362.057	353.73
362.439	355.09
362.821	352.83
363.203	332.27
363.584	317.8
363.966	335.2
364.348	346.28
364.729	334.3
365.111	337.69
365.493	326.16
365.874	348.99
366.256	327.97
366.637	339.04
367.019	326.16
367.4	331.14
367.781	332.72
368.163	298.59
368.544	335.88
368.925	314.41
369.306	340.85
369.688	332.72
370.069	324.36
370.45	323
370.831	316.45
371.212	345.82
371.593	326.84
371.974	341.3
372.355	299.05
372.736	321.64
373.117	339.04
373.498	339.95
373.879	337.69
374.26	342.66
374.641	339.5
375.021	363.9
375.402	337.24
375.783	358.71
376.163	329.33
376.544	357.35
376.925	327.75
377.305	340.4
377.686	323.23
378.066	344.24
378.447	345.15
378.827	339.5
379.208	322.1
379.588	325.49
379.968	325.49
380.349	329.78
380.729	342.66
381.109	331.81
381.489	347.41
381.87	329.1
382.25	332.27
382.63	351.47
383.01	326.62
383.39	342.89
383.77	338.82
384.15	331.81
384.53	345.82
384.91	359.38
385.29	346.28
385.67	348.54
386.049	370.23
386.429	348.08
386.809	338.59
387.189	368.65
387.568	372.26
387.948	361.19
388.328	364.13
388.707	370.46
389.087	361.87
389.466	374.52
389.846	349.21
390.225	377.24
390.605	365.94
390.984	370.46
391.363	358.93
391.743	387.86
392.122	365.94
392.501	371.59
392.881	361.19
393.26	378.82
393.639	372.72
394.018	385.82
394.397	364.58
394.776	369.1
395.155	370.46
395.534	369.78
395.913	367.52
396.292	379.04
396.671	391.25
397.05	406.61
397.429	394.64
397.808	393.96
398.186	397.12
398.565	385.82
398.944	404.35
399.323	407.07
399.701	391.92
400.08	389.66
400.458	416.56
400.837	421.53
401.215	417.01
401.594	391.47
401.972	380.17
402.351	411.36
402.729	405.03
403.107	419.72
403.486	416.1
403.864	413.17
404.242	433.51
404.62	398.03
404.999	429.89
405.377	429.44
405.755	412.26
406.133	414.3
406.511	424.69
406.889	439.38
407.267	426.05
407.645	444.13
408.023	438.48
408.401	409.55
408.779	449.55
409.156	443.9
409.534	439.38
409.912	435.77
410.29	447.06
410.667	450.68
411.045	436.9
411.422	452.49
411.8	461.53
412.178	469.89
412.555	450.68
412.933	476.22
413.31	478.02
413.687	473.05
414.065	479.61
414.442	450.23
414.819	485.93
415.197	484.8
415.574	492.49
415.951	493.84
416.328	497.91
416.705	471.92
417.082	472.15
417.46	501.98
417.837	516.44
418.214	495.88
418.591	476.67
418.967	507.85
419.344	540.62
419.721	518.25
420.098	524.58
420.475	520.51
420.852	526.84
421.228	519.38
421.605	546.72
421.982	533.84
422.358	523.9
422.735	512.6
423.111	540.17
423.488	537.01
423.864	560.06
424.241	561.41
424.617	535.88
424.994	561.86
425.37	559.83
425.746	546.27
426.123	562.32
426.499	580.85
426.875	577
427.251	593.73
427.627	568.87
428.003	572.94
428.379	586.95
428.756	615.65
429.132	604.12
429.507	599.38
429.883	606.83
430.259	611.13
430.635	626.27
431.011	625.14
431.387	648.87
431.763	627.17
432.138	642.09
432.514	669.21
432.89	635.53
433.265	647.96
433.641	678.47
434.016	672.37
434.392	670.11
434.767	673.5
435.143	661.07
435.518	692.48
435.894	667.62
436.269	694.06
436.644	685.48
437.02	704.68
437.395	695.42
437.77	702.43
438.145	698.36
438.52	715.98
438.895	715.53
439.271	725.02
439.646	752.59
440.021	731.58
440.395	733.16
440.77	720.73
441.145	758.92
441.52	744.68
441.895	736.32
442.27	758.02
442.645	759.15
443.019	785.81
443.394	780.39
443.769	762.99
444.143	765.93
444.518	777.23
444.892	794.63
445.267	778.58
445.641	785.81
446.016	781.97
446.39	808.86
446.764	803.67
447.139	828.3
447.513	810.22
447.887	817.45
448.262	797.34
448.636	815.19
449.01	841.18
449.384	838.47
449.758	819.94
450.132	851.12
450.506	850.44
450.88	876.66
451.254	850.22
451.628	891.35
452.002	870.56
452.376	882.99
452.75	873.49
453.123	892.48
453.497	906.49
453.871	884.79
454.244	927.73
454.618	907.39
454.992	928.41
455.365	918.46
455.739	965.24
456.112	961.85
456.486	972.7
456.859	1009.08
457.232	998.91
457.606	979.25
457.979	1042.3
458.352	1032.13
458.725	1020.16
459.099	1043.21
459.472	1083.66
459.845	1073.04
460.218	1064.9
460.591	1073.49
460.964	1095.64
461.337	1132.7
461.71	1153.71
462.083	1117.56
462.456	1142.87
462.829	1144.22
463.201	1170.21
463.574	1175.63
463.947	1209.76
464.32	1202.98
464.692	1231.45
465.065	1247.27
465.438	1263.99
465.81	1281.39
466.183	1308.96
466.555	1318
466.928	1333.37
467.3	1343.09
467.672	1367.94
468.045	1394.16
468.417	1395.51
468.789	1441.84
469.161	1469.18
469.534	1468.73
469.906	1509.64
470.278	1526.36
470.65	1558
471.022	1569.97
471.394	1610.42
471.766	1671.44
472.138	1658.11
472.51	1728.39
472.882	1748.27
473.253	1783.75
473.625	1802.74
473.997	1879.34
474.369	1936.74
474.74	1914.6
475.112	1934.26
475.484	1991.88
475.855	2053.8
476.227	2122.05
476.598	2187.81
476.97	2213.35
477.341	2274.14
477.713	2338.77
478.084	2365.43
478.455	2458.76
478.827	2508.48
479.198	2635.48
479.569	2660.11
479.94	2788.47
480.311	2797.06
480.682	2859.88
481.053	3006.32
481.424	3065.07
481.795	3136.26
482.166	3240.44
482.537	3321.11
482.908	3449.02
483.279	3520.88
483.65	3653.08
484.021	3771.5
484.391	3852.62
484.762	3922.68
485.133	4013.3
485.503	4129.23
485.874	4298.04
486.244	4355.66
486.615	4556.79
486.985	4622.77
487.356	4845.14
487.726	4923.33
488.097	5058.02
488.467	5141.18
488.837	5384.56
489.207	5455.07
489.578	5630.43
489.948	5768.51
490.318	5888.96
490.688	6008.5
491.058	6200.36
491.428	6333.01
491.798	6452.33
492.168	6675.6
492.538	6773
492.908	6955.37
493.278	7092.54
493.648	7272.87
494.017	7408.24
494.387	7628.8
494.757	7763.26
495.126	7911.28
495.496	8017.71
495.866	8211.61
496.235	8365.27
496.605	8625.15
496.974	8659.28
497.344	8824.25
497.713	8964.81
498.082	9079.15
498.452	9291.35
498.821	9428.07
499.19	9601.17
499.559	9706.93
499.928	9908.28
500.298	10114.15
500.667	10240.71
501.036	10355.73
501.405	10500.13
501.774	10578.1
502.143	10836.17
502.512	10898.32
502.88	11139.89
503.249	11215.82
503.618	11348.92
503.987	11467.57
504.356	11676.15
504.724	11800.66
505.093	12018.74
505.462	12134.89
505.83	12261.9
506.199	12387.32
506.567	12655.56
506.936	12703.69
507.304	12895.32
507.672	13027.07
508.041	13131.48
508.409	13213.96
508.777	13415.09
509.145	13575.53
509.514	13602.65
509.882	13854.17
510.25	13884.23
510.618	14101.62
510.986	14268.4
511.354	14416.64
511.722	14493.47
512.09	14766.01
512.458	14760.81
512.826	14991.31
513.193	15128.71
513.561	15130.75
513.929	15398.54
514.297	15602.82
514.664	15680.34
515.032	15742.48
515.4	15928.47
515.767	16048.69
516.135	16192.19
516.502	16116.48
516.869	16504.5
517.237	16612.52
517.604	16605.51
517.972	16891.83
518.339	17088.21
518.706	17069.23
519.073	17247.53
519.44	17362.55
519.808	17649.1
520.175	17685.26
520.542	17989.65
520.909	17993.72
521.276	18056.54
521.643	18269.42
522.009	18360.04
522.376	18484.78
522.743	18683.2
523.11	18941.72
523.477	19001.15
523.843	19193.01
524.21	19390.97
524.577	19684.75
524.943	19664.19
525.31	19810.85
525.676	20043.16
526.043	20155.7
526.409	20271.18
526.776	20571.96
527.142	20494.22
527.508	20661.9
527.874	20929.92
528.241	20950.03
528.607	21034.09
528.973	21234.31
529.339	21284.93
529.705	21472.27
530.071	21660.07
530.437	21783
530.803	21897.35
531.169	22134.86
531.535	22136.89
531.901	22083.78
532.267	22321.97
532.632	22502.53
532.998	22578.01
533.364	22668.18
533.73	22727.38
534.095	23053.02
534.461	23090.54
534.826	23184.77
535.192	23280.14
535.557	23341.83
535.923	23495.27
536.288	23615.27
536.653	23562.84
537.019	23682.61
537.384	23790.41
537.749	23956.5
538.114	23897.52
538.479	24010.06
538.845	24189.27
539.21	24203.73
539.575	24207.12
539.94	24326.66
540.305	24518.07
540.67	24500.44
541.034	24711.74
541.399	24865.18
541.764	24758.74
542.129	24943.82
542.494	25020.88
542.858	25081.22
543.223	25087.77
543.587	25271.04
543.952	25306.3
544.316	25448.89
544.681	25253.87
545.045	25513.98
545.41	25578.61
545.774	25694.99
546.138	25794.19
546.503	25812.95
546.867	25775.89
547.231	26008.43
547.595	26055.66
547.959	26200.74
548.324	26305.37
548.688	26317.34
549.052	26411.81
549.416	26396.89
549.779	26498.36
550.143	26576.09
550.507	26787.61
550.871	26885.69
551.235	26818.35
551.599	26991.9
551.962	27121.39
552.326	27144.89
552.689	27392.57
553.053	27362.06
553.417	27403.42
553.78	27748.72
554.143	27684.99
554.507	27846.12
554.87	27835.95
555.234	28138.31
555.597	28063.74
555.96	28324.98
556.323	28346.22
556.686	28357.97
557.05	28552.77
557.413	28637.96
557.776	28703.04
558.139	28975.58
558.502	28987.33
558.865	29059.42
559.228	29242.92
559.59	29401.56
559.953	29333.54
560.316	29644.04
560.679	29649.01
561.041	29821.21
561.404	29985.04
561.767	30160.41
562.129	30015.55
562.492	30370.8
562.854	30353.85
563.217	30465.03
563.579	30566.05
563.941	30757
564.304	30956.32
564.666	31150.66
565.028	31237.44
565.39	31404.44
565.753	31470.43
566.115	31634.95
566.477	31719.69
566.839	31882.62
567.201	32073.8
567.563	32001.49
567.925	32158.77
568.287	32363.97
568.648	32304.76
569.01	32564.41
569.372	32664.52
569.734	32500.46
570.095	32817.06
570.457	33131.4
570.819	33063.38
571.18	33159.88
571.542	33323.26
571.903	33397.84
572.265	33453.43
572.626	33460.89
572.987	33441.68
573.349	33758.73
573.71	33934.55
574.071	33953.98
574.432	34119.85
574.794	34325.27
575.155	34303.12
575.516	34227.42
575.877	34298.15
576.238	34423.8
576.599	34573.4
576.96	34512.16
577.32	34677.35
577.681	34852.26
578.042	34810.23
578.403	34927.74
578.763	34979.49
579.124	35046.38
579.485	35153.04
579.845	35290.22
580.206	35127.28
580.566	35296.77
580.927	35326.37
581.287	35333.38
581.648	35287.5
582.008	35543.99
582.368	35476.88
582.728	35439.59
583.089	35468.06
583.449	35470.1
583.809	35585.8
584.169	35673.93
584.529	35539.02
584.889	35760.49
585.249	35540.61
585.609	35514.39
585.969	35813.37
586.329	35585.35
586.688	35821.05
587.048	35642.98
587.408	35739.7
587.768	35864.44
588.127	35678
588.487	35718.68
588.846	35967.71
589.206	35741.28
589.565	35645.69
589.925	35929.97
590.284	35857.66
590.643	35894.72
591.003	35909.86
591.362	36070.76
591.721	35991.89
592.08	36046.13
592.44	36221.04
592.799	36060.14
593.158	36075.73
593.517	36111.21
593.876	36181.49
594.235	36165.67
594.593	36023.98
594.952	36308.49
595.311	36146.01
595.67	36274.15
596.029	36371.54
596.387	36479.11
596.746	36448.38
597.104	36288.61
597.463	36362.96
597.822	36607.47
598.18	36324.99
598.538	36388.04
598.897	36734.47
599.255	36314.14
599.613	36937.63
599.972	36746.22
600.33	36876.84
600.688	36634.36
601.046	36877.29
601.404	36999.1
601.762	36834.36
602.12	36971.98
602.478	37021.7
602.836	36945.31
603.194	36857.86
603.552	36940.57
603.91	36761.59
604.268	37097.17
604.625	37071.64
604.983	37152.99
605.341	37068.7
605.698	37216.49
606.056	37439.99
606.413	37266.44
606.771	37496.26
607.128	37479.99
607.485	37306.43
607.843	37453.32
608.2	37549.14
608.557	37877.27
608.914	37724.5
609.272	37940.77
609.629	37950.26
609.986	38013.53
610.343	37893.99
610.7	38191.61
611.057	38184.83
611.414	38174.43
611.771	38200.65
612.127	38409
612.484	38294.88
612.841	38567.42
613.198	38514.99
613.554	38475.9
613.911	38725.61
614.267	38602.9
614.624	38636.57
614.98	38754.76
615.337	38942.78
615.693	38867.07
616.05	38857.13
616.406	39093.05
616.762	38943
617.118	39072.04
617.475	38981.19
617.831	39137.57
618.187	39241.07
618.543	39239.94
618.899	39636.77
619.255	39317
619.611	39391.8
619.967	39530.56
620.323	39562.87
620.678	39409.2
621.034	39333.27
621.39	39468.41
621.746	39467.28
622.101	39830.44
622.457	39606.71
622.812	39604.45
623.168	39841.51
623.523	39779.59
623.879	39892.81
624.234	39680.84
624.589	39804.45
624.945	39778.46
625.3	39967.83
625.655	39854.39
626.01	39955.86
626.365	40103.87
626.72	40035.18
627.075	39919.7
627.43	39924.22
627.785	39912.47
628.14	40037.21
628.495	40101.62
628.85	40098
629.205	39803.09
629.559	40079.47
629.914	39914.28
630.269	40045.35
630.623	39965.12
630.978	39849.42
631.332	39963.31
631.687	40114.5
632.041	39864.33
632.396	40113.14
632.75	39790.44
633.104	39983.43
633.459	39779.36
633.813	39706.15
634.167	39848.29
634.521	39785.92
634.875	39837.44
635.229	39800.61
635.583	39586.83
635.937	39732.13
636.291	39535.3
636.645	39621.63
636.999	39574.85
637.352	39741.62
637.706	39387.96
638.06	39610.55
638.413	39524.23
638.767	39355.87
639.121	39497.34
639.474	39226.61
639.828	39238.59
640.181	39373.5
640.534	39398.13
640.888	39231.13
641.241	39151.13
641.594	39239.26
641.947	39300.51
642.301	39201.75
642.654	39290.79
643.007	39144.8
643.36	39152.49
643.713	39222.32
644.066	39300.05
644.419	38897.35
644.771	38820.52
645.124	38316.8
645.477	38296.24
645.83	38117.26
646.182	37950.94
646.535	37868.68
646.888	37905.51
647.24	37775.8
647.593	37913.2
647.945	37853.31
648.298	37641.11
648.65	37643.37
649.002	37514.79
649.355	37748.68
649.707	37688.57
650.059	37806.31
650.411	38345.05
650.763	38291.04
651.115	38670.92
651.467	38434.31
651.819	38581.66
652.171	38391.83
652.523	38409.68
652.875	38346.63
653.227	38178.73
653.578	38582.78
653.93	38387.31
654.282	38249.69
654.633	38313.64
654.985	38006.3
655.337	38129.24
655.688	38264.38
656.039	38369.91
656.391	37929.69
656.742	38158.39
657.094	38112.74
657.445	38230.25
657.796	38167.88
658.147	37981.9
658.498	37967.21
658.849	38055.34
659.2	38051.95
659.551	38077.94
659.902	38023.48
660.253	37859.41
660.604	38241.1
660.955	37885.63
661.306	38086.53
661.656	37875.46
662.007	37799.53
662.358	37823.71
662.708	37817.16
663.059	37862.58
663.409	37591.17
663.76	37935.8
664.11	37942.58
664.461	37863.03
664.811	37891.28
665.161	37898.06
665.511	37681.11
665.862	37860.32
666.212	37928.34
666.562	37839.75
666.912	37701.9
667.262	37769.25
667.612	37722.02
667.962	37775.57
668.312	37644.96
668.662	37857.38
669.011	37707.1
669.361	37536.48
669.711	37668.23
670.06	37679.08
670.41	37583.49
670.76	37431.85
671.109	37781.22
671.459	37655.13
671.808	37650.38
672.157	37623.49
672.507	37486.09
672.856	37472.53
673.205	37453.55
673.554	37519.08
673.904	37481.8
674.253	37568.12
674.602	37442.7
674.951	36928.59
675.3	36839.78
675.649	37398.64
675.998	37259.88
676.346	37347.34
676.695	37470.72
677.044	37048.36
677.393	37302.59
677.741	37266.66
678.09	37164.52
678.438	37211.52
678.787	37316.38
679.135	37220.33
679.484	37037.29
679.832	37043.84
680.181	36892.89
680.529	37117.74
680.877	36958.42
681.225	36872.55
681.573	37157.06
681.922	36692.44
682.27	36614.48
682.618	36793.45
682.966	36557.75
683.314	36743.06
683.661	36596.4
684.009	36351.43
684.357	36279.79
684.705	36236.18
685.053	36239.34
685.4	36102.17
685.748	35927.04
686.095	36050.2
686.443	35949.18
686.79	35810.2
687.138	35981.95
687.485	35916.19
687.832	35774.95
688.18	35852.91
688.527	35587.61
688.874	35608.85
689.221	35560.49
689.568	35382.64
689.915	35334.06
690.262	35422.87
690.609	35467.84
690.956	35090.22
691.303	35067.4
691.65	35114.63
691.997	34946.27
692.344	34725.26
692.69	34797.57
693.037	34774.98
693.383	34585.15
693.73	34584.02
694.077	34431.26
694.423	34479.16
694.769	34315.78
695.116	34284.14
695.462	34299.51
695.808	34153.75
696.155	34313.07
696.501	33960.76
696.847	33876.92
697.193	33667.43
697.539	33733.65
697.885	33629.47
698.231	33444.61
698.577	33511.96
698.923	33389.48
699.269	33276.94
699.614	33053.66
699.96	33083.27
700.306	33060.9
700.651	32826.1
700.997	32798.08
701.342	32702.94
701.688	32627.91
702.033	32566.9
702.379	32658.65
702.724	32399.22
703.069	32438.54
703.415	32092.79
703.76	32146.34
704.105	32133.46
704.45	32031.32
704.795	31912.45
705.14	31794.49
705.485	31742.96
705.83	31646.47
706.175	31780.03
706.52	31615.28
706.865	31556.98
707.209	31433.59
707.554	31385.91
707.899	31454.38
708.243	31291.45
708.588	31239.25
708.932	31012.36
709.277	31117.44
709.621	30869.77
709.966	30878.58
710.31	30872.25
710.654	30628.64
710.998	30741.64
711.342	30712.48
711.687	30676.1
712.031	30476.78
712.375	30495.54
712.719	30495.31
713.063	30313.62
713.407	30440.85
713.75	30211.48
714.094	30280.4
714.438	30138.71
714.782	30093.29
715.125	29972.62
715.469	30125.61
715.812	29840.19
716.156	29700.08
716.499	29750.47
716.843	29754.09
717.186	29474.55
717.53	29582.34
717.873	29694.21
718.216	29696.01
718.559	29433.2
718.902	29174.44
719.246	29312.97
719.589	29275.91
719.932	29107.33
720.275	29098.29
720.617	29128.12
720.96	29012.42
721.303	29060.78
721.646	28904.17
721.989	28731.07
722.331	28882.93
722.674	28812.19
723.016	28822.14
723.359	28736.26
723.701	28872.76
724.044	28513.9
724.386	28467.12
724.729	28564.07
725.071	28484.52
725.413	28448.59
725.755	28400
726.097	28293.34
726.439	28113.46
726.782	28284.52
727.124	28257.18
727.465	28237.07
727.807	28194.36
728.149	28107.58
728.491	27999.56
728.833	28136.51
729.175	27930.64
729.516	27892.22
729.858	27846.57
730.199	27843.86
730.541	27832.56
730.882	27723.64
731.224	27760.02
731.565	27591.89
731.906	27589.85
732.248	27604.99
732.589	27356.41
732.93	27505.56
733.271	27410.2
733.612	27508.73
733.953	27318.22
734.294	27309.64
734.635	27320.71
734.976	27194.84
735.317	27222.41
735.658	27167.49
735.999	27151.9
736.339	27029.19
736.68	27234.61
737.021	27058.34
737.361	26903.32
737.702	27065.35
738.042	26864.22
738.383	26886.37
738.723	26859.93
739.063	26725.7
739.404	26886.82
739.744	26658.13
740.084	26633.27
740.424	26591.91
740.764	26529.77
741.104	26586.26
741.444	26401.64
741.784	26499.71
742.124	26495.87
742.464	26426.72
742.804	26383.33
743.143	26265.82
743.483	26359.38
743.823	26199.61
744.162	26178.37
744.502	26212.04
744.841	26121.87
745.181	26109.21
745.52	25971.82
745.86	26030.57
746.199	25974.08
746.538	25891.82
746.877	25974.3
747.216	26053.17
747.556	25804.59
747.895	25869.22
748.234	25752.84
748.573	25657.02
748.911	25673.29
749.25	25558.72
749.589	25467.65
749.928	25586.74
750.267	25600.75
750.605	25421.55
750.944	25416.58
751.283	25346.75
751.621	25323.7
751.96	25243.02
752.298	25382.23
752.636	25231.72
752.975	25046.64
753.313	25051.39
753.651	25065.4
753.989	24739.99
754.327	24825.63
754.666	24704.28
755.004	24750.38
755.342	24720.78
755.679	24798.51
756.017	24506.54
756.355	24619.08
756.693	24443.72
