Data from hue_36_FLMS001491_00027.txt Node
Date: Tue Feb 07 17:29:36 GMT 2017
User: dcchb
Spectrometer: FLMS00149
Trigger mode: 0
Integration Time (sec): 2.000000E-2
Scans to average: 10
Electric dark correction enabled: true
Nonlinearity correction enabled: false
Boxcar width: 0
XAxis mode: Wavelengths
Number of Pixels in Spectrum: 2048
>>>>>Begin Spectral Data<<<<<
341.393	-20
341.776	-20
342.16	-20
342.543	-41.47
342.927	-62.71
343.31	-79.88
343.693	-85.31
344.077	-55.7
344.46	-58.87
344.843	-34.46
345.226	-33.56
345.61	-26.78
345.993	-14.58
346.376	-6.21
346.759	14.58
347.142	36.04
347.525	45.08
347.908	57.74
348.291	61.13
348.674	74.91
349.057	105.87
349.44	126.89
349.823	153.33
350.206	150.39
350.588	169.83
350.971	212.31
351.354	225.87
351.737	254.34
352.119	254.57
352.502	282.37
352.884	274.23
353.267	281.01
353.65	296.6
354.032	294.34
354.414	316.49
354.797	304.96
355.179	326.21
355.562	330.95
355.944	337.51
356.326	332.08
356.709	328.92
357.091	318.75
357.473	327.11
357.855	332.99
358.238	334.79
358.62	336.15
359.002	367.56
359.384	320.33
359.766	335.47
360.148	341.8
360.53	346.54
360.912	339.99
361.294	338.64
361.676	348.35
362.057	338.41
362.439	323.49
362.821	334.79
363.203	352.42
363.584	321.23
363.966	334.57
364.348	326.43
364.729	333.66
365.111	318.07
365.493	297.28
365.874	312.42
366.256	297.96
366.637	341.12
367.019	307.9
367.4	317.17
367.781	307.9
368.163	311.74
368.544	322.36
368.925	323.27
369.306	340.89
369.688	288.47
370.069	318.75
370.45	301.8
370.831	318.52
371.212	323.72
371.593	310.16
371.974	317.84
372.355	327.11
372.736	332.53
373.117	320.78
373.498	309.48
373.879	301.35
374.26	325.08
374.641	311.74
375.021	312.42
375.402	301.12
375.783	330.27
376.163	317.62
376.544	336.6
376.925	324.85
377.305	336.83
377.686	328.01
378.066	339.99
378.447	340.89
378.827	343.38
379.208	340.22
379.588	325.53
379.968	328.47
380.349	335.7
380.729	336.6
381.109	327.56
381.489	345.64
381.87	338.64
382.25	331.86
382.63	337.96
383.01	346.77
383.39	338.86
383.77	348.13
384.15	338.64
384.53	353.32
384.91	342.02
385.29	335.92
385.67	350.61
386.049	347.67
386.429	334.79
386.809	356.71
387.189	360.33
387.568	341.57
387.948	355.36
388.328	364.4
388.707	352.19
389.087	361.91
389.466	357.62
389.846	349.93
390.225	365.08
390.605	358.3
390.984	368.92
391.363	372.08
391.743	351.97
392.122	341.57
392.501	358.07
392.881	361.23
393.26	368.69
393.639	364.4
394.018	367.56
394.397	376.37
394.776	374.11
395.155	367.79
395.534	367.11
395.913	378.41
396.292	391.52
396.671	383.83
397.05	375.92
397.429	373.66
397.808	391.52
398.186	376.15
398.565	393.77
398.944	359.65
399.323	377.96
399.701	381.35
400.08	390.61
400.458	389.03
400.837	404.62
401.215	395.81
401.594	381.57
401.972	405.53
402.351	406.88
402.729	404.62
403.107	388.58
403.486	408.46
403.864	402.59
404.242	389.03
404.62	394.45
404.999	398.75
405.377	408.92
405.755	397.62
406.133	400.1
406.511	408.01
406.889	422.02
407.267	406.2
407.645	424.51
408.023	428.35
408.401	434.23
408.779	436.49
409.156	446.88
409.534	422.47
409.912	403.49
410.29	419.09
410.667	445.98
411.045	441.23
411.422	443.27
411.8	436.49
412.178	476.26
412.555	466.54
412.933	441.68
413.31	437.39
413.687	452.53
414.065	456.6
414.442	458.86
414.819	468.35
415.197	474.22
415.574	456.82
415.951	464.96
416.328	484.62
416.705	471.51
417.082	497.5
417.46	483.26
417.837	475.58
418.214	463.38
418.591	496.6
418.967	490.04
419.344	505.64
419.721	486.65
420.098	503.6
420.475	511.06
420.852	517.84
421.228	501.12
421.605	504.05
421.982	510.83
422.358	516.26
422.735	507.9
423.111	504.51
423.488	542.02
423.864	505.64
424.241	522.36
424.617	532.98
424.994	539.99
425.37	528.01
425.746	555.13
426.123	560.1
426.499	564.39
426.875	570.72
427.251	551.51
427.627	564.39
428.003	573.66
428.379	566.43
428.756	575.01
429.132	585.41
429.507	597.84
429.883	573.43
430.259	600.1
430.635	594.22
431.011	611.4
431.387	588.57
431.763	625.18
432.138	603.49
432.514	600.1
432.89	613.88
433.265	631.96
433.641	633.99
434.016	656.82
434.392	654.33
434.767	636.71
435.143	655.69
435.518	653.66
435.894	651.4
436.269	637.61
436.644	678.06
437.02	691.39
437.395	650.04
437.77	695.01
438.145	681
438.52	690.04
438.895	713.77
439.271	692.52
439.646	698.17
440.021	695.46
440.395	709.47
440.77	712.64
441.145	725.07
441.52	751.73
441.895	755.8
442.27	744.5
442.645	746.08
443.019	754.44
443.394	747.89
443.769	746.53
444.143	738.85
444.518	773.43
444.892	758.06
445.267	747.44
445.641	768.23
446.016	764.61
446.39	769.81
446.764	742.92
447.139	781.34
447.513	811.17
447.887	786.53
448.262	788.11
448.636	802.13
449.01	808.23
449.384	807.1
449.758	807.1
450.132	825.63
450.506	843.48
450.88	845.51
451.254	838.96
451.628	854.1
452.002	850.26
452.376	850.49
452.75	846.42
453.123	857.72
453.497	869.69
453.871	897.94
454.244	918.28
454.618	923.7
454.992	920.77
455.365	915.8
455.739	945.4
456.112	930.03
456.486	975.45
456.859	932.52
457.232	946.98
457.606	951.05
457.979	956.92
458.352	984.27
458.725	991.95
459.099	1034.66
459.472	1022.68
459.845	1013.65
460.218	1030.37
460.591	1026.75
460.964	1032.4
461.337	1087.32
461.71	1077.37
462.083	1083.93
462.456	1130.93
462.829	1124.83
463.201	1110.82
463.574	1131.61
463.947	1152.63
464.32	1159.18
464.692	1180.65
465.065	1174.09
465.438	1200.76
465.81	1196.92
466.183	1234.88
466.555	1267.2
466.928	1254.54
467.3	1280.08
467.672	1275.11
468.045	1341.09
468.417	1333.64
468.789	1348.33
469.161	1365.27
469.534	1420.19
469.906	1417.93
470.278	1429.68
470.65	1451.15
471.022	1464.03
471.394	1519.85
471.766	1541.09
472.138	1543.8
472.51	1585.61
472.882	1593.52
473.253	1645.04
473.625	1669.67
473.997	1680.52
474.369	1721.88
474.74	1768.2
475.112	1778.82
475.484	1854.08
475.855	1903.57
476.227	1908.09
476.598	1971.81
476.97	2000.96
477.341	2055.88
477.713	2087.97
478.084	2127.97
478.455	2202.77
478.827	2257.45
479.198	2314.63
479.569	2328.87
479.94	2440.27
480.311	2458.58
480.682	2511.01
481.053	2609.76
481.424	2634.62
481.795	2707.84
482.166	2781.28
482.537	2846.59
482.908	2919.81
483.279	3012.24
483.65	3085.46
484.021	3179.01
484.391	3239.8
484.762	3280.7
485.133	3374.26
485.503	3382.17
485.874	3542.17
486.244	3621.26
486.615	3716.17
486.985	3770.41
487.356	3901.93
487.726	3952.55
488.097	4050.4
488.467	4132.66
488.837	4240
489.207	4390.05
489.578	4453.1
489.948	4527.23
490.318	4648.35
490.688	4735.81
491.058	4838.86
491.428	4893.09
491.798	5054.67
492.168	5167.66
492.538	5246.3
492.908	5315.23
493.278	5475.68
493.648	5481.55
494.017	5582.11
494.387	5708.21
494.757	5778.94
495.126	5885.61
495.496	5936.68
495.866	6027.98
496.235	6139.84
496.605	6220.74
496.974	6318.59
497.344	6386.16
497.713	6488.53
498.082	6548.87
498.452	6666.38
498.821	6739.14
499.19	6780.73
499.559	6942.98
499.928	6942.98
500.298	7048.74
500.667	7183.43
501.036	7201.05
501.405	7318.11
501.774	7286.48
502.143	7400.37
502.512	7482.18
502.88	7568.73
503.249	7618.67
503.618	7769.63
503.987	7747.25
504.356	7854.14
504.724	7952.22
505.093	8018.43
505.462	8029.73
505.83	8117.64
506.199	8232.44
506.567	8329.84
506.936	8360.35
507.304	8489.38
507.672	8509.72
508.041	8604.63
508.409	8624.52
508.777	8674.69
509.145	8924.17
509.514	8773.22
509.882	8885.3
510.25	8941.8
510.618	9051.17
510.986	9097.95
511.354	9148.35
511.722	9243.26
512.09	9306.08
512.458	9353.99
512.826	9471.05
513.193	9475.57
513.561	9563.48
513.929	9604.83
514.297	9675.11
514.664	9743.13
515.032	9745.85
515.4	9838.72
515.767	9960.53
516.135	9994.65
516.502	9984.03
516.869	10090.7
517.237	10136.8
517.604	10153.07
517.972	10248.88
518.339	10306.28
518.706	10356
519.073	10344.47
519.44	10469.89
519.808	10593.28
520.175	10499.05
520.542	10602.77
520.909	10697.23
521.276	10802.99
521.643	10902.2
522.009	11015.87
522.376	10937.9
522.743	11051.8
523.11	11188.52
523.477	11293.38
523.843	11266.71
524.21	11361.4
524.577	11522.3
524.943	11505.35
525.31	11565.23
525.676	11703.76
526.043	11749.86
526.409	11795.06
526.776	11970.87
527.142	11941.72
527.508	12006.58
527.874	12173.35
528.241	12215.39
528.607	12212.22
528.973	12394.36
529.339	12325.44
529.705	12486.79
530.071	12566.56
530.437	12615.6
530.803	12650.18
531.169	12820.11
531.535	12751.64
531.901	12783.28
532.267	12853.79
532.632	13024.18
532.998	13026.66
533.364	13061.01
533.73	13096.49
534.095	13216.49
534.461	13260.1
534.826	13289.71
535.192	13347.78
535.557	13527.44
535.923	13499.42
536.288	13612.64
536.653	13561.34
537.019	13627.78
537.384	13694.44
537.749	13717.94
538.114	13835.68
538.479	13771.95
538.845	13935.34
539.21	13943.7
539.575	13907.54
539.94	13966.98
540.305	14140.08
540.67	14117.26
541.034	14149.57
541.399	14272.96
541.764	14345.5
542.129	14373.07
542.494	14446.96
542.858	14471.37
543.223	14460.52
543.587	14517.02
543.952	14582.33
544.316	14613.51
544.681	14689.9
545.045	14740.52
545.41	14801.98
545.774	14992.94
546.138	14889.21
546.503	14967.18
546.867	15025.71
547.231	15107.51
547.595	15149.55
547.959	15183.89
548.324	15290.33
548.688	15338.92
549.052	15375.53
549.416	15421.63
549.779	15373.72
550.143	15483.77
550.507	15534.17
550.871	15562.87
551.235	15471.57
551.599	15621.4
551.962	15672.7
552.326	15796.99
552.689	15900.03
553.053	15860.03
553.417	15869.07
553.78	16140.48
554.143	15952.69
554.507	16135.06
554.87	16184.32
555.234	16360.81
555.597	16192.91
555.96	16308.38
556.323	16397.2
556.686	16369.4
557.05	16609.39
557.413	16564.88
557.776	16646.91
558.139	16742.5
558.502	16700.69
558.865	16822.95
559.228	16842.16
559.59	16963.28
559.953	17029.72
560.316	17154.92
560.679	17168.25
561.041	17284.86
561.404	17265.87
561.767	17355.14
562.129	17337.06
562.492	17510.39
562.854	17525.53
563.217	17490.27
563.579	17584.74
563.941	17729.14
564.304	17767.56
564.666	17839.87
565.028	17917.83
565.39	17967.55
565.753	17925.97
566.115	18124.61
566.477	18122.8
566.839	18212.29
567.201	18348.78
567.563	18398.27
567.925	18539.51
568.287	18483.24
568.648	18614.99
569.01	18693.18
569.372	18819.28
569.734	18731.6
570.095	18795.78
570.457	18949.22
570.819	19061.76
571.18	19073.96
571.542	19227.4
571.903	19237.35
572.265	19319.61
572.626	19381.98
572.987	19445.7
573.349	19474.18
573.71	19700.16
574.071	19685.25
574.432	19912.13
574.794	20051.79
575.155	19818.35
575.516	19965.92
575.877	20202.52
576.238	20312.57
576.599	20447.26
576.96	20534.26
577.32	20487.48
577.681	20747.59
578.042	20814.48
578.403	20845.44
578.763	21156.84
579.124	21231.87
579.485	21363.85
579.845	21500.34
580.206	21621.01
580.566	21683.16
580.927	21905.53
581.287	22075.01
581.648	22127.89
582.008	22350.71
582.368	22540.99
582.728	22667.09
583.089	22816.91
583.449	22848.78
583.809	23267.52
584.169	23287.41
584.529	23535.31
584.889	23876.1
585.249	23885.59
585.609	24002.87
585.969	24215.07
586.329	24469.98
586.688	24613.93
587.048	24850.76
587.408	24951.77
587.768	25138.89
588.127	25438.09
588.487	25677.86
588.846	26051.18
589.206	26007.79
589.565	26199.2
589.925	26520.09
590.284	26711.73
590.643	26964.83
591.003	27163.92
591.362	27565.04
591.721	27676.9
592.08	27918.93
592.44	28068.08
592.799	28325.92
593.158	28427.61
593.517	28654.05
593.876	28918.67
594.235	29085.9
594.593	29394.14
594.952	29571.99
595.311	29740.8
595.67	30010.85
596.029	30303.72
596.387	30498.07
596.746	30783.26
597.104	30887.66
597.463	30911.62
597.822	31351.83
598.18	31383.02
598.538	31550.47
598.897	32013.51
599.255	31941.42
599.613	32587.05
599.972	32463.21
600.33	32737.78
600.688	32743.21
601.046	33067.04
601.404	33359.01
601.762	33401.04
602.12	33864.76
602.478	33928.49
602.836	33940.69
603.194	34109.95
603.552	34356.5
603.91	34372.54
604.268	34768.69
604.625	34791.51
604.983	35091.62
605.341	34878.74
605.698	35238.51
606.056	35415.23
606.413	35522.12
606.771	35690.93
607.128	35960.52
607.485	35873.75
607.843	36047.53
608.2	36331.81
608.557	36572.94
608.914	36442.54
609.272	36800.73
609.629	36932.25
609.986	37100.15
610.343	37096.54
610.7	37439.13
611.057	37548.73
611.414	37615.4
611.771	37730.87
612.127	37857.87
612.484	37972.67
612.841	38150.52
613.198	38192.78
613.554	38292.44
613.911	38471.42
614.267	38521.36
614.624	38682.49
614.98	38783.5
615.337	38952.31
615.693	38894.01
616.05	39031.63
616.406	39423.71
616.762	39309.81
617.118	39375.12
617.475	39417.38
617.831	39705.74
618.187	39905.28
618.543	39824.38
618.899	40057.59
619.255	39913.64
619.611	40201.77
619.967	40261.65
620.323	40388.43
620.678	40380.29
621.034	40403.57
621.39	40303.46
621.746	40371.03
622.101	40925.14
622.457	40534.19
622.812	40840.4
623.168	40957.91
623.523	40925.14
623.879	41076.1
624.234	40783.67
624.589	41008.3
624.945	41073.38
625.3	41102.31
625.655	41284.9
626.01	41234.28
626.365	41363.77
626.72	41295.98
627.075	41379.59
627.43	41413.26
627.785	41253.49
628.14	41408.06
628.495	41453.03
628.85	41494.62
629.205	41441.74
629.559	41508.85
629.914	41211.68
630.269	41455.07
630.623	41366.93
630.978	41337.56
631.332	41581.39
631.687	41742.97
632.041	41458.23
632.396	41533.03
632.75	41497.33
633.104	41603.09
633.459	41520.83
633.813	41462.98
634.167	41514.28
634.521	41390.44
634.875	41536.42
635.229	41474.5
635.583	41399.25
635.937	41486.48
636.291	41422.3
636.645	41502.98
636.999	41262.08
637.352	41402.19
637.706	41232.93
638.06	41464.56
638.413	41415.07
638.767	41203.78
639.121	41387.27
639.474	41134.4
639.828	41209.88
640.181	41306.6
640.534	41209.2
640.888	41162.65
641.241	40912.03
641.594	40940.05
641.947	41201.97
642.301	41031.58
642.654	41131.91
643.007	41138.47
643.36	40998.58
643.713	41112.93
644.066	41090.78
644.419	40873.39
644.771	40580.51
645.124	40318.37
645.477	40211.26
645.83	40095.33
646.182	39978.5
646.535	39706.41
646.888	39855.34
647.24	39709.8
647.593	39884.49
647.945	39741.67
648.298	39733.98
648.65	39602.46
649.002	39468
649.355	39727.2
649.707	39609.47
650.059	39909.35
650.411	40280.41
650.763	40358.6
651.115	40613.73
651.467	40568.09
651.819	40498.26
652.171	40695.54
652.523	40397.69
652.875	40382.33
653.227	40277.92
653.578	40557.01
653.93	40245.83
654.282	40183.46
654.633	40150.47
654.985	40331.48
655.337	40281.09
655.688	40378.94
656.039	40362.22
656.391	40093.07
656.742	40190.02
657.094	40189.34
657.445	40337.36
657.796	40230.24
658.147	40070.02
658.498	40069.79
658.849	40212.16
659.2	40257.36
659.551	39866.64
659.902	40299.62
660.253	40100.75
660.604	40071.6
660.955	39958.38
661.306	40232.05
661.656	40016.24
662.007	40073.64
662.358	40030.47
662.708	40061.21
663.059	40027.99
663.409	39741.21
663.76	40145.5
664.11	40121.54
664.461	39998.61
664.811	40068.89
665.161	40051.26
665.511	39928.55
665.862	40065.5
666.212	40054.2
666.562	40089.91
666.912	39870.48
667.262	39957.25
667.612	39844.72
667.962	39869.12
668.312	39847.43
668.662	40079.06
669.011	39889.91
669.361	39958.61
669.711	39721.55
670.06	39662.35
670.41	39747.54
670.76	39756.36
671.109	39853.08
671.459	39664.83
671.808	39756.36
672.157	39828.44
672.507	39575.34
672.856	39506.19
673.205	39620.77
673.554	39664.38
673.904	39364.73
674.253	39737.83
674.602	39734.89
674.951	39062.81
675.3	38910.95
675.649	39523.14
675.998	39518.62
676.346	39533.31
676.695	39677.71
677.044	39315.69
677.393	39398.85
677.741	39551.39
678.09	39371.28
678.438	39346.42
678.787	39298.06
679.135	39420.55
679.484	39143.49
679.832	39410.38
680.181	39082.48
680.529	39198.4
680.877	39034.79
681.225	38986.21
681.573	39270.49
681.922	39059.88
682.27	38947.34
682.618	38855.59
682.966	38796.61
683.314	38870.73
683.661	38807
684.009	38523.85
684.357	38560
684.705	38419.44
685.053	38529.95
685.4	38566.56
685.748	38140.58
686.095	38170.86
686.443	38131.31
686.79	38001.83
687.138	38203.85
687.485	38177.41
687.832	38130.64
688.18	38068.94
688.527	37910.98
688.874	37828.72
689.221	37757.09
689.568	37701.95
689.915	37553.02
690.262	37644.77
690.609	37635.06
690.956	37311.45
691.303	37351.22
691.65	37202.52
691.997	37244.56
692.344	36955.75
692.69	37028.52
693.037	37081.4
693.383	36741.75
693.73	36715.76
694.077	36628.3
694.423	36657.23
694.769	36529.32
695.116	36274.41
695.462	36333.62
695.808	36171.59
696.155	36259.72
696.501	36066.51
696.847	35903.35
697.193	35813.18
697.539	35983.35
697.885	35754.88
698.231	35787.19
698.577	35661.77
698.923	35593.53
699.269	35509.24
699.614	35201.9
699.96	35307.66
700.306	35137.27
700.651	35126.87
700.997	34861.8
701.342	34819.99
701.688	34912.87
702.033	34677.62
702.379	34672.87
702.724	34574.57
703.069	34597.17
703.415	34339.78
703.76	34325.76
704.105	34351.3
704.45	34182.04
704.795	34016.85
705.14	33879.9
705.485	33914.02
705.83	33685.33
706.175	33958.32
706.52	33742.05
706.865	33487.59
707.209	33542.06
707.554	33467.03
707.899	33417.54
708.243	33307.26
708.588	33205.79
708.932	33069.53
709.277	33050.32
709.621	33129.41
709.966	32873.6
710.31	32780.95
710.654	32594.51
710.998	32749.53
711.342	32717.67
711.687	32497.79
712.031	32522.2
712.375	32380.5
712.719	32349.54
713.063	32274.52
713.407	32296.89
713.75	32141.87
714.094	32253.95
714.438	31957.46
714.782	31933.28
715.125	31831.37
715.469	31878.6
715.812	31793.85
716.156	31600.64
716.499	31687.87
716.843	31717.47
717.186	31483.13
717.53	31686.74
717.873	31629.56
718.216	31480.64
718.559	31452.62
718.902	31179.41
719.246	31288.78
719.589	31134.21
719.932	31097.15
720.275	31154.55
720.617	30967.89
720.96	31036.59
721.303	31030.48
721.646	30942.8
721.989	30696.26
722.331	30863.26
722.674	30867.55
723.016	30837.04
723.359	30668.46
723.701	30659.87
724.044	30597.73
724.386	30384.85
724.729	30634.34
725.071	30430.73
725.413	30466.88
725.755	30420.78
726.097	30277.28
726.439	30067.12
726.782	30120.22
727.124	30273.89
727.465	30055.82
727.807	29997.97
728.149	29921.59
728.491	29948.7
728.833	29930.4
729.175	29868.48
729.516	29735.83
729.858	29636.4
730.199	29793.91
730.541	29639.33
730.882	29581.71
731.224	29663.29
731.565	29433.69
731.906	29411.54
732.248	29470.75
732.589	29331.55
732.93	29228.5
733.271	29415.16
733.612	29303.98
733.953	29365.44
734.294	29214.26
734.635	29047.26
734.976	29092.23
735.317	28994.83
735.658	29029.63
735.999	28940.82
736.339	29017.43
736.68	28910.31
737.021	28961.16
737.361	28732.24
737.702	28981.05
738.042	28889.07
738.383	28700.83
738.723	28777.66
739.063	28593.71
739.404	28688.85
739.744	28536.31
740.084	28478.01
740.424	28412.47
740.764	28494.73
741.104	28420.61
741.444	28419.25
741.784	28202.08
742.124	28270.1
742.464	28225.13
742.804	28262.65
743.143	28101.07
743.483	28190.11
743.823	27978.59
744.162	27844.35
744.502	27965.48
744.841	27827.63
745.181	27899.27
745.52	27778.14
745.86	27881.19
746.199	27861.98
746.538	27816.1
746.877	27744.24
747.216	27733.62
747.556	27793.73
747.895	27637.58
748.234	27532.95
748.573	27499.05
748.911	27433.06
749.25	27504.7
749.589	27338.15
749.928	27361.88
750.267	27416.34
750.605	27338.6
750.944	27246.18
751.283	27135.44
751.621	27212.5
751.96	27043.92
752.298	27081.89
752.636	27016.13
752.975	26917.6
753.313	26714.66
753.651	26965.05
753.989	26685.96
754.327	26663.82
754.666	26669.24
755.004	26606.19
755.342	26658.4
755.679	26597.83
756.017	26350.15
756.355	26482.81
756.693	26276.71
757.031	26373.66
757.368	26102.7
