Data from hue_250_FLMS001491_00058.txt Node
Date: Tue Feb 07 16:01:11 GMT 2017
User: dcchb
Spectrometer: FLMS00149
Trigger mode: 0
Integration Time (sec): 2.000000E-2
Scans to average: 10
Electric dark correction enabled: true
Nonlinearity correction enabled: false
Boxcar width: 0
XAxis mode: Wavelengths
Number of Pixels in Spectrum: 2048
>>>>>Begin Spectral Data<<<<<
341.393	-27.08
341.776	-27.08
342.16	-27.08
342.543	-44.25
342.927	-79.96
343.31	-57.81
343.693	-63.91
344.077	-55.78
344.46	-73.4
344.843	-51.71
345.226	-33.18
345.61	-40.41
345.993	-11.93
346.376	-3.12
346.759	7.27
347.142	4.11
347.525	38.23
347.908	50.66
348.291	88.85
348.674	85.24
349.057	116.88
349.44	120.04
349.823	144.67
350.206	141.73
350.588	201.39
350.971	198.68
351.354	202.52
351.737	209.98
352.119	234.61
352.502	268.06
352.884	286.59
353.267	251.56
353.65	281.84
354.032	281.39
354.414	305.35
354.797	306.47
355.179	325.01
355.562	318.68
355.944	294.27
356.326	321.16
356.709	306.02
357.091	339.24
357.473	352.12
357.855	326.59
358.238	320.94
358.62	326.59
359.002	341.05
359.384	336.3
359.766	343.54
360.148	324.78
360.53	322.75
360.912	325.23
361.294	338.11
361.676	319.58
362.057	339.47
362.439	324.1
362.821	336.53
363.203	327.72
363.584	318.68
363.966	320.94
364.348	314.84
364.729	313.71
365.111	318.9
365.493	304.67
365.874	304.67
366.256	304.22
366.637	296.53
367.019	309.64
367.4	300.37
367.781	308.06
368.163	309.64
368.544	301.73
368.925	316.64
369.306	302.41
369.688	300.6
370.069	302.63
370.45	328.62
370.831	316.19
371.212	326.81
371.593	322.52
371.974	315.29
372.355	286.14
372.736	316.42
373.117	312.58
373.498	317.32
373.879	307.83
374.26	298.11
374.641	330.88
375.021	312.12
375.402	294.5
375.783	327.72
376.163	329.98
376.544	300.83
376.925	336.53
377.305	326.59
377.686	342.41
378.066	331.79
378.447	332.91
378.827	331.11
379.208	315.51
379.588	337.21
379.968	323.65
380.349	346.02
380.729	340.15
381.109	334.95
381.489	325.68
381.87	338.34
382.25	335.17
382.63	324.78
383.01	332.91
383.39	332.69
383.77	344.67
384.15	336.53
384.53	346.7
384.91	359.13
385.29	359.35
385.67	350.32
386.049	343.31
386.429	343.99
386.809	357.32
387.189	365
387.568	371.33
387.948	358.45
388.328	353.03
388.707	353.93
389.087	366.59
389.466	355.97
389.846	356.87
390.225	371.78
390.605	352.12
390.984	344.67
391.363	374.95
391.743	361.16
392.122	390.77
392.501	370.43
392.881	379.92
393.26	381.28
393.639	383.31
394.018	388.05
394.397	374.5
394.776	385.79
395.155	391.44
395.534	402.07
395.913	365.68
396.292	379.69
396.671	402.29
397.05	411.33
397.429	379.92
397.808	381.95
398.186	399.13
398.565	399.13
398.944	424.89
399.323	410.2
399.701	413.82
400.08	431.9
400.458	422.86
400.837	423.31
401.215	438.9
401.594	403.87
401.972	416.75
402.351	427.83
402.729	454.04
403.107	430.77
403.486	421.27
403.864	416.98
404.242	425.79
404.62	445.45
404.999	432.12
405.377	435.51
405.755	454.27
406.133	463.53
406.511	476.64
406.889	470.09
407.267	467.15
407.645	495.4
408.023	505.79
408.401	485
408.779	474.38
409.156	483.42
409.534	500.82
409.912	518.22
410.29	517.09
410.667	512.12
411.045	511.89
411.422	529.07
411.8	552.8
412.178	512.35
412.555	554.38
412.933	546.02
413.31	562.74
413.687	532.01
414.065	548.73
414.442	578.11
414.819	594.6
415.197	588.28
415.574	576.52
415.951	613.36
416.328	613.59
416.705	618.78
417.082	627.37
417.46	636.41
417.837	647.03
418.214	637.99
418.591	653.58
418.967	648.84
419.344	652.91
419.721	673.02
420.098	658.33
420.475	680.93
420.852	703.07
421.228	706.69
421.605	703.75
421.982	733.13
422.358	720.25
422.735	739.68
423.111	743.07
423.488	761.6
423.864	770.64
424.241	781.94
424.617	771.77
424.994	794.15
425.37	807.03
425.746	811.32
426.123	822.17
426.499	820.36
426.875	843.18
427.251	864.43
427.627	843.64
428.003	863.52
428.379	876.63
428.756	906.01
429.132	910.75
429.507	905.1
429.883	925.67
430.259	948.27
430.635	924.54
431.011	958.66
431.387	962.05
431.763	995.27
432.138	993.91
432.514	998.66
432.89	1011.09
433.265	1033.46
433.641	1037.76
434.016	1063.97
434.392	1091.77
434.767	1066.23
435.143	1077.53
435.518	1126.34
435.894	1141.26
436.269	1150.97
436.644	1172.21
437.02	1182.61
437.395	1195.49
437.77	1227.81
438.145	1224.87
438.52	1248.6
438.895	1292.89
439.271	1279.78
439.646	1275.04
440.021	1307.13
440.395	1305.09
440.77	1322.27
441.145	1333.57
441.52	1363.17
441.895	1385.77
442.27	1371.08
442.645	1403.17
443.019	1414.92
443.394	1427.58
443.769	1419.21
444.143	1441.13
444.518	1473
444.892	1468.93
445.267	1471.64
445.641	1461.7
446.016	1489.04
446.39	1494.24
446.764	1481.59
447.139	1500.79
447.513	1498.76
447.887	1542.15
448.262	1520.45
448.636	1550.96
449.01	1556.61
449.384	1584.18
449.758	1604.07
450.132	1619.89
450.506	1603.84
450.88	1631.64
451.254	1622.15
451.628	1658.98
452.002	1676.38
452.376	1687.46
452.75	1686.33
453.123	1682.03
453.497	1745.99
453.871	1745.76
454.244	1779.43
454.618	1799.09
454.992	1826.66
455.365	1813.1
455.739	1847.9
456.112	1865.53
456.486	1867.11
456.859	1917.28
457.232	1933.78
457.606	1955.92
457.979	1961.12
458.352	1976.71
458.725	2014.9
459.099	2001.12
459.472	2065.3
459.845	2073.89
460.218	2087.45
460.591	2085.41
460.964	2110.72
461.337	2192.98
461.71	2166.31
462.083	2227.78
462.456	2208.35
462.829	2213.32
463.201	2252.41
463.574	2258.06
463.947	2303.48
464.32	2352.3
464.692	2378.74
465.065	2354.78
465.438	2390.71
465.81	2412.63
466.183	2481.11
466.555	2528.11
466.928	2524.72
467.3	2508.9
467.672	2544.38
468.045	2608.79
468.417	2637.04
468.789	2648.56
469.161	2677.49
469.534	2714.55
469.906	2764.49
470.278	2740.99
470.65	2784.38
471.022	2856.69
471.394	2888.1
471.766	2920.42
472.138	2953.64
472.51	3017.59
472.882	3058.27
473.253	3048.55
473.625	3081.32
473.997	3137.81
474.369	3162.9
474.74	3214.2
475.112	3255.32
475.484	3289.9
475.855	3353.4
476.227	3407.64
476.598	3497.35
476.97	3451.7
477.341	3569.44
477.713	3583.22
478.084	3607.18
478.455	3719.27
478.827	3782.54
479.198	3848.75
479.569	3853.05
479.94	3936.44
480.311	3957.9
480.682	4000.84
481.053	4081.97
481.424	4112.25
481.795	4213.04
482.166	4244.68
482.537	4287.61
482.908	4373.03
483.279	4393.83
483.65	4484.67
484.021	4509.08
484.391	4598.11
484.762	4643.31
485.133	4668.39
485.503	4673.59
485.874	4815.96
486.244	4848.5
486.615	4932.34
486.985	4955.62
487.356	5040.36
487.726	5107.48
488.097	5211.2
488.467	5156.52
488.837	5260.24
489.207	5341.6
489.578	5393.8
489.948	5412.33
490.318	5500.69
490.688	5538.65
491.058	5576.17
491.428	5626.34
491.798	5652.1
492.168	5845.09
492.538	5836.95
492.908	5929.6
493.278	5899.1
493.648	5901.13
494.017	5996.49
494.387	6032.88
494.757	6048.7
495.126	6191.74
495.496	6156.26
495.866	6233.1
496.235	6282.36
496.605	6245.08
496.974	6305.64
497.344	6346.09
497.713	6416.82
498.082	6453.66
498.452	6506.76
498.821	6554.45
499.19	6516.48
499.559	6592.19
499.928	6549.25
500.298	6643.71
500.667	6720.54
501.036	6644.61
501.405	6784.04
501.774	6766.64
502.143	6787.89
502.512	6772.52
502.88	6776.81
503.249	6885.06
503.618	6874.21
503.987	6925.28
504.356	6979.29
504.724	7003.7
505.093	6991.5
505.462	7003.93
505.83	7056.35
506.199	7024.04
506.567	7165.96
506.936	7193.98
507.304	7218.61
507.672	7177.03
508.041	7254.54
508.409	7251.38
508.777	7291.83
509.145	7400.75
509.514	7361.2
509.882	7403.46
510.25	7414.76
510.618	7426.74
510.986	7439.85
511.354	7531.37
511.722	7507.87
512.09	7556
512.458	7577.24
512.826	7555.55
513.193	7612.05
513.561	7667.64
513.929	7664.93
514.297	7730.23
514.664	7767.52
515.032	7775.21
515.4	7781.08
515.767	7777.46
516.135	7796.22
516.502	7781.53
516.869	7826.05
517.237	7815.88
517.604	7867.63
517.972	7880.29
518.339	7900.63
518.706	7906.05
519.073	7937.01
519.44	7915.09
519.808	8029.66
520.175	7936.33
520.542	8031.92
520.909	8054.97
521.276	8033.05
521.643	8075.99
522.009	8105.82
522.376	8164.35
522.743	8160.05
523.11	8184.01
523.477	8266.49
523.843	8268.98
524.21	8350.56
524.577	8314.17
524.943	8374.51
525.31	8409.31
525.676	8454.06
526.043	8424.45
526.409	8482.08
526.776	8518.46
527.142	8539.93
527.508	8543.77
527.874	8605.01
528.241	8574.73
528.607	8576.54
528.973	8634.17
529.339	8597.56
529.705	8648.4
530.071	8688.63
530.437	8626.26
530.803	8691.11
531.169	8775.18
531.535	8683.43
531.901	8737.67
532.267	8675.52
532.632	8753.26
532.998	8717.55
533.364	8770.21
533.73	8747.83
534.095	8814.73
534.461	8826.7
534.826	8801.62
535.192	8780.38
535.557	8806.59
535.923	8766.82
536.288	8854.72
536.653	8813.37
537.019	8759.13
537.384	8785.35
537.749	8788.29
538.114	8790.77
538.479	8788.96
538.845	8831.45
539.21	8817.44
539.575	8736.99
539.94	8791.45
540.305	8803.43
540.67	8763.65
541.034	8833.26
541.399	8810.66
541.764	8762.98
542.129	8774.73
542.494	8875.97
542.858	8834.84
543.223	8739.93
543.587	8830.09
543.952	8779.7
544.316	8777.21
544.681	8797.78
545.045	8811.34
545.41	8847.72
545.774	8807.04
546.138	8768.85
546.503	8751.22
546.867	8783.54
547.231	8819.02
547.595	8730.89
547.959	8862.18
548.324	8730.89
548.688	8715.97
549.052	8777.66
549.416	8781.05
549.779	8692.24
550.143	8797.55
550.507	8764.56
550.871	8668.97
551.235	8755.29
551.599	8863.54
551.962	8789.64
552.326	8768.63
552.689	8753.71
553.053	8753.03
553.417	8770.66
553.78	8882.52
554.143	8838
554.507	8790.32
554.87	8789.64
555.234	8772.02
555.597	8743.54
555.96	8791.9
556.323	8865.12
556.686	8864.67
557.05	8837.55
557.413	8847.95
557.776	8828.74
558.139	8928.85
558.502	8891.56
558.865	8836.87
559.228	8921.39
559.59	8914.38
559.953	8880.94
560.316	9021.73
560.679	8970.88
561.041	9027.83
561.404	9041.16
561.767	9115.96
562.129	9044.1
562.492	9038
562.854	9063.76
563.217	9030.09
563.579	9079.13
563.941	9113.7
564.304	9178.33
564.666	9221.72
565.028	9200.93
565.39	9278.22
565.753	9230.99
566.115	9289.52
566.477	9273.02
566.839	9360.02
567.201	9393.69
567.563	9358.89
567.925	9324.09
568.287	9437.31
568.648	9448.61
569.01	9486.12
569.372	9556.63
569.734	9483.41
570.095	9584.65
570.457	9571.09
570.819	9574.03
571.18	9638.43
571.542	9556.63
571.903	9627.81
572.265	9690.86
572.626	9646.34
572.987	9673.23
573.349	9689.51
573.71	9791.88
574.071	9725.66
574.432	9765.21
574.794	9840.69
575.155	9840.69
575.516	9873
575.877	9907.13
576.238	9899.9
576.599	9976.28
576.96	9950.06
577.32	9928.59
577.681	9987.35
578.042	10030.74
578.403	10017.63
578.763	10052.66
579.124	10056.95
579.485	10102.6
579.845	10120.23
580.206	10060.12
580.566	10142.6
580.927	10093.34
581.287	10146.44
581.648	10234.12
582.008	10316.83
582.368	10216.72
582.728	10252.65
583.089	10186.44
583.449	10271.86
583.809	10306.89
584.169	10352.09
584.529	10248.81
584.889	10354.35
585.249	10308.47
585.609	10362.26
585.969	10354.12
586.329	10291.52
586.688	10342.37
587.048	10385.98
587.408	10379.2
587.768	10341.47
588.127	10350.73
588.487	10445.87
588.846	10516.83
589.206	10425.3
589.565	10527.22
589.925	10494.68
590.284	10484.29
590.643	10506.66
591.003	10574.23
591.362	10580.78
591.721	10598.41
592.08	10541.23
592.44	10586.2
592.799	10531.06
593.158	10605.41
593.517	10541.01
593.876	10616.26
594.235	10559.76
594.593	10553.21
594.952	10644.28
595.311	10551.86
595.67	10662.13
596.029	10668.01
596.387	10717.95
596.746	10713.21
597.104	10625.53
597.463	10615.13
597.822	10678.41
598.18	10691.29
598.538	10670.5
598.897	10697.39
599.255	10670.5
599.613	10747.1
599.972	10723.6
600.33	10691.96
600.688	10695.58
601.046	10742.13
601.404	10826.65
601.762	10815.58
602.12	10832.53
602.478	10803.6
602.836	10850.6
603.194	10765.86
603.552	10749.82
603.91	10802.47
604.268	10809.25
604.625	10775.13
604.983	10827.55
605.341	10817.84
605.698	10870.49
606.056	10880.66
606.413	10833.66
606.771	10903.03
607.128	10926.08
607.485	10831.85
607.843	10939.19
608.2	10873.88
608.557	10902.58
608.914	10912.52
609.272	10956.82
609.629	10901.45
609.986	11002.01
610.343	10975.8
610.7	10958.85
611.057	11004.95
611.414	10988.45
611.771	11051.5
612.127	11084.27
612.484	11091.95
612.841	11097.6
613.198	11010.6
613.554	11056.25
613.911	11195.23
614.267	11105.06
614.624	11066.19
614.98	11051.96
615.337	11147.55
615.693	11156.13
616.05	10993.2
616.406	11188.45
616.762	11088.79
617.118	11140.54
617.475	11085.4
617.831	11180.09
618.187	11149.35
618.543	11194.1
618.899	11251.27
619.255	11233.87
619.611	11152.52
619.967	11226.41
620.323	11312.06
620.678	11284.49
621.034	11240.2
621.39	11254.21
621.746	11275.9
622.101	11323.36
622.457	11221.67
622.812	11189.13
623.168	11266.86
623.523	11222.57
623.879	11297.6
624.234	11211.5
624.589	11186.41
624.945	11237.49
625.3	11261.44
625.655	11213.53
626.01	11260.31
626.365	11267.54
626.72	11274.32
627.075	11271.84
627.43	11220.31
627.785	11219.41
628.14	11246.98
628.495	11259.63
628.85	11202.46
629.205	11174.21
629.559	11307.54
629.914	11117.26
630.269	11208.11
630.623	11173.31
630.978	11102.8
631.332	11189.58
631.687	11174.66
632.041	11121.11
632.396	11130.37
632.75	11092.41
633.104	11121.11
633.459	11110.94
633.813	11098.96
634.167	11075.46
634.521	11009.92
634.875	11046.08
635.229	10998.62
635.583	10976.02
635.937	10978.06
636.291	10952.3
636.645	10986.87
636.999	10927.44
637.352	10919.76
637.706	10843.6
638.06	10887.21
638.413	10925.18
638.767	10891.28
639.121	10922.02
639.474	10862.36
639.828	10787.56
640.181	10790.95
640.534	10831.62
640.888	10860.1
641.241	10724.96
641.594	10745.52
641.947	10850.6
642.301	10803.83
642.654	10778.74
643.007	10826.65
643.36	10775.13
643.713	10690.83
644.066	10775.35
644.419	10628.24
644.771	10689.7
645.124	10498.07
645.477	10578.97
645.83	10432.99
646.182	10387.34
646.535	10396.61
646.888	10422.14
647.24	10352.99
647.593	10416.94
647.945	10347.11
648.298	10338.08
648.65	10356.83
649.002	10290.62
649.355	10388.02
649.707	10395.02
650.059	10310.73
650.411	10512.76
650.763	10614.68
651.115	10591.4
651.467	10623.94
651.819	10570.16
652.171	10526.55
652.523	10477.96
652.875	10492.87
653.227	10433.44
653.578	10536.94
653.93	10557.73
654.282	10524.96
654.633	10461.91
654.985	10489.03
655.337	10577.17
655.688	10540.1
656.039	10548.24
656.391	10539.2
656.742	10496.26
657.094	10500.56
657.445	10511.86
657.796	10507.34
658.147	10488.58
658.498	10517.51
658.849	10524.74
659.2	10459.2
659.551	10465.3
659.902	10495.13
660.253	10455.13
660.604	10512.99
660.955	10486.32
661.306	10522.25
661.656	10446.32
662.007	10475.7
662.358	10464.63
662.708	10414.01
663.059	10524.51
663.409	10475.93
663.76	10524.74
664.11	10478.18
664.461	10520.67
664.811	10479.77
665.161	10538.07
665.511	10488.81
665.862	10559.31
666.212	10553.44
666.562	10474.8
666.912	10534.23
667.262	10526.77
667.612	10508.24
667.962	10487.22
668.312	10497.85
668.662	10543.04
669.011	10518.18
669.361	10458.98
669.711	10397.06
670.06	10478.41
670.41	10439.54
670.76	10480.9
671.109	10485.42
671.459	10444.74
671.808	10448.58
672.157	10510.27
672.507	10453.1
672.856	10462.59
673.205	10458.07
673.554	10437.51
673.904	10334.01
674.253	10470.95
674.602	10372.2
674.951	10259.43
675.3	10140.57
675.649	10416.72
675.998	10356.15
676.346	10331.75
676.695	10271.41
677.044	10266.67
677.393	10300.11
677.741	10310.05
678.09	10255.82
678.438	10264.63
678.787	10296.72
679.135	10242.48
679.484	10196.38
679.832	10193.9
680.181	10127.69
680.529	10204.75
680.877	10152.09
681.225	10158.42
681.573	10231.64
681.922	10115.03
682.27	10117.74
682.618	10015.37
682.966	10023.51
683.314	10076.61
683.661	10064.18
684.009	9982.83
684.357	10011.98
684.705	9937.18
685.053	9950.29
685.4	9916.17
685.748	9884.3
686.095	9866
686.443	9855.6
686.79	9814.02
687.138	9822.38
687.485	9818.09
687.832	9812.44
688.18	9811.76
688.527	9683.86
688.874	9677.3
689.221	9674.36
689.568	9698.09
689.915	9613.57
690.262	9616.51
690.609	9616.51
690.956	9571.54
691.303	9565.67
691.65	9479.79
691.997	9476.18
692.344	9425.11
692.69	9487.02
693.037	9408.38
693.383	9353.69
693.73	9390.98
694.077	9305.79
694.423	9286.58
694.769	9261.27
695.116	9288.16
695.462	9172.23
695.808	9166.81
696.155	9227.6
696.501	9126.36
696.847	9135.85
697.193	9062.85
697.539	9041.39
697.885	8969.98
698.231	8976.98
698.577	8944.67
698.923	8848.17
699.269	8822.86
699.614	8820.83
699.96	8839.36
700.306	8866.93
700.651	8796.87
700.997	8696.54
701.342	8696.76
701.688	8693.37
702.033	8733.37
702.379	8612.47
702.724	8597.56
703.069	8572.25
703.415	8506.71
703.76	8536.09
704.105	8500.16
704.45	8524.11
704.795	8386.71
705.14	8447.5
705.485	8437.56
705.83	8327.73
706.175	8354.4
706.52	8337.9
706.865	8311.01
707.209	8310.56
707.554	8272.37
707.899	8332.48
708.243	8195.76
708.588	8165.03
708.932	8120.96
709.277	8140.62
709.621	8196.89
709.966	8029.66
710.31	8113.05
710.654	8045.48
710.998	8009.1
711.342	8003.22
711.687	8005.71
712.031	8015.65
712.375	7983.11
712.719	7942.43
713.063	7921.19
713.407	7971.36
713.75	7947.18
714.094	7841.19
714.438	7903.34
714.782	7912.38
715.125	7803.45
715.469	7801.87
715.812	7845.49
716.156	7777.92
716.499	7791.7
716.843	7812.04
717.186	7745.38
717.53	7824.7
717.873	7762.78
718.216	7737.47
718.559	7698.37
718.902	7669.22
719.246	7648.88
719.589	7700.63
719.932	7677.13
720.275	7646.62
720.617	7682.33
720.96	7624.93
721.303	7640.07
721.646	7649.33
721.989	7593.06
722.331	7606.85
722.674	7530.24
723.016	7551.03
723.359	7548.09
723.701	7539.73
724.044	7490.01
724.386	7426.51
724.729	7543.57
725.071	7490.69
725.413	7508.32
725.755	7471.03
726.097	7518.49
726.439	7406.18
726.782	7403.92
727.124	7511.03
727.465	7438.49
727.807	7405.27
728.149	7392.84
728.491	7426.74
728.833	7414.99
729.175	7334.31
729.516	7390.58
729.858	7380.19
730.199	7407.76
730.541	7422.45
730.882	7395.33
731.224	7401.2
731.565	7359.62
731.906	7368.21
732.248	7397.36
732.589	7393.75
732.93	7290.92
733.271	7342.67
733.612	7358.04
733.953	7402.11
734.294	7356.23
734.635	7311.94
734.976	7316.46
735.317	7305.84
735.658	7293.86
735.999	7344.26
736.339	7343.58
736.68	7367.53
737.021	7314.88
737.361	7314.88
737.702	7303.35
738.042	7342.67
738.383	7335.44
738.723	7370.24
739.063	7350.13
739.404	7360.07
739.744	7340.41
740.084	7310.58
740.424	7299.96
740.764	7396.23
741.104	7362.79
741.444	7303.58
741.784	7239.85
742.124	7332.05
742.464	7363.92
742.804	7400.98
743.143	7380.87
743.483	7346.74
743.823	7397.81
744.162	7389
744.502	7452.73
744.841	7387.42
745.181	7449.56
745.52	7462.45
745.86	7490.92
746.199	7476.68
746.538	7497.25
746.877	7552.84
747.216	7582.44
747.556	7603.01
747.895	7595.1
748.234	7714.64
748.573	7691.14
748.911	7733.85
749.25	7761.87
749.589	7740.63
749.928	7886.39
750.267	7891.36
750.605	7905.15
750.944	7972.49
751.283	7997.35
751.621	8031.7
751.96	8042.32
752.298	8141.07
752.636	8226.04
752.975	8281.41
753.313	8313.72
753.651	8400.95
753.989	8424.45
754.327	8533.83
754.666	8592.58
755.004	8697.44
755.342	8765.46
755.679	8892.46
756.017	8891.33
756.355	9007.49
756.693	9024.44
757.031	9206.58
757.368	9262.62
757.706	9395.95
758.044	9451.77
758.381	9576.29
758.719	9574.48
759.056	9731.99
759.394	9855.15
759.731	9907.8
760.068	10034.35
760.405	10148.25
760.743	10189.83
761.08	10359.77
761.417	10354.12
761.754	10516.15
762.091	10594.34
762.428	10696.03
762.765	10729.25
763.102	10976.48
763.438	11002.01
