Data from hue_120_FLMS001491_00040.txt Node
Date: Tue Feb 07 16:59:18 GMT 2017
User: dcchb
Spectrometer: FLMS00149
Trigger mode: 0
Integration Time (sec): 2.000000E-2
Scans to average: 10
Electric dark correction enabled: true
Nonlinearity correction enabled: false
Boxcar width: 0
XAxis mode: Wavelengths
Number of Pixels in Spectrum: 2048
>>>>>Begin Spectral Data<<<<<
341.393	-13.67
341.776	-13.67
342.16	-13.67
342.543	-68.36
342.927	-63.39
343.31	-61.13
343.693	-71.98
344.077	-74.69
344.46	-53.44
344.843	-57.96
345.226	-38.76
345.61	-20
345.993	3.05
346.376	2.82
346.759	3.95
347.142	32.2
347.525	46.89
347.908	41.24
348.291	69.26
348.674	69.72
349.057	108.81
349.44	130.28
349.823	158.3
350.206	180.22
350.588	195.36
350.971	194.01
351.354	220.45
351.737	245.08
352.119	219.32
352.502	246.89
352.884	288.47
353.267	269.48
353.65	303.61
354.032	324.17
354.414	309.26
354.797	323.72
355.179	332.76
355.562	309.03
355.944	332.99
356.326	328.92
356.709	321.46
357.091	339.77
357.473	344.74
357.855	330.05
358.238	332.31
358.62	325.98
359.002	332.76
359.384	340.44
359.766	340.44
360.148	330.5
360.53	339.54
360.912	335.25
361.294	336.83
361.676	328.24
362.057	316.71
362.439	312.42
362.821	346.77
363.203	325.3
363.584	331.4
363.966	326.66
364.348	314
364.729	305.87
365.111	313.55
365.493	328.69
365.874	312.42
366.256	318.3
366.637	311.29
367.019	328.47
367.4	315.58
367.781	319.2
368.163	322.82
368.544	302.03
368.925	323.72
369.306	296.38
369.688	319.2
370.069	314.23
370.45	317.39
370.831	308.81
371.212	321.46
371.593	307.9
371.974	301.57
372.355	312.65
372.736	307
373.117	333.89
373.498	319.2
373.879	326.66
374.26	325.3
374.641	310.84
375.021	315.81
375.402	310.39
375.783	307
376.163	330.73
376.544	338.41
376.925	339.99
377.305	339.54
377.686	314.46
378.066	316.94
378.447	342.7
378.827	333.89
379.208	329.6
379.588	331.86
379.968	353.55
380.349	340.44
380.729	329.82
381.109	330.5
381.489	343.38
381.87	328.01
382.25	332.53
382.63	342.7
383.01	370.5
383.39	345.87
383.77	344.51
384.15	345.64
384.53	356.71
384.91	326.43
385.29	356.26
385.67	351.06
386.049	357.62
386.429	340.89
386.809	371.18
387.189	383.83
387.568	363.04
387.948	362.14
388.328	349.71
388.707	380.67
389.087	363.72
389.466	359.88
389.846	371.85
390.225	375.24
390.605	377.28
390.984	386.32
391.363	385.19
391.743	379.09
392.122	385.19
392.501	382.93
392.881	381.57
393.26	377.96
393.639	392.65
394.018	378.63
394.397	374.79
394.776	382.48
395.155	387.22
395.534	401.01
395.913	407.79
396.292	403.27
396.671	391.29
397.05	401.01
397.429	412.98
397.808	401.68
398.186	391.74
398.565	399.42
398.944	393.1
399.323	421.34
399.701	400.55
400.08	416.37
400.458	419.31
400.837	439.42
401.215	435.13
401.594	435.36
401.972	408.92
402.351	413.89
402.729	418.18
403.107	415.24
403.486	426.32
403.864	435.81
404.242	434.45
404.62	413.44
404.999	435.13
405.377	445.75
405.755	428.8
406.133	437.62
406.511	469.48
406.889	445.75
407.267	467.45
407.645	437.84
408.023	461.34
408.401	454.11
408.779	455.47
409.156	464.28
409.534	470.38
409.912	483.04
410.29	475.35
410.667	482.81
411.045	497.28
411.422	493.21
411.8	478.07
412.178	486.88
412.555	508.8
412.933	493.43
413.31	526.43
413.687	491.85
414.065	510.83
414.442	525.97
414.819	513.32
415.197	521.46
415.574	543.83
415.951	539.76
416.328	523.72
416.705	542.25
417.082	523.94
417.46	558.97
417.837	561.45
418.214	552.41
418.591	543.15
418.967	541.34
419.344	568.46
419.721	569.36
420.098	547.22
420.475	564.62
420.852	604.16
421.228	584.05
421.605	564.39
421.982	563.49
422.358	560.32
422.735	583.15
423.111	585.18
423.488	590.61
423.864	579.31
424.241	602.81
424.617	606.2
424.994	606.42
425.37	608.46
425.746	610.27
426.123	629.47
426.499	610.27
426.875	623.37
427.251	633.99
427.627	665.18
428.003	652.3
428.379	654.56
428.756	657.95
429.132	668.57
429.507	681.9
429.883	666.08
430.259	697.04
430.635	696.82
431.011	708.57
431.387	701.56
431.763	705.63
432.138	709.02
432.514	707.44
432.89	726.65
433.265	718.29
433.641	746.99
434.016	749.47
434.392	759.87
434.767	760.32
435.143	785.18
435.518	758.06
435.894	775.46
436.269	771.17
436.644	777.27
437.02	792.86
437.395	796.93
437.77	804.39
438.145	823.14
438.52	813.65
438.895	824.95
439.271	831.73
439.646	843.03
440.021	851.39
440.395	858.4
440.77	861.11
441.145	881.22
441.52	843.71
441.895	874.89
442.27	874.44
442.645	915.8
443.019	923.25
443.394	876.93
443.769	913.08
444.143	912.41
444.518	923.48
444.892	932.29
445.267	937.72
445.641	941.11
446.016	943.82
446.39	946.98
446.764	955.12
447.139	948.56
447.513	962.8
447.887	963.7
448.262	990.6
448.636	991.27
449.01	980.43
449.384	996.24
449.758	1003.7
450.132	995.57
450.506	1021.56
450.88	1009.13
451.254	1044.61
451.628	1022.23
452.002	1073.53
452.376	1084.38
452.75	1075.34
453.123	1071.5
453.497	1083.93
453.871	1091.61
454.244	1131.61
454.618	1114.89
454.992	1163.02
455.365	1157.82
455.739	1174.32
456.112	1200.53
456.486	1195.56
456.859	1185.17
457.232	1227.65
457.606	1207.54
457.979	1253.19
458.352	1251.83
458.725	1253.41
459.099	1284.6
459.472	1315.11
459.845	1336.35
460.218	1311.49
460.591	1343.35
460.964	1358.95
461.337	1368.89
461.71	1399.85
462.083	1399.4
462.456	1418.83
462.829	1443.92
463.201	1452.28
463.574	1437.36
463.947	1498.15
464.32	1519.17
464.692	1535.67
465.065	1572.05
465.438	1568.43
465.81	1601.2
466.183	1609.79
466.555	1621.99
466.928	1673.52
467.3	1659.5
467.672	1701.76
468.045	1727.3
468.417	1741.31
468.789	1777.02
469.161	1795.77
469.534	1823.34
469.906	1878.93
470.278	1917.58
470.65	1903.57
471.022	1988.54
471.394	2027.63
471.766	2045.26
472.138	2076.44
472.51	2145.59
472.882	2181.52
473.253	2205.03
473.625	2256.78
473.997	2325.02
474.369	2344.68
474.74	2386.72
475.112	2443.44
475.484	2499.03
475.855	2579.71
476.227	2584.45
476.598	2677.56
476.97	2729.31
477.341	2782.64
477.713	2870.77
478.084	2911.45
478.455	3012.69
478.827	3091.33
479.198	3255.85
479.569	3231.44
479.94	3333.13
480.311	3438.44
480.682	3529.06
481.053	3635.95
481.424	3735.38
481.795	3811.09
482.166	3889.05
482.537	4031.19
482.908	4114.13
483.279	4186.22
483.65	4298.98
484.021	4436.15
484.391	4522.03
484.762	4647.22
485.133	4746.2
485.503	4861.68
485.874	5000.43
486.244	5092.41
486.615	5248.34
486.985	5389.8
487.356	5498.73
487.726	5610.36
488.097	5873.86
488.467	5880.64
488.837	6068.88
489.207	6187.52
489.578	6384.58
489.948	6481.75
490.318	6647.17
490.688	6725.13
491.058	6899.59
491.428	7060.04
491.798	7159.02
492.168	7419.8
492.538	7492.8
492.908	7600.59
493.278	7796.97
493.648	7900.7
494.017	8054.36
494.387	8185.21
494.757	8315.6
495.126	8511.3
495.496	8565.76
495.866	8667.91
496.235	8858.64
496.605	8963.04
496.974	9047.78
497.344	9231.06
497.713	9393.31
498.082	9445.06
498.452	9641.44
498.821	9763.25
499.19	9789.01
499.559	9918.27
499.928	10076.68
500.298	10131.82
500.667	10303.34
501.036	10327.53
501.405	10476
501.774	10553.73
502.143	10678.7
502.512	10700.85
502.88	10834.63
503.249	10888.41
503.618	10972.03
503.987	11095.64
504.356	11210.89
504.724	11289.31
505.093	11334.28
505.462	11456.99
505.83	11490.88
506.199	11616.08
506.567	11816.75
506.936	11812.01
507.304	11899.46
507.672	12057.88
508.041	12067.37
508.409	12184.43
508.777	12245.67
509.145	12411.99
509.514	12365.66
509.882	12460.8
510.25	12511.42
510.618	12538.77
510.986	12539.67
511.354	12750.51
511.722	12830.06
512.09	12921.13
512.458	12847.91
512.826	13002.26
513.193	13000
513.561	13099.66
513.929	13183.5
514.297	13236.6
514.664	13305.53
515.032	13329.71
515.4	13296.94
515.767	13516.82
516.135	13561.34
516.502	13463.04
516.869	13609.02
517.237	13603.15
517.604	13603.37
517.972	13682.47
518.339	13763.82
518.706	13745.29
519.073	13776.25
519.44	13870.03
519.808	13981.89
520.175	13940.99
520.542	13997.71
520.909	14173.75
521.276	14064.15
521.643	14116.35
522.009	14217.14
522.376	14230.02
522.743	14287.87
523.11	14368.32
523.477	14486.29
523.843	14532.84
524.21	14499.39
524.577	14603.34
524.943	14612.61
525.31	14598.37
525.676	14724.02
526.043	14728.99
526.409	14756.11
526.776	14932.15
527.142	14854.64
527.508	14908.2
527.874	14980.28
528.241	14957.23
528.607	14912.04
528.973	14996.1
529.339	14955.88
529.705	14986.61
530.071	15093.95
530.437	15167.17
530.803	15114.97
531.169	15146.16
531.535	15097.57
531.901	15055.54
532.267	15118.81
532.632	15150.9
532.998	15131.24
533.364	15095.31
533.73	15086.27
534.095	15198.58
534.461	15087.63
534.826	15077.91
535.192	15126.95
535.557	15167.4
535.923	15054.86
536.288	15006.72
536.653	15163.33
537.019	14943.9
537.384	15054.63
537.749	15032.03
538.114	14976.67
538.479	14918.36
538.845	14911.36
539.21	14865.94
539.575	14914.98
539.94	14832.94
540.305	14983
540.67	14766.73
541.034	14761.08
541.399	14797.01
541.764	14855.77
542.129	14754.53
542.494	14683.12
542.858	14647.64
543.223	14732.16
543.587	14720.4
543.952	14552.95
544.316	14629.33
544.681	14550.24
545.045	14618.71
545.41	14548.88
545.774	14476.34
546.138	14485.83
546.503	14473.18
546.867	14401.54
547.231	14527.19
547.595	14402.67
547.959	14388.21
548.324	14294.88
548.688	14307.53
549.052	14307.08
549.416	14291.49
549.779	14279.06
550.143	14216.91
550.507	14257.37
550.871	14246.29
551.235	14146.41
551.599	14210.13
551.962	14032.06
552.326	14041.55
552.689	14175.79
553.053	13962.46
553.417	14042.23
553.78	14148.67
554.143	14029.12
554.507	13986.41
554.87	14029.8
555.234	14026.64
555.597	14041.33
555.96	13884.72
556.323	14074.77
556.686	13910.03
557.05	13893.76
557.413	13925.4
557.776	13884.04
558.139	13995.9
558.502	13920.42
558.865	13896.92
559.228	13922.46
559.59	13936.24
559.953	13926.53
560.316	13946.41
560.679	13941.89
561.041	14005.17
561.404	13989.58
561.767	14016.92
562.129	13911.84
562.492	13996.36
562.854	14060.31
563.217	14008.11
563.579	14098.05
563.941	14045.85
564.304	14087.2
564.666	14100.76
565.028	14182.79
565.39	14107.09
565.753	14173.98
566.115	14128.56
566.477	14205.84
566.839	14250.81
567.201	14291.49
567.563	14208.55
567.925	14277.48
568.287	14191.83
568.648	14212.39
569.01	14288.55
569.372	14336.23
569.734	14293.97
570.095	14349.79
570.457	14342.33
570.819	14340.98
571.18	14319.28
571.542	14435.44
571.903	14429.11
572.265	14436.8
572.626	14505.95
572.987	14487.42
573.349	14450.81
573.71	14519.05
574.071	14564.7
574.432	14506.17
574.794	14640.18
575.155	14534.19
575.516	14527.19
575.877	14537.13
576.238	14574.42
576.599	14627.75
576.96	14620.07
577.32	14587.07
577.681	14651.71
578.042	14574.42
578.403	14642.67
578.763	14656
579.124	14620.52
579.485	14630.69
579.845	14700.29
580.206	14546.62
580.566	14543.46
580.927	14587.3
581.287	14703.91
581.648	14636.11
582.008	14744.13
582.368	14663.46
582.728	14616.23
583.089	14634.53
583.449	14653.06
583.809	14618.94
584.169	14747.3
584.529	14681.08
584.889	14651.71
585.249	14632.95
585.609	14598.15
585.969	14671.37
586.329	14646.51
586.688	14565.83
587.048	14579.16
587.408	14585.27
587.768	14524.02
588.127	14496.23
588.487	14473.4
588.846	14613.51
589.206	14435.89
589.565	14439.06
589.925	14586.85
590.284	14474.08
590.643	14427.76
591.003	14470.92
591.362	14498.26
591.721	14452.16
592.08	14458.26
592.44	14469.34
592.799	14453.74
593.158	14512.27
593.517	14467.3
593.876	14468.21
594.235	14358.61
594.593	14416.68
594.952	14405.16
595.311	14422.11
595.67	14425.72
596.029	14413.07
596.387	14437.93
596.746	14529.9
597.104	14354.31
597.463	14343.69
597.822	14351.83
598.18	14322.22
598.538	14332.84
598.897	14405.84
599.255	14249.91
599.613	14527.19
599.972	14350.02
600.33	14475.21
600.688	14392.73
601.046	14399.96
601.404	14500.3
601.762	14417.36
602.12	14476.57
602.478	14434.54
602.836	14486.29
603.194	14331.26
603.552	14339.17
603.91	14321.32
604.268	14358.61
604.625	14324.93
604.983	14363.13
605.341	14393.18
605.698	14405.61
606.056	14420.52
606.413	14278.16
606.771	14427.08
607.128	14423.69
607.485	14348.21
607.843	14347.08
608.2	14469.11
608.557	14485.38
608.914	14382.33
609.272	14422.56
609.629	14484.93
609.986	14541.88
610.343	14503.46
610.7	14527.41
611.057	14491.71
611.414	14525.38
611.771	14512.73
612.127	14631.37
612.484	14502.56
612.841	14696.9
613.198	14627.3
613.554	14618.71
613.911	14638.37
614.267	14735.77
614.624	14617.36
614.98	14728.31
615.337	14762.21
615.693	14773.06
616.05	14658.94
616.406	14838.82
616.762	14690.8
617.118	14748.2
617.475	14775.77
617.831	14750.91
618.187	14800.18
618.543	14792.49
618.899	14825.49
619.255	14809.44
619.611	14821.19
619.967	14872.04
620.323	14852.83
620.678	14855.99
621.034	14792.49
621.39	14847.18
621.746	14838.82
622.101	15010.34
622.457	14811.47
622.812	14891.92
623.168	14837.91
623.523	14896.67
623.879	14886.28
624.234	14812.6
624.589	14844.92
624.945	14863.23
625.3	14878.14
625.655	14826.39
626.01	14851.25
626.365	14775.32
626.72	14790.68
627.075	14738.48
627.43	14723.12
627.785	14806.96
628.14	14797.92
628.495	14896.44
628.85	14808.76
629.205	14768.76
629.559	14903.68
629.914	14646.06
630.269	14689.9
630.623	14747.97
630.978	14717.24
631.332	14809.89
631.687	14790.46
632.041	14708.88
632.396	14715.88
632.75	14635.66
633.104	14712.49
633.459	14613.51
633.813	14619.16
634.167	14617.36
634.521	14681.76
634.875	14602.44
635.229	14520.18
635.583	14512.27
635.937	14534.19
636.291	14463.69
636.645	14487.87
636.999	14453.29
637.352	14543.91
637.706	14425.5
638.06	14553.18
638.413	14455.55
638.767	14357.93
639.121	14381.43
639.474	14379.4
639.828	14455.55
640.181	14374.42
640.534	14310.92
640.888	14261.43
641.241	14243.13
641.594	14292.39
641.947	14314.09
642.301	14274.54
642.654	14265.5
643.007	14282.22
643.36	14249.68
643.713	14229.8
644.066	14210.81
644.419	14145.73
644.771	14046.3
645.124	13978.28
645.477	13931.5
645.83	13944.61
646.182	13816.02
646.535	13805.63
646.888	13806.3
647.24	13707.55
647.593	13866.87
647.945	13684.95
648.298	13652.86
648.65	13648.34
649.002	13642.01
649.355	13744.84
649.707	13668.23
650.059	13778.06
650.411	13912.74
650.763	13911.84
651.115	14079.29
651.467	13957.26
651.819	14004.26
652.171	13946.41
652.523	13940.54
652.875	14037.94
653.227	13957.71
653.578	14053.53
653.93	14122.23
654.282	13916.81
654.633	13870.03
654.985	13955.9
655.337	13990.93
655.688	14009.46
656.039	14093.3
656.391	13899.63
656.742	14034.55
657.094	13906.87
657.445	14037.71
657.796	13985.73
658.147	14001.33
658.498	13976.24
658.849	13970.14
659.2	14013.98
659.551	13890.14
659.902	14012.85
660.253	13939.63
660.604	13948.9
660.955	13875
661.306	14053.53
661.656	13952.97
662.007	13955.68
662.358	13948.22
662.708	14009.69
663.059	13970.37
663.409	13905.51
663.76	14044.04
664.11	13926.98
664.461	14061.89
664.811	14129.23
665.161	13994.55
665.511	13931.5
665.862	14002
666.212	14012.85
666.562	14113.41
666.912	14035.45
667.262	13970.14
667.612	14026.18
667.962	14097.6
668.312	14022.34
668.662	14086.97
669.011	14057.14
669.361	14004.26
669.711	13906.41
670.06	13973.08
670.41	13999.07
670.76	13917.71
671.109	13958.84
671.459	13963.14
671.808	13950.03
672.157	14031.38
672.507	13873.42
672.856	13901.89
673.205	13967.88
673.554	13965.62
673.904	13925.4
674.253	13957.94
674.602	13899.86
674.951	13716.14
675.3	13646.76
675.649	13829.58
675.998	13830.48
676.346	13819.18
676.695	13825.51
677.044	13749.36
677.393	13784.84
677.741	13788.68
678.09	13736.93
678.438	13658.96
678.787	13734.67
679.135	13698.96
679.484	13585.97
679.832	13612.18
680.181	13600.43
680.529	13616.25
680.877	13542.58
681.225	13559.08
681.573	13579.87
681.922	13573.99
682.27	13430.95
682.618	13444.73
682.966	13348.69
683.314	13383.04
683.661	13388.69
684.009	13361.8
684.357	13242.25
684.705	13322.93
685.053	13252.65
685.4	13288.58
685.748	13190.05
686.095	13229.82
686.443	13173.78
686.79	13055.59
687.138	13162.93
687.485	13183.04
687.832	13016.27
688.18	13049.71
688.527	12982.82
688.874	13021.92
689.221	12980.79
689.568	12907.12
689.915	12870.06
690.262	12924.52
690.609	12844.3
690.956	12794.8
691.303	12741.92
691.65	12648.37
691.997	12745.77
692.344	12591.65
692.69	12573.57
693.037	12486.34
693.383	12468.03
693.73	12486.79
694.077	12350.07
694.423	12287.93
694.769	12360.01
695.116	12275.72
695.462	12319.34
695.808	12157.76
696.155	12222.62
696.501	12130.19
696.847	12164.09
697.193	12053.81
697.539	12035.05
697.885	11969.74
698.231	11998.89
698.577	11942.17
698.923	11891.33
699.269	11746.47
699.614	11729.75
699.96	11765.91
700.306	11750.99
700.651	11662.18
700.997	11635.29
701.342	11541.5
701.688	11507.83
702.033	11519.13
702.379	11528.17
702.724	11391.23
703.069	11391.23
703.415	11307.16
703.76	11288.63
704.105	11380.83
704.45	11220.16
704.795	11280.95
705.14	11192.81
705.485	11131.57
705.83	11101.97
706.175	11156.2
706.52	11069.43
706.865	11019.26
707.209	10981.52
707.554	10893.61
707.899	11009.99
708.243	10877.79
708.588	10837.79
708.932	10803.67
709.277	10785.14
709.621	10875.31
709.966	10681.64
710.31	10750.11
710.654	10642.55
710.998	10653.39
711.342	10677.8
711.687	10616.33
712.031	10607.97
712.375	10541.76
712.719	10610.91
713.063	10524.58
713.407	10534.07
713.75	10499.27
714.094	10462.89
714.438	10418.37
714.782	10415.43
715.125	10374.98
715.469	10466.96
715.812	10327.3
716.156	10325.49
716.499	10232.39
716.843	10348.77
717.186	10277.81
717.53	10339.28
717.873	10253.63
718.216	10233.06
718.559	10203.91
718.902	10139.51
719.246	10183.35
719.589	10119.39
719.932	10087.08
720.275	10074.42
720.617	10048.89
720.96	10096.57
721.303	10155.78
721.646	10060.19
721.989	10017.93
722.331	10023.13
722.674	10001.88
723.016	10001.43
723.359	9953.3
723.701	9974.77
724.044	9943.35
724.386	9934.99
724.729	9947.65
725.071	9934.09
725.413	9941.32
725.755	9894.09
726.097	9901.55
726.439	9835.56
726.782	9847.99
727.124	9922.11
727.465	9847.99
727.807	9919.4
728.149	9791.49
728.491	9875.56
728.833	9889.12
729.175	9782
729.516	9788.33
729.858	9845.05
730.199	9884.6
730.541	9838.27
730.882	9767.77
731.224	9799.18
731.565	9727.09
731.906	9812.06
732.248	9783.36
732.589	9710.82
732.93	9737.71
733.271	9720.76
733.612	9705.17
733.953	9715.11
734.294	9725.06
734.635	9682.8
734.976	9757.82
735.317	9709.24
735.658	9702.46
735.999	9731.83
736.339	9703.36
736.68	9713.76
737.021	9711.5
737.361	9721.67
737.702	9745.85
738.042	9758.27
738.383	9743.59
738.723	9827.65
739.063	9730.48
739.404	9798.27
739.744	9744.49
740.084	9713.76
740.424	9871.27
740.764	9782.23
741.104	9861.32
741.444	9793.75
741.784	9822.45
742.124	9862.23
742.464	9849.57
742.804	9822.68
743.143	9892.06
743.483	9985.16
743.823	9963.69
744.162	9910.36
744.502	9982.68
744.841	9977.93
745.181	10047.76
745.52	10018.15
745.86	10050.24
746.199	10105.16
746.538	10128.89
746.877	10212.73
747.216	10281.42
747.556	10235.32
747.895	10346.28
748.234	10362.1
748.573	10400.97
748.911	10474.64
749.25	10530.46
749.589	10589.67
749.928	10651.36
750.267	10732.71
750.605	10767.29
750.944	10828.75
751.283	10882.09
751.621	11060.39
751.96	11054.06
752.298	11078.92
752.636	11261.29
752.975	11275.07
753.313	11376.99
753.651	11502.18
753.989	11582.18
754.327	11614.95
754.666	11739.47
755.004	11870.76
755.342	12104.43
755.679	12133.35
756.017	12261.26
756.355	12433.23
756.693	12518.88
757.031	12664.41
757.368	12826.44
