Data from hue_230_FLMS001491_00028.txt Node
Date: Tue Feb 07 16:37:01 GMT 2017
User: dcchb
Spectrometer: FLMS00149
Trigger mode: 0
Integration Time (sec): 2.000000E-2
Scans to average: 10
Electric dark correction enabled: true
Nonlinearity correction enabled: false
Boxcar width: 0
XAxis mode: Wavelengths
Number of Pixels in Spectrum: 2048
>>>>>Begin Spectral Data<<<<<
341.393	-8.11
341.776	-8.11
342.16	-8.11
342.543	-65.73
342.927	-61.21
343.31	-67.99
343.693	-67.54
344.077	-62.79
344.46	-66.86
344.843	-60.54
345.226	-65.51
345.61	-35.68
345.993	6.36
346.376	0.25
346.759	-2.01
347.142	45.9
347.525	46.81
347.908	44.32
348.291	92
348.674	77.54
349.057	115.73
349.44	128.84
349.823	139.46
350.206	157.09
350.588	178.33
350.971	214.26
351.354	232.11
351.737	224.43
352.119	252.9
352.502	269.4
352.884	278.44
353.267	269.85
353.65	284.99
354.032	290.42
354.414	304.43
354.797	313.24
355.179	300.13
355.562	326.35
355.944	332.9
356.326	331.77
356.709	311.66
357.091	310.3
357.473	332
357.855	349.85
358.238	339.68
358.62	334.48
359.002	319.12
359.384	336.74
359.766	324.31
360.148	314.82
360.53	335.84
360.912	331.77
361.294	329.06
361.676	319.12
362.057	319.12
362.439	325.44
362.821	306.46
363.203	311.88
363.584	318.21
363.966	325.44
364.348	335.84
364.729	301.72
365.111	311.88
365.493	318.44
365.874	292
366.256	310.53
366.637	317.08
367.019	324.54
367.4	306.23
367.781	300.59
368.163	297.87
368.544	313.24
368.925	307.14
369.306	333.58
369.688	318.66
370.069	310.3
370.45	299.46
370.831	318.89
371.212	315.27
371.593	308.49
371.974	306.23
372.355	296.74
372.736	321.15
373.117	316.4
373.498	295.84
373.879	308.27
374.26	294.26
374.641	321.15
375.021	308.49
375.402	302.62
375.783	320.02
376.163	315.05
376.544	305.78
376.925	324.54
377.305	335.84
377.686	326.57
378.066	311.66
378.447	327.48
378.827	329.06
379.208	320.92
379.588	331.54
379.968	317.53
380.349	309.85
380.729	319.79
381.109	313.92
381.489	334.03
381.87	323.86
382.25	338.55
382.63	332.45
383.01	336.52
383.39	362.05
383.77	335.84
384.15	337.65
384.53	325.44
384.91	344.2
385.29	359.11
385.67	349.17
386.049	348.72
386.429	340.81
386.809	360.24
387.189	351.21
387.568	355.73
387.948	359.11
388.328	359.34
388.707	350.3
389.087	362.28
389.466	369.06
389.846	375.16
390.225	361.83
390.605	348.95
390.984	370.64
391.363	374.93
391.743	358.66
392.122	357.53
392.501	375.16
392.881	370.41
393.26	372
393.639	367.02
394.018	383.75
394.397	370.41
394.776	356.63
395.155	392.33
395.534	377.42
395.913	385.33
396.292	409.51
396.671	394.82
397.05	357.76
397.429	385.33
397.808	403.18
398.186	409.73
398.565	396.18
398.944	387.81
399.323	410.19
399.701	388.04
400.08	420.81
400.458	403.41
400.837	428.49
401.215	408.38
401.594	398.89
401.972	413.35
402.351	413.58
402.729	415.84
403.107	404.31
403.486	423.29
403.864	401.37
404.242	437.53
404.62	449.96
404.999	433.46
405.377	427.81
405.755	422.16
406.133	455.16
406.511	443.18
406.889	444.08
407.267	440.47
407.645	459.9
408.023	441.82
408.401	485.21
408.779	479.79
409.156	485.44
409.534	452.9
409.912	501.03
410.29	484.08
410.667	497.19
411.045	509.85
411.422	519.56
411.8	497.64
412.178	525.89
412.555	525.21
412.933	538.09
413.31	564.76
413.687	570.86
414.065	550.07
414.442	562.95
414.819	580.58
415.197	552.33
415.574	590.3
415.951	578.77
416.328	563.4
416.705	609.96
417.082	611.31
417.46	603.85
417.837	610.63
418.214	618.54
418.591	638.88
418.967	645.66
419.344	663.97
419.721	658.09
420.098	650.18
420.475	649.5
420.852	660.8
421.228	692.89
421.605	691.76
421.982	686.34
422.358	712.78
422.735	727.47
423.111	703.74
423.488	736.96
423.864	715.94
424.241	770.86
424.617	768.82
424.994	771.53
425.37	793.45
425.746	809.95
426.123	806.33
426.499	839.1
426.875	822.15
427.251	821.25
427.627	839.78
428.003	854.24
428.379	880.23
428.756	865.77
429.132	875.71
429.507	909.83
429.883	904.86
430.259	913
430.635	904.19
431.011	940.34
431.387	954.13
431.763	941.02
432.138	981.25
432.514	997.52
432.89	992.54
433.265	988.7
433.641	1010.4
434.016	1039.32
434.392	1079.55
434.767	1080
435.143	1090.85
435.518	1106.21
435.894	1125.42
436.269	1132.88
436.644	1148.02
437.02	1165.2
437.395	1145.76
437.77	1214.46
438.145	1198.19
438.52	1217.62
438.895	1256.94
439.271	1260.56
439.646	1305.53
440.021	1279.99
440.395	1327.45
440.77	1274.8
441.145	1324.06
441.52	1351.86
441.895	1347.34
442.27	1357.73
442.645	1368.35
443.019	1392.76
443.394	1415.36
443.769	1432.53
444.143	1440.44
444.518	1439.31
444.892	1427.34
445.267	1455.58
445.641	1478.86
446.016	1461.46
446.39	1504.4
446.764	1502.59
447.139	1477.73
447.513	1507.56
447.887	1518.18
448.262	1518.86
448.636	1517.05
449.01	1551.4
449.384	1587.33
449.758	1600.66
450.132	1625.75
450.506	1610.38
450.88	1609.48
451.254	1642.02
451.628	1638.86
452.002	1691.51
452.376	1651.51
452.75	1664.84
453.123	1685.41
453.497	1745.52
453.871	1745.97
454.244	1768.57
454.618	1765.63
454.992	1773.09
455.365	1785.97
455.739	1828.91
456.112	1854.89
456.486	1885.85
456.859	1865.52
457.232	1915.01
457.606	1940.77
457.979	1920.66
458.352	1958.85
458.725	1982.12
459.099	1968.79
459.472	2049.92
459.845	2058.51
460.218	2052.86
460.591	2066.19
460.964	2076.81
461.337	2145.51
461.71	2168.78
462.083	2178.5
462.456	2211.27
462.829	2184.38
463.201	2242.91
463.574	2245.84
463.947	2259.18
464.32	2305.73
464.692	2314.32
465.065	2355.45
465.438	2392.96
465.81	2383.69
466.183	2390.7
466.555	2487.87
466.928	2483.58
467.3	2469.12
467.672	2523.35
468.045	2542.56
468.417	2550.24
468.789	2585.05
469.161	2616.91
469.534	2648.77
469.906	2700.75
470.278	2735.55
470.65	2732.16
471.022	2796.79
471.394	2832.04
471.766	2867.3
472.138	2852.38
472.51	2944.81
472.882	2975.32
473.253	3005.82
473.625	3041.98
473.997	3102.32
474.369	3101.19
474.74	3143.67
475.112	3155.88
475.484	3198.59
475.855	3331.47
476.227	3299.83
476.598	3369.43
476.97	3385.7
477.341	3484.68
477.713	3527.85
478.084	3498.02
478.455	3594.51
478.827	3647.84
479.198	3703.43
479.569	3750.44
479.94	3797.67
480.311	3765.13
480.682	3923.99
481.053	3960.38
481.424	4008.96
481.795	4082.41
482.166	4096.87
482.537	4196.75
482.908	4225.68
483.279	4273.36
483.65	4356.98
484.021	4431.1
484.391	4424.32
484.762	4501.83
485.133	4509.97
485.503	4539.8
485.874	4670.19
486.244	4672.45
486.615	4757.64
486.985	4775.04
487.356	4836.51
487.726	4920.8
488.097	4979.78
488.467	4950.86
488.837	5060.91
489.207	5172.1
489.578	5191.3
489.948	5280.79
490.318	5289.15
490.688	5318.31
491.058	5361.02
491.428	5377.06
491.798	5470.17
492.168	5524.4
492.538	5593.78
492.908	5646.89
493.278	5653.66
493.648	5678.07
494.017	5700.67
494.387	5791.97
494.757	5819.76
495.126	5850.5
495.496	5920.1
495.866	5877.16
496.235	5919.19
496.605	6014.11
496.974	6039.42
497.344	6090.72
497.713	6152.41
498.082	6135.46
498.452	6146.99
498.821	6186.31
499.19	6194.22
499.559	6276.47
499.928	6285.29
500.298	6270.15
500.667	6323.03
501.036	6318.73
501.405	6433.08
501.774	6426.07
502.143	6415
502.512	6419.52
502.88	6503.36
503.249	6487.09
503.618	6572.96
503.987	6557.82
504.356	6634.2
504.724	6614.32
505.093	6614.32
505.462	6672.4
505.83	6668.55
506.199	6652.96
506.567	6714.88
506.936	6738.61
507.304	6789.23
507.672	6850.92
508.041	6793.75
508.409	6840.3
508.777	6895.44
509.145	6856.12
509.514	6831.04
509.882	6925.72
510.25	6899.51
510.618	6962.78
510.986	6938.38
511.354	7018.6
511.722	7041.65
512.09	7066.96
512.458	7060.63
512.826	7111.71
513.193	7116
513.561	7102.21
513.929	7151.25
514.297	7213.4
514.664	7158.03
515.032	7218.14
515.4	7207.97
515.767	7176.11
516.135	7265.6
516.502	7185.15
516.869	7303.34
517.237	7341.53
517.604	7264.47
517.972	7332.94
518.339	7319.84
518.706	7329.55
519.073	7393.96
519.44	7287.52
519.808	7389.21
520.175	7360.29
520.542	7385.37
520.909	7443.22
521.276	7375.65
521.643	7478.93
522.009	7445.71
522.376	7496.33
522.743	7517.57
523.11	7567.06
523.477	7550.79
523.843	7575.65
524.21	7614.97
524.577	7650.45
524.943	7641.41
525.31	7696.32
525.676	7619.26
526.043	7650
526.409	7678.24
526.776	7733.84
527.142	7755.98
527.508	7717.34
527.874	7803.89
528.241	7756.21
528.607	7728.19
528.973	7778.81
529.339	7784.91
529.705	7772.25
530.071	7839.82
530.437	7889.76
530.803	7892.25
531.169	7842.99
531.535	7842.08
531.901	7790.11
532.267	7828.75
532.632	7900.84
532.998	7805.02
533.364	7795.3
533.73	7852.7
534.095	7892.02
534.461	7847.73
534.826	7833.95
535.192	7897.22
535.557	7895.41
535.923	7892.48
536.288	7873.72
536.653	7890.67
537.019	7809.99
537.384	7840.73
537.749	7799.15
538.114	7800.73
538.479	7850.44
538.845	7821.29
539.21	7779.48
539.575	7777.9
539.94	7774.06
540.305	7780.61
540.67	7753.27
541.034	7766.38
541.399	7766.38
541.764	7734.51
542.129	7746.27
542.494	7732.03
542.858	7768.41
543.223	7742.65
543.587	7766.6
543.952	7737.23
544.316	7705.36
544.681	7665.36
545.045	7665.82
545.41	7716.66
545.774	7711.92
546.138	7722.76
546.503	7729.54
546.867	7600.51
547.231	7594.18
547.595	7663.56
547.959	7687.06
548.324	7588.98
548.688	7619.71
549.052	7641.64
549.416	7577.23
549.779	7654.97
550.143	7550.11
550.507	7618.13
550.871	7614.52
551.235	7520.51
551.599	7581.75
551.962	7539.04
552.326	7549.21
552.689	7524.12
553.053	7492.49
553.417	7516.89
553.78	7597.34
554.143	7556.21
554.507	7573.61
554.87	7507.63
555.234	7673.5
555.597	7495.65
555.96	7527.97
556.323	7552.82
556.686	7553.95
557.05	7552.82
557.413	7579.72
557.776	7520.06
558.139	7623.33
558.502	7573.16
558.865	7514.86
559.228	7602.54
559.59	7621.52
559.953	7595.99
560.316	7657.68
560.679	7659.04
561.041	7667.85
561.404	7622.88
561.767	7732.03
562.129	7710.33
562.492	7759.82
562.854	7702.88
563.217	7648.64
563.579	7707.4
563.941	7714.4
564.304	7766.38
564.666	7806.15
565.028	7864.45
565.39	7798.69
565.753	7741.52
566.115	7831.46
566.477	7831.23
566.839	7887.73
567.201	7930.89
567.563	7892.48
567.925	7939.71
568.287	7989.2
568.648	7933.6
569.01	7980.16
569.372	7976.99
569.734	7998.46
570.095	8088.63
570.457	8050.66
570.819	8002.08
571.18	7991.23
571.542	8113.94
571.903	8105.58
572.265	8158.01
572.626	8155.29
572.987	8142.41
573.349	8186.48
573.71	8174.05
574.071	8217.89
574.432	8244.11
574.794	8281.39
575.155	8219.7
575.516	8249.75
575.877	8295.63
576.238	8322.75
576.599	8306.48
576.96	8341.5
577.32	8309.19
577.681	8403.88
578.042	8383.76
578.403	8428.96
578.763	8450.2
579.124	8410.2
579.485	8498.11
579.845	8487.26
580.206	8478.68
580.566	8470.77
580.927	8499.69
581.287	8476.87
581.648	8580.14
582.008	8569.52
582.368	8512.35
582.728	8639.8
583.089	8608.84
583.449	8618.11
583.809	8583.31
584.169	8645.9
584.529	8631.21
584.889	8670.08
585.249	8658.11
585.609	8652.91
585.969	8669.63
586.329	8710.53
586.688	8706.69
587.048	8717.09
587.408	8702.4
587.768	8757.09
588.127	8687.26
588.487	8697.65
588.846	8823.75
589.206	8769.74
589.565	8760.25
589.925	8792.57
590.284	8797.54
590.643	8820.81
591.003	8798.67
591.362	8932.9
591.721	8820.36
592.08	8878.21
592.44	8862.39
592.799	8924.31
593.158	8888.61
593.517	8873.69
593.876	8882.28
594.235	8833.47
594.593	8932
594.952	8954.14
595.311	8899
595.67	8887.93
596.029	8996.18
596.387	8964.31
596.746	8979.23
597.104	8940.81
597.463	8972.45
597.822	9000.7
598.18	8995.05
598.538	9034.14
598.897	9042.05
599.255	8905.1
599.613	9115.49
599.972	9067.59
600.33	9105.1
600.688	9000.24
601.046	9047.25
601.404	9035.95
601.762	9142.61
602.12	9081.6
602.478	9108.26
602.836	9130.86
603.194	9135.38
603.552	9145.55
603.91	9074.37
604.268	9195.72
604.625	9162.5
604.983	9066.46
605.341	9056.74
605.698	9085.89
606.056	9168.37
606.413	9096.74
606.771	9177.64
607.128	9186
607.485	9207.24
607.843	9125.66
608.2	9246.79
608.557	9200.01
608.914	9199.11
609.272	9274.13
609.629	9311.65
609.986	9310.29
610.343	9264.19
610.7	9269.62
611.057	9255.6
611.414	9291.08
611.771	9243.85
612.127	9310.52
612.484	9305.55
612.841	9333.12
613.198	9341.25
613.554	9313.23
613.911	9356.17
614.267	9360.23
614.624	9346
614.98	9290.41
615.337	9393.68
615.693	9310.29
616.05	9331.76
616.406	9410.18
616.762	9282.5
617.118	9366.11
617.475	9391.65
617.831	9473.45
618.187	9419.67
618.543	9344.19
618.899	9450.85
619.255	9413.57
619.611	9441.81
619.967	9469.16
620.323	9517.29
620.678	9408.14
621.034	9529.5
621.39	9424.64
621.746	9397.97
622.101	9476.62
622.457	9445.2
622.812	9466.9
623.168	9507.35
623.523	9506.44
623.879	9442.04
624.234	9483.17
624.589	9488.14
624.945	9571.08
625.3	9451.76
625.655	9511.64
626.01	9556.39
626.365	9438.65
626.72	9412.89
627.075	9485.43
627.43	9440.01
627.785	9451.08
628.14	9518.87
628.495	9511.64
628.85	9429.84
629.205	9476.16
629.559	9495.37
629.914	9370.4
630.269	9425.32
630.623	9399.56
630.978	9407.46
631.332	9369.73
631.687	9426.9
632.041	9400.01
632.396	9377.41
632.75	9424.87
633.104	9342.16
633.459	9302.61
633.813	9348.93
634.167	9266
634.521	9294.25
634.875	9311.65
635.229	9322.04
635.583	9243.18
635.937	9257.41
636.291	9255.38
636.645	9286.34
636.999	9183.97
637.352	9247.92
637.706	9173.12
638.06	9194.36
638.413	9184.65
638.767	9200.01
639.121	9204.53
639.474	9106.68
639.828	9070.07
640.181	9102.39
640.534	9052.9
640.888	9051.32
641.241	9102.16
641.594	9074.37
641.947	9167.24
642.301	9060.58
642.654	9091.77
643.007	9121.82
643.36	9046.34
643.713	9067.13
644.066	9056.97
644.419	9078.66
644.771	8919.57
645.124	8885.67
645.477	8841.38
645.83	8851.55
646.182	8776.52
646.535	8774.49
646.888	8736.52
647.24	8768.16
647.593	8758.67
647.945	8779.23
648.298	8665.34
648.65	8690.42
649.002	8680.03
649.355	8727.93
649.707	8751.89
650.059	8748.05
650.411	8836.41
650.763	8815.62
651.115	8910.08
651.467	8865.33
651.819	8936.74
652.171	8919.12
652.523	8909.62
652.875	8859.23
653.227	8818.1
653.578	8914.14
653.93	8841.83
654.282	8862.85
654.633	8848.16
654.985	8848.16
655.337	8903.97
655.688	8865.33
656.039	8908.27
656.391	8804.99
656.742	8843.64
657.094	8807.03
657.445	8854.71
657.796	8869.4
658.147	8820.36
658.498	8854.26
658.849	8864.43
659.2	8894.48
659.551	8882.73
659.902	8837.08
660.253	8864.2
660.604	8852.68
660.955	8894.26
661.306	8891.77
661.656	8816.97
662.007	8842.06
662.358	8927.93
662.708	8952.79
663.059	8850.19
663.409	8856.52
663.76	8866.91
664.11	8882.28
664.461	8817.2
664.811	8876.41
665.161	8910.3
665.511	8863.75
665.862	8868.95
666.212	8874.6
666.562	8886.8
666.912	8919.79
667.262	8852
667.612	8866.69
667.962	8913.47
668.312	8814.71
668.662	8926.35
669.011	8887.7
669.361	8800.02
669.711	8801.6
670.06	8855.16
670.41	8784.88
670.76	8807.71
671.109	8855.61
671.459	8834.82
671.808	8809.97
672.157	8827.14
672.507	8765.22
672.856	8780.59
673.205	8844.77
673.554	8824.65
673.904	8802.28
674.253	8838.89
674.602	8775.39
674.951	8605.68
675.3	8629.41
675.649	8755.28
675.998	8742.85
676.346	8705.56
676.695	8737.65
677.044	8702.17
677.393	8701.49
677.741	8686.58
678.09	8633.47
678.438	8618.56
678.787	8699.69
679.135	8702.17
679.484	8577.66
679.832	8645.45
680.181	8591.67
680.529	8641.83
680.877	8633.7
681.225	8495.17
681.573	8654.04
681.922	8548.73
682.27	8528.84
682.618	8536.07
682.966	8508.28
683.314	8511.44
683.661	8383.54
684.009	8418.34
684.357	8442.52
684.705	8447.94
685.053	8398.23
685.4	8371.11
685.748	8342.63
686.095	8320.26
686.443	8296.53
686.79	8333.59
687.138	8294.05
687.485	8370.66
687.832	8305.35
688.18	8322.75
688.527	8179.93
688.874	8225.8
689.221	8141.51
689.568	8183.99
689.915	8231.22
690.262	8124.79
690.609	8065.35
690.956	8050.89
691.303	8073.49
691.65	7987.39
691.997	8061.74
692.344	7931.12
692.69	7959.59
693.037	7959.37
693.383	7876.66
693.73	7904
694.077	7877.11
694.423	7850.9
694.769	7898.35
695.116	7731.12
695.462	7833.49
695.808	7721.86
696.155	7843.66
696.501	7699.49
696.847	7675.08
697.193	7659.26
697.539	7631.24
697.885	7604.57
698.231	7548.3
698.577	7569.32
698.923	7571.35
699.269	7524.35
699.614	7426.05
699.96	7475.31
700.306	7475.09
700.651	7433.05
700.997	7359.83
701.342	7333.85
701.688	7337.01
702.033	7325.26
702.379	7296.11
702.724	7310.34
703.069	7243.23
703.415	7207.07
703.76	7231.25
704.105	7183.57
704.45	7171.82
704.795	7130.01
705.14	7089.79
705.485	7050.01
705.83	7071.93
706.175	7092.05
706.52	7053.4
706.865	7031.48
707.209	6986.29
707.554	6955.33
707.899	6960.07
708.243	6901.09
708.588	6993.74
708.932	6866.29
709.277	6818.38
709.621	6815.22
709.966	6825.16
710.31	6852.96
710.654	6770.02
710.998	6741.77
711.342	6769.79
711.687	6775.67
712.031	6752.62
712.375	6726.86
712.719	6743.35
713.063	6714.88
713.407	6692.28
713.75	6691.15
714.094	6645.73
714.438	6673.75
714.782	6681.21
715.125	6575
715.469	6650.93
715.812	6619.52
716.156	6541.55
716.499	6560.76
716.843	6579.97
717.186	6518.5
717.53	6582.68
717.873	6559.86
718.216	6537.03
718.559	6481.21
718.902	6451.16
719.246	6520.99
719.589	6469.24
719.932	6433.98
720.275	6455.9
720.617	6437.83
720.96	6417.49
721.303	6469.46
721.646	6423.59
721.989	6379.3
722.331	6416.36
722.674	6369.58
723.016	6402.12
723.359	6399.41
723.701	6396.02
724.044	6395.79
724.386	6368.22
724.729	6435.34
725.071	6357.83
725.413	6351.95
725.755	6337.26
726.097	6370.03
726.439	6305.4
726.782	6315.34
727.124	6356.47
727.465	6343.14
727.807	6331.39
728.149	6303.14
728.491	6334.78
728.833	6344.04
729.175	6271.5
729.516	6266.53
729.858	6295.46
730.199	6255.68
730.541	6214.1
730.882	6252.07
731.224	6269.24
731.565	6268.11
731.906	6259.52
732.248	6338.17
732.589	6213.42
732.93	6227.89
733.271	6265.85
733.612	6245.06
733.953	6302.01
734.294	6266.53
734.635	6201.22
734.976	6255.23
735.317	6222.69
735.658	6220.2
735.999	6231.73
736.339	6278.96
736.68	6209.81
737.021	6251.39
737.361	6252.52
737.702	6272.18
738.042	6270.37
738.383	6203.03
738.723	6251.84
739.063	6218.17
739.404	6304.04
739.744	6244.38
740.084	6263.59
740.424	6335
740.764	6324.16
741.104	6289.81
741.444	6328.68
741.784	6311.27
742.124	6349.01
742.464	6321.22
742.804	6349.01
743.143	6364.83
743.483	6362.57
743.823	6377.26
744.162	6383.82
744.502	6401.67
744.841	6400.31
745.181	6477.37
745.52	6446.64
745.86	6502.91
746.199	6532.96
746.538	6508.78
746.877	6577.03
747.216	6600.53
747.556	6643.02
747.895	6613.64
748.234	6669.23
748.573	6730.47
748.911	6767.99
749.25	6764.6
749.589	6820.87
749.928	6836.01
750.267	6957.13
750.605	6930.24
750.944	6953.97
751.283	6985.61
751.621	7068.09
751.96	7148.31
752.298	7263.34
752.636	7285.03
752.975	7283
753.313	7382.66
753.651	7459.95
753.989	7510.34
754.327	7660.62
754.666	7689.77
755.004	7783.1
755.342	7840.5
755.679	7954.85
756.017	8033.26
756.355	8152.13
756.693	8138.8
757.031	8278.91
757.368	8387.15
757.706	8545.11
758.044	8588.5
758.381	8654.04
758.719	8766.58
759.056	8913.01
759.394	9030.53
759.731	9037.08
760.068	9210.86
760.405	9265.1
760.743	9344.64
761.08	9543.96
761.417	9678.19
761.754	9810.62
762.091	9854.68
762.428	10024.17
762.765	10050.16
763.102	10255.58
763.438	10368.12
763.775	10411.05
764.112	10579.86
764.449	10722.46
764.785	10756.58
765.122	10862.79
765.458	10967.2
765.795	11072.28
766.131	11180.98
766.467	11260.98
766.804	11351.37
767.14	11387.3
767.476	11592.72
767.812	11577.35
768.148	11747.52
768.485	11816.44
768.821	11853.95
769.157	12044.68
769.492	12113.61
769.828	12248.29
