Data from hue_120_FLMS001491_00088.txt Node
Date: Tue Feb 07 17:00:09 GMT 2017
User: dcchb
Spectrometer: FLMS00149
Trigger mode: 0
Integration Time (sec): 2.000000E-2
Scans to average: 10
Electric dark correction enabled: true
Nonlinearity correction enabled: false
Boxcar width: 0
XAxis mode: Wavelengths
Number of Pixels in Spectrum: 2048
>>>>>Begin Spectral Data<<<<<
341.393	-15.48
341.776	-15.48
342.16	-15.48
342.543	-55.03
342.927	-70.17
343.31	-59.32
343.693	-57.51
344.077	-63.61
344.46	-51.19
344.843	-54.35
345.226	-35.14
345.61	-41.24
345.993	-10.51
346.376	0.56
346.759	5.54
347.142	11.41
347.525	35.59
347.908	43.73
348.291	100.9
348.674	96.83
349.057	78.3
349.44	120.34
349.823	150.39
350.206	146.55
350.588	184.74
350.971	208.47
351.354	234.91
351.737	239.88
352.119	236.49
352.502	257.73
352.884	271.52
353.267	267
353.65	298.18
354.032	323.49
354.414	314.91
354.797	318.07
355.179	295.25
355.562	341.35
355.944	337.28
356.326	346.77
356.709	334.79
357.091	328.24
357.473	360.78
357.855	319.88
358.238	348.13
358.62	339.77
359.002	345.41
359.384	342.25
359.766	336.38
360.148	315.36
360.53	332.53
360.912	340.44
361.294	335.25
361.676	353.55
362.057	316.94
362.439	342.48
362.821	353.78
363.203	330.73
363.584	326.88
363.966	332.31
364.348	308.35
364.729	302.25
365.111	327.79
365.493	304.06
365.874	325.75
366.256	329.82
366.637	312.65
367.019	320.56
367.4	317.39
367.781	327.11
368.163	326.43
368.544	314.68
368.925	321.01
369.306	334.34
369.688	310.39
370.069	328.69
370.45	318.52
370.831	307.22
371.212	329.14
371.593	316.94
371.974	311.97
372.355	306.55
372.736	294.79
373.117	333.66
373.498	311.29
373.879	322.82
374.26	316.26
374.641	321.01
375.021	311.29
375.402	326.88
375.783	343.61
376.163	332.08
376.544	295.47
376.925	320.33
377.305	289.37
377.686	324.62
378.066	318.3
378.447	337.51
378.827	310.84
379.208	330.27
379.588	337.05
379.968	324.17
380.349	323.72
380.729	361.91
381.109	337.51
381.489	349.26
381.87	330.05
382.25	350.61
382.63	358.52
383.01	340.44
383.39	307.9
383.77	338.18
384.15	340.22
384.53	356.04
384.91	344.06
385.29	355.81
385.67	348.13
386.049	376.6
386.429	378.86
386.809	364.4
387.189	361.69
387.568	377.5
387.948	351.97
388.328	384.28
388.707	371.18
389.087	370.95
389.466	375.24
389.846	374.34
390.225	371.18
390.605	370.5
390.984	399.2
391.363	371.85
391.743	394.23
392.122	381.35
392.501	386.09
392.881	381.12
393.26	392.65
393.639	382.93
394.018	384.28
394.397	395.36
394.776	398.97
395.155	386.77
395.534	402.14
395.913	413.44
396.292	407.79
396.671	418.41
397.05	428.8
397.429	407.11
397.808	397.62
398.186	403.49
398.565	437.62
398.944	407.79
399.323	386.77
399.701	414.57
400.08	413.66
400.458	420.89
400.837	422.7
401.215	425.19
401.594	439.65
401.972	449.59
402.351	403.94
402.729	420.67
403.107	439.88
403.486	445.75
403.864	446.88
404.242	440.1
404.62	422.7
404.999	462.25
405.377	444.17
405.755	448.01
406.133	427.45
406.511	470.84
406.889	463.38
407.267	472.87
407.645	486.2
408.023	473.55
408.401	470.38
408.779	478.29
409.156	502.47
409.534	481.91
409.912	490.04
410.29	482.36
410.667	485.3
411.045	512.42
411.422	510.83
411.8	503.6
412.178	500.21
412.555	503.15
412.933	508.8
413.31	528.23
413.687	539.53
414.065	513.77
414.442	521.46
414.819	541.79
415.197	555.8
415.574	537.5
415.951	551.28
416.328	538.4
416.705	530.72
417.082	556.93
417.46	553.09
417.837	557.39
418.214	575.24
418.591	552.41
418.967	549.25
419.344	570.04
419.721	576.6
420.098	562.81
420.475	580.66
420.852	587.44
421.228	588.57
421.605	588.8
421.982	599.87
422.358	627.22
422.735	584.28
423.111	610.94
423.488	619.53
423.864	595.8
424.241	619.53
424.617	620.21
424.994	626.31
425.37	633.32
425.746	631.06
426.123	655.69
426.499	653.66
426.875	643.71
427.251	671.51
427.627	685.74
428.003	678.51
428.379	671.96
428.756	685.74
429.132	676.03
429.507	694.11
429.883	709.92
430.259	716.48
430.635	699.3
431.011	706.76
431.387	729.13
431.763	751.05
432.138	755.35
432.514	738.4
432.89	735.46
433.265	766.65
433.641	753.54
434.016	768.68
434.392	786.76
434.767	770.04
435.143	779.98
435.518	800.32
435.894	804.84
436.269	799.87
436.644	843.25
437.02	833.76
437.395	833.99
437.77	849.13
438.145	857.04
438.52	889.13
438.895	861.56
439.271	872.63
439.646	907.89
440.021	919.41
440.395	894.55
440.77	896.36
441.145	906.3
441.52	938.62
441.895	932.52
442.27	968.22
442.645	938.39
443.019	932.97
443.394	954.89
443.769	959.41
444.143	915.12
444.518	921.44
444.892	952.18
445.267	976.13
445.641	982.23
446.016	992.4
446.39	1007.09
446.764	1019.07
447.139	1007.54
447.513	1000.31
447.887	1007.09
448.262	1031.72
448.636	1035.57
449.01	1044.15
449.384	1029.01
449.758	1044.15
450.132	1084.6
450.506	1053.87
450.88	1087.09
451.254	1089.12
451.628	1081.21
452.002	1086.64
452.376	1105.17
452.75	1117.15
453.123	1133.42
453.497	1127.54
453.871	1145.85
454.244	1190.36
454.618	1171.61
454.992	1174.32
455.365	1181.55
455.739	1239.18
456.112	1224.04
456.486	1266.52
456.859	1250.48
457.232	1277.14
457.606	1273.07
457.979	1291.6
458.352	1329.8
458.725	1326.41
459.099	1330.93
459.472	1362.56
459.845	1386.74
460.218	1389.23
460.591	1419.74
460.964	1449.57
461.337	1423.35
461.71	1482.56
462.083	1509.23
462.456	1508.55
462.829	1527.76
463.201	1535.67
463.574	1555.78
463.947	1558.04
464.32	1604.82
464.692	1590.81
465.065	1630.58
465.438	1646.62
465.81	1672.84
466.183	1692.5
466.555	1740.18
466.928	1785.6
467.3	1788.77
467.672	1804.36
468.045	1848.65
468.417	1844.36
468.789	1858.14
469.161	1927.52
469.534	1929.55
469.906	1960.51
470.278	2014.75
470.65	2051.13
471.022	2079.83
471.394	2120.28
471.766	2141.98
472.138	2195.99
472.51	2245.25
472.882	2315.53
473.253	2326.83
473.625	2361.63
473.997	2432.59
474.369	2484.34
474.74	2487.05
475.112	2577.67
475.484	2648.4
475.855	2683.66
476.227	2739.48
476.598	2813.82
476.97	2834.16
477.341	2951.9
477.713	3013.37
478.084	3084.33
478.455	3182.18
478.827	3227.82
479.198	3325.9
479.569	3383.98
479.94	3465.11
480.311	3571.77
480.682	3664.65
481.053	3807.24
481.424	3856.28
481.795	4004.98
482.166	4041.36
482.537	4125.2
482.908	4302.82
483.279	4365.87
483.65	4460.79
484.021	4620.78
484.391	4702.14
484.762	4775.81
485.133	4927.22
485.503	5079.08
485.874	5202.24
486.244	5288.56
486.615	5462.12
486.985	5575.11
487.356	5792.5
487.726	5833.18
488.097	5997.47
488.467	6082.89
488.837	6301.19
489.207	6402.43
489.578	6569.88
489.948	6708.41
490.318	6837.67
490.688	6944.79
491.058	7120.6
491.428	7290.54
491.798	7383.42
492.168	7646.47
492.538	7756.52
492.908	7939.11
493.278	8068.38
493.648	8140.69
494.017	8325.77
494.387	8422.94
494.757	8560.34
495.126	8816.83
495.496	8811.41
495.866	9014.79
496.235	9097.27
496.605	9229.25
496.974	9372.97
497.344	9492.97
497.713	9601.22
498.082	9742.46
498.452	9943.58
498.821	9980.42
499.19	10121.65
499.559	10222.44
499.928	10412.04
500.298	10477.58
500.667	10605.26
501.036	10627.63
501.405	10800.28
501.774	10859.71
502.143	11052.93
502.512	11061.97
502.88	11199.82
503.249	11248.63
503.618	11344.45
503.987	11373.37
504.356	11602.97
504.724	11637.77
505.093	11715.51
505.462	11850.2
505.83	11890.65
506.199	12024.66
506.567	12232.79
506.936	12190.75
507.304	12384.19
507.672	12338.55
508.041	12525.66
508.409	12590.52
508.777	12671.64
509.145	12760.68
509.514	12783.73
509.882	12949.6
510.25	12906.21
510.618	13016.49
510.986	13040.22
511.354	13155.25
511.722	13228.47
512.09	13405.18
512.458	13402.92
512.826	13440.89
513.193	13508.68
513.561	13567.44
513.929	13615.12
514.297	13740.54
514.664	13748.45
515.032	13825.51
515.4	13929.24
515.767	13915
516.135	14090.36
516.502	13943.7
516.869	14102.12
517.237	14109.8
517.604	14082
517.972	14177.14
518.339	14196.58
518.706	14325.39
519.073	14250.13
519.44	14466.4
519.808	14455.55
520.175	14370.81
520.542	14611.93
520.909	14633.17
521.276	14655.32
521.643	14761.08
522.009	14748.65
522.376	14776
522.743	14820.06
523.11	14957.91
523.477	15103.44
523.843	15070.9
524.21	15090.11
524.577	15208.07
524.943	15203.1
525.31	15295.76
525.676	15337.79
526.043	15368.97
526.409	15381.63
526.776	15480.84
527.142	15433.83
527.508	15464.34
527.874	15577.33
528.241	15677.67
528.607	15667.27
528.973	15702.52
529.339	15586.6
529.705	15782.52
530.071	15748.4
530.437	15824.1
530.803	15815.74
531.169	15839.02
531.535	15793.6
531.901	15728.29
532.267	15809.87
532.632	15860.94
532.998	15797.21
533.364	15881.05
533.73	15795.18
534.095	15863.88
534.461	15854.84
534.826	15871.79
535.192	15861.84
535.557	15827.72
535.923	15841.05
536.288	15797.21
536.653	15827.72
537.019	15699.36
537.384	15751.56
537.749	15749.53
538.114	15653.49
538.479	15716.31
538.845	15749.76
539.21	15569.87
539.575	15658.46
539.94	15538.69
540.305	15736.2
540.67	15589.53
541.034	15549.53
541.399	15557.22
541.764	15581.17
542.129	15589.76
542.494	15590.44
542.858	15596.09
543.223	15471.34
543.587	15523.55
543.952	15345.92
544.316	15395.19
544.681	15363.1
545.045	15334.85
545.41	15315.19
545.774	15417.33
546.138	15261.18
546.503	15326.04
546.867	15208.75
547.231	15258.69
547.595	15190
547.959	15147.51
548.324	15173.73
548.688	15158.13
549.052	15126.72
549.416	15179.15
549.779	15059.6
550.143	15046.27
550.507	15042.43
550.871	15063.9
551.235	15009.66
551.599	15048.53
551.962	14943.45
552.326	15017.57
552.689	14942.77
553.053	14892.38
553.417	14916.56
553.78	15030.45
554.143	14868.2
554.507	14922.88
554.87	14838.59
555.234	14919.04
555.597	14812.6
555.96	14808.76
556.323	14800.4
556.686	14789.78
557.05	14890.34
557.413	14906.61
557.776	14909.33
558.139	14875.43
558.502	14883.34
558.865	14880.17
559.228	14917.46
559.59	14797.92
559.953	14881.98
560.316	14953.84
560.679	14858.25
561.041	14877.24
561.404	14975.54
561.767	15019.15
562.129	14917.23
562.492	15014.18
562.854	15010.79
563.217	14949.78
563.579	14963.56
563.941	15052.15
564.304	15101.64
564.666	15108.42
565.028	15154.06
565.39	15129.43
565.753	15148.64
566.115	15232.93
566.477	15183.44
566.839	15165.82
567.201	15302.08
567.563	15176.89
567.925	15371.23
568.287	15302.76
568.648	15296.89
569.01	15342.53
569.372	15425.47
569.734	15386.6
570.095	15333.95
570.457	15349.31
570.819	15426.15
571.18	15445.36
571.542	15571.91
571.903	15463.66
572.265	15592.7
572.626	15511.12
572.987	15567.16
573.349	15541.4
573.71	15585.92
574.071	15673.83
574.432	15582.08
574.794	15778.91
575.155	15628.85
575.516	15672.02
575.877	15734.39
576.238	15701.85
576.599	15726.25
576.96	15688.29
577.32	15654.84
577.681	15749.76
578.042	15743.65
578.403	15729.87
578.763	15764.67
579.124	15819.36
579.485	15767.83
579.845	15826.36
580.206	15830.88
580.566	15776.87
580.927	15788.85
581.287	15883.09
581.648	15806.25
582.008	15775.74
582.368	15785.23
582.728	15811.9
583.089	15803.09
583.449	15828.62
583.809	15780.94
584.169	15746.14
584.529	15709.76
584.889	15786.59
585.249	15699.81
585.609	15668.63
585.969	15750.66
586.329	15597.22
586.688	15693.03
587.048	15714.5
587.408	15593.15
587.768	15664.33
588.127	15614.17
588.487	15655.97
588.846	15765.8
589.206	15616.88
589.565	15635.63
589.925	15610.78
590.284	15559.93
590.643	15689.19
591.003	15672.92
591.362	15772.13
591.721	15640.38
592.08	15618.46
592.44	15677.21
592.799	15666.14
593.158	15603.77
593.517	15656.88
593.876	15667.95
594.235	15571
594.593	15596.77
594.952	15574.62
595.311	15544.79
595.67	15596.54
596.029	15741.39
596.387	15597.67
596.746	15689.19
597.104	15590.44
597.463	15504.56
597.822	15535.3
598.18	15517.67
598.538	15500.27
598.897	15572.58
599.255	15515.64
599.613	15669.98
599.972	15560.83
600.33	15559.25
600.688	15464.79
601.046	15520.61
601.404	15698.91
601.762	15584.56
602.12	15678.8
602.478	15629.31
602.836	15684.67
603.194	15560.16
603.552	15568.07
603.91	15515.41
604.268	15624.33
604.625	15496.88
604.983	15572.81
605.341	15489.2
605.698	15567.61
606.056	15641.96
606.413	15624.11
606.771	15604.22
607.128	15636.76
607.485	15539.14
607.843	15623.43
608.2	15629.53
608.557	15759.02
608.914	15610.32
609.272	15797.44
609.629	15777.1
609.986	15865.68
610.343	15724.67
610.7	15850.09
611.057	15818.45
611.414	15787.72
611.771	15707.27
612.127	15819.13
612.484	15769.64
612.841	15827.72
613.198	15768.51
613.554	15758.79
613.911	15937.55
614.267	15932.35
614.624	15874.27
614.98	15972.57
615.337	16039.69
615.693	15879.92
616.05	15950.65
616.406	15974.83
616.762	15943.42
617.118	15812.13
617.475	15943.42
617.831	16006.7
618.187	15983.2
618.543	16079.24
618.899	16108.16
619.255	16059.8
619.611	16053.25
619.967	16092.35
620.323	16079.92
620.678	16109.97
621.034	15946.59
621.39	16077.2
621.746	16002.63
622.101	16258.67
622.457	16034.95
622.812	16121.27
623.168	16129.41
623.523	16119.01
623.879	16214.83
624.234	16086.02
624.589	16146.58
624.945	16102.29
625.3	16097.32
625.655	16181.61
626.01	16173.25
626.365	16110.42
626.72	16128.5
627.075	16080.59
627.43	16050.76
627.785	16017.09
628.14	16147.03
628.495	16197.65
628.85	16026.81
629.205	16032.91
629.559	16063.42
629.914	15996.53
630.269	15961.73
630.623	15984.33
630.978	15870.66
631.332	16037.43
631.687	15994.04
632.041	15960.6
632.396	16068.17
632.75	15917.66
633.104	15975.96
633.459	15889.41
633.813	15840.83
634.167	15845.35
634.521	15805.8
634.875	15844.89
635.229	15815.97
635.583	15824.33
635.937	15782.52
636.291	15717.89
636.645	15797.66
636.999	15706.82
637.352	15723.32
637.706	15603.54
638.06	15753.82
638.413	15602.64
638.767	15675.63
639.121	15621.4
639.474	15495.75
639.828	15616.65
640.181	15588.18
640.534	15632.92
640.888	15542.08
641.241	15453.72
641.594	15482.87
641.947	15558.35
642.301	15585.92
642.654	15529.87
643.007	15507.28
643.36	15492.36
643.713	15409.65
644.066	15496.88
644.419	15391.57
644.771	15319.03
645.124	15113.61
645.477	15122.43
645.83	15133.05
646.182	15028.19
646.535	14901.87
646.888	14892.6
647.24	14905.03
647.593	14949.78
647.945	14895.99
648.298	14804.7
648.65	14874.07
649.002	14805.15
649.355	14857.8
649.707	14863.23
650.059	14953.84
650.411	15098.25
650.763	15160.62
651.115	15322.42
651.467	15329.2
651.819	15187.74
652.171	15258.69
652.523	15172.6
652.875	15180.96
653.227	15080.85
653.578	15224.57
653.93	15174.18
654.282	15156.55
654.633	15159.26
654.985	15190.22
655.337	15239.26
655.688	15225.48
656.039	15243.33
656.391	15144.12
656.742	15234.74
657.094	15121.98
657.445	15126.27
657.796	15208.07
658.147	15135.76
658.498	15131.69
658.849	15212.37
659.2	15129.43
659.551	15155.19
659.902	15133.5
660.253	15188.41
660.604	15221.63
660.955	15184.8
661.306	15138.02
661.656	15146.61
662.007	15170.79
662.358	15099.83
662.708	15187.51
663.059	15260.5
663.409	15090.79
663.76	15223.67
664.11	15272.93
664.461	15225.48
664.811	15201.07
665.161	15195.19
665.511	15182.76
665.862	15217.79
666.212	15259.6
666.562	15226.83
666.912	15138.02
667.262	15230.22
667.612	15215.98
667.962	15172.14
668.312	15187.74
668.662	15310.9
669.011	15156.78
669.361	15129.43
669.711	15171.01
670.06	15191.13
670.41	15049.66
670.76	15088.08
671.109	15124.46
671.459	15083.33
671.808	15118.81
672.157	15061.64
672.507	15074.29
672.856	15021.86
673.205	15052.82
673.554	15036.78
673.904	14999.04
674.253	15131.47
674.602	15056.89
674.951	14794.53
675.3	14667.98
675.649	14983.67
675.998	14957.69
676.346	14945.03
676.695	15001.98
677.044	14870
677.393	14924.47
677.741	15013.28
678.09	14955.65
678.438	14887.86
678.787	14872.04
679.135	14871.59
679.484	14808.99
679.832	14875.43
680.181	14775.54
680.529	14797.92
680.877	14723.79
681.225	14726.28
681.573	14772.15
681.922	14657.13
682.27	14509.56
682.618	14654.64
682.966	14556.57
683.314	14631.37
683.661	14492.61
684.009	14461.88
684.357	14397.93
684.705	14478.6
685.053	14449
685.4	14433.86
685.748	14348.66
686.095	14295.1
686.443	14260.08
686.79	14299.17
687.138	14267.31
687.485	14292.17
687.832	14240.19
688.18	14227.08
688.527	14145.73
688.874	14063.7
689.221	14218.72
689.568	14051.72
689.915	13917.04
690.262	13940.76
690.609	13907.09
690.956	13839.3
691.303	13864.61
691.65	13732.18
691.997	13713.2
692.344	13658.74
692.69	13622.81
693.037	13633.2
693.383	13504.39
693.73	13550.49
694.077	13491.28
694.423	13395.47
694.769	13397.27
695.116	13357.28
695.462	13302.36
695.808	13287.67
696.155	13353.21
696.501	13112.54
696.847	13145.53
697.193	13073.44
697.539	13117.51
697.885	12985.76
698.231	12997.06
698.577	13019.21
698.923	12893.33
699.269	12871.86
699.614	12743.51
699.96	12726.11
700.306	12747.57
700.651	12679.33
700.997	12551.65
701.342	12618.76
701.688	12562.27
702.033	12522.04
702.379	12476.85
702.724	12378.54
703.069	12442.95
703.415	12350.97
703.76	12187.14
704.105	12323.18
704.45	12226.23
704.795	12183.97
705.14	12067.37
705.485	12125.9
705.83	12067.82
706.175	12143.52
706.52	11994.37
706.865	12001.83
707.209	11952.12
707.554	11896.52
707.899	11960.25
708.243	11800.71
708.588	11832.34
708.932	11729.75
709.277	11736.53
709.621	11740.37
709.966	11681.84
710.31	11654.95
710.654	11586.93
710.998	11620.15
711.342	11553.26
711.687	11542.63
712.031	11495.63
712.375	11437.78
712.719	11502.86
713.063	11424.22
713.407	11441.85
713.75	11359.36
714.094	11337.44
714.438	11380.83
714.782	11288.86
715.125	11262.19
715.469	11347.84
715.812	11233.94
716.156	11170.21
716.499	11235.3
716.843	11222.19
717.186	11140.16
717.53	11238.46
717.873	11156.88
718.216	11155.07
718.559	11100.84
718.902	11045.47
719.246	11021.52
719.589	11062.42
719.932	10961.18
720.275	11029.2
720.617	10962.76
720.96	10966.83
721.303	10969.32
721.646	10907.62
721.989	10877.34
722.331	10951.92
722.674	10879.83
723.016	10897.23
723.359	10900.62
723.701	10896.1
724.044	10835.31
724.386	10801.86
724.729	10888.87
725.071	10804.57
725.413	10841.41
725.755	10819.49
726.097	10709.44
726.439	10674.63
726.782	10728.42
727.124	10814.52
727.465	10776.33
727.807	10735.88
728.149	10664.69
728.491	10717.12
728.833	10723.9
729.175	10677.57
729.516	10679.38
729.858	10650.23
730.199	10625.82
730.541	10629.21
730.882	10649.78
731.224	10689.32
731.565	10610.68
731.906	10613.17
732.248	10602.09
732.589	10579.95
732.93	10495.66
733.271	10573.85
733.612	10591.02
733.953	10617.46
734.294	10564.81
734.635	10589.67
734.976	10583.11
735.317	10536.33
735.658	10536.33
735.999	10532.04
736.339	10557.58
736.68	10689.1
737.021	10584.69
737.361	10548.31
737.702	10597.35
738.042	10703.79
738.383	10518.48
738.723	10657.91
739.063	10607.07
739.404	10626.95
739.744	10623.34
740.084	10547.86
740.424	10598.03
740.764	10602.32
741.104	10697.23
741.444	10664.24
741.784	10666.27
742.124	10710.11
742.464	10598.93
742.804	10646.39
743.143	10675.31
743.483	10706.5
743.823	10670.79
744.162	10742.66
744.502	10779.94
744.841	10754.63
745.181	10823.11
745.52	10854.06
745.86	10951.92
746.199	10884.57
746.538	10925.25
746.877	10910.33
747.216	11004.12
747.556	11081.63
747.895	11121.85
748.234	11039.37
748.573	11144.68
748.911	11185.81
749.25	11331.34
749.589	11311.45
749.928	11349.42
750.267	11529.98
750.605	11512.35
750.944	11630.77
751.283	11661.5
751.621	11705.34
751.96	11791.44
752.298	11935.62
752.636	12031.21
752.975	12052
753.313	12150.75
753.651	12300.58
753.989	12304.42
754.327	12474.59
754.666	12548.48
755.004	12719.55
755.342	12836.16
755.679	12935.14
