Data from hue_70_FLMS001491_35.txt Node
Date: Mon Feb 06 15:20:46 GMT 2017
User: dcchb
Spectrometer: FLMS00149
Trigger mode: 0
Integration Time (sec): 2.000000E-2
Scans to average: 10
Electric dark correction enabled: true
Nonlinearity correction enabled: false
Boxcar width: 0
XAxis mode: Wavelengths
Number of Pixels in Spectrum: 2048
>>>>>Begin Spectral Data<<<<<
341.393	-27.68
341.776	-27.68
342.16	-27.68
342.543	-70.39
342.927	-87.57
343.31	-56.61
343.693	-61.35
344.077	-45.99
344.46	-72.65
344.843	-52.77
345.226	-49.83
345.61	-38.08
345.993	-15.03
346.376	0.56
346.759	-9.83
347.142	20.23
347.525	19.55
347.908	60.22
348.291	76.72
348.674	95.93
349.057	128.92
349.44	119.88
349.823	151.52
350.206	181.8
350.588	210.73
350.971	207.79
351.354	212.31
351.737	243.27
352.119	261.8
352.502	259.99
352.884	282.82
353.267	286.21
353.65	311.74
354.032	293.66
354.414	322.59
354.797	325.3
355.179	314.46
355.562	316.49
355.944	327.34
356.326	316.94
356.709	324.62
357.091	351.29
357.473	336.38
357.855	323.95
358.238	323.72
358.62	334.57
359.002	327.34
359.384	327.11
359.766	315.36
360.148	352.19
360.53	337.96
360.912	334.34
361.294	318.52
361.676	332.76
362.057	334.79
362.439	344.51
362.821	303.61
363.203	315.13
363.584	312.42
363.966	339.77
364.348	335.7
364.729	304.06
365.111	310.16
365.493	298.41
365.874	311.07
366.256	321.69
366.637	323.72
367.019	306.09
367.4	318.07
367.781	289.6
368.163	310.39
368.544	308.81
368.925	323.72
369.306	329.14
369.688	319.43
370.069	320.78
370.45	310.61
370.831	319.88
371.212	322.14
371.593	294.57
371.974	296.15
372.355	311.97
372.736	322.14
373.117	307.22
373.498	303.61
373.879	295.92
374.26	326.66
374.641	308.13
375.021	330.05
375.402	311.07
375.783	316.94
376.163	337.51
376.544	309.94
376.925	293.66
377.305	340.22
377.686	320.33
378.066	324.85
378.447	334.79
378.827	325.98
379.208	321.91
379.588	328.24
379.968	318.97
380.349	323.49
380.729	336.6
381.109	331.4
381.489	331.63
381.87	327.11
382.25	323.27
382.63	335.92
383.01	335.92
383.39	312.65
383.77	359.2
384.15	338.41
384.53	344.74
384.91	332.99
385.29	345.19
385.67	342.7
386.049	339.54
386.429	342.7
386.809	339.54
387.189	332.08
387.568	346.09
387.948	351.97
388.328	363.27
388.707	349.26
389.087	338.86
389.466	356.04
389.846	343.61
390.225	340.89
390.605	350.84
390.984	355.13
391.363	333.89
391.743	375.02
392.122	342.93
392.501	354.23
392.881	358.97
393.26	370.27
393.639	371.63
394.018	376.37
394.397	376.37
394.776	332.53
395.155	369.82
395.534	354.23
395.913	356.04
396.292	379.09
396.671	365.3
397.05	355.81
397.429	385.64
397.808	395.13
398.186	389.03
398.565	368.24
398.944	384.06
399.323	377.73
399.701	378.63
400.08	403.94
400.458	388.35
400.837	371.18
401.215	381.8
401.594	388.13
401.972	392.19
402.351	410.72
402.729	377.28
403.107	403.49
403.486	406.2
403.864	385.64
404.242	397.39
404.62	415.24
404.999	383.61
405.377	395.81
405.755	412.08
406.133	395.13
406.511	409.37
406.889	400.33
407.267	393.55
407.645	424.51
408.023	412.76
408.401	402.36
408.779	410.72
409.156	427.45
409.534	411.85
409.912	421.12
410.29	447.33
410.667	432.64
411.045	411.4
411.422	443.94
411.8	425.86
412.178	455.47
412.555	435.58
412.933	434.9
413.31	450.95
413.687	434.68
414.065	465.64
414.442	455.47
414.819	456.6
415.197	466.09
415.574	459.08
415.951	489.37
416.328	462.25
416.705	473.55
417.082	475.81
417.46	472.19
417.837	494.11
418.214	455.69
418.591	478.29
418.967	498.18
419.344	483.94
419.721	494.34
420.098	493.66
420.475	480.78
420.852	478.52
421.228	478.74
421.605	502.25
421.982	482.81
422.358	516.26
422.735	496.37
423.111	490.72
423.488	525.75
423.864	507.22
424.241	524.17
424.617	519.65
424.994	521.68
425.37	519.87
425.746	536.14
426.123	535.92
426.499	543.15
426.875	535.01
427.251	541.12
427.627	535.01
428.003	537.27
428.379	551.51
428.756	544.28
429.132	560.1
429.507	541.12
429.883	554.9
430.259	599.65
430.635	587.22
431.011	580.89
431.387	594.22
431.763	608.01
432.138	581.34
432.514	587.67
432.89	610.49
433.265	625.63
433.641	616.82
434.016	618.63
434.392	624.5
434.767	635.8
435.143	628.57
435.518	626.76
435.894	654.11
436.269	649.59
436.644	641
437.02	649.36
437.395	653.43
437.77	695.24
438.145	670.6
438.52	652.07
438.895	679.87
439.271	654.79
439.646	691.17
440.021	691.62
440.395	667.67
440.77	681.45
441.145	676.48
441.52	720.09
441.895	700.89
442.27	713.31
442.645	709.47
443.019	723.26
443.394	730.94
443.769	712.86
444.143	704.5
444.518	721.22
444.892	751.51
445.267	748.79
445.641	731.62
446.016	741.79
446.39	739.08
446.764	740.43
447.139	744.5
447.513	763.93
447.887	762.35
448.262	765.74
448.636	757.83
449.01	774.56
449.384	789.47
449.758	786.53
450.132	799.19
450.506	792.63
450.88	796.25
451.254	803.48
451.628	817.72
452.002	803.03
452.376	834.67
452.75	824.27
453.123	828.34
453.497	840.77
453.871	844.38
454.244	855.91
454.618	872.18
454.992	878.51
455.365	889.13
455.739	889.13
456.112	925.96
456.486	922.12
456.859	923.25
457.232	928
457.606	944.95
457.979	921.9
458.352	943.59
458.725	961.44
459.099	960.77
459.472	966.64
459.845	1012.74
460.218	1006.64
460.591	998.5
460.964	1027.66
461.337	1068.11
461.71	1044.38
462.083	1062.46
462.456	1073.08
462.829	1060.65
463.201	1091.84
463.574	1109.91
463.947	1109.46
464.32	1126.86
464.692	1140.42
465.065	1148.33
465.438	1165.51
465.81	1191.27
466.183	1200.53
466.555	1206.18
466.928	1256.35
467.3	1255.67
467.672	1252.06
468.045	1301.1
468.417	1299.29
468.789	1328.21
469.161	1366.4
469.534	1342.9
469.906	1391.94
470.278	1446.4
470.65	1441.88
471.022	1457.25
471.394	1498.38
471.766	1511.71
472.138	1536.8
472.51	1555.1
472.882	1643.23
473.253	1644.36
473.625	1642.78
473.997	1711.03
474.369	1722.78
474.74	1789.44
475.112	1808.43
475.484	1852.72
475.855	1927.07
476.227	1942.66
476.598	2003
476.97	2021.08
477.341	2097.91
477.713	2122.32
478.084	2185.82
478.455	2262.65
478.827	2339.94
479.198	2395.3
479.569	2410.9
479.94	2515.53
480.311	2570.89
480.682	2664.22
481.053	2728.18
481.424	2812.69
481.795	2869.64
482.166	2979.47
482.537	3029.41
482.908	3138.79
483.279	3213.36
483.65	3310.53
484.021	3441.15
484.391	3464.88
484.762	3569.51
485.133	3699
485.503	3776.06
485.874	3915.94
486.244	3995.71
486.615	4190.06
486.985	4211.75
487.356	4388.92
487.726	4436.15
488.097	4606.77
488.467	4684.06
488.837	4829.59
489.207	4933.54
489.578	5109.13
489.948	5233.2
490.318	5322.46
490.688	5458.27
491.058	5616.01
491.428	5729.91
491.798	5855.33
492.168	6047.41
492.538	6153.85
492.908	6257.58
493.278	6401.98
493.648	6494.63
494.017	6657.79
494.387	6821.85
494.757	6954.05
495.126	7130.1
495.496	7204.9
495.866	7354.72
496.235	7439.01
496.605	7647.82
496.974	7782.73
497.344	7918.55
497.713	8012.33
498.082	8124.19
498.452	8373.9
498.821	8440.34
499.19	8595.59
499.559	8708.81
499.928	8869.71
500.298	9033.32
500.667	9098.18
501.036	9121.23
501.405	9287.78
501.774	9435.8
502.143	9547.21
502.512	9758.95
502.88	9811.61
503.249	9816.8
503.618	10043.01
503.987	10095.44
504.356	10270.8
504.724	10327.53
505.093	10479.39
505.462	10575.2
505.83	10669.89
506.199	10871.01
506.567	10983.55
506.936	10962.08
507.304	11206.15
507.672	11249.99
508.041	11334.96
508.409	11546.7
508.777	11698.11
509.145	11770.88
509.514	11792.35
509.882	11900.37
510.25	12041.6
510.618	12148.27
510.986	12199.79
511.354	12295.61
511.722	12490.41
512.09	12573.79
512.458	12676.62
512.826	12804.97
513.193	12831.64
513.561	12986.21
513.929	13083.84
514.297	13317.5
514.664	13308.46
515.032	13400.66
515.4	13464.39
515.767	13598.17
516.135	13706.42
516.502	13642.01
516.869	13934.44
517.237	13928.56
517.604	13935.79
517.972	14104.37
518.339	14268.66
518.706	14231.83
519.073	14313.18
519.44	14423.69
519.808	14550.24
520.175	14552.27
520.542	14753.17
520.909	14845.37
521.276	14856.45
521.643	15098.47
522.009	15093.95
522.376	15244.46
522.743	15295.53
523.11	15414.4
523.477	15549.99
523.843	15663.88
524.21	15766.7
524.577	15856.87
524.943	15886.7
525.31	16037.43
525.676	16048.05
526.043	16222.96
526.409	16203.3
526.776	16414.14
527.142	16447.14
527.508	16484.2
527.874	16641.26
528.241	16707.92
528.607	16794.7
528.973	16896.39
529.339	16882.38
529.705	17031.53
530.071	17199.21
530.437	17251.86
530.803	17352.43
531.169	17412.08
531.535	17345.19
531.901	17408.02
532.267	17402.82
532.632	17455.93
532.998	17679.2
533.364	17651.63
533.73	17756.93
534.095	17775.92
534.461	17798.52
534.826	17977.04
535.192	17882.58
535.557	17979.98
535.923	17988.11
536.288	18095.46
536.653	18095.91
537.019	18065.4
537.384	18079.64
537.749	18142.91
538.114	18222.46
538.479	18253.42
538.845	18203.02
539.21	18232.85
539.575	18290.03
539.94	18466.07
540.305	18399.86
540.67	18389.69
541.034	18427.2
541.399	18451.38
541.764	18489.12
542.129	18490.93
542.494	18599.85
542.858	18463.81
543.223	18566.86
543.587	18660.19
543.952	18620.41
544.316	18679.85
544.681	18663.35
545.045	18705.61
545.41	18755.33
545.774	18685.27
546.138	18832.39
546.503	18800.3
546.867	18776.12
547.231	19014.75
547.595	18884.14
547.959	18929.33
548.324	18930.46
548.688	18906.06
549.052	18952.83
549.416	18984.02
549.779	18974.08
550.143	18995.77
550.507	19071.48
550.871	19146.73
551.235	19122.77
551.599	19193.96
551.962	19192.15
552.326	19313.96
552.689	19325.25
553.053	19260.85
553.417	19283.22
553.78	19465.14
554.143	19357.57
554.507	19407.74
554.87	19489.77
555.234	19706.94
555.597	19455.19
555.96	19562.54
556.323	19613.38
556.686	19621.97
557.05	19653.83
557.413	19689.31
557.776	19725.47
558.139	19862.64
558.502	19765.69
558.865	19840.95
559.228	19929.08
559.59	19929.53
559.953	19944.22
560.316	20122.52
560.679	20095.63
561.041	20198.9
561.404	20326.36
561.767	20434.6
562.129	20351.67
562.492	20416.98
562.854	20504.21
563.217	20584.88
563.579	20608.84
563.941	20590.76
564.304	20727.25
564.666	20901.71
565.028	20759.79
565.39	20943.29
565.753	20922.95
566.115	21005.21
566.477	21062.16
566.839	21069.62
567.201	21313.45
567.563	21273
567.925	21302.83
568.287	21303.51
568.648	21418.98
569.01	21578.08
569.372	21549.83
569.734	21605.42
570.095	21625.31
570.457	21750.73
570.819	21815.58
571.18	21741.91
571.542	21855.13
571.903	21878.18
572.265	21952.08
572.626	22003.15
572.987	22002.7
573.349	22062.36
573.71	22142.36
574.071	22164.05
574.432	22263.03
574.794	22423.25
575.155	22288.79
575.516	22237.04
575.877	22402.24
576.238	22378.28
576.599	22385.06
576.96	22467.77
577.32	22494.44
577.681	22626.64
578.042	22606.3
578.403	22628.44
578.763	22604.72
579.124	22672.06
579.485	22717.26
579.845	22851.26
580.206	22645.85
580.566	22737.82
580.927	22732.85
581.287	22713.19
581.648	22747.54
582.008	22819.4
582.368	22807.2
582.728	22836.35
583.089	22797.25
583.449	22828.67
583.809	22851.72
584.169	22821.66
584.529	22766.75
584.889	22969
585.249	22801.77
585.609	22817.37
585.969	22957.02
586.329	22784.37
586.688	22878.83
587.048	22875.22
587.408	22829.12
587.768	22938.04
588.127	22819.85
588.487	22845.84
588.846	22993.86
589.206	22843.81
589.565	22783.47
589.925	22851.72
590.284	22820.76
590.643	22836.35
591.003	22909.34
591.362	23098.94
591.721	22927.42
592.08	22739.85
592.44	22973.97
592.799	23013.52
593.158	22884.03
593.517	22884.93
593.876	22923.13
594.235	22969.68
594.593	22849.23
594.952	22921.54
595.311	22953.63
595.67	23026.4
596.029	22944.37
596.387	23025.5
596.746	22995.89
597.104	22997.02
597.463	22917.93
597.822	23050.13
598.18	22919.74
598.538	22985.27
598.897	23030.69
599.255	22844.94
599.613	23158.15
599.972	22927.42
600.33	23091.71
600.688	23041.99
601.046	23034.99
601.404	23253.74
601.762	23173.29
602.12	23263
602.478	23174.19
602.836	23235.89
603.194	22980.53
603.552	23317.01
603.91	23191.14
604.268	23176.45
604.625	23204.25
604.983	23347.07
605.341	23176
605.698	23263.68
606.056	23434.98
606.413	23262.33
606.771	23328.31
607.128	23416.67
607.485	23373.28
607.843	23347.07
608.2	23434.53
608.557	23628.42
608.914	23401.53
609.272	23590.68
609.629	23677
609.986	23791.35
610.343	23548.87
610.7	23771.47
611.057	23792.93
611.414	23733.73
611.771	23738.25
612.127	23845.14
612.484	23850.56
612.841	23822.76
613.198	23797
613.554	23924.23
613.911	23947.73
614.267	23977.79
614.624	23966.04
614.98	24097.33
615.337	24069.31
615.693	24145.69
616.05	24029.99
616.406	24191.79
616.762	24044.9
617.118	24065.24
617.475	24065.69
617.831	24189.53
618.187	24317.44
618.543	24214.62
618.899	24404.22
619.255	24307.27
619.611	24283.99
619.967	24337.78
620.323	24521.73
620.678	24298.68
621.034	24279.02
621.39	24255.75
621.746	24388.85
622.101	24645.34
622.457	24425.46
622.812	24522.86
623.168	24454.39
623.523	24505.91
623.879	24462.75
624.234	24461.84
624.589	24481.73
624.945	24620.03
625.3	24644.44
625.655	24490.32
626.01	24536.87
626.365	24511.33
626.72	24596.98
627.075	24479.7
627.43	24487.83
627.785	24589.75
628.14	24554.27
628.495	24475.18
628.85	24484.44
629.205	24508.17
629.559	24582.74
629.914	24619.8
630.269	24506.36
630.623	24361.28
630.978	24367.61
631.332	24471.33
631.687	24528.28
632.041	24432.69
632.396	24533.03
632.75	24305.01
633.104	24451.45
633.459	24300.04
633.813	24386.82
634.167	24348.17
634.521	24337.55
634.875	24290.32
635.229	24256.65
635.583	24206.48
635.937	24252.13
636.291	24122.87
636.645	24220.95
636.999	24121.96
637.352	24156.31
637.706	24084.23
638.06	24212.36
638.413	24120.16
638.767	24082.64
639.121	24141.17
639.474	23957.22
639.828	23980.95
640.181	24030.44
640.534	24030.22
640.888	24056.2
641.241	23937.34
641.594	23922.65
641.947	23962.65
642.301	23889.65
642.654	23869.09
643.007	23912.48
643.36	23881.97
643.713	23851.01
644.066	23931.69
644.419	23642.88
644.771	23578.7
645.124	23344.58
645.477	23329.44
645.83	23214.87
646.182	23249.22
646.535	23115.21
646.888	23171.26
647.24	22916.35
647.593	23105.95
647.945	23137.58
648.298	22873.86
648.65	23014.42
649.002	22911.6
649.355	22834.31
649.707	22885.84
650.059	22980.53
650.411	23206.06
650.763	23345.49
651.115	23584.13
651.467	23352.72
651.819	23496.67
652.171	23420.51
652.523	23479.5
652.875	23365.37
653.227	23277.92
653.578	23495.09
653.93	23421.42
654.282	23334.19
654.633	23248.09
654.985	23324.92
655.337	23351.59
655.688	23369.67
656.039	23392.49
656.391	23149.11
656.742	23388.88
657.094	23340.74
657.445	23460.51
657.796	23364.7
658.147	23319.95
658.498	23346.39
658.849	23309.56
659.2	23284.7
659.551	23237.69
659.902	23223.91
660.253	23289.67
660.604	23328.54
660.955	23272.5
661.306	23479.5
661.656	23339.61
662.007	23377.35
662.358	23292.38
662.708	23294.64
663.059	23324.92
663.409	23224.36
663.76	23423.45
664.11	23290.8
664.461	23302.78
664.811	23274.76
665.161	23298.94
665.511	23260.29
665.862	23227.07
666.212	23258.48
666.562	23245.6
666.912	23215.32
667.262	23265.26
667.612	23257.58
667.962	23326.51
668.312	23252.83
668.662	23325.38
669.011	23261.42
669.361	23229.11
669.711	23261.42
670.06	23252.83
670.41	23202.89
670.76	23260.07
671.109	23319.95
671.459	23207.19
671.808	23200.18
672.157	23211.48
672.507	23071.14
672.856	23101.43
673.205	23177.81
673.554	23103.01
673.904	23084.93
674.253	23178.94
674.602	23147.98
674.951	22728.55
675.3	22553.42
675.649	22991.6
675.998	22995.44
676.346	22941.43
676.695	23093.74
677.044	22886.52
677.393	22980.53
677.741	22958.61
678.09	22858.72
678.438	22815.78
678.787	22853.07
679.135	22846.29
679.484	22762.68
679.832	22844.71
680.181	22646.3
680.529	22648.33
680.877	22677.71
681.225	22680.87
681.573	22801.55
681.922	22589.12
682.27	22523.14
682.618	22580.99
682.966	22501.67
683.314	22535.57
683.661	22488.79
684.009	22364.95
684.357	22277.04
684.705	22316.81
685.053	22292.18
685.4	22129.7
685.748	22140.32
686.095	22118.63
686.443	21974
686.79	21976.26
687.138	22018.29
687.485	22041.79
687.832	21855.58
688.18	21906.88
688.527	21709.6
688.874	21789.6
689.221	21684.51
689.568	21661.46
689.915	21630.28
690.262	21599.09
690.609	21540.56
690.956	21418.53
691.303	21376.27
691.65	21358.87
691.997	21254.7
692.344	21207.46
692.69	21148.03
693.037	21209.05
693.383	20956.17
693.73	21098.32
694.077	20944.42
694.423	20881.37
694.769	20848.38
695.116	20831.2
695.462	20743.97
695.808	20674.15
696.155	20665.78
696.501	20495.39
696.847	20527.93
697.193	20313.03
697.539	20440.48
697.885	20305.12
698.231	20212.69
698.577	20227.6
698.923	20170.88
699.269	20032.58
699.614	19918.46
699.96	19855.64
700.306	19870.55
700.651	19746.94
700.997	19691.8
701.342	19600.5
701.688	19648.18
702.033	19566.83
702.379	19438.7
702.724	19500.84
703.069	19482.99
703.415	19324.58
703.76	19309.44
704.105	19286.84
704.45	19301.98
704.795	19070.57
705.14	18978.37
705.485	19053.17
705.83	19000.29
706.175	19056.79
706.52	18908.09
706.865	18852.27
707.209	18853.4
707.554	18719.39
707.899	18726.17
708.243	18606.4
708.588	18664.71
708.932	18437.82
709.277	18432.85
709.621	18518.27
709.966	18255.45
710.31	18311.5
710.654	18196.47
710.998	18275.56
711.342	18247.54
711.687	18231.95
712.031	18096.81
712.375	18058.17
712.719	18005.74
713.063	18008.45
713.407	18138.62
713.75	17980.43
714.094	17892.07
714.438	17875.58
714.782	17839.19
715.125	17789.7
715.469	17938.62
715.812	17748.12
716.156	17648.91
716.499	17740.66
716.843	17783.15
717.186	17537.73
717.53	17621.12
717.873	17582.7
718.216	17551.74
718.559	17481.91
718.902	17354.01
719.246	17472.42
719.589	17356.72
719.932	17324.4
720.275	17372.99
720.617	17354.91
720.96	17210.51
721.303	17206.44
721.646	17197.63
721.989	17160.34
722.331	17250.96
722.674	17104.07
723.016	17202.6
723.359	17121.7
723.701	17128.02
724.044	17006.67
724.386	16975.26
724.729	16970.06
725.071	17000.12
725.413	16993.34
725.755	16946.11
726.097	16915.83
726.439	16742.72
726.782	16870.4
727.124	16917.18
727.465	16769.16
727.807	16710.18
728.149	16757.19
728.491	16701.14
728.833	16784.98
729.175	16627.92
729.516	16696.62
729.858	16643.52
730.199	16646.91
730.541	16679.67
730.882	16643.29
731.224	16595.38
731.565	16610.52
731.906	16626.12
732.248	16589.73
732.589	16489.85
732.93	16448.04
733.271	16600.35
733.612	16568.04
733.953	16525.55
734.294	16487.14
734.635	16442.17
734.976	16554.48
735.317	16474.03
735.658	16430.42
735.999	16449.62
736.339	16400.81
736.68	16397.87
737.021	16416.86
737.361	16307.03
737.702	16374.82
738.042	16418.89
738.383	16446.46
738.723	16383.41
739.063	16295.28
739.404	16313.36
739.744	16323.07
740.084	16266.35
740.424	16367.14
740.764	16317.2
741.104	16370.76
741.444	16288.72
741.784	16288.27
742.124	16341.15
742.464	16307.48
742.804	16322.4
743.143	16332.34
743.483	16416.86
743.823	16241.95
744.162	16276.75
744.502	16309.97
744.841	16291.89
745.181	16423.18
745.52	16347.93
745.86	16448.27
746.199	16381.6
746.538	16406.24
746.877	16577.53
747.216	16516.51
747.556	16505.44
747.895	16500.92
748.234	16569.62
748.573	16640.58
748.911	16581.6
749.25	16637.87
749.589	16654.36
749.928	16696.4
750.267	16774.14
750.605	16701.82
750.944	16711.54
751.283	16712.89
751.621	16843.51
751.96	16831.08
752.298	16960.8
752.636	16968.71
752.975	17096.16
753.313	17023.39
753.651	17136.39
753.989	17110.17
754.327	17316.27
754.666	17169.61
755.004	17321.92
755.342	17412.31
755.679	17564.62
756.017	17457.28
756.355	17611.63
756.693	17578.86
