Data from hue_38_FLMS001491_00063.txt Node
Date: Tue Feb 07 17:31:49 GMT 2017
User: dcchb
Spectrometer: FLMS00149
Trigger mode: 0
Integration Time (sec): 2.000000E-2
Scans to average: 10
Electric dark correction enabled: true
Nonlinearity correction enabled: false
Boxcar width: 0
XAxis mode: Wavelengths
Number of Pixels in Spectrum: 2048
>>>>>Begin Spectral Data<<<<<
341.393	-9.94
341.776	-9.94
342.16	-9.94
342.543	-52.2
342.927	-51.3
343.31	-58.76
343.693	-66.66
344.077	-84.52
344.46	-57.17
344.843	-51.98
345.226	-51.07
345.61	-14.01
345.993	-14.91
346.376	2.26
346.759	21.69
347.142	18.53
347.525	49.49
347.908	40.9
348.291	74.8
348.674	81.35
349.057	110.05
349.44	134.23
349.823	140.56
350.206	175.59
350.588	196.38
350.971	224.4
351.354	227.11
351.737	235.93
352.119	264.4
352.502	279.54
352.884	296.26
353.267	293.1
353.65	311.4
354.032	287.68
354.414	314.12
354.797	323.61
355.179	330.39
355.562	325.42
355.944	337.39
356.326	350.95
356.709	349.6
357.091	347.34
357.473	352.99
357.855	352.31
358.238	335.81
358.62	349.82
359.002	345.53
359.384	350.5
359.766	343.04
360.148	357.28
360.53	373.55
360.912	336.26
361.294	365.41
361.676	348.24
362.057	346.43
362.439	335.36
362.821	350.5
363.203	333.1
363.584	344.62
363.966	329.48
364.348	333.32
364.729	330.61
365.111	341.01
365.493	320.9
365.874	316.15
366.256	323.61
366.637	355.02
367.019	340.33
367.4	320.9
367.781	335.58
368.163	334
368.544	295.13
368.925	335.81
369.306	308.24
369.688	308.69
370.069	315.47
370.45	312.99
370.831	314.34
371.212	319.99
371.593	337.84
371.974	313.44
372.355	323.38
372.736	314.34
373.117	339.43
373.498	313.44
373.879	325.64
374.26	319.09
374.641	311.63
375.021	320.22
375.402	317.96
375.783	329.48
376.163	329.93
376.544	342.59
376.925	343.95
377.305	339.2
377.686	342.14
378.066	339.88
378.447	334
378.827	350.05
379.208	356.83
379.588	346.66
379.968	346.66
380.349	344.85
380.729	339.65
381.109	360.67
381.489	367.67
381.87	352.53
382.25	347.56
382.63	369.71
383.01	356.6
383.39	349.82
383.77	344.62
384.15	367.67
384.53	366.32
384.91	369.93
385.29	356.6
385.67	341.91
386.049	376.49
386.429	371.97
386.809	376.26
387.189	369.48
387.568	363.15
387.948	388.69
388.328	367.22
388.707	362.25
389.087	377.17
389.466	388.69
389.846	389.82
390.225	362.7
390.605	354.34
390.984	422.81
391.363	394.11
391.743	381.46
392.122	394.79
392.501	388.92
392.881	379.88
393.26	389.14
393.639	391.18
394.018	390.5
394.397	403.83
394.776	408.12
395.155	385.98
395.534	420.1
395.913	402.93
396.292	425.07
396.671	395.92
397.05	418.07
397.429	417.84
397.808	393.89
398.186	411.74
398.565	405.87
398.944	409.93
399.323	393.66
399.701	413.77
400.08	397.28
400.458	448.8
400.837	410.16
401.215	442.7
401.594	431.4
401.972	428.92
402.351	430.05
402.729	439.99
403.107	427.79
403.486	443.83
403.864	423.49
404.242	444.06
404.62	454
404.999	445.41
405.377	458.52
405.755	445.19
406.133	441.8
406.511	445.64
406.889	436.37
407.267	470.27
407.645	459.65
408.023	475.69
408.401	463.72
408.779	460.55
409.156	478.63
409.534	473.89
409.912	465.75
410.29	482.47
410.667	479.54
411.045	472.3
411.422	472.53
411.8	473.89
412.178	495.58
412.555	490.83
412.933	510.5
413.31	495.58
413.687	524.73
414.065	494.68
414.442	512.08
414.819	517.73
415.197	515.01
415.574	502.59
415.951	522.02
416.328	526.54
416.705	515.01
417.082	504.39
417.46	505.52
417.837	533.09
418.214	543.49
418.591	526.31
418.967	562.47
419.344	546.2
419.721	581.68
420.098	543.94
420.475	548.46
420.852	576.48
421.228	580.78
421.605	559.53
421.982	569.93
422.358	587.56
422.735	566.99
423.111	580.1
423.488	575.8
423.864	594.33
424.241	588.69
424.617	599.53
424.994	594.11
425.37	577.16
425.746	596.37
426.123	615.58
426.499	625.75
426.875	631.4
427.251	620.1
427.627	636.82
428.003	661.9
428.379	638.18
428.756	649.93
429.132	637.95
429.507	663.26
429.883	657.38
430.259	676.37
430.635	684.28
431.011	656.03
431.387	692.64
431.763	686.08
432.138	682.24
432.514	693.77
432.89	684.95
433.265	722.01
433.641	730.6
434.016	729.92
434.392	753.65
434.767	722.92
435.143	732.86
435.518	737.16
435.894	750.04
436.269	766.76
436.644	758.4
437.02	753.88
437.395	747.1
437.77	783.93
438.145	758.62
438.52	793.2
438.895	783.03
439.271	806.31
439.646	808.57
440.021	817.15
440.395	821.67
440.77	802.46
441.145	802.01
441.52	823.03
441.895	842.69
442.27	844.05
442.645	847.44
443.019	860.54
443.394	825.06
443.769	852.63
444.143	860.99
444.518	858.28
444.892	889.47
445.267	882.91
445.641	868.45
446.016	875.23
446.39	891.95
446.764	908.9
447.139	913.87
447.513	900.54
447.887	908
448.262	879.3
448.636	929.69
449.01	910.03
449.384	938.05
449.758	912.52
450.132	948.68
450.506	950.94
450.88	954.1
451.254	966.53
451.628	970.82
452.002	981.9
452.376	1010.59
452.75	1011.72
453.123	1029.8
453.497	1028.45
453.871	995
454.244	1027.54
454.618	1037.71
454.992	1051.05
455.365	1052.85
455.739	1073.42
456.112	1092.85
456.486	1085.85
456.859	1108.9
457.232	1128.78
457.606	1134.43
457.979	1148.9
458.352	1156.35
458.725	1181.66
459.099	1183.7
459.472	1213.75
459.845	1191.38
460.218	1244.94
460.591	1220.53
460.964	1242.68
461.337	1264.6
461.71	1267.09
462.083	1303.47
462.456	1304.37
462.829	1300.08
463.201	1298.04
463.574	1333.3
463.947	1351.38
464.32	1387.76
464.692	1400.64
465.065	1389.12
465.438	1415.78
465.81	1416.69
466.183	1439.28
466.555	1477.93
466.928	1475.89
467.3	1505.05
467.672	1555.21
468.045	1529.23
468.417	1576.23
468.789	1606.29
469.161	1592.5
469.534	1631.82
469.906	1679.05
470.278	1688.77
470.65	1710.69
471.022	1733.74
471.394	1778.94
471.766	1772.61
472.138	1828.88
472.51	1865.49
472.882	1890.57
473.253	1924.24
473.625	1941.64
473.997	2019.16
474.369	2038.82
474.74	2067.97
475.112	2124.24
475.484	2161.07
475.855	2196.1
476.227	2261.64
476.598	2328.3
476.97	2334.85
477.341	2396.77
477.713	2440.61
478.084	2501.63
478.455	2561.29
478.827	2593.6
479.198	2728.06
479.569	2754.05
479.94	2816.65
480.311	2873.82
480.682	2906.82
481.053	3024.1
481.424	3149.75
481.795	3217.32
482.166	3225.9
482.537	3288.28
482.908	3398.1
483.279	3474.94
483.65	3550.42
484.021	3654.37
484.391	3729.17
484.762	3737.75
485.133	3864.31
485.503	3946.56
485.874	4036.73
486.244	4092.55
486.615	4232.21
486.985	4360.79
487.356	4401.24
487.726	4514.91
488.097	4666.77
488.467	4734.56
488.837	4855.47
489.207	4937.27
489.578	5068.57
489.948	5168.23
490.318	5267.43
490.688	5387.2
491.058	5450.25
491.428	5582.23
491.798	5703.8
492.168	5781.99
492.538	5878.04
492.908	5989.22
493.278	6145.6
493.648	6178.37
494.017	6339.49
494.387	6428.31
494.757	6522.31
495.126	6599.6
495.496	6652.93
495.866	6757.11
496.235	6882.98
496.605	6955.52
496.974	7078.91
497.344	7189.64
497.713	7236.42
498.082	7375.17
498.452	7459.92
498.821	7558.22
499.19	7580.37
499.559	7653.36
499.928	7793.92
500.298	7910.3
500.667	7976.06
501.036	8017.64
501.405	8095.83
501.774	8173.12
502.143	8282.27
502.512	8366.56
502.88	8521.81
503.249	8527.46
503.618	8613.11
503.987	8634.12
504.356	8809.71
504.724	8853.33
505.093	8883.83
505.462	8954.11
505.83	9058.97
506.199	9164.73
506.567	9289.25
506.936	9288.34
507.304	9434.78
507.672	9481.33
508.041	9519.07
508.409	9685.62
508.777	9748.9
509.145	9783.7
509.514	9842.23
509.882	9924.71
510.25	9941.21
510.618	10075.67
510.986	10056.91
511.354	10071.37
511.722	10301.42
512.09	10406.73
512.458	10378.71
512.826	10544.13
513.193	10605.6
513.561	10589.78
513.929	10650.57
514.297	10814.4
514.664	10874.06
515.032	10927.85
515.4	11026.38
515.767	11079.48
516.135	11186.82
516.502	11079.93
516.869	11293.26
517.237	11289.42
517.604	11285.35
517.972	11462.75
518.339	11506.82
518.706	11510.43
519.073	11620.71
519.44	11723.99
519.808	11816.86
520.175	11764.66
520.542	11868.61
520.909	11972.57
521.276	11946.35
521.643	12147.03
522.009	12205.55
522.376	12362.16
522.743	12434.93
523.11	12471.76
523.477	12629.72
523.843	12680.12
524.21	12774.35
524.577	12828.36
524.943	12897.29
525.31	12999.88
525.676	13131.63
526.043	13144.51
526.409	13148.58
526.776	13349.25
527.142	13363.04
527.508	13434
527.874	13566.65
528.241	13680.32
528.607	13627.66
528.973	13749.47
529.339	13820.2
529.705	14007.77
530.071	14037.82
530.437	14152.4
530.803	14231.94
531.169	14217.03
531.535	14185.39
531.901	14341.09
532.267	14329.34
532.632	14536.79
532.998	14619.05
533.364	14711.03
533.73	14662.21
534.095	14851.59
534.461	14885.48
534.826	14954.41
535.192	14981.98
535.557	15080.96
535.923	15162.54
536.288	15136.78
536.653	15215.19
537.019	15141.52
537.384	15297.9
537.749	15422.42
538.114	15413.83
538.479	15380.39
538.845	15595.07
539.21	15499.03
539.575	15630.78
539.94	15686.59
540.305	15790.55
540.67	15720.94
541.034	15877.1
541.399	15976.76
541.764	15938.34
542.129	16065.34
542.494	16089.52
542.858	16285.45
543.223	16198.67
543.587	16381.72
543.952	16411.09
544.316	16460.36
544.681	16412.22
545.045	16522.73
545.41	16566.57
545.774	16660.58
546.138	16719.79
546.503	16816.06
546.867	16749.84
547.231	16915.94
547.595	16979.44
547.959	17047.46
548.324	17080.68
548.688	17105.31
549.052	17287.91
549.416	17197.74
549.779	17273.67
550.143	17342.14
550.507	17435.25
550.871	17491.97
551.235	17490.16
551.599	17596.6
551.962	17637.05
552.326	17703.04
552.689	17761.11
553.053	17775.8
553.417	17819.64
553.78	18118.62
554.143	17976.93
554.507	18126.53
554.87	18100.99
555.234	18257.15
555.597	18176.47
555.96	18261.44
556.323	18370.36
556.686	18424.15
557.05	18536.91
557.413	18576.69
557.776	18646.52
558.139	18744.82
558.502	18746.85
558.865	18716.8
559.228	18990.01
559.59	19005.15
559.953	18987.98
560.316	19206.73
560.679	19295.76
561.041	19353.62
561.404	19313.84
561.767	19486.95
562.129	19438.13
562.492	19654.17
562.854	19572.82
563.217	19655.98
563.579	19659.37
563.941	19730.1
564.304	19813.49
564.666	20032.02
565.028	20070.66
565.39	20084.67
565.753	20252.12
566.115	20220.49
566.477	20346.36
566.839	20255.96
567.201	20488.73
567.563	20540.7
567.925	20625.45
568.287	20694.37
568.648	20788.61
569.01	20764.65
569.372	21048.94
569.734	20990.63
570.095	21100.91
570.457	21237.41
570.819	21281.7
571.18	21357.18
571.542	21464.97
571.903	21503.62
572.265	21598.3
572.626	21700.9
572.987	21708.58
573.349	21889.14
573.71	22010.72
574.071	21968.91
574.432	22174.78
574.794	22235.57
575.155	22398.28
575.516	22352.41
575.877	22532.51
576.238	22608.22
576.599	22789.23
576.96	22759.18
577.32	22857.93
577.681	22996.46
578.042	23203.46
578.403	23349.44
578.763	23471.93
579.124	23622.88
579.485	23748.3
579.845	23949.65
580.206	23975.64
580.566	24166.6
580.927	24262.64
581.287	24465.57
581.648	24591.22
582.008	24772.68
582.368	24941.27
582.728	25200.47
583.089	25308.26
583.449	25412.67
583.809	25624.64
584.169	25749.61
584.529	26011.75
584.889	26310.95
585.249	26446.99
585.609	26365.18
585.969	26788.9
586.329	26915.22
586.688	27216.46
587.048	27352.5
587.408	27449
587.768	27731.25
588.127	27853.05
588.487	28083.56
588.846	28482.64
589.206	28451.23
589.565	28675.18
589.925	29076.98
590.284	29069.74
590.643	29361.94
591.003	29566.23
591.362	29859.1
591.721	30029.72
592.08	30180.68
592.44	30356.94
592.799	30698.63
593.158	30866.53
593.517	30998.51
593.876	31330.93
594.235	31231.27
594.593	31638.72
594.952	31844.13
595.311	31990.57
595.67	32254.52
596.029	32625.81
596.387	32771.57
596.746	33007.72
597.104	33175.85
597.463	33194.61
597.822	33636.63
598.18	33644.54
598.538	33735.38
598.897	34231.64
599.255	34067.13
599.613	34715.7
599.972	34600.45
600.33	34986.42
600.688	35118.17
601.046	35294.67
601.404	35493.53
601.762	35660.08
602.12	35951.15
602.478	35980.75
602.836	36125.38
603.194	36230.91
603.552	36463.45
603.91	36516.78
604.268	36789.09
604.625	36764.46
604.983	37128.52
605.341	37020.5
605.698	37192.47
606.056	37542.97
606.413	37580.71
606.771	37940.47
607.128	38012.56
607.485	38049.17
607.843	38093.91
608.2	38488.48
608.557	38633.33
608.914	38511.08
609.272	38957.62
609.629	39012.76
609.986	39256.14
610.343	39132.53
610.7	39529.13
611.057	39646.87
611.414	39575.46
611.771	39844.83
612.127	39943.81
612.484	40104.26
612.841	40297.92
613.198	40281.43
613.554	40323.91
613.911	40642.1
614.267	40724.58
614.624	40609.55
614.98	40935.42
615.337	41083.89
615.693	41154.85
616.05	41052.93
616.406	41374.51
616.762	41380.15
617.118	41409.53
617.475	41666.93
617.831	41644.33
618.187	41936.07
618.543	41832.8
618.899	42124.32
619.255	42071.21
619.611	42052.91
619.967	42166.57
620.323	42428.26
620.678	42219.68
621.034	42336.97
621.39	42414.7
621.746	42263.97
622.101	42889.49
622.457	42522.27
622.812	42724.3
623.168	42820.57
623.523	42864.18
623.879	43126.1
624.234	42868.03
624.589	42996.16
624.945	43056.95
625.3	43226.89
625.655	43259.65
626.01	43216.04
626.365	43360.67
626.72	43188.02
627.075	43214.68
627.43	43195.7
627.785	43192.31
628.14	43336.71
628.495	43462.81
628.85	43362.93
629.205	43419.42
629.559	43606.54
629.914	43441.34
630.269	43441.12
630.623	43405.19
630.978	43313.44
631.332	43506.43
631.687	43639.08
632.041	43541.91
632.396	43639.98
632.75	43406.32
633.104	43435.69
633.459	43375.13
633.813	43286.55
634.167	43324.06
634.521	43345.07
634.875	43414.45
635.229	43365.64
635.583	43385.75
635.937	43289.26
636.291	43283.38
636.645	43398.86
636.999	43270.73
637.352	43414.9
637.706	43124.97
638.06	43328.13
638.413	43124.97
638.767	43188.92
639.121	43290.84
639.474	42969.49
639.828	43021.47
640.181	43206.77
640.534	43018.53
640.888	42985.08
641.241	42938.53
641.594	43015.37
641.947	43166.77
642.301	42922.94
642.654	43010.85
643.007	43095.82
643.36	43050.17
643.713	42873.45
644.066	43083.61
644.419	42735.15
644.771	42539.45
645.124	42177.42
645.477	42047.71
645.83	41990.31
646.182	41750.54
646.535	41787.15
646.888	41905.11
647.24	41592.13
647.593	41751.44
647.945	41761.61
648.298	41532.69
648.65	41456.31
649.002	41454.5
649.355	41607.04
649.707	41633.26
650.059	41687.27
650.411	42177.42
650.763	42245.67
651.115	42657.18
651.467	42532.22
651.819	42460.8
652.171	42405.21
652.523	42423.74
652.875	42271.88
653.227	42139.91
653.578	42351.43
653.93	42357.08
654.282	42066.46
654.633	42069.18
654.985	42187.59
655.337	42132.23
655.688	42162.28
656.039	42360.69
656.391	41955.51
656.742	42050.65
657.094	42145.11
657.445	42235.5
657.796	42241.15
658.147	42092
658.498	42087.03
658.849	42078.44
659.2	42010.19
659.551	41865.11
659.902	42121.15
660.253	42117.31
660.604	42112.79
660.955	41790.99
661.306	42014.26
661.656	41964.77
662.007	41990.99
662.358	41995.51
662.708	41937.88
663.059	41932.23
663.409	41733.14
663.76	42024.66
664.11	41940.14
664.461	41895.85
664.811	41904.43
665.161	41986.47
665.511	41733.82
665.862	41872.57
666.212	41966.13
666.562	41859.69
666.912	41829.41
667.262	41692.01
667.612	41780.82
667.962	41739.47
668.312	41753.03
668.662	41920.03
669.011	41897.66
669.361	41838.67
669.711	41563.43
670.06	41694.95
670.41	41629.41
670.76	41602.52
671.109	41762.29
671.459	41684.33
671.808	41571.11
672.157	41791.9
672.507	41404.11
672.856	41472.58
673.205	41641.16
673.554	41629.41
673.904	41466.93
674.253	41726.13
674.602	41578.79
674.951	41089.32
675.3	40908.98
675.649	41428.06
675.998	41380.15
676.346	41488.17
676.695	41483.65
677.044	41105.59
677.393	41296.99
677.741	41464.45
678.09	41237.79
678.438	41204.11
678.787	41293.83
679.135	41322.53
679.484	40941.07
679.832	41167.51
680.181	40909.21
680.529	41017.23
680.877	40968.64
681.225	40840.73
681.573	41137.22
681.922	40901.52
682.27	40777.23
682.618	40811.36
682.966	40821.07
683.314	40747.63
683.661	40580.4
684.009	40453.4
684.357	40317.13
684.705	40305.61
685.053	40335.21
685.4	40275.78
685.748	40098.15
686.095	40077.36
686.443	39967.54
686.79	40038.04
687.138	39974.09
687.485	40024.48
687.832	39799.41
688.18	39902.91
688.527	39670.82
688.874	39567.1
689.221	39571.16
689.568	39476.25
689.915	39435.57
690.262	39420.88
690.609	39226.09
690.956	39285.97
691.303	39094.11
691.65	38850.28
691.997	39027.9
692.344	38791.75
692.69	38750.39
693.037	38586.33
693.383	38385.43
693.73	38558.31
694.077	38366
694.423	38428.82
694.769	38158.32
695.116	38173.91
695.462	38065.89
695.808	38085.55
696.155	38185.89
696.501	37611.21
696.847	37774.37
697.193	37520.14
697.539	37658.67
697.885	37342.52
698.231	37316.31
698.577	37251
698.923	37237.44
699.269	37178.46
699.614	36934.17
699.96	36857.79
700.306	36752.48
700.651	36689.2
700.997	36566.72
701.342	36598.81
701.688	36602.65
702.033	36408.53
702.379	36280.18
702.724	36296.9
703.069	36342.1
703.415	36040.18
703.76	35948.66
704.105	35921.77
704.45	35822.11
704.795	35630.25
705.14	35670.02
705.485	35481.33
705.83	35380.76
706.175	35423.25
706.52	35355.68
706.865	35256.47
707.209	35209.02
707.554	35098.29
707.899	35182.13
708.243	34945.52
708.588	34863.72
708.932	34814
709.277	34637.51
709.621	34717.28
709.966	34553.22
710.31	34561.58
710.654	34208.82
710.998	34385.08
711.342	34223.05
711.687	34220.12
712.031	34065.77
712.375	34090.63
712.719	34033
713.063	33941.25
713.407	33956.17
713.75	33897.87
714.094	33834.59
714.438	33464.88
714.782	33673.69
715.125	33569.51
715.469	33542.39
715.812	33467.14
716.156	33213.59
716.499	33198.9
716.843	33298.79
717.186	33140.37
717.53	33277.32
717.873	33231.22
718.216	32994.39
718.559	32879.59
718.902	32727.73
719.246	32795.52
719.589	32715.75
719.932	32461.97
720.275	32653.15
720.617	32501.52
720.96	32497.45
721.303	32455.19
721.646	32435.31
721.989	32291.58
722.331	32391.92
722.674	32263.78
723.016	32239.38
723.359	32150.57
723.701	32286.38
724.044	31996.45
724.386	31902.21
724.729	32018.59
725.071	31932.49
725.413	31968.65
725.755	31925.04
726.097	31758.71
726.439	31690.47
726.782	31636.68
727.124	31774.76
727.465	31549
727.807	31504.71
728.149	31379.06
728.491	31436.24
728.833	31383.13
729.175	31417.25
729.516	31295.67
729.858	31143.14
730.199	31256.35
730.541	31164.15
730.882	31092.06
731.224	31150.82
731.565	30962.58
731.906	30943.14
732.248	30941.79
732.589	30766.87
732.93	30744.05
733.271	30650.49
733.612	30848.68
733.953	30740.66
734.294	30536.6
734.635	30421.12
734.976	30664.5
735.317	30496.37
735.658	30503.83
735.999	30573.89
736.339	30371.63
736.68	30416.15
737.021	30433.55
737.361	30188.13
737.702	30282.14
738.042	30206.21
738.383	30132.09
738.723	30238.98
739.063	30044.41
739.404	30195.59
739.744	30039.66
740.084	29807.58
740.424	29967.35
740.764	29896.84
741.104	30020
741.444	29727.35
741.784	29741.14
742.124	29831.98
742.464	29656.85
742.804	29707.24
743.143	29645.32
743.483	29464.76
743.823	29563.97
744.162	29342.51
744.502	29504.08
744.841	29321.71
745.181	29429.06
745.52	29385.89
745.86	29372.34
746.199	29249.17
746.538	29204.2
746.877	29363.97
747.216	29341.6
747.556	29040.59
747.895	29171.21
748.234	29070.87
748.573	28871.11
748.911	28952.91
749.25	28940.93
749.589	28759.92
749.928	28761.73
750.267	28838.56
750.605	28557.89
750.944	28634.28
751.283	28524.45
751.621	28579.14
751.96	28521.74
752.298	28497.78
752.636	28474.51
752.975	28242.2
753.313	28339.14
753.651	28223.89
753.989	28095.08
754.327	28124.68
754.666	27978.7
755.004	27978.47
755.342	28030.22
755.679	27999.72
756.017	27810.79
756.355	27821.19
756.693	27711.59
757.031	27758.82
