Data from hue_340_FLMS001491_15.txt Node
Date: Mon Feb 06 15:42:21 GMT 2017
User: dcchb
Spectrometer: FLMS00149
Trigger mode: 0
Integration Time (sec): 2.000000E-2
Scans to average: 10
Electric dark correction enabled: true
Nonlinearity correction enabled: false
Boxcar width: 0
XAxis mode: Wavelengths
Number of Pixels in Spectrum: 2048
>>>>>Begin Spectral Data<<<<<
341.393	-13.22
341.776	-13.22
342.16	-13.22
342.543	-49.6
342.927	-62.94
343.31	-65.2
343.693	-82.82
344.077	-76.95
344.46	-76.72
344.843	-65.87
345.226	-51.86
345.61	-2.82
345.993	-12.99
346.376	-0.34
346.759	22.03
347.142	31.98
347.525	35.59
347.908	39.43
348.291	83.73
348.674	104.74
349.057	118.08
349.44	116.72
349.823	161.69
350.206	160.11
350.588	197.85
350.971	226.32
351.354	221.12
351.737	231.75
352.119	252.99
352.502	278.52
352.884	287.79
353.267	283.27
353.65	313.55
354.032	307.68
354.414	290.73
354.797	311.97
355.179	348.13
355.562	325.75
355.944	314.91
356.326	333.89
356.709	341.57
357.091	322.36
357.473	339.54
357.855	335.92
358.238	353.1
358.62	350.84
359.002	320.33
359.384	334.12
359.766	333.66
360.148	337.73
360.53	331.86
360.912	337.73
361.294	340.44
361.676	314.23
362.057	336.6
362.439	346.32
362.821	332.53
363.203	321.69
363.584	358.3
363.966	319.88
364.348	325.75
364.729	311.29
365.111	308.35
365.493	313.55
365.874	307.68
366.256	321.69
366.637	315.13
367.019	307.9
367.4	318.97
367.781	296.15
368.163	313.78
368.544	310.39
368.925	299.77
369.306	326.43
369.688	291.18
370.069	303.83
370.45	302.7
370.831	314.23
371.212	307.68
371.593	290.73
371.974	311.74
372.355	317.39
372.736	311.07
373.117	307.45
373.498	317.62
373.879	326.88
374.26	303.38
374.641	305.87
375.021	312.65
375.402	314.46
375.783	311.07
376.163	330.5
376.544	318.75
376.925	318.75
377.305	323.72
377.686	321.91
378.066	334.34
378.447	320.56
378.827	337.05
379.208	321.91
379.588	326.21
379.968	328.92
380.349	323.49
380.729	312.65
381.109	325.08
381.489	320.78
381.87	335.25
382.25	320.1
382.63	331.4
383.01	314.23
383.39	317.62
383.77	323.04
384.15	317.17
384.53	342.48
384.91	336.15
385.29	368.46
385.67	338.64
386.049	350.84
386.429	347.9
386.809	337.73
387.189	364.17
387.568	361.01
387.948	380.89
388.328	362.59
388.707	341.12
389.087	355.36
389.466	359.2
389.846	349.03
390.225	365.75
390.605	370.72
390.984	369.59
391.363	346.54
391.743	386.77
392.122	361.01
392.501	374.57
392.881	370.72
393.26	346.77
393.639	365.98
394.018	367.33
394.397	370.5
394.776	356.94
395.155	364.4
395.534	387.67
395.913	359.43
396.292	358.75
396.671	365.53
397.05	366.66
397.429	377.28
397.808	375.92
398.186	388.13
398.565	379.31
398.944	375.47
399.323	385.87
399.701	389.48
400.08	389.48
400.458	392.42
400.837	402.81
401.215	401.68
401.594	381.35
401.972	394.23
402.351	413.89
402.729	414.79
403.107	390.16
403.486	403.94
403.864	397.39
404.242	388.58
404.62	417.96
404.999	396.03
405.377	395.58
405.755	418.63
406.133	419.99
406.511	413.44
406.889	406.2
407.267	430.84
407.645	413.21
408.023	421.57
408.401	451.63
408.779	421.12
409.156	466.32
409.534	431.29
409.912	469.48
410.29	459.76
410.667	452.98
411.045	469.71
411.422	457.5
411.8	462.47
412.178	464.06
412.555	470.84
412.933	469.71
413.31	490.95
413.687	497.5
414.065	477.61
414.442	495.92
414.819	482.59
415.197	498.4
415.574	517.61
415.951	495.24
416.328	514.45
416.705	491.85
417.082	525.07
417.46	532.98
417.837	534.79
418.214	517.16
418.591	537.27
418.967	538.4
419.344	532.75
419.721	564.62
420.098	555.13
420.475	563.49
420.852	546.31
421.228	564.62
421.605	560.78
421.982	586.31
422.358	574.34
422.735	560.55
423.111	596.26
423.488	592.19
423.864	590.38
424.241	580.44
424.617	586.09
424.994	593.54
425.37	590.38
425.746	622.92
426.123	597.61
426.499	610.94
426.875	620.89
427.251	610.72
427.627	637.61
428.003	666.99
428.379	640.1
428.756	642.36
429.132	646.65
429.507	672.19
429.883	682.58
430.259	678.74
430.635	680.55
431.011	694.11
431.387	716.48
431.763	707.67
432.138	719.64
432.514	719.64
432.89	716.7
433.265	732.3
433.641	739.08
434.016	731.17
434.392	745.4
434.767	764.61
435.143	761
435.518	777.04
435.894	791.96
436.269	786.98
436.644	778.4
437.02	791.28
437.395	786.08
437.77	827.21
438.145	819.07
438.52	796.02
438.895	814.33
439.271	802.58
439.646	837.38
440.021	840.77
440.395	830.15
440.77	858.85
441.145	813.65
441.52	841.67
441.895	872.41
442.27	851.62
442.645	872.86
443.019	879.41
443.394	886.42
443.769	889.13
444.143	873.99
444.518	870.82
444.892	884.61
445.267	879.41
445.641	906.76
446.016	924.83
446.39	922.35
446.764	917.15
447.139	924.61
447.513	905.63
447.887	921.44
448.262	926.87
448.636	932.52
449.01	926.42
449.384	951.05
449.758	975.23
450.132	926.64
450.506	957.38
450.88	989.92
451.254	967.09
451.628	965.06
452.002	994.44
452.376	985.4
452.75	1013.65
453.123	990.37
453.497	1009.35
453.871	1026.75
454.244	1046.41
454.618	1046.41
454.992	1019.3
455.365	1051.16
455.739	1051.38
456.112	1036.24
456.486	1067.2
456.859	1057.03
457.232	1087.09
457.606	1075.11
457.979	1074.66
458.352	1121.21
458.725	1115.11
459.099	1130.7
459.472	1130.25
459.845	1158.05
460.218	1139.97
460.591	1170.93
460.964	1176.35
461.337	1224.04
461.71	1192.4
462.083	1242.57
462.456	1234.43
462.829	1209.12
463.201	1264.94
463.574	1240.53
463.947	1262.45
464.32	1276.69
464.692	1289.8
465.065	1289.34
465.438	1293.86
465.81	1315.56
466.183	1329.34
466.555	1365.27
466.928	1365.27
467.3	1351.94
467.672	1374.54
468.045	1411.6
468.417	1398.27
468.789	1449.57
469.161	1418.61
469.534	1451.83
469.906	1491.83
470.278	1491.37
470.65	1507.87
471.022	1512.39
471.394	1526.17
471.766	1551.94
472.138	1564.82
472.51	1591.94
472.882	1594.65
473.253	1633.29
473.625	1652.5
473.997	1693.63
474.369	1674.87
474.74	1696.34
475.112	1686.85
475.484	1722.1
475.855	1781.54
476.227	1777.02
476.598	1813.62
476.97	1855.88
477.341	1887.3
477.713	1892.27
478.084	1898.59
478.455	1963.45
478.827	1984.69
479.198	2020.62
479.569	2042.55
479.94	2095.65
480.311	2093.62
480.682	2183.78
481.053	2186.04
481.424	2206.38
481.795	2254.07
482.166	2276.66
482.537	2263.1
482.908	2317.79
483.279	2334.51
483.65	2373.16
484.021	2428.75
484.391	2479.37
484.762	2460.39
485.133	2506.94
485.503	2530.22
485.874	2551.91
486.244	2615.41
486.615	2625.35
486.985	2688.63
487.356	2694.73
487.726	2719.14
488.097	2813.82
488.467	2816.08
488.837	2853.6
489.207	2885.91
489.578	2942.18
489.948	2930.88
490.318	2985.12
490.688	2985.12
491.058	3025.57
491.428	3064.89
491.798	3112.12
492.168	3155.96
492.538	3155.06
492.908	3166.13
493.278	3200.48
493.648	3222.4
494.017	3263.98
494.387	3320.7
494.757	3366.13
495.126	3394.15
495.496	3353.47
495.866	3423.98
496.235	3437.31
496.605	3490.87
496.974	3496.74
497.344	3496.29
497.713	3506.91
498.082	3524.54
498.452	3548.72
498.821	3620.36
499.19	3601.6
499.559	3642.28
499.928	3650.19
500.298	3701.94
500.667	3673.46
501.036	3648.15
501.405	3717.76
501.774	3710.3
502.143	3791.88
502.512	3791.65
502.88	3787.13
503.249	3842.72
503.618	3823.06
503.987	3814.25
504.356	3875.49
504.724	3895.15
505.093	3901.93
505.462	3926.56
505.83	3934.7
506.199	3955.04
506.567	3989.61
506.936	3959.78
507.304	4000.69
507.672	4022.61
508.041	4082.27
508.409	4095.82
508.777	4123.85
509.145	4116.39
509.514	4113.45
509.882	4160.23
510.25	4135.6
510.618	4202.71
510.986	4153.22
511.354	4204.52
511.722	4198.65
512.09	4279.77
512.458	4258.31
512.826	4251.53
513.193	4255.37
513.561	4272.99
513.929	4349.6
514.297	4369.49
514.664	4345.99
515.032	4348.25
515.4	4354.8
515.767	4436.61
516.135	4384.63
516.502	4425.53
516.869	4486.77
517.237	4480.22
517.604	4445.19
517.972	4491.97
518.339	4516.38
518.706	4528.58
519.073	4530.84
519.44	4529.03
519.808	4537.39
520.175	4546.43
520.542	4604.74
520.909	4640.89
521.276	4604.74
521.643	4662.36
522.009	4645.87
522.376	4656.04
522.743	4661.91
523.11	4724.96
523.477	4730.61
523.843	4766.32
524.21	4843.15
524.577	4873.43
524.943	4853.32
525.31	4908.68
525.676	4928.57
526.043	4899.65
526.409	4972.19
526.776	4960.66
527.142	5045.4
527.508	4991.62
527.874	5048.34
528.241	5048.34
528.607	5081.79
528.973	5127.21
529.339	5109.58
529.705	5171.73
530.071	5180.09
530.437	5150.03
530.803	5231.61
531.169	5278.62
531.535	5237.49
531.901	5304.38
532.267	5351.16
532.632	5269.58
532.998	5445.62
533.364	5432.74
533.73	5386.19
534.095	5459.63
534.461	5470.03
534.826	5536.24
535.192	5478.16
535.557	5552.96
535.923	5544.83
536.288	5625.05
536.653	5597.48
537.019	5583.92
537.384	5593.86
537.749	5675.44
538.114	5652.39
538.479	5709.12
538.845	5742.56
539.21	5698.49
539.575	5771.03
539.94	5779.4
540.305	5817.14
540.67	5823.69
541.034	5873.63
541.399	5901.65
541.764	5908.66
542.129	5891.03
542.494	5917.47
542.858	5961.99
543.223	5950.69
543.587	6040.86
543.952	6016.68
544.316	6062.33
544.681	6083.34
545.045	6100.07
545.41	6120.18
545.774	6133.51
546.138	6131.7
546.503	6183
546.867	6215.32
547.231	6278.82
547.595	6266.61
547.959	6286.73
548.324	6297.57
548.688	6379.83
549.052	6350.45
549.416	6390
549.779	6413.5
550.143	6430.9
550.507	6447.4
550.871	6410.79
551.235	6425.71
551.599	6498.93
551.962	6541.86
552.326	6526.5
552.689	6573.05
553.053	6519.94
553.417	6610.11
553.78	6678.36
554.143	6608.75
554.507	6643.55
554.87	6672.48
555.234	6726.04
555.597	6660.73
555.96	6718.13
556.323	6745.92
556.686	6794.28
557.05	6835.64
557.413	6837.22
557.776	6802.42
558.139	6899.37
558.502	6881.29
558.865	6901.63
559.228	6937.11
559.59	7026.37
559.953	6985.69
560.316	7036.31
560.679	6996.99
561.041	7080.83
561.404	7086.48
561.767	7152.02
562.129	7088.97
562.492	7192.24
562.854	7223.88
563.217	7210.09
563.579	7208.06
563.941	7211.67
564.304	7307.04
564.666	7338.9
565.028	7346.36
565.39	7370.77
565.753	7455.28
566.115	7424.55
566.477	7470.88
566.839	7506.13
567.201	7482.63
567.563	7559.24
567.925	7601.72
568.287	7551.78
568.648	7587.71
569.01	7618.67
569.372	7692.11
569.734	7637.88
570.095	7771.66
570.457	7752.68
570.819	7813.69
571.18	7839.91
571.542	7828.16
571.903	7900.92
572.265	7875.39
572.626	7982.05
572.987	7970.52
573.349	8019.34
573.71	8112.67
574.071	8147.24
574.432	8199.9
574.794	8321.48
575.155	8326.9
575.516	8298.43
575.877	8412.77
576.238	8482.15
576.599	8548.59
576.96	8550.17
577.32	8593.11
577.681	8753.33
578.042	8826.77
578.403	8892.99
578.763	8907
579.124	9018.18
579.485	9134.79
579.845	9200.78
580.206	9346.99
580.566	9429.24
580.927	9546.98
581.287	9647.99
581.648	9734.09
582.008	9934.32
582.368	10038.95
582.728	10138.15
583.089	10215.66
583.449	10427.41
583.809	10518.71
584.169	10750.79
584.529	10877.79
584.889	11080.5
585.249	11251.12
585.609	11361.17
585.969	11660.82
586.329	11781.72
586.688	12016.97
587.048	12145.1
587.408	12364.99
587.768	12634.36
588.127	12849.27
588.487	12989.83
588.846	13280.22
589.206	13437.5
589.565	13661
589.925	13944.15
590.284	14128.56
590.643	14483.8
591.003	14655.77
591.362	14936.44
591.721	15282.87
592.08	15444.68
592.44	15771.68
592.799	16034.04
593.158	16204.43
593.517	16587.02
593.876	16787.47
594.235	17133.22
594.593	17346.55
594.952	17653.66
595.311	17907.66
595.67	18187.21
596.029	18580.87
596.387	18892.05
596.746	19170.68
597.104	19337.23
597.463	19638.01
597.822	19979.25
598.18	20200.71
598.538	20396.19
598.897	20832.33
599.255	20919.11
599.613	21503.73
599.972	21519.77
600.33	21839.99
600.688	22010.83
601.046	22590.25
601.404	22753.86
601.762	22996.57
602.12	23367.63
602.478	23520.17
602.836	23823.44
603.194	24022.76
603.552	24210.55
603.91	24389.3
604.268	24748.84
604.625	24951.77
604.983	25340.69
605.341	25359.67
605.698	25836.27
606.056	26084.62
606.413	26249.14
606.771	26631.5
607.128	26807.77
607.485	26873.3
607.843	27033.53
608.2	27469.45
608.557	27754.41
608.914	27961.19
609.272	28141.29
609.629	28266.94
609.986	28677.78
610.343	28759.81
610.7	29120.93
611.057	29155.73
611.414	29431.43
611.771	29602.05
612.127	29948.93
612.484	30046.33
612.841	30231.18
613.198	30313.21
613.554	30501.01
613.911	30803.82
614.267	30975.57
614.624	31230.7
614.98	31287.88
615.337	31557.7
615.693	31641.99
616.05	31745.27
616.406	31968.76
616.762	32066.39
617.118	32216.89
617.475	32286.27
617.831	32535.53
618.187	32732.59
618.543	32770.1
618.899	33152.01
619.255	33097.55
619.611	33110.43
619.967	33521.04
620.323	33546.58
620.678	33646.69
621.034	33682.84
621.39	33711.77
621.746	33695.5
622.101	34368.7
622.457	34042.83
622.812	34234.24
623.168	34331.41
623.523	34434.46
623.879	34668.13
624.234	34540.45
624.589	34768.46
624.945	34865.41
625.3	34851.4
625.655	35055.91
626.01	35089.81
626.365	35287.55
626.72	35195.57
627.075	35268.56
627.43	35392.63
627.785	35272.18
628.14	35334.55
628.495	35458.39
628.85	35388.56
629.205	35451.61
629.559	35741.09
629.914	35658.16
630.269	35678.95
630.623	35610.02
630.978	35654.54
631.332	35868.32
631.687	35921.43
632.041	35742.68
632.396	35918.72
632.75	35828.1
633.104	36018.6
633.459	35737.93
633.813	35839.4
634.167	35874.88
634.521	35948.09
634.875	36092.5
635.229	36017.47
635.583	35898.6
635.937	35914.2
636.291	35899.51
636.645	35968.66
636.999	35856.8
637.352	36060.86
637.706	35876.46
638.06	35922.78
638.413	35939.06
638.767	35853.18
639.121	35901.09
639.474	35681.43
639.828	35759.17
640.181	35877.81
640.534	35832.62
640.888	35958.72
641.241	35584.71
641.594	35643.02
641.947	35845.95
642.301	35838.72
642.654	35865.84
643.007	35852.96
643.36	35836.68
643.713	35761.66
644.066	35976.57
644.419	35699.97
644.771	35506.07
645.124	35221.33
645.477	35193.76
645.83	34939.76
646.182	34850.95
646.535	34765.98
646.888	34960.1
647.24	34696.6
647.593	34937.5
647.945	34809.82
648.298	34704.51
648.65	34547.23
649.002	34561.24
649.355	34761.91
649.707	34689.14
650.059	34818.63
650.411	35205.06
650.763	35304.72
651.115	35612.96
651.467	35476.92
651.819	35458.84
652.171	35512.17
652.523	35339.97
652.875	35392.63
653.227	35366.87
653.578	35567.99
653.93	35471.95
654.282	35258.62
654.633	35062.24
654.985	35278.06
655.337	35420.42
655.688	35271.73
656.039	35501.78
656.391	35135.69
656.742	35124.16
657.094	35255.68
657.445	35304.5
657.796	35237.83
658.147	35202.58
658.498	35276.02
658.849	35247.77
659.2	35101.79
659.551	35075.8
659.902	35238.06
660.253	35123.71
660.604	35246.42
660.955	35137.95
661.306	35161.45
661.656	35139.75
662.007	35187.66
662.358	35149.47
662.708	35089.36
663.059	35052.3
663.409	34976.59
663.76	35079.87
664.11	35072.19
664.461	35134.78
664.811	35138.85
665.161	35086.42
665.511	34950.83
665.862	35090.04
666.212	35070.83
666.562	35232.63
666.912	35033.32
667.262	35054.56
667.612	35067.89
667.962	35143.37
668.312	35019.53
668.662	35075.57
669.011	34969.36
669.361	35002.13
669.711	34999.87
670.06	34864.51
670.41	34987.89
670.76	35001.9
671.109	35085.07
671.459	35028.34
671.808	34885.07
672.157	35008.46
672.507	34752.42
672.856	34795.36
673.205	34855.69
673.554	34898.18
673.904	34805.75
674.253	34921
674.602	34864.96
674.951	34355.82
675.3	34163.96
675.649	34654.8
675.998	34744.74
676.346	34700.22
676.695	34785.19
677.044	34406.21
677.393	34686.43
677.741	34796.03
678.09	34597.4
678.438	34594.68
678.787	34654.57
679.135	34625.42
679.484	34359.21
679.832	34566.66
680.181	34258.42
680.529	34389.04
680.877	34386.1
681.225	34384.07
681.573	34561.01
681.922	34297.29
682.27	34160.34
682.618	34181.14
682.966	34139.78
683.314	34255.94
683.661	34063.17
684.009	33889.62
684.357	33984.08
684.705	33776.85
685.053	33943.4
685.4	33845.55
685.748	33689.17
686.095	33660.24
686.443	33564.88
686.79	33501.6
687.138	33648.95
687.485	33559.23
687.832	33328.95
688.18	33328.05
688.527	33162.4
688.874	33272.91
689.221	33128.51
689.568	33129.41
689.915	32904.11
690.262	32994.73
690.609	32876.76
690.956	32799.48
691.303	32740.5
691.65	32658.01
691.997	32665.24
692.344	32377.34
692.69	32335.99
693.037	32440.62
693.383	32293.95
693.73	32308.19
694.077	32124.01
694.423	32197.23
694.769	31933.74
695.116	31970.12
695.462	31959.5
695.808	31803.12
696.155	31760.18
696.501	31466.4
696.847	31624.37
697.193	31378.27
697.539	31463.24
697.885	31375.56
698.231	31299.63
698.577	31141.22
698.923	31119.07
699.269	31036.59
699.614	30905.97
699.96	30829.36
700.306	30905.74
700.651	30795.24
700.997	30581.68
701.342	30475.92
701.688	30440.67
702.033	30457.17
702.379	30398.18
702.724	30255.36
703.069	30304.4
703.415	30003.39
703.76	30022.15
704.105	30030.06
704.45	29948.48
704.795	29729.5
705.14	29722.27
705.485	29662.84
705.83	29494.93
706.175	29581.93
706.52	29499.68
706.865	29426.23
707.209	29438.66
707.554	29262.17
707.899	29393.46
708.243	29192.57
708.588	29166.35
708.932	28984.21
709.277	28932.01
709.621	29020.59
709.966	28740.6
710.31	28851.33
710.654	28631.22
710.998	28621.51
711.342	28556.2
711.687	28652.92
712.031	28408.18
712.375	28332.25
712.719	28476.65
713.063	28301.29
713.407	28428.74
713.75	28227.85
714.094	28429.2
714.438	28113.72
714.782	28035.08
715.125	27929.1
715.469	28151.46
715.812	27959.38
716.156	27885.03
716.499	27756.9
716.843	27758.25
717.186	27591.48
717.53	27714.19
717.873	27709.89
718.216	27630.35
718.559	27535.43
718.902	27400.07
719.246	27402.33
719.589	27369.79
719.932	27267.42
720.275	27154.2
720.617	27171.15
720.96	27198.72
721.303	27075.33
721.646	27031.27
721.989	26996.47
722.331	27116.91
722.674	27009.8
723.016	26857.94
723.359	26912.63
723.701	26946.52
724.044	26762.8
724.386	26610.94
724.729	26689.81
725.071	26617.49
725.413	26582.46
725.755	26644.84
726.097	26422.24
726.439	26372.98
726.782	26529.36
727.124	26457.5
727.465	26326.88
727.807	26345.63
728.149	26198.07
728.491	26229.03
728.833	26241.46
729.175	26104.96
729.516	26019.09
729.858	26060.9
730.199	26034.46
730.541	26021.8
730.882	25936.61
731.224	26016.15
731.565	25819.32
731.906	25916.95
732.248	25833.11
732.589	25693.22
732.93	25721.47
733.271	25660.68
733.612	25653.22
733.953	25672.43
734.294	25591.08
734.635	25495.94
734.976	25575.94
735.317	25431.08
735.658	25360.8
735.999	25424.76
736.339	25303.63
736.68	25400.12
737.021	25282.39
737.361	25228.6
737.702	25293.91
738.042	25186.34
738.383	25110.41
738.723	25113.8
739.063	25142.05
739.404	25060.02
739.744	25076.06
740.084	24940.02
740.424	25079.45
740.764	24939.8
741.104	24839.46
741.444	24808.73
741.784	24802.62
742.124	24796.75
742.464	24857.54
742.804	24800.82
743.143	24617.77
743.483	24752.68
743.823	24533.71
744.162	24556.76
744.502	24597.88
744.841	24568.96
745.181	24441.05
745.52	24403.77
745.86	24487.38
746.199	24429.53
746.538	24385.01
746.877	24451.22
747.216	24375.74
747.556	24230.89
747.895	24375.97
748.234	24161.96
748.573	24184.56
748.911	24079.03
749.25	24037.67
749.589	24016.88
749.928	23938.01
750.267	24031.57
750.605	23926.26
750.944	23782.09
751.283	23691.69
751.621	23904.57
751.96	23749.77
752.298	23713.39
752.636	23707.51
752.975	23535.54
753.313	23519.27
753.651	23667.51
753.989	23527.86
754.327	23538.93
754.666	23348.65
755.004	23413.28
755.342	23354.75
755.679	23201.76
756.017	23257.58
756.355	23235.66
756.693	23114.53
757.031	23162.89
757.368	22970.81
757.706	22989.11
758.044	22969.68
758.381	22884.93
758.719	22774.2
759.056	22885.84
759.394	22682.23
759.731	22615.56
760.068	22606.52
760.405	22583.93
