Data from hue_180_FLMS001491_00062.txt Node
Date: Tue Feb 07 16:47:18 GMT 2017
User: dcchb
Spectrometer: FLMS00149
Trigger mode: 0
Integration Time (sec): 2.000000E-2
Scans to average: 10
Electric dark correction enabled: true
Nonlinearity correction enabled: false
Boxcar width: 0
XAxis mode: Wavelengths
Number of Pixels in Spectrum: 2048
>>>>>Begin Spectral Data<<<<<
341.393	-29.43
341.776	-29.43
342.16	-29.43
342.543	-57.68
342.927	-63.33
343.31	-70.11
343.693	-74.63
344.077	-78.02
344.46	-50.45
344.843	-46.83
345.226	-49.55
345.61	-19.72
345.993	-15.2
346.376	-14.29
346.759	18.02
347.142	24.35
347.525	48.3
347.908	42.2
348.291	70.68
348.674	97.12
349.057	118.13
349.44	138.92
349.823	139.6
350.206	171.46
350.588	178.02
350.971	207.62
351.354	220.95
351.737	218.92
352.119	238.36
352.502	259.15
352.884	275.42
353.267	257.79
353.65	305.47
354.032	287.39
354.414	281.07
354.797	309.09
355.179	312.48
355.562	316.09
355.944	345.92
356.326	322.42
356.709	333.27
357.091	330.78
357.473	353.83
357.855	313.61
358.238	340.27
358.62	364.68
359.002	355.87
359.384	326.94
359.766	332.36
360.148	341.86
360.53	347.5
360.912	331.46
361.294	336.21
361.676	330.33
362.057	332.82
362.439	328.3
362.821	341.4
363.203	320.84
363.584	342.76
363.966	319.26
364.348	332.82
364.729	325.36
365.111	307.73
365.493	330.1
365.874	321.97
366.256	323.78
366.637	315.87
367.019	307.28
367.4	316.55
367.781	324.23
368.163	280.84
368.544	320.39
368.925	304.79
369.306	293.72
369.688	284.91
370.069	297.79
370.45	304.12
370.831	309.77
371.212	302.53
371.593	329.2
371.974	325.36
372.355	311.8
372.736	312.48
373.117	307.96
373.498	303.44
373.879	310.9
374.26	299.37
374.641	309.31
375.021	316.09
375.402	312.93
375.783	319.03
376.163	326.94
376.544	309.77
376.925	311.12
377.305	337.11
377.686	321.07
378.066	318.35
378.447	314.74
378.827	333.04
379.208	349.76
379.588	319.26
379.968	338.69
380.349	338.69
380.729	324.23
381.109	309.09
381.489	327.39
381.87	343.66
382.25	319.26
382.63	318.58
383.01	327.62
383.39	361.29
383.77	335.75
384.15	338.24
384.53	345.25
384.91	337.56
385.29	340.05
385.67	361.74
386.049	362.87
386.429	356.54
386.809	361.29
387.189	349.09
387.568	352.25
387.948	342.08
388.328	367.17
388.707	362.65
389.087	348.41
389.466	340.5
389.846	355.64
390.225	347.96
390.605	352.7
390.984	359.48
391.363	373.04
391.743	376.88
392.122	344.34
392.501	364
392.881	369.88
393.26	372.82
393.639	360.16
394.018	383.44
394.397	386.37
394.776	359.48
395.155	389.09
395.534	389.76
395.913	375.3
396.292	407.39
396.671	394.06
397.05	372.36
397.429	380.05
397.808	380.05
398.186	393.38
398.565	386.83
398.944	357.45
399.323	388.86
399.701	388.86
400.08	388.41
400.458	386.15
400.837	404
401.215	409.65
401.594	394.51
401.972	418.24
402.351	402.64
402.729	409.42
403.107	411.91
403.486	417.33
403.864	424.11
404.242	439.71
404.62	433.6
404.999	420.5
405.377	437.22
405.755	430.89
406.133	435.19
406.511	465.24
406.889	439.71
407.267	445.58
407.645	470.44
408.023	466.6
408.401	473.38
408.779	444.68
409.156	481.96
409.534	472.25
409.912	504.11
410.29	514.96
410.667	531.23
411.045	492.59
411.422	523.32
411.8	519.03
412.178	532.58
412.555	547.95
412.933	538.23
413.31	544.56
413.687	536.2
414.065	559.93
414.442	555.64
414.819	580.72
415.197	567.84
415.574	565.8
415.951	599.02
416.328	599.48
416.705	610.32
417.082	632.24
417.46	612.81
417.837	643.77
418.214	641.96
418.591	624.56
418.967	638.34
419.344	665.01
419.721	656.42
420.098	674.28
420.475	684.9
420.852	695.74
421.228	716.99
421.605	707.04
421.982	721.28
422.358	705.01
422.735	744.56
423.111	759.47
423.488	747.72
423.864	766.25
424.241	774.39
424.617	820.26
424.994	795.18
425.37	795.63
425.746	822.75
426.123	851.9
426.499	835.4
426.875	854.61
427.251	852.35
427.627	884.44
428.003	873.82
428.379	885.12
428.756	907.04
429.132	909.75
429.507	944.78
429.883	944.55
430.259	944.78
430.635	966.47
431.011	955.85
431.387	980.48
431.763	1021.61
432.138	1000.6
432.514	1021.39
432.89	1034.27
433.265	1065.23
433.641	1035.85
434.016	1086.69
434.392	1088.95
434.767	1099.58
435.143	1136.41
435.518	1163.3
435.894	1189.74
436.269	1173.92
436.644	1214.15
437.02	1235.62
437.395	1212.79
437.77	1233.36
438.145	1297.54
438.52	1275.62
438.895	1315.62
439.271	1337.31
439.646	1331.89
440.021	1374.82
440.395	1366.69
440.77	1366.01
441.145	1376.18
441.52	1429.51
441.895	1449.85
442.27	1424.99
442.645	1473.13
443.019	1468.83
443.394	1486.46
443.769	1497.98
444.143	1502.95
444.518	1536.63
444.892	1525.1
445.267	1554.48
445.641	1542.5
446.016	1571.65
446.39	1587.7
446.764	1617.53
447.139	1599
447.513	1638.32
447.887	1641.26
448.262	1623.4
448.636	1650.07
449.01	1673.35
449.384	1697.53
449.758	1703.85
450.132	1725.32
450.506	1716.51
450.88	1756.96
451.254	1755.38
451.628	1770.74
452.002	1794.7
452.376	1817.07
452.75	1832.21
453.123	1854.36
453.497	1894.13
453.871	1903.62
454.244	1918.54
454.618	1982.94
454.992	1971.87
455.365	1983.39
455.739	2026.56
456.112	2045.31
456.486	2083.05
456.859	2068.14
457.232	2092.54
457.606	2081.7
457.979	2128.7
458.352	2220.9
458.725	2259.32
459.099	2217.96
459.472	2259.55
459.845	2286.44
460.218	2312.43
460.591	2347.23
460.964	2332.99
461.337	2402.59
461.71	2431.74
462.083	2472.65
462.456	2457.28
462.829	2509.93
463.201	2545.87
463.574	2553.32
463.947	2612.53
464.32	2684.84
464.692	2669.93
465.065	2720.78
465.438	2723.26
465.81	2736.14
466.183	2803.49
466.555	2884.39
466.928	2915.57
467.3	2876.48
467.672	2935.69
468.045	3021.78
468.417	3021.33
468.789	3097.26
469.161	3123.03
469.534	3159.41
469.906	3257.26
470.278	3295.22
470.65	3339.06
471.022	3380.65
471.394	3442.56
471.766	3467.2
472.138	3561.43
472.51	3605.5
472.882	3653.18
473.253	3741.54
473.625	3757.13
473.997	3825.61
474.369	3902.21
474.74	3920.97
475.112	4015.66
475.484	4112.15
475.855	4196.22
476.227	4226.27
476.598	4334.07
476.97	4432.6
477.341	4463.1
477.713	4561.86
478.084	4616.77
478.455	4693.61
478.827	4833.94
479.198	4897.89
479.569	4919.59
479.94	5100.6
480.311	5155.06
480.682	5278.67
481.053	5421.04
481.424	5479.8
481.795	5590.53
482.166	5674.6
482.537	5703.97
482.908	5905.1
483.279	5943.52
483.65	6069.61
484.021	6256.95
484.391	6293.56
484.762	6319.33
485.133	6451.3
485.503	6556.16
485.874	6633.44
486.244	6799.54
486.615	6885.19
486.985	7020.78
487.356	7128.8
487.726	7226.42
488.097	7392.74
488.467	7395.46
488.837	7580.99
489.207	7695.11
489.578	7856.23
489.948	7934.65
490.318	8017.81
490.688	8040.41
491.058	8119.96
491.428	8321.08
491.798	8401.08
492.168	8536.44
492.538	8540.51
492.908	8691.01
493.278	8793.38
493.648	8874.29
494.017	8985.47
494.387	9050.78
494.757	9105.69
495.126	9203.32
495.496	9235.63
495.866	9332.13
496.235	9409.87
496.605	9503.87
496.974	9533.03
497.344	9634.94
497.713	9605.79
498.082	9743.64
498.452	9857.31
498.821	9890.53
499.19	9835.17
499.559	9978.44
499.928	10091.43
500.298	10110.19
500.667	10143.63
501.036	10179.79
501.405	10261.59
501.774	10246.68
502.143	10328.49
502.512	10325.77
502.88	10421.36
503.249	10478.76
503.618	10520.8
503.987	10617.97
504.356	10577.29
504.724	10600.12
505.093	10633.56
505.462	10636.5
505.83	10635.37
506.199	10751.3
506.567	10831.3
506.936	10852.99
507.304	11014.12
507.672	11044.17
508.041	11024.96
508.409	11065.19
508.777	11153.32
509.145	11170.95
509.514	11125.53
509.882	11205.52
510.25	11213.66
510.618	11228.57
510.986	11284.84
511.354	11273.55
511.722	11404.62
512.09	11447.33
512.458	11444.16
512.826	11390.15
513.193	11381.57
513.561	11534.56
513.929	11497.49
514.297	11583.14
514.664	11527.78
515.032	11602.12
515.4	11603.03
515.767	11666.08
516.135	11677.15
516.502	11527.32
516.869	11692.52
517.237	11744.72
517.604	11633.76
517.972	11725.51
518.339	11782.91
518.706	11775.45
519.073	11820.88
519.44	11830.82
519.808	11908.1
520.175	11794.66
520.542	11857.03
520.909	11925.51
521.276	11884.6
521.643	11944.04
522.009	11931.61
522.376	11939.06
522.743	11984.26
523.11	12025.16
523.477	12107.2
523.843	12043.02
524.21	12127.53
524.577	12078.04
524.943	12092.96
525.31	12129.57
525.676	12197.81
526.043	12220.64
526.409	12121.43
526.776	12282.78
527.142	12217.48
527.508	12163.24
527.874	12158.95
528.241	12282.11
528.607	12226.97
528.973	12316.68
529.339	12190.36
529.705	12280.07
530.071	12164.37
530.437	12170.7
530.803	12154.2
531.169	12342.67
531.535	12131.6
531.901	12138.38
532.267	12087.54
532.632	12061.32
532.998	12113.3
533.364	12116.91
533.73	12011.83
534.095	12025.62
534.461	11967.99
534.826	12064.71
535.192	11950.36
535.557	11976.8
535.923	11845.06
536.288	11915.11
536.653	11874.89
537.019	11748.79
537.384	11770.03
537.749	11810.03
538.114	11681.44
538.479	11643.25
538.845	11692.07
539.21	11627.43
539.575	11571.39
539.94	11495.23
540.305	11549.7
540.67	11466.99
541.034	11485.97
541.399	11470.38
541.764	11448.46
542.129	11388.57
542.494	11255.47
542.858	11302.7
543.223	11274.45
543.587	11277.61
543.952	11118.75
544.316	11141.35
544.681	11024.51
545.045	11128.69
545.41	11050.05
545.774	11035.81
546.138	10884.18
546.503	10848.25
546.867	10809.15
547.231	10855.48
547.595	10776.16
547.959	10778.19
548.324	10730.06
548.688	10655.48
549.052	10511.53
549.416	10608.25
549.779	10516.73
550.143	10525.54
550.507	10514.24
550.871	10464.98
551.235	10422.04
551.599	10435.38
551.962	10293.01
552.326	10288.71
552.689	10319.67
553.053	10132.11
553.417	10197.64
553.78	10280.35
554.143	10114.48
554.507	10199.22
554.87	10132.33
555.234	10140.92
555.597	10027.48
555.96	10020.25
556.323	9940.25
556.686	9898.89
557.05	10032.67
557.413	9968.72
557.776	9930.98
558.139	9900.25
558.502	9972.11
558.865	9907.71
559.228	9836.97
559.59	9845.79
559.953	9829.06
560.316	9881.72
560.679	9831.55
561.041	9841.04
561.404	9825
561.767	9816.18
562.129	9815.28
562.492	9792
562.854	9825
563.217	9741.83
563.579	9725.79
563.941	9761.49
564.304	9700.93
564.666	9767.14
565.028	9847.14
565.39	9744.32
565.753	9814.37
566.115	9747.48
566.477	9766.69
566.839	9741.38
567.201	9846.46
567.563	9739.57
567.925	9813.02
568.287	9837.88
568.648	9792.45
569.01	9825.45
569.372	9838.1
569.734	9795.84
570.095	9804.43
570.457	9868.61
570.819	9843.98
571.18	9843.53
571.542	9847.59
571.903	9853.02
572.265	9789.74
572.626	9813.24
572.987	9821.83
573.349	9917.42
573.71	9863.86
574.071	9918.55
574.432	9909.51
574.794	9884.2
575.155	9897.99
575.516	9823.41
575.877	9770.76
576.238	9836.52
576.599	9864.54
576.96	9884.66
577.32	9909.51
577.681	9948.38
578.042	9872.45
578.403	9876.52
578.763	9839.91
579.124	9856.18
579.485	9853.47
579.845	9858.67
580.206	9910.19
580.566	9864.54
580.927	9813.02
581.287	9895.95
581.648	9802.17
582.008	9852.79
582.368	9782.06
582.728	9917.87
583.089	9801.49
583.449	9761.72
583.809	9857.31
584.169	9825.22
584.529	9768.27
584.889	9836.07
585.249	9743.64
585.609	9772.12
585.969	9709.97
586.329	9728.5
586.688	9737.09
587.048	9783.64
587.408	9741.61
587.768	9753.13
588.127	9718.78
588.487	9658.67
588.846	9721.27
589.206	9657.77
589.565	9627.71
589.925	9616.41
590.284	9623.65
590.643	9609.18
591.003	9614.83
591.362	9645.34
591.721	9643.08
592.08	9693.02
592.44	9646.02
592.799	9596.08
593.158	9595.4
593.517	9581.39
593.876	9597.88
594.235	9615.28
594.593	9585.45
594.952	9568.96
595.311	9501.16
595.67	9559.24
596.029	9562.86
596.387	9575.51
596.746	9554.72
597.104	9518.79
597.463	9515.85
597.822	9556.3
598.18	9503.2
598.538	9480.37
598.897	9555.17
599.255	9432.92
599.613	9603.31
599.972	9463.2
600.33	9496.42
600.688	9536.87
601.046	9506.13
601.404	9517.89
601.762	9458.23
602.12	9495.74
602.478	9488.51
602.836	9507.04
603.194	9406.48
603.552	9433.37
603.91	9416.42
604.268	9446.25
604.625	9378.23
604.983	9521.28
605.341	9429.3
605.698	9471.11
606.056	9491.45
606.413	9449.86
606.771	9515.85
607.128	9501.84
607.485	9457.32
607.843	9401.05
608.2	9501.39
608.557	9517.43
608.914	9430.66
609.272	9484.21
609.629	9520.15
609.986	9577.54
610.343	9455.06
610.7	9559.01
611.057	9528.05
611.414	9488.96
611.771	9521.73
612.127	9573.03
612.484	9489.86
612.841	9602.85
613.198	9565.57
613.554	9505.46
613.911	9530.54
614.267	9552.46
614.624	9520.6
614.98	9551.33
615.337	9599.47
615.693	9588.84
616.05	9569.86
616.406	9631.78
616.762	9623.87
617.118	9565.34
617.475	9586.13
617.831	9657.99
618.187	9626.58
618.543	9721.27
618.899	9712.91
619.255	9609.63
619.611	9684.43
619.967	9594.49
620.323	9712.23
620.678	9688.5
621.034	9641.95
621.39	9644.66
621.746	9587.94
622.101	9741.61
622.457	9619.8
622.812	9660.71
623.168	9694.6
623.523	9657.99
623.879	9672.46
624.234	9616.19
624.589	9677.2
624.945	9709.97
625.3	9682.4
625.655	9718.33
626.01	9634.27
626.365	9706.81
626.72	9613.48
627.075	9690.76
627.43	9589.97
627.785	9622.74
628.14	9663.42
628.495	9680.14
628.85	9640.37
629.205	9578.22
629.559	9636.53
629.914	9599.47
630.269	9618.22
630.623	9574.83
630.978	9515.63
631.332	9550.65
631.687	9576.19
632.041	9563.31
632.396	9449.86
632.75	9528.28
633.104	9478.34
633.459	9499.81
633.813	9465.23
634.167	9557.21
634.521	9452.35
634.875	9388.17
635.229	9482.41
635.583	9477.89
635.937	9387.49
636.291	9419.58
636.645	9421.16
636.999	9386.59
637.352	9442.63
637.706	9366.25
638.06	9375.74
638.413	9334.16
638.767	9274.05
639.121	9271.34
639.474	9303.65
639.828	9293.94
640.181	9280.15
640.534	9286.93
640.888	9243.09
641.241	9207.16
641.594	9305.69
641.947	9224.79
642.301	9219.14
642.654	9238.8
643.007	9288.06
643.36	9266.37
643.713	9230.21
644.066	9246.25
644.419	9191.34
644.771	9110.66
645.124	9032.47
645.477	9081.06
645.83	9017.56
646.182	8997.22
646.535	8875.64
646.888	8961.97
647.24	8853.72
647.593	8932.59
647.945	8909.77
648.298	8883.33
648.65	8950.89
649.002	8899.82
649.355	8937.34
649.707	8918.81
650.059	8959.03
650.411	9063.66
650.763	9052.81
651.115	9163.32
651.467	9118.8
651.819	9167.84
652.171	9071.34
652.523	9037.67
652.875	9065.47
653.227	9070.89
653.578	9105.24
653.93	9123.32
654.282	9073.38
654.633	9055.98
654.985	8989.76
655.337	9086.71
655.688	9061.63
656.039	9134.39
656.391	9058.01
656.742	9043.77
657.094	9080.61
657.445	9116.99
657.796	9084.45
658.147	9141.17
658.498	9111.34
658.849	9142.75
659.2	9116.99
659.551	9104.56
659.902	9147.95
660.253	9100.5
660.604	9206.26
660.955	9040.61
661.306	9141.62
661.656	9142.75
662.007	9134.84
662.358	9096.65
662.708	9153.38
663.059	9131.68
663.409	9127.61
663.76	9142.75
664.11	9144.79
664.461	9122.64
664.811	9198.35
665.161	9164.67
665.511	9111.12
665.862	9150.44
666.212	9170.55
666.562	9203.32
666.912	9139.36
667.262	9196.09
667.612	9078.35
667.962	9166.48
668.312	9115.18
668.662	9237.44
669.011	9192.92
669.361	9179.59
669.711	9116.77
670.06	9179.14
670.41	9187.27
670.76	9118.8
671.109	9108.18
671.459	9118.57
671.808	9139.59
672.157	9196.99
672.507	9107.05
672.856	9109.76
673.205	9086.03
673.554	9043.77
673.904	9122.87
674.253	9082.19
674.602	9073.83
674.951	8946.83
675.3	8846.04
675.649	9007.16
675.998	9098.46
676.346	9025.24
676.695	9027.28
677.044	8933.27
677.393	9026.6
677.741	9010.1
678.09	8951.57
678.438	8967.62
678.787	8936.66
679.135	8916.77
679.484	8883.78
679.832	8847.85
680.181	8893.04
680.529	8905.02
680.877	8841.97
681.225	8880.61
681.573	8924.91
681.922	8826.15
682.27	8814.85
682.618	8832.93
682.966	8758.36
683.314	8779.15
683.661	8663.9
684.009	8694.63
684.357	8621.86
684.705	8637.68
685.053	8588.64
685.4	8652.37
685.748	8585.25
686.095	8628.19
686.443	8545.03
686.79	8549.78
687.138	8581.64
687.485	8515.65
687.832	8507.97
688.18	8501.41
688.527	8502.32
688.874	8462.32
689.221	8393.85
689.568	8386.16
689.915	8455.54
690.262	8446.05
690.609	8302.55
690.956	8344.13
691.303	8290.35
691.65	8268.65
691.997	8231.59
692.344	8185.04
692.69	8160.86
693.037	8208.32
693.383	8099.62
693.73	8134.64
694.077	8056
694.423	8069.11
694.769	8021.88
695.116	7971.71
695.462	7978.72
695.808	7945.72
696.155	7899.17
696.501	7858.27
696.847	7835.67
697.193	7820.3
697.539	7800.42
697.885	7781.66
698.231	7733.07
698.577	7735.11
698.923	7644.26
699.269	7616.92
699.614	7570.37
699.96	7510.71
700.306	7553.87
700.651	7557.48
700.997	7535.56
701.342	7483.59
701.688	7464.15
702.033	7383.93
702.379	7386.64
702.724	7378.05
703.069	7364.72
703.415	7304.38
703.76	7292.18
704.105	7275.01
704.45	7278.17
704.795	7218.96
705.14	7222.8
705.485	7206.76
705.83	7192.52
706.175	7164.73
706.52	7103.03
706.865	7089.02
707.209	7116.37
707.554	7042.7
707.899	7061.23
708.243	7004.73
708.588	6985.07
708.932	6915.24
709.277	6964.51
709.621	6976.26
709.966	6928.35
710.31	6851.51
710.654	6822.59
710.998	6888.35
711.342	6858.52
711.687	6825.75
712.031	6823.72
712.375	6769.48
712.719	6806.77
713.063	6753.66
713.407	6811.74
713.75	6728.58
714.094	6724.51
714.438	6687.68
714.782	6697.17
715.125	6653.1
715.469	6660.33
715.812	6658.75
716.156	6612.43
716.499	6606.32
716.843	6648.81
717.186	6587.11
717.53	6558.42
717.873	6592.76
718.216	6646.55
718.559	6593.44
718.902	6572.2
719.246	6550.28
719.589	6494.24
719.932	6479.32
720.275	6550.73
720.617	6528.13
720.96	6516.61
721.303	6474.8
721.646	6508.02
721.989	6479.1
722.331	6474.58
722.674	6486.1
723.016	6484.97
723.359	6482.94
723.701	6447.23
724.044	6367.91
724.386	6402.94
724.729	6453.56
725.071	6423.73
725.413	6369.95
725.755	6424.86
726.097	6391.41
726.439	6356.16
726.782	6375.37
727.124	6417.18
727.465	6365.2
727.807	6350.51
728.149	6364.97
728.491	6319.1
728.833	6371.3
729.175	6336.73
729.516	6345.54
729.858	6384.18
730.199	6387.35
730.541	6318.87
730.882	6343.51
731.224	6337.4
731.565	6290.85
731.906	6352.32
732.248	6369.49
732.589	6357.52
732.93	6332.43
733.271	6293.79
733.612	6315.94
733.953	6364.3
734.294	6317.74
734.635	6361.81
734.976	6345.99
735.317	6367.69
735.658	6348.93
735.999	6366.78
736.339	6379.89
736.68	6383.73
737.021	6380.11
737.361	6343.51
737.702	6371.75
738.042	6368.14
738.383	6375.37
738.723	6376.95
739.063	6391.64
739.404	6449.27
739.744	6477.97
740.084	6385.54
740.424	6449.49
740.764	6411.75
741.104	6495.59
741.444	6408.59
741.784	6481.58
742.124	6543.73
742.464	6503.5
742.804	6512.09
743.143	6523.39
743.483	6558.87
743.823	6563.84
744.162	6654.23
744.502	6647.68
744.841	6623.72
745.181	6756.6
745.52	6743.5
745.86	6729.48
746.199	6777.84
746.538	6765.42
746.877	6901.23
747.216	6983.04
747.556	6951.85
747.895	7028.69
748.234	7004.28
748.573	7023.71
748.911	7028.69
749.25	7157.04
749.589	7224.84
749.928	7300.54
750.267	7381.22
750.605	7353.42
750.944	7461.22
751.283	7476.58
751.621	7618.95
751.96	7653.3
752.298	7736.01
752.636	7928.1
752.975	7964.93
753.313	7990.69
753.651	8177.36
753.989	8224.13
754.327	8347.29
754.666	8433.62
755.004	8582.09
755.342	8721.07
755.679	8841.29
756.017	8856.66
756.355	9060.5
756.693	9241.73
757.031	9325.8
757.368	9438.11
757.706	9611.44
758.044	9758.56
758.381	9872.45
758.719	9997.42
759.056	10149.96
759.394	10312.44
759.731	10398.77
760.068	10601.25
760.405	10794.91
760.743	10889.83
761.08	11126.2
761.417	11225.19
761.754	11411.62
762.091	11597.83
762.428	11708.11
762.765	11802.12
763.102	12072.39
763.438	12243.46
763.775	12306.96
764.112	12551.93
764.449	12707.41
764.785	12832.83
765.122	12996.21
765.458	13093.16
765.795	13308.97
