Data from hue_22_FLMS001491_00015.txt Node
Date: Tue Feb 07 17:09:40 GMT 2017
User: dcchb
Spectrometer: FLMS00149
Trigger mode: 0
Integration Time (sec): 2.000000E-2
Scans to average: 10
Electric dark correction enabled: true
Nonlinearity correction enabled: false
Boxcar width: 0
XAxis mode: Wavelengths
Number of Pixels in Spectrum: 2048
>>>>>Begin Spectral Data<<<<<
341.393	-4.84
341.776	-4.84
342.16	-4.84
342.543	-61.79
342.927	-42.36
343.31	-70.15
343.693	-66.54
344.077	-82.81
344.46	-63.15
344.843	-36.93
345.226	-57.27
345.61	-12.53
345.993	-20.89
346.376	-1.45
346.759	10.07
347.142	19.79
347.525	42.61
347.908	68.15
348.291	74.02
348.674	91.88
349.057	105.21
349.44	121.71
349.823	162.83
350.206	172.78
350.588	193.34
350.971	196.73
351.354	224.53
351.737	232.21
352.119	257.52
352.502	270.18
352.884	256.17
353.267	300.46
353.65	298.2
354.032	311.53
354.414	297.29
354.797	312.21
355.179	309.72
355.562	334.13
355.944	342.49
356.326	342.94
356.709	326.9
357.091	334.13
357.473	332.77
357.855	366.45
358.238	373.9
358.62	331.64
359.002	350.63
359.384	345.88
359.766	318.54
360.148	357.63
360.53	351.98
360.912	315.15
361.294	345.88
361.676	349.04
362.057	317.41
362.439	340.23
362.821	344.07
363.203	330.51
363.584	337.75
363.966	310.4
364.348	324.64
364.729	295.94
365.111	321.02
365.493	310.85
365.874	325.32
366.256	328.93
366.637	314.7
367.019	308.59
367.4	331.87
367.781	320.12
368.163	318.76
368.544	313.57
368.925	309.95
369.306	314.92
369.688	330.06
370.069	303.17
370.45	332.32
370.831	329.38
371.212	334.58
371.593	324.64
371.974	328.03
372.355	320.34
372.736	326.9
373.117	322.6
373.498	335.71
373.879	326.22
374.26	327.8
374.641	315.37
375.021	310.4
375.402	334.58
375.783	333
376.163	351.3
376.544	319.89
376.925	350.63
377.305	338.42
377.686	329.84
378.066	358.76
378.447	351.76
378.827	364.64
379.208	339.33
379.588	356.05
379.968	339.1
380.349	332.77
380.729	353.34
381.109	323.73
381.489	342.72
381.87	333.23
382.25	349.72
382.63	350.17
383.01	345.88
383.39	353.56
383.77	366.67
384.15	347.24
384.53	337.97
384.91	362.83
385.29	341.36
385.67	354.24
386.049	368.48
386.429	342.72
386.809	337.52
387.189	336.84
387.568	382.04
387.948	374.13
388.328	353.79
388.707	344.3
389.087	368.93
389.466	348.14
389.846	357.18
390.225	358.76
390.605	376.39
390.984	367.8
391.363	361.7
391.743	361.02
392.122	378.2
392.501	373
392.881	396.27
393.26	411.64
393.639	377.97
394.018	403.73
394.397	412.55
394.776	380.68
395.155	371.19
395.534	370.74
395.913	382.94
396.292	419.1
396.671	398.53
397.05	399.89
397.429	385.88
397.808	407.12
398.186	403.51
398.565	394.47
398.944	413
399.323	404.41
399.701	407.57
400.08	391.08
400.458	410.96
400.837	394.24
401.215	398.31
401.594	421.36
401.972	407.8
402.351	416.61
402.729	434.92
403.107	435.82
403.486	438.99
403.864	416.16
404.242	410.96
404.62	422.71
404.999	439.66
405.377	436.05
405.755	443.73
406.133	422.26
406.511	429.49
406.889	450.28
407.267	442.6
407.645	463.84
408.023	467.91
408.401	452.77
408.779	452.77
409.156	451.87
409.534	462.04
409.912	471.08
410.29	470.17
410.667	481.24
411.045	481.47
411.422	470.17
411.8	468.59
412.178	502.49
412.555	481.47
412.933	510.85
413.31	482.37
413.687	491.19
414.065	497.06
414.442	496.16
414.819	501.58
415.197	513.79
415.574	521.24
415.951	477.4
416.328	505.88
416.705	493
417.082	518.76
417.46	515.14
417.837	532.77
418.214	537.74
418.591	549.49
418.967	522.83
419.344	540.68
419.721	536.16
420.098	551.98
420.475	537.29
420.852	541.58
421.228	558.98
421.605	551.75
421.982	551.3
422.358	576.16
422.735	573.9
423.111	563.73
423.488	546.55
423.864	582.03
424.241	584.74
424.617	590.17
424.994	576.16
425.37	596.5
425.746	622.26
426.123	598.98
426.499	606.66
426.875	598.08
427.251	608.92
427.627	635.36
428.003	621.81
428.379	643.05
428.756	647.57
429.132	631.97
429.507	635.36
429.883	650.96
430.259	657.06
430.635	660
431.011	654.12
431.387	676.04
431.763	676.49
432.138	693.44
432.514	697.28
432.89	665.19
433.265	704.29
433.641	709.26
434.016	718.3
434.392	737.51
434.767	735.25
435.143	709.04
435.518	749.94
435.894	718.98
436.269	751.97
436.644	738.86
437.02	788.81
437.395	779.99
437.77	749.03
438.145	789.03
438.52	801.24
438.895	793.55
439.271	785.19
439.646	812.76
440.021	811.63
440.395	796.04
440.77	792.87
441.145	828.58
441.52	814.12
441.895	817.96
442.27	838.75
442.645	830.16
443.019	845.08
443.394	855.47
443.769	869.03
444.143	843.04
444.518	867.9
444.892	852.76
445.267	887.11
445.641	872.42
446.016	863.61
446.39	880.33
446.764	913.55
447.139	886.21
447.513	896.6
447.887	875.81
448.262	891.86
448.636	909.03
449.01	926.66
449.384	935.47
449.758	914
450.132	935.02
450.506	941.35
450.88	940.44
451.254	948.8
451.628	932.98
452.002	965.98
452.376	968.92
452.75	972.98
453.123	979.08
453.497	986.09
453.871	994.9
454.244	1019.31
454.618	1014.34
454.992	1012.53
455.365	1056.82
455.739	1037.84
456.112	1057.5
456.486	1070.61
456.859	1096.82
457.232	1124.84
457.606	1120.32
457.979	1120.55
458.352	1147.44
458.725	1142.24
459.099	1145.18
459.472	1162.81
459.845	1172.3
460.218	1185.86
460.591	1209.81
460.964	1204.84
461.337	1195.12
461.71	1246.2
462.083	1300.66
462.456	1265.18
462.829	1255.46
463.201	1285.52
463.574	1289.58
463.947	1277.38
464.32	1318.74
464.692	1354.89
465.065	1323.26
465.438	1363.26
465.81	1376.36
466.183	1396.93
466.555	1399.41
466.928	1448.9
467.3	1441.67
467.672	1440.99
468.045	1503.59
468.417	1476.25
468.789	1522.35
469.161	1523.7
469.534	1539.3
469.906	1608.45
470.278	1598.73
470.65	1596.47
471.022	1650.03
471.394	1653.64
471.766	1683.7
472.138	1696.58
472.51	1728.67
472.882	1743.58
473.253	1780.19
473.625	1824.49
473.997	1856.12
474.369	1877.59
474.74	1877.14
475.112	1971.37
475.484	1934.09
475.855	1982
476.227	2033.07
476.598	2066.74
476.97	2081.88
477.341	2121.43
477.713	2155.32
478.084	2170.69
478.455	2245.94
478.827	2253.85
479.198	2329.56
479.569	2334.75
479.94	2409.1
480.311	2437.58
480.682	2477.35
481.053	2539.95
481.424	2593.05
481.795	2625.14
482.166	2655.88
482.537	2706.72
482.908	2739.72
483.279	2742.2
483.65	2854.74
484.021	2864.68
484.391	2957.56
484.762	2988.75
485.133	3000.27
485.503	3052.48
485.874	3134.51
486.244	3148.29
486.615	3231.91
486.985	3280.94
487.356	3326.37
487.726	3396.42
488.097	3475.97
488.467	3445.01
488.837	3575.85
489.207	3577.66
489.578	3641.61
489.948	3693.14
490.318	3764.32
490.688	3780.14
491.058	3832.12
491.428	3922.28
491.798	3954.15
492.168	3994.37
492.538	4037.31
492.908	4070.3
493.278	4095.39
493.648	4153.24
494.017	4180.58
494.387	4244.76
494.757	4287.47
495.126	4357.53
495.496	4367.47
495.866	4383.29
496.235	4492.89
496.605	4458.54
496.974	4539.22
497.344	4596.16
497.713	4604.75
498.082	4627.12
498.452	4669.38
498.821	4687.24
499.19	4738.76
499.559	4791.19
499.928	4827.57
500.298	4872.32
500.667	4918.64
501.036	4899.89
501.405	4927.68
501.774	4958.41
502.143	4964.97
502.512	5035.7
502.88	5085.64
503.249	5068.69
503.618	5122.03
503.987	5133.55
504.356	5145.53
504.724	5200.22
505.093	5256.94
505.462	5214.23
505.83	5317.73
506.199	5301.46
506.567	5460.32
506.936	5369.25
507.304	5473.88
507.672	5484.95
508.041	5438.4
508.409	5528.8
508.777	5549.36
509.145	5684.5
509.514	5596.14
509.882	5670.03
510.25	5646.53
510.618	5682.24
510.986	5634.1
511.354	5762.91
511.722	5745.96
512.09	5813.31
512.458	5786.64
512.826	5836.36
513.193	5877.49
513.561	5896.02
513.929	5974.21
514.297	5961.78
514.664	5985.73
515.032	6000.87
515.4	6125.39
515.767	6120.42
516.135	6119.74
516.502	6048.56
516.869	6176.46
517.237	6178.27
517.604	6188.44
517.972	6225.05
518.339	6213.75
518.706	6260.08
519.073	6285.39
519.44	6383.91
519.808	6387.76
520.175	6338.72
520.542	6419.62
520.909	6474.53
521.276	6493.97
521.643	6518.83
522.009	6564.93
522.376	6596.79
522.743	6693.51
523.11	6731.25
523.477	6752.04
523.843	6751.14
524.21	6801.76
524.577	6841.08
524.943	6895.77
525.31	6960.62
525.676	6971.02
526.043	7012.15
526.409	6994.97
526.776	7084.91
527.142	7129.21
527.508	7148.64
527.874	7191.58
528.241	7216.66
528.607	7233.84
528.973	7345.47
529.339	7311.8
529.705	7344.79
530.071	7444.9
530.437	7463.66
530.803	7489.87
531.169	7505.92
531.535	7544.11
531.901	7540.95
532.267	7619.81
532.632	7654.62
532.998	7683.99
533.364	7756.99
533.73	7732.58
534.095	7793.14
534.461	7836.31
534.826	7860.71
535.192	7860.26
535.557	7940.26
535.923	7967.38
536.288	7951.78
536.653	8025.9
537.019	8011.44
537.384	8159.23
537.749	8099.58
538.114	8139.12
538.479	8180.25
538.845	8223.19
539.21	8199.69
539.575	8304.09
539.94	8339.79
540.305	8361.94
540.67	8324.65
541.034	8418.66
541.399	8445.78
541.764	8495.04
542.129	8494.14
542.494	8512.67
542.858	8578.21
543.223	8539.34
543.587	8643.97
543.952	8667.92
544.316	8655.49
544.681	8677.64
545.045	8730.07
545.41	8813.91
545.774	8855.94
546.138	8838.99
546.503	8856.62
546.867	8889.16
547.231	9001.92
547.595	8977.07
547.959	8994.24
548.324	9021.81
548.688	9001.7
549.052	9096.16
549.416	9123.73
549.779	9139.77
550.143	9171.86
550.507	9255.48
550.871	9199.43
551.235	9176.83
551.599	9339.32
551.962	9312.2
552.326	9432.2
552.689	9403.95
553.053	9484.4
553.417	9378.64
553.78	9555.81
554.143	9511.74
554.507	9544.06
554.87	9579.31
555.234	9706.76
555.597	9677.84
555.96	9712.64
556.323	9764.84
556.686	9784.5
557.05	9891.62
557.413	9843.26
557.776	9803.94
558.139	9917.38
558.502	9871.28
558.865	9936.14
559.228	9975.46
559.59	10027.66
559.953	10063.82
560.316	10123.7
560.679	10147.66
561.041	10215.9
561.404	10177.71
561.767	10322.57
562.129	10258.61
562.492	10404.37
562.854	10412.51
563.217	10362.57
563.579	10419.74
563.941	10558.04
564.304	10539.74
564.666	10570.7
565.028	10547.19
565.39	10676.68
565.753	10791.71
566.115	10742.44
566.477	10744.25
566.839	10804.59
567.201	10894.98
567.563	10833.29
567.925	10951.03
568.287	10899.73
568.648	11035.54
569.01	11034.64
569.372	11107.41
569.734	11092.26
570.095	11145.82
570.457	11198.7
570.819	11328.64
571.18	11287.51
571.542	11317.34
571.903	11358.02
572.265	11475.98
572.626	11463.78
572.987	11509.88
573.349	11583.1
573.71	11666.71
574.071	11673.04
574.432	11823.32
574.794	11881.17
575.155	11906.93
575.516	11925.24
575.877	11974.5
576.238	12092.24
576.599	12219.69
576.96	12196.87
577.32	12305.57
577.681	12343.53
578.042	12410.65
578.403	12536.75
578.763	12591.89
579.124	12708.72
579.485	12855.61
579.845	12986.45
580.206	13076.39
580.566	13120.23
580.927	13272.09
581.287	13372.88
581.648	13533.33
582.008	13639.09
582.368	13799.31
582.728	13955.24
583.089	14056.93
583.449	14239.07
583.809	14390.48
584.169	14638.84
584.529	14625.51
584.889	14932.62
585.249	15085.38
585.609	15220.52
585.969	15472.26
586.329	15649.66
586.688	15865.25
587.048	16165.35
587.408	16354.27
587.768	16594.95
588.127	16815.28
588.487	16947.7
588.846	17392.21
589.206	17520.57
589.565	17773.67
589.925	18124.85
590.284	18289.14
590.643	18686.42
591.003	18947.65
591.362	19238.94
591.721	19442.78
592.08	19790.57
592.44	20131.12
592.799	20400.27
593.158	20708.74
593.517	21036.18
593.876	21279.12
594.235	21519.79
594.593	21885.88
594.952	22203.16
595.311	22538.29
595.67	22849.92
596.029	23255.11
596.387	23586.4
596.746	23992.26
597.104	24157.91
597.463	24535.3
597.822	24913.37
598.18	25147.26
598.538	25303.64
598.897	25928.71
599.255	26035.37
599.613	26657.73
599.972	26748.35
600.33	27130.26
600.688	27278.73
601.046	27723.01
601.404	28076.9
601.762	28300.63
602.12	28861.06
602.478	29079.14
602.836	29389.41
603.194	29694.04
603.552	29937.87
603.91	30205.21
604.268	30629.83
604.625	30715.93
604.983	31165.18
605.341	31374.9
605.698	31930.59
606.056	32087.42
606.413	32317.47
606.771	32705.93
607.128	32981.86
607.485	32948.87
607.843	33356.76
608.2	33691.22
608.557	34140.7
608.914	34150.42
609.272	34712.66
609.629	34957.4
609.986	35210.5
610.343	35319.65
610.7	35836.47
611.057	35760.09
611.414	36065.17
611.771	36365.72
612.127	36623.12
612.484	36883.9
612.841	37308.98
613.198	37131.58
613.554	37420.84
613.911	37796.42
614.267	37964.1
614.624	38063.99
614.98	38297.43
615.337	38626.91
615.693	38713.69
616.05	38926.34
616.406	39337.85
616.762	39142.15
617.118	39425.53
617.475	39647.9
617.831	39870.04
618.187	40056.48
618.543	40270.25
618.899	40394.55
619.255	40565.61
619.611	40718.6
619.967	40869.79
620.323	41118.37
620.678	41078.37
621.034	41166.95
621.39	41275.43
621.746	41388.64
622.101	41904.56
622.457	41723.78
622.812	41848.74
623.168	42022.3
623.523	42100.94
623.879	42391.55
624.234	42179.81
624.589	42464.55
624.945	42652.34
625.3	42625.45
625.655	42768.49
626.01	42879
626.365	42875.38
626.72	42923.52
627.075	43064.98
627.43	43138.88
627.785	43002.16
628.14	43318.76
628.495	43271.76
628.85	43365.99
629.205	43343.39
629.559	43576.16
629.914	43583.61
630.269	43549.26
630.623	43520.34
630.978	43523.28
631.332	43752.87
631.687	43747.23
632.041	43676.94
632.396	43822.48
632.75	43540.68
633.104	43832.65
633.459	43615.48
633.813	43691.41
634.167	43758.98
634.521	43845.75
634.875	43914.68
635.229	43899.09
635.583	43691.63
635.937	43895.24
636.291	43800.56
636.645	43869.71
636.999	43831.52
637.352	43916.49
637.706	43670.17
638.06	43950.38
638.413	43866.32
638.767	43775.93
639.121	43875.81
639.474	43640.56
639.828	43795.59
640.181	43752.2
640.534	43848.01
640.888	43725.76
641.241	43494.12
641.594	43634.01
641.947	43796.49
642.301	43744.74
642.654	43721.46
643.007	43701.12
643.36	43753.1
643.713	43735.02
644.066	43958.75
644.419	43594.01
644.771	43312.89
645.124	42950.18
645.477	42951.99
645.83	42742.96
646.182	42597.88
646.535	42521.49
646.888	42643.53
647.24	42497.31
647.593	42820.47
647.945	42600.36
648.298	42438.79
648.65	42443.08
649.002	42440.59
649.355	42536.18
649.707	42545.22
650.059	42629.74
650.411	43076.28
650.763	43080.12
651.115	43513.33
651.467	43330.06
651.819	43354.02
652.171	43270.4
652.523	43253.23
652.875	43237.18
653.227	43093.01
653.578	43420.91
653.93	43381.36
654.282	43166.68
654.633	43043.52
654.985	43219.1
655.337	43102.95
655.688	43311.3
656.039	43412.09
656.391	42900.69
656.742	43097.07
657.094	43060.01
657.445	43322.83
657.796	43081.71
658.147	43036.74
658.498	43066.34
658.849	43108.6
659.2	43013.46
659.551	42912.9
659.902	43020.69
660.253	42999.67
660.604	42952.44
660.955	42913.58
661.306	43086.9
661.656	42938.21
662.007	43038.09
662.358	43067.47
662.708	43005.1
663.059	43048.94
663.409	42660.47
663.76	43033.57
664.11	42886.91
664.461	42994.7
664.811	42942.27
665.161	42932.78
665.511	42996.06
665.862	42816.85
666.212	42904.08
666.562	42983.63
666.912	42868.38
667.262	42825.89
667.612	42748.16
667.962	42923.97
668.312	42863.86
668.662	43052.55
669.011	42919.68
669.361	42797.42
669.711	42858.44
670.06	42842.39
670.41	42711.32
670.76	42636.75
671.109	42762.17
671.459	42669.74
671.808	42707.48
672.157	42858.89
672.507	42515.62
672.856	42545.22
673.205	42534.6
673.554	42800.58
673.904	42571.89
674.253	42713.35
674.602	42670.19
674.951	42015.75
675.3	41847.16
675.649	42453.25
675.998	42506.13
676.346	42505.45
676.695	42640.14
677.044	42308.62
677.393	42427.71
677.741	42489.41
678.09	42388.84
678.438	42203.54
678.787	42326.92
679.135	42387.71
679.484	42086.93
679.832	42337.54
680.181	41949.76
680.529	42227.72
680.877	42164.22
681.225	41996.09
681.573	42179.36
681.922	41922.87
682.27	41860.04
682.618	41813.94
682.966	41707.73
683.314	41766.26
683.661	41738.24
684.009	41481.75
684.357	41351.13
684.705	41473.84
685.053	41391.58
685.4	41313.62
685.748	41131.47
686.095	41162.43
686.443	41110.68
686.79	41122.89
687.138	41211.7
687.485	41180.29
687.832	40952.27
688.18	41109.78
688.527	40894.19
688.874	40792.95
689.221	40752.5
689.568	40573.98
689.915	40563.13
690.262	40566.52
690.609	40457.37
690.956	40272.29
691.303	40368.56
691.65	39992.75
691.997	40032.75
692.344	39868.46
692.69	39799.98
693.037	39834.11
693.383	39450.62
693.73	39592.31
694.077	39427.79
694.423	39486.09
694.769	39178.31
695.116	39206.78
695.462	39154.58
695.808	39033
696.155	39071.64
696.501	38789.84
696.847	38741.48
697.193	38494.71
697.539	38776.28
697.885	38355.5
698.231	38305.11
698.577	38371.77
698.923	38286.13
699.269	38130.65
699.614	38006.81
699.96	37809.08
700.306	37799.13
700.651	37710.55
700.997	37613.38
701.342	37551.91
701.688	37684.56
702.033	37325.02
702.379	37342.87
702.724	37209.09
703.069	37399.6
703.415	36942.66
703.76	36965.48
704.105	37062.66
704.45	36862.43
704.795	36631.71
705.14	36655.89
705.485	36650.46
705.83	36486.17
706.175	36401.43
706.52	36352.84
706.865	36245.05
707.209	36178.38
707.554	36034.66
707.899	36149.91
708.243	35991.72
708.588	35890.26
708.932	35702.24
709.277	35663.6
709.621	35562.13
709.966	35419.08
710.31	35398.07
710.654	35098.87
710.998	35335.02
711.342	35294.57
711.687	35188.13
712.031	34909.72
712.375	34969.38
712.719	35011.18
713.063	34978.64
713.407	34997.17
713.75	34654.58
714.094	34766.44
714.438	34597.41
714.782	34614.13
715.125	34546.11
715.469	34596.51
715.812	34491.42
716.156	34246.68
716.499	34117.42
716.843	34298.43
717.186	34013.7
717.53	34155.39
717.873	34121.04
718.216	34046.24
718.559	33914.72
718.902	33678.79
719.246	33787.49
719.589	33729.86
719.932	33481.05
720.275	33571
720.617	33634.72
720.96	33439.93
721.303	33478.57
721.646	33440.38
721.989	33201.29
722.331	33455.74
722.674	33012.82
723.016	33309.99
723.359	33142.98
723.701	33197.22
724.044	32948.41
724.386	32853.05
724.729	32987.51
725.071	32839.49
725.413	32790.9
725.755	32828.64
726.097	32713.17
726.439	32553.62
726.782	32473.62
727.124	32655.09
727.465	32468.2
727.807	32486.5
728.149	32363.34
728.491	32264.14
728.833	32359.28
729.175	32197.25
729.516	32289
729.858	32169.9
730.199	32265.95
730.541	32144.14
730.882	32061.21
731.224	32110.47
731.565	31831.61
731.906	31905.05
732.248	31827.54
732.589	31782.34
732.93	31659.18
733.271	31666.41
733.612	31689.01
733.953	31713.19
734.294	31480.66
734.635	31458.51
734.976	31561.33
735.317	31317.5
735.658	31500.54
735.999	31326.99
736.339	31252.41
736.68	31430.94
737.021	31147.78
737.361	31035.7
737.702	31299.19
738.042	31187.33
738.383	31029.59
738.723	31115.69
739.063	31001.57
739.404	31096.94
739.744	30853.55
740.084	30751.41
740.424	30905.98
740.764	30853.33
741.104	30843.84
741.444	30601.13
741.784	30525.88
742.124	30585.99
742.464	30628.93
742.804	30559.78
743.143	30454.47
743.483	30463.28
743.823	30344.19
744.162	30379.89
744.502	30376.96
744.841	30223.29
745.181	30348.93
745.52	30237.3
745.86	30249.05
746.199	30181.03
746.538	30080.69
746.877	30255.15
747.216	30087.47
747.556	30066.91
747.895	29953.01
748.234	29897.87
748.573	29880.25
748.911	29867.14
749.25	29810.64
749.589	29615.39
749.928	29736.07
750.267	29820.36
750.605	29675.28
750.944	29570.65
751.283	29412.69
751.621	29534.27
751.96	29448.39
752.298	29379.47
752.636	29395.74
752.975	29243.2
753.313	29055.18
753.651	29219.02
753.989	29125.46
754.327	28943.32
754.666	28831.91
755.004	29044.11
755.342	28845.24
755.679	28873.72
756.017	28726.15
756.355	28788.07
756.693	28634.4
757.031	28735.19
757.368	28537.23
757.706	28454.29
758.044	28388.31
758.381	28514.18
758.719	28294.52
759.056	28218.14
759.394	28151.03
