Data from hue_100_FLMS001491_00075.txt Node
Date: Tue Feb 07 17:03:38 GMT 2017
User: dcchb
Spectrometer: FLMS00149
Trigger mode: 0
Integration Time (sec): 2.000000E-2
Scans to average: 10
Electric dark correction enabled: true
Nonlinearity correction enabled: false
Boxcar width: 0
XAxis mode: Wavelengths
Number of Pixels in Spectrum: 2048
>>>>>Begin Spectral Data<<<<<
341.393	-19.12
341.776	-19.12
342.16	-19.12
342.543	-61.16
342.927	-62.96
343.31	-67.94
343.693	-57.31
344.077	-71.33
344.46	-36.3
344.843	-41.27
345.226	-36.3
345.61	-20.93
345.993	-40.59
346.376	-20.03
346.759	7.77
347.142	28.11
347.525	32.17
347.908	48.22
348.291	64.72
348.674	94.09
349.057	116.92
349.44	118.05
349.823	157.82
350.206	156.46
350.588	187.42
350.971	198.5
351.354	217.25
351.737	237.14
352.119	258.84
352.502	260.19
352.884	277.14
353.267	283.69
353.65	293.64
354.032	316.01
354.414	280.98
354.797	303.81
355.179	311.26
355.562	323.24
355.944	347.42
356.326	346.52
356.709	337.7
357.091	349
357.473	359.85
357.855	358.04
358.238	342.22
358.62	342
359.002	327.99
359.384	332.28
359.766	344.26
360.148	340.41
360.53	330.25
360.912	343.13
361.294	326.63
361.676	328.21
362.057	337.25
362.439	321.88
362.821	356.69
363.203	334.77
363.584	329.79
363.966	327.53
364.348	332.96
364.729	317.82
365.111	321.88
365.493	326.18
365.874	313.97
366.256	321.43
366.637	319.62
367.019	339.74
367.4	330.7
367.781	311.49
368.163	319.62
368.544	312.17
368.925	333.86
369.306	341.09
369.688	329.34
370.069	324.37
370.45	305.16
370.831	332.96
371.212	340.87
371.593	303.58
371.974	312.62
372.355	313.97
372.736	319.17
373.117	331.15
373.498	312.62
373.879	309.23
374.26	310.81
374.641	315.1
375.021	323.47
375.402	343.58
375.783	327.53
376.163	342.22
376.544	340.19
376.925	347.65
377.305	339.74
377.686	354.2
378.066	331.38
378.447	330.02
378.827	336.57
379.208	334.09
379.588	327.08
379.968	339.74
380.349	313.75
380.729	335.22
381.109	351.04
381.489	348.55
381.87	354.43
382.25	341.77
382.63	356.69
383.01	356.46
383.39	360.08
383.77	327.53
384.15	348.78
384.53	391.26
384.91	367.76
385.29	348.32
385.67	356.01
386.049	349.91
386.429	349
386.809	373.18
387.189	383.8
387.568	377.02
387.948	336.12
388.328	360.3
388.707	359.85
389.087	381.09
389.466	400.07
389.846	391.49
390.225	361.88
390.605	391.26
390.984	378.83
391.363	383.58
391.743	387.19
392.122	393.97
392.501	373.86
392.881	375.22
393.26	413.63
393.639	377.48
394.018	398.72
394.397	382.22
394.776	398.04
395.155	387.87
395.534	409.57
395.913	423.12
396.292	399.62
396.671	385.61
397.05	404.59
397.429	406.63
397.808	395.1
398.186	407.31
398.565	424.71
398.944	421.54
399.323	435.33
399.701	424.93
400.08	429
400.458	412.96
400.837	424.71
401.215	431.94
401.594	428.77
401.972	426.29
402.351	427.19
402.729	448.21
403.107	428.77
403.486	435.33
403.864	410.7
404.242	438.72
404.62	454.31
404.999	436.68
405.377	446.63
405.755	451.82
406.133	461.09
406.511	436.23
406.889	454.76
407.267	482.11
407.645	476.91
408.023	487.98
408.401	474.42
408.779	481.65
409.156	475.78
409.534	490.24
409.912	507.19
410.29	508.32
410.667	505.61
411.045	497.7
411.422	514.65
411.8	515.78
412.178	517.59
412.555	499.05
412.933	523.91
413.31	511.03
413.687	553.52
414.065	530.92
414.442	561.88
414.819	532.5
415.197	544.03
415.574	547.64
415.951	527.08
416.328	564.82
416.705	567.75
417.082	555.78
417.46	549.67
417.837	562.78
418.214	563.46
418.591	571.37
418.967	588.09
419.344	577.7
419.721	572.27
420.098	601.42
420.475	598.04
420.852	606.4
421.228	616.11
421.605	599.62
421.982	620.41
422.358	600.97
422.735	597.36
423.111	607.75
423.488	622.44
423.864	620.86
424.241	649.56
424.617	671.25
424.994	659.73
425.37	634.87
425.746	640.29
426.123	649.56
426.499	685.72
426.875	667.64
427.251	647.3
427.627	680.52
428.003	690.69
428.379	704.92
428.756	692.5
429.132	727.52
429.507	708.99
429.883	712.61
430.259	709.22
430.635	745.6
431.011	709.67
431.387	733.17
431.763	768.65
432.138	750.8
432.514	746.05
432.89	779.27
433.265	785.15
433.641	776.79
434.016	797.58
434.392	825.6
434.767	824.24
435.143	802.1
435.518	820.4
435.894	817.92
436.269	827.18
436.644	857.69
437.02	849.1
437.395	862.21
437.77	890.91
438.145	878.48
438.52	879.38
438.895	877.8
439.271	906.05
439.646	902.66
440.021	921.64
440.395	924.81
440.77	896.11
441.145	920.06
441.52	929.78
441.895	927.52
442.27	959.38
442.645	932.72
443.019	966.84
443.394	960.06
443.769	977.91
444.143	970
444.518	997.8
444.892	1009.1
445.267	999.38
445.641	1001.41
446.016	1011.81
446.39	1010.23
446.764	1037.8
447.139	1004.8
447.513	1023.79
447.887	1019.94
448.262	1016.1
448.636	1048.87
449.01	1041.64
449.384	1067.4
449.758	1048.64
450.132	1059.27
450.506	1080.73
450.88	1104.91
451.254	1097.01
451.628	1129.77
452.002	1145.82
452.376	1170.68
452.75	1136.55
453.123	1152.14
453.497	1182.88
453.871	1193.27
454.244	1198.25
454.618	1200.96
454.992	1229.2
455.365	1219.26
455.739	1251.13
456.112	1257.23
456.486	1285.47
456.859	1251.8
457.232	1284.57
457.606	1315.98
457.979	1322.76
458.352	1348.75
458.725	1337.68
459.099	1386.04
459.472	1432.59
459.845	1425.81
460.218	1429.43
460.591	1421.97
460.964	1434.62
461.337	1483.89
461.71	1527.73
462.083	1557.33
462.456	1539.93
462.829	1545.81
463.201	1576.77
463.574	1588.52
463.947	1635.3
464.32	1671.45
464.692	1633.26
465.065	1671.23
465.438	1689.76
465.81	1731.34
466.183	1755.97
466.555	1767.72
466.928	1782.18
467.3	1805.24
467.672	1849.3
468.045	1918.23
468.417	1906.02
468.789	1924.78
469.161	1998.9
469.534	2020.14
469.906	2014.5
470.278	2085.23
470.65	2070.99
471.022	2150.54
471.394	2206.58
471.766	2203.19
472.138	2286.58
472.51	2317.09
472.882	2355.28
473.253	2381.72
473.625	2445.44
473.997	2494.03
474.369	2582.84
474.74	2619.9
475.112	2656.51
475.484	2709.17
475.855	2764.53
476.227	2820.8
476.598	2937.86
476.97	3006.11
477.341	3035.26
477.713	3140.12
478.084	3218.31
478.455	3287.68
478.827	3389.15
479.198	3492.87
479.569	3503.95
479.94	3627.33
480.311	3679.54
480.682	3847.44
481.053	3937.83
481.424	4037.27
481.795	4141.9
482.166	4208.79
482.537	4303.7
482.908	4465.05
483.279	4526.29
483.65	4693.97
484.021	4843.35
484.391	4938.03
484.762	5014.19
485.133	5183.45
485.503	5277.91
485.874	5435.65
486.244	5531.92
486.615	5720.84
486.985	5808.75
487.356	5986.14
487.726	6040.38
488.097	6326.25
488.467	6335.74
488.837	6578.44
489.207	6714.03
489.578	6880.13
489.948	7035.15
490.318	7185.66
490.688	7257.97
491.058	7482.83
491.428	7604.63
491.798	7756.04
492.168	8032.87
492.538	8107.89
492.908	8261.79
493.278	8424.04
493.648	8533.19
494.017	8681.66
494.387	8845.05
494.757	9005.95
495.126	9154.87
495.496	9186.74
495.866	9404.58
496.235	9587.63
496.605	9729.77
496.974	9802.99
497.344	9926.15
497.713	10091.34
498.082	10211.57
498.452	10361.62
498.821	10426.48
499.19	10571.33
499.559	10733.81
499.928	10831.44
500.298	10953.47
500.667	11181.49
501.036	11166.8
501.405	11355.04
501.774	11319.56
502.143	11493.12
502.512	11602.27
502.88	11783.73
503.249	11713.68
503.618	11872.77
503.987	11978.07
504.356	12018.98
504.724	12194.79
505.093	12284.73
505.462	12373.54
505.83	12496.03
506.199	12576.93
506.567	12750.71
506.936	12774.21
507.304	12940.76
507.672	13016.47
508.041	12990.48
508.409	13223.92
508.777	13340.52
509.145	13449.67
509.514	13403.8
509.882	13445.83
510.25	13459.62
510.618	13640.4
510.986	13679.27
511.354	13787.74
511.722	13880.17
512.09	14002.88
512.458	13992.26
512.826	14177.57
513.193	14184.34
513.561	14234.51
513.929	14262.99
514.297	14380.05
514.664	14430.21
515.032	14570.32
515.4	14556.54
515.767	14629.76
516.135	14729.87
516.502	14544.11
516.869	14811.45
517.237	14908.17
517.604	14782.52
517.972	14993.59
518.339	15058.22
518.706	14973.02
519.073	15105
519.44	15127.82
519.808	15205.33
520.175	15257.54
520.542	15361.71
520.909	15361.04
521.276	15387.93
521.643	15440.58
522.009	15527.36
522.376	15613.23
522.743	15653.91
523.11	15744.3
523.477	15900.91
523.843	15887.8
524.21	15929.61
524.577	16036.95
524.943	16094.58
525.31	16168.47
525.676	16190.17
526.043	16151.07
526.409	16257.74
526.776	16323.5
527.142	16384.51
527.508	16408.24
527.874	16418.18
528.241	16494.79
528.607	16460.44
528.973	16501.12
529.339	16481.23
529.705	16537.73
530.071	16663.15
530.437	16731.17
530.803	16658.18
531.169	16686.2
531.535	16594.68
531.901	16624.51
532.267	16618.4
532.632	16716.48
532.998	16683.26
533.364	16749.25
533.73	16651.4
534.095	16743.15
534.461	16815.69
534.826	16763.49
535.192	16783.6
535.557	16836.7
535.923	16767.33
536.288	16689.36
536.653	16775.01
537.019	16695.92
537.384	16774.33
537.749	16710.15
538.114	16710.83
538.479	16678.97
538.845	16703.6
539.21	16697.5
539.575	16659.53
539.94	16634
540.305	16671.28
540.67	16530.95
541.034	16602.13
541.399	16565.3
541.764	16526.2
542.129	16556.71
542.494	16528.46
542.858	16525.3
543.223	16411.18
543.587	16553.55
543.952	16399.43
544.316	16379.09
544.681	16321.69
545.045	16322.82
545.41	16404.17
545.774	16313.55
546.138	16245.53
546.503	16256.83
546.867	16305.42
547.231	16285.08
547.595	16281.24
547.959	16199.88
548.324	16193.11
548.688	16135.48
549.052	16082.6
549.416	16078.08
549.779	16087.12
550.143	16024.75
550.507	16064.52
550.871	16051.19
551.235	15955.37
551.599	15989.49
551.962	16077.18
552.326	16005.99
552.689	16034.01
553.053	15864.3
553.417	15898.65
553.78	16015.03
554.143	15851.87
554.507	15921.93
554.87	15841.02
555.234	15971.87
555.597	15861.36
555.96	15834.02
556.323	15850.74
556.686	15827.69
557.05	15940.23
557.413	15902.27
557.776	15822.49
558.139	15954.47
558.502	15793.12
558.865	15926.22
559.228	15937.07
559.59	15966.67
559.953	15908.14
560.316	16048.93
560.679	15975.03
561.041	16017.74
561.404	16037.4
561.767	16101.81
562.129	15991.3
562.492	16145.42
562.854	16018.65
563.217	15981.36
563.579	16109.94
563.941	16023.39
564.304	16024.07
564.666	16176.61
565.028	16248.7
565.39	16151.98
565.753	16173.9
566.115	16300.45
566.477	16284.18
566.839	16272.88
567.201	16331.18
567.563	16253.67
567.925	16372.99
568.287	16335.25
568.648	16418.41
569.01	16480.78
569.372	16508.35
569.734	16423.38
570.095	16478.52
570.457	16450.73
570.819	16553.77
571.18	16443.49
571.542	16575.69
571.903	16581.57
572.265	16637.61
572.626	16638.07
572.987	16507
573.349	16613.89
573.71	16745.86
574.071	16715.8
574.432	16718.06
574.794	16835.35
575.155	16757.16
575.516	16631.74
575.877	16817.5
576.238	16763.49
576.599	16826.08
576.96	16752.41
577.32	16722.81
577.681	16825.41
578.042	16925.29
578.403	16855.46
578.763	16841.9
579.124	16808.46
579.485	16858.62
579.845	16857.72
580.206	16871.28
580.566	16832.64
580.927	16950.15
581.287	16890.26
581.648	16840.55
582.008	16871.51
582.368	16843.71
582.728	16876.03
583.089	16876.25
583.449	16753.54
583.809	16841.9
584.169	16951.96
584.529	16844.39
584.889	16965.97
585.249	16766.65
585.609	16831.96
585.969	16868.57
586.329	16790.83
586.688	16864.5
587.048	16841.45
587.408	16656.37
587.768	16796.03
588.127	16729.14
588.487	16631.74
588.846	16772.3
589.206	16669.48
589.565	16742.92
589.925	16692.08
590.284	16716.48
590.643	16723.49
591.003	16728.91
591.362	16791.28
591.721	16697.72
592.08	16658.86
592.44	16746.31
592.799	16695.46
593.158	16551.06
593.517	16590.61
593.876	16678.74
594.235	16649.36
594.593	16664.96
594.952	16567.33
595.311	16552.64
595.67	16617.73
596.029	16691.4
596.387	16668.8
596.746	16653.88
597.104	16618.4
597.463	16677.16
597.822	16567.11
598.18	16573.21
598.538	16469.26
598.897	16678.29
599.255	16530.95
599.613	16650.49
599.972	16608.46
600.33	16629.03
600.688	16643.71
601.046	16661.57
601.404	16687.33
601.762	16626.09
602.12	16717.16
602.478	16685.07
602.836	16680.1
603.194	16549.71
603.552	16558.97
603.91	16459.54
604.268	16642.81
604.625	16557.39
604.983	16704.96
605.341	16532.31
605.698	16692.53
606.056	16707.89
606.413	16692.08
606.771	16740.89
607.128	16652.08
607.485	16578.18
607.843	16604.17
608.2	16761.68
608.557	16747.67
608.914	16735.69
609.272	16800.09
609.629	16723.26
609.986	16809.13
610.343	16808.23
610.7	16855.91
611.057	16787.67
611.414	16832.18
611.771	16842.13
612.127	16865.18
612.484	16836.03
612.841	16987.21
613.198	16906.98
613.554	16866.99
613.911	16941.79
614.267	16912.86
614.624	16862.47
614.98	16939.07
615.337	17083.93
615.693	17062.01
616.05	17050.26
616.406	17169.8
616.762	17031.05
617.118	16995.34
617.475	17016.59
617.831	17097.26
618.187	17048.68
618.543	17117.6
618.899	17063.36
619.255	17158.5
619.611	17161.89
619.967	17230.14
620.323	17143.81
620.678	17202.8
621.034	17123.48
621.39	17050.26
621.746	17059.75
622.101	17331.61
622.457	17055.46
622.812	17216.81
623.168	17226.98
623.523	17214.77
623.879	17242.57
624.234	17093.42
624.589	17220.2
624.945	17217.49
625.3	17198.73
625.655	17224.72
626.01	17186.53
626.365	17099.07
626.72	17045.51
627.075	17012.52
627.43	17177.49
627.785	17064.95
628.14	17152.85
628.495	17158.73
628.85	17124.61
629.205	17079.86
629.559	17104.04
629.914	17003.71
630.269	17005.06
630.623	17047.09
630.978	17018.17
631.332	17037.6
631.687	17082.12
632.041	17000.09
632.396	17025.17
632.75	16996.93
633.104	17000.77
633.459	16919.41
633.813	16982.46
634.167	16927.32
634.521	16850.04
634.875	16905.4
635.229	16934.1
635.583	16782.02
635.937	16667.44
636.291	16751.51
636.645	16744.96
636.999	16709.93
637.352	16669.93
637.706	16641.23
638.06	16664.28
638.413	16679.42
638.767	16507.67
639.121	16664.96
639.474	16535.92
639.828	16493.21
640.181	16569.37
640.534	16542.25
640.888	16568.46
641.241	16474.68
641.594	16555.58
641.947	16495.7
642.301	16518.29
642.654	16497.05
643.007	16564.17
643.36	16444.62
643.713	16427.9
644.066	16423.16
644.419	16397.39
644.771	16294.35
645.124	16112.88
645.477	16201.47
645.83	16050.74
646.182	16052.09
646.535	15981.81
646.888	15855.26
647.24	15865.66
647.593	15863.62
647.945	15824.53
648.298	15723.06
648.65	15811.42
649.002	15751.31
649.355	15836.28
649.707	15885.32
650.059	15954.24
650.411	16141.81
650.763	16146.78
651.115	16293.89
651.467	16294.8
651.819	16165.54
652.171	16241.24
652.523	16111.07
652.875	16141.36
653.227	16153.11
653.578	16230.62
653.93	16183.39
654.282	16123.95
654.633	16108.81
654.985	16165.76
655.337	16168.47
655.688	16115.37
656.039	16165.31
656.391	16047.35
656.742	16197.17
657.094	16156.27
657.445	16187
657.796	16147.91
658.147	16134.35
658.498	16173.44
658.849	16243.05
659.2	16218.64
659.551	16169.38
659.902	16182.94
660.253	16177.06
660.604	16214.57
660.955	16157.85
661.306	16290.96
661.656	16093.67
662.007	16192.88
662.358	16172.99
662.708	16212.54
663.059	16178.87
663.409	16091.64
663.76	16157.85
664.11	16245.99
664.461	16182.71
664.811	16293.89
665.161	16277.17
665.511	16133.45
665.862	16204.18
666.212	16284.85
666.562	16211.86
666.912	16121.92
667.262	16174.57
667.612	16228.36
667.962	16198.53
668.312	16182.26
668.662	16283.72
669.011	16325.53
669.361	16192.88
669.711	16193.78
670.06	16132.54
670.41	16094.12
670.76	16078.31
671.109	16194.46
671.459	16130.28
671.808	16142.26
672.157	16228.13
672.507	16086.44
672.856	16056.61
673.205	16095.03
673.554	16068.14
673.904	15998.31
674.253	16128.7
674.602	16014.13
674.951	15820.69
675.3	15693.46
675.649	15918.99
675.998	15901.59
676.346	15925.32
676.695	15929.61
677.044	15861.14
677.393	15963.05
677.741	16000.57
678.09	15899.55
678.438	15882.83
678.787	15913.79
679.135	15921.93
679.484	15802.38
679.832	15824.98
680.181	15734.81
680.529	15723.74
680.877	15686.68
681.225	15725.1
681.573	15833.79
681.922	15590.86
682.27	15529.85
682.618	15532.78
682.966	15423.86
683.314	15558.77
683.661	15528.72
684.009	15326.69
684.357	15413.24
684.705	15322.39
685.053	15291.21
685.4	15370.08
685.748	15296.86
686.095	15324.2
686.443	15163.08
686.79	15163.75
687.138	15166.69
687.485	15172.34
687.832	15130.53
688.18	15054.15
688.527	15060.03
688.874	15107.71
689.221	15017.77
689.568	14977.77
689.915	14873.82
690.262	14893.7
690.609	14821.16
690.956	14713.82
691.303	14731.45
691.65	14704.78
691.997	14808.28
692.344	14570.32
692.69	14560.38
693.037	14554.05
693.383	14451.91
693.73	14418.69
694.077	14449.87
694.423	14376.88
694.769	14270.22
695.116	14210.11
695.462	14187.51
695.808	14155.64
696.155	14138.7
696.501	14023.9
696.847	14041.07
697.193	13970.79
697.539	13960.62
697.885	13779.38
698.231	13883.79
698.577	13792.72
698.923	13696.45
699.269	13679.5
699.614	13598.37
699.96	13556.56
700.306	13533.51
700.651	13433.63
700.997	13447.87
701.342	13337.36
701.688	13449.45
702.033	13292.39
702.379	13289
702.724	13236.57
703.069	13236.35
703.415	13087.88
703.76	13071.83
704.105	13094.88
704.45	13040.42
704.795	12883.14
705.14	12872.06
705.485	12951.61
705.83	12845.17
706.175	12869.58
706.52	12774.66
706.865	12771.27
707.209	12750.94
707.554	12678.4
707.899	12689.47
708.243	12638.62
708.588	12604.27
708.932	12387.56
709.277	12513.65
709.621	12375.35
709.966	12436.82
710.31	12425.52
710.654	12310.27
710.998	12286.77
711.342	12304.17
711.687	12171.52
712.031	12193.66
712.375	12118.41
712.719	12209.48
713.063	12131.52
713.407	12138.97
713.75	12063.27
714.094	12132.87
714.438	11984.63
714.782	11992.76
715.125	11922.03
715.469	11947.34
715.812	11962.48
716.156	11843.84
716.499	11906.66
716.843	11937.17
717.186	11788.93
717.53	11864.18
717.873	11851.07
718.216	11753.9
718.559	11735.82
718.902	11685.88
719.246	11687.01
719.589	11728.14
719.932	11668.03
720.275	11593.9
720.617	11628.93
720.96	11621.25
721.303	11602.72
721.646	11586.22
721.989	11588.25
722.331	11565.88
722.674	11557.07
723.016	11576.5
723.359	11478.65
723.701	11533.79
724.044	11366.57
724.386	11396.85
724.729	11491.53
725.071	11438.88
725.413	11441.82
725.755	11421.03
726.097	11345.78
726.439	11312.56
726.782	11313.69
727.124	11435.72
727.465	11313.46
727.807	11376.51
728.149	11314.82
728.491	11277.3
728.833	11251.54
729.175	11256.06
729.516	11249.05
729.858	11251.99
730.199	11323.85
730.541	11250.41
730.882	11219.22
731.224	11295.38
731.565	11259.22
731.906	11207.47
732.248	11289.51
732.589	11194.82
732.93	11148.04
733.271	11175.84
733.612	11214.71
733.953	11158.66
734.294	11207.7
734.635	11207.02
734.976	11206.57
735.317	11204.76
735.658	11175.16
735.999	11172.22
736.339	11228.04
736.68	11266.23
737.021	11231.65
737.361	11158.66
737.702	11195.72
738.042	11193.91
738.383	11216.74
738.723	11210.19
739.063	11259.22
739.404	11240.92
739.744	11280.24
740.084	11243.4
740.424	11292.67
740.764	11205.44
741.104	11339
741.444	11273.23
741.784	11303.06
742.124	11309.17
742.464	11323.63
742.804	11416.06
743.143	11399.79
743.483	11471.42
743.823	11355.04
744.162	11387.58
744.502	11414.7
744.841	11426.9
745.181	11536.5
745.52	11520.91
745.86	11545.77
746.199	11603.85
746.538	11623.51
746.877	11709.83
747.216	11696.05
747.556	11759.32
747.895	11831.86
748.234	11808.36
748.573	11885.65
748.911	11941.01
749.25	11958.19
749.589	12035.47
749.928	12188.46
750.267	12297.61
750.605	12300.1
750.944	12398.85
751.283	12453.54
751.621	12625.74
751.96	12618.74
752.298	12696.25
752.636	12804.04
752.975	12918.16
753.313	12957.48
753.651	13172.62
753.989	13164.48
754.327	13270.7
754.666	13428.88
755.004	13561.99
755.342	13695.54
755.679	13796.56
