Data from hue_300_FLMS001491_00058.txt Node
Date: Tue Feb 07 15:50:55 GMT 2017
User: dcchb
Spectrometer: FLMS00149
Trigger mode: 0
Integration Time (sec): 2.000000E-2
Scans to average: 10
Electric dark correction enabled: true
Nonlinearity correction enabled: false
Boxcar width: 0
XAxis mode: Wavelengths
Number of Pixels in Spectrum: 2048
>>>>>Begin Spectral Data<<<<<
341.393	-6.07
341.776	-6.07
342.16	-6.07
342.543	-58.73
342.927	-58.28
343.31	-73.19
343.693	-63.47
344.077	-75.68
344.46	-51.5
344.843	-50.37
345.226	-36.13
345.61	-46.07
345.993	-30.93
346.376	0.48
346.759	5.45
347.142	34.15
347.525	65.79
347.908	62.17
348.291	55.62
348.674	80.03
349.057	123.64
349.44	127.93
349.823	153.92
350.206	160.7
350.588	185.11
350.971	200.47
351.354	222.17
351.737	228.27
352.119	242.06
352.502	244.77
352.884	270.3
353.267	268.5
353.65	269.63
354.032	282.51
354.414	282.51
354.797	337.19
355.179	326.35
355.562	317.31
355.944	325.67
356.326	323.86
356.709	309.4
357.091	332.9
357.473	343.52
357.855	320.47
358.238	327.03
358.62	326.8
359.002	334.71
359.384	336.74
359.766	345.78
360.148	329.74
360.53	338.1
360.912	306.46
361.294	337.65
361.676	326.57
362.057	330.87
362.439	326.8
362.821	334.03
363.203	326.12
363.584	340.36
363.966	314.6
364.348	315.73
364.729	328.83
365.111	307.14
365.493	335.39
365.874	326.57
366.256	328.38
366.637	321.83
367.019	311.88
367.4	318.44
367.781	310.75
368.163	308.72
368.544	316.4
368.925	304.65
369.306	319.12
369.688	317.53
370.069	327.93
370.45	298.33
370.831	312.34
371.212	327.48
371.593	327.48
371.974	315.05
372.355	296.97
372.736	303.3
373.117	308.95
373.498	315.73
373.879	322.05
374.26	300.59
374.641	316.86
375.021	300.59
375.402	307.14
375.783	324.99
376.163	346.91
376.544	316.86
376.925	307.59
377.305	321.6
377.686	337.19
378.066	332.9
378.447	332.9
378.827	324.54
379.208	341.49
379.588	339.45
379.968	327.48
380.349	345.78
380.729	322.96
381.109	334.71
381.489	322.96
381.87	319.34
382.25	342.39
382.63	335.16
383.01	343.75
383.39	316.18
383.77	325.22
384.15	328.16
384.53	344.65
384.91	315.27
385.29	336.52
385.67	333.58
386.049	338.55
386.429	360.24
386.809	363.86
387.189	355.73
387.568	336.29
387.948	361.83
388.328	350.98
388.707	372.22
389.087	347.36
389.466	380.13
389.846	346.01
390.225	344.88
390.605	364.31
390.984	370.64
391.363	356.63
391.743	371.09
392.122	380.58
392.501	375.39
392.881	365.22
393.26	368.38
393.639	374.48
394.018	359.11
394.397	391.2
394.776	379.91
395.155	366.12
395.534	389.62
395.913	395.05
396.292	387.59
396.671	374.48
397.05	385.33
397.429	392.33
397.808	389.4
398.186	390.98
398.565	391.66
398.944	396.4
399.323	384.88
399.701	396.85
400.08	394.59
400.458	414.93
400.837	409.28
401.215	398.66
401.594	419.45
401.972	425.33
402.351	394.82
402.729	427.81
403.107	427.14
403.486	430.53
403.864	435.05
404.242	418.77
404.62	427.81
404.999	430.07
405.377	444.08
405.755	449.06
406.133	461.03
406.511	460.81
406.889	446.8
407.267	468.49
407.645	487.93
408.023	474.37
408.401	477.76
408.779	472.11
409.156	476.63
409.534	489.05
409.912	490.86
410.29	517.3
410.667	523.63
411.045	522.73
411.422	514.82
411.8	525.21
412.178	544.19
412.555	565.21
412.933	542.39
413.31	552.33
413.687	564.53
414.065	597.07
414.442	584.65
414.819	599.33
415.197	594.81
415.574	610.41
415.951	640.46
416.328	621.93
416.705	623.97
417.082	645.89
417.46	668.94
417.837	685.66
418.214	666.45
418.591	680.69
418.967	675.04
419.344	679.56
419.721	698.54
420.098	693.57
420.475	695.38
420.852	707.13
421.228	711.87
421.605	733.12
421.982	750.97
422.358	759.78
422.735	766.34
423.111	778.31
423.488	800.91
423.864	786.45
424.241	777.86
424.617	798.65
424.994	794.13
425.37	807.69
425.746	828.48
426.123	841.36
426.499	840.46
426.875	875.03
427.251	882.04
427.627	888.59
428.003	891.53
428.379	900.34
428.756	929.72
429.132	907.58
429.507	924.52
429.883	934.92
430.259	961.36
430.635	962.26
431.011	985.54
431.387	988.25
431.763	1014.69
432.138	1000
432.514	1012.88
432.89	1030.06
433.265	1048.59
433.641	1032.77
434.016	1040.45
434.392	1061.92
434.767	1061.02
435.143	1068.47
435.518	1092.88
435.894	1145.08
436.269	1153.67
436.644	1140.56
437.02	1149.83
437.395	1154.12
437.77	1187.12
438.145	1179.88
438.52	1167.91
438.895	1204.74
439.271	1182.37
439.646	1213.33
440.021	1248.36
440.395	1220.34
440.77	1227.79
441.145	1247
441.52	1264.4
441.895	1235.7
442.27	1260.11
442.645	1262.59
443.019	1278.86
443.394	1303.5
443.769	1268.47
444.143	1285.87
444.518	1321.35
444.892	1286.1
445.267	1322.71
445.641	1325.64
446.016	1326.55
446.39	1333.1
446.764	1341.69
447.139	1336.94
447.513	1345.76
447.887	1358.41
448.262	1362.03
448.636	1367.22
449.01	1352.31
449.384	1362.7
449.758	1376.94
450.132	1396.38
450.506	1379.43
450.88	1407.9
451.254	1356.6
451.628	1423.72
452.002	1434.57
452.376	1426.21
452.75	1414.45
453.123	1404.29
453.497	1440.67
453.871	1461.01
454.244	1481.35
454.618	1499.65
454.992	1492.64
455.365	1485.19
455.739	1532.64
456.112	1524.51
456.486	1537.39
456.859	1507.11
457.232	1569.48
457.606	1558.18
457.979	1551.85
458.352	1592.08
458.725	1587.78
459.099	1606.09
459.472	1631.17
459.845	1656.48
460.218	1638.86
460.591	1650.61
460.964	1666.2
461.337	1694.9
461.71	1674.56
462.083	1704.39
462.456	1705.97
462.829	1716.82
463.201	1715.69
463.574	1724.5
463.947	1745.07
464.32	1783.71
464.692	1765.18
465.065	1782.35
465.438	1820.32
465.81	1845.4
466.183	1818.74
466.555	1865.29
466.928	1883.59
467.3	1850.38
467.672	1867.32
468.045	1924.5
468.417	1957.26
468.789	1901
469.161	1950.49
469.534	1939.41
469.906	1975.57
470.278	1977.15
470.65	1975.8
471.022	2053.08
471.394	2057.83
471.766	2088.11
472.138	2096.47
472.51	2148.45
472.882	2129.69
473.253	2122.23
473.625	2122.91
473.997	2184.6
474.369	2204.04
474.74	2200.42
475.112	2226.18
475.484	2269.35
475.855	2257.37
476.227	2312.51
476.598	2328.78
476.97	2330.59
477.341	2386.63
477.713	2389.8
478.084	2421.21
478.455	2423.02
478.827	2460.75
479.198	2508.66
479.569	2519.51
479.94	2538.94
480.311	2552.73
480.682	2599.51
481.053	2624.14
481.424	2655.33
481.795	2636.57
482.166	2714.31
482.537	2743.91
482.908	2799.73
483.279	2773.29
483.65	2796.56
484.021	2844.7
484.391	2856
484.762	2884.7
485.133	2871.37
485.503	2917.01
485.874	2947.3
486.244	2950.23
486.615	2992.72
486.985	2997.46
487.356	3079.04
487.726	3118.36
488.097	3124.01
488.467	3155.88
488.837	3161.53
489.207	3260.73
489.578	3199.04
489.948	3221.19
490.318	3294.63
490.688	3254.63
491.058	3295.31
491.428	3325.82
491.798	3366.04
492.168	3425.7
492.538	3407.4
492.908	3465.7
493.278	3480.61
493.648	3449.43
494.017	3485.36
494.387	3514.29
494.757	3501.63
495.126	3586.83
495.496	3587.28
495.866	3597.67
496.235	3634.73
496.605	3659.14
496.974	3647.16
497.344	3691.46
497.713	3700.95
498.082	3691.68
498.452	3676.32
498.821	3712.47
499.19	3759.03
499.559	3747.73
499.928	3754.28
500.298	3795.86
500.667	3758.8
501.036	3791.34
501.405	3802.64
501.774	3800.61
502.143	3866.37
502.512	3848.74
502.88	3875.86
503.249	3853.71
503.618	3891.68
503.987	3923.77
504.356	3948.4
504.724	3960.6
505.093	3928.29
505.462	3968.06
505.83	3963.09
506.199	3987.04
506.567	3970.32
506.936	3980.26
507.304	4061.84
507.672	4022.07
508.041	4045.8
508.409	4087.38
508.777	4080.6
509.145	4158.56
509.514	4141.84
509.882	4144.78
510.25	4107.94
510.618	4180.71
510.986	4135.74
511.354	4182.52
511.722	4189.3
512.09	4214.15
512.458	4188.17
512.826	4207.6
513.193	4234.04
513.561	4235.62
513.929	4243.31
514.297	4274.27
514.664	4254.38
515.032	4304.55
515.4	4335.51
515.767	4336.86
516.135	4332.57
516.502	4320.14
516.869	4398.78
517.237	4355.85
517.604	4366.69
517.972	4395.39
518.339	4375.05
518.706	4411.66
519.073	4374.6
519.44	4373.25
519.808	4420.7
520.175	4402.4
520.542	4482.4
520.909	4424.09
521.276	4467.26
521.643	4438.78
522.009	4473.58
522.376	4536.86
522.743	4546.58
523.11	4554.71
523.477	4625.22
523.843	4554.26
524.21	4637.19
524.577	4708.61
524.943	4657.08
525.31	4703.86
525.676	4729.4
526.043	4696.63
526.409	4759.9
526.776	4784.31
527.142	4736.17
527.508	4828.83
527.874	4846
528.241	4847.13
528.607	4852.1
528.973	4911.76
529.339	4883.74
529.705	4970.97
530.071	4967.36
530.437	5015.94
530.803	4978.2
531.169	5033.79
531.535	4990.86
531.901	5077.41
532.267	5084.87
532.632	5120.12
532.998	5093
533.364	5142.27
533.73	5172.32
534.095	5203.28
534.461	5183.62
534.826	5226.78
535.192	5262.04
535.557	5305.43
535.923	5262.94
536.288	5294.13
536.653	5293.67
537.019	5304.52
537.384	5360.34
537.749	5377.06
538.114	5384.75
538.479	5379.1
538.845	5461.13
539.21	5435.82
539.575	5462.71
539.94	5509.26
540.305	5563.27
540.67	5516.72
541.034	5526.44
541.399	5549.71
541.764	5598.75
542.129	5603.04
542.494	5680.1
542.858	5634.91
543.223	5668.58
543.587	5681.91
543.952	5747.22
544.316	5760.33
544.681	5770.27
545.045	5793.77
545.41	5790.38
545.774	5835.13
546.138	5868.57
546.503	5902.02
546.867	5895.92
547.231	5943.83
547.595	5939.31
547.959	5972.07
548.324	6010.72
548.688	5979.31
549.052	6017.5
549.416	6032.41
549.779	6086.42
550.143	6118.06
550.507	6119.42
550.871	6152.18
551.235	6123.71
551.599	6184.72
551.962	6180.88
552.326	6221.79
552.689	6181.79
553.053	6220.88
553.417	6236.93
553.78	6292.52
554.143	6298.85
554.507	6344.27
554.87	6370.71
555.234	6384.27
555.597	6332.29
555.96	6413.64
556.323	6430.14
556.686	6424.04
557.05	6452.97
557.413	6484.83
557.776	6483.02
558.139	6469.24
558.502	6535.22
558.865	6513.53
559.228	6557.82
559.59	6600.31
559.953	6550.14
560.316	6643.92
560.679	6636.01
561.041	6616.58
561.404	6686.63
561.767	6704.94
562.129	6629.23
562.492	6723.69
562.854	6719.4
563.217	6697.71
563.579	6800.53
563.941	6816.12
564.304	6822.67
564.666	6866.29
565.028	6859.96
565.39	6923.69
565.753	6961.88
566.115	6961.2
566.477	6954.2
566.839	6940.18
567.201	7064.7
567.563	7023.57
567.925	7057.47
568.287	7083.01
568.648	7087.3
569.01	7110.35
569.372	7230.8
569.734	7227.18
570.095	7252.27
570.457	7295.2
570.819	7271.7
571.18	7295.43
571.542	7385.6
571.903	7394.64
572.265	7466.72
572.626	7495.2
572.987	7515.31
573.349	7584.69
573.71	7645.25
574.071	7710.11
574.432	7751.01
574.794	7847.51
575.155	7829.88
575.516	7870.33
575.877	7955.3
576.238	8005.92
576.599	8054.96
576.96	8125.01
577.32	8188.29
577.681	8285.23
578.042	8365.46
578.403	8495.85
578.763	8574.94
579.124	8689.29
579.485	8776.29
579.845	8861.26
580.206	8989.62
580.566	9044.08
580.927	9214.7
581.287	9361.14
581.648	9443.4
582.008	9582.6
582.368	9720.45
582.728	9918.19
583.089	10071.18
583.449	10251.96
583.809	10451.05
584.169	10604.72
584.529	10795.9
584.889	11044.94
585.249	11132.62
585.609	11307.08
585.969	11617.35
586.329	11794.29
586.688	12008.3
587.048	12225.47
587.408	12429.76
587.768	12797.21
588.127	12956.75
588.487	13133.92
588.846	13514.25
589.206	13708.59
589.565	13973.22
589.925	14253.66
590.284	14476.94
590.643	14718.96
591.003	15075.34
591.362	15363.69
591.721	15691.82
592.08	15930.68
592.44	16241.18
592.799	16668.52
593.158	16866.93
593.517	17127.71
593.876	17486.8
594.235	17767.24
594.593	18021.02
594.952	18357.29
595.311	18634.57
595.67	19013.09
596.029	19444.04
596.387	19661.43
596.746	20016.9
597.104	20246.5
597.463	20512.48
597.822	20978.01
598.18	21080.6
598.538	21468.84
598.897	21810.53
599.255	21954.71
599.613	22635.14
599.972	22621.13
600.33	23013.43
600.688	23257.72
601.046	23490.26
601.404	23977.48
601.762	24208.88
602.12	24613.17
602.478	24816.32
602.836	24991.91
603.194	25265.35
603.552	25520.71
603.91	25731.56
604.268	26151.66
604.625	26232.56
604.983	26567.69
605.341	26790.74
605.698	27199.54
606.056	27396.14
606.413	27531.06
606.771	27859.18
607.128	28175.11
607.485	28280.64
607.843	28573.97
608.2	29006.5
608.557	29262.31
608.914	29348.86
609.272	29568.97
609.629	29896.87
609.986	30082.63
610.343	30153.36
610.7	30653.01
611.057	30689.39
611.414	30836.05
611.771	31062.04
612.127	31377.28
612.484	31591.51
612.841	31783.15
613.198	31876.7
613.554	31921.22
613.911	32296.13
614.267	32442.57
614.624	32550.81
614.98	32756.91
615.337	33050.68
615.693	33059.72
616.05	33274.86
616.406	33683.66
616.762	33522.08
617.118	33746.26
617.475	33938.57
617.831	34106.02
618.187	34290.2
618.543	34417.2
618.899	34661.04
619.255	34736.52
619.611	34722.28
619.967	35081.59
620.323	35157.3
620.678	35117.52
621.034	35134.47
621.39	35438.42
621.746	35421.92
622.101	35867.56
622.457	35708.47
622.812	35775.13
623.168	35942.81
623.523	36061.9
623.879	36210.6
624.234	36042.7
624.589	36381.9
624.945	36465.06
625.3	36457.83
625.655	36663.02
626.01	36719.74
626.365	36727.2
626.72	36790.02
627.075	36902.79
627.43	36890.36
627.785	36941.2
628.14	36985.27
628.495	37195.66
628.85	37157.92
629.205	37208.09
629.559	37318.14
629.914	37246.96
630.269	37271.14
630.623	37273.85
630.978	37277.01
631.332	37415.99
631.687	37606.95
632.041	37476.11
632.396	37599.04
632.75	37276.79
633.104	37560.85
633.459	37445.82
633.813	37424.81
634.167	37528.08
634.521	37495.99
634.875	37614.41
635.229	37581.86
635.583	37409.89
635.937	37625.48
636.291	37502.54
636.645	37572.15
636.999	37467.07
637.352	37641.52
637.706	37465.71
638.06	37527.86
638.413	37660.96
638.767	37596.1
639.121	37594.29
639.474	37410.57
639.828	37469.1
640.181	37425.03
640.534	37450.57
640.888	37541.41
641.241	37255.09
641.594	37310.91
641.947	37564.92
642.301	37377.58
642.654	37411.7
643.007	37489.21
643.36	37413.06
643.713	37378.71
644.066	37582.99
644.419	37246.05
644.771	37235.89
645.124	36733.75
645.477	36863.01
645.83	36571.95
646.182	36434.78
646.535	36443.14
646.888	36595.22
647.24	36348.9
647.593	36620.08
647.945	36525.85
648.298	36367.21
648.65	36272.52
649.002	36114.33
649.355	36313.65
649.707	36409.47
650.059	36575.34
650.411	36860.53
650.763	36959.73
651.115	37355.2
651.467	37198.15
651.819	37209.67
652.171	37103.91
652.523	37076.57
652.875	37086.51
653.227	36880.19
653.578	37161.54
653.93	37090.35
654.282	36987.98
654.633	36893.75
654.985	36924.26
655.337	36957.47
655.688	37056.91
656.039	37121.09
656.391	36719.51
656.742	36826.86
657.094	36910.47
657.445	36938.72
657.796	36972.62
658.147	36923.8
658.498	36762.23
658.849	36944.82
659.2	36857.36
659.551	36789.57
659.902	36972.62
660.253	36978.94
660.604	36919.06
660.955	36729.91
661.306	36856.91
661.656	36882
662.007	36766.29
662.358	36911.37
662.708	36820.98
663.059	36829.57
663.409	36639.97
663.76	36803.35
664.11	36771.72
664.461	36886.74
664.811	36885.84
665.161	36703.24
665.511	36765.84
665.862	36664.15
666.212	36742.34
666.562	36761.32
666.912	36733.53
667.262	36730.14
667.612	36818.27
667.962	36776.01
668.312	36683.13
668.662	36823.92
669.011	36636.35
669.361	36491.72
669.711	36646.07
670.06	36655.11
670.41	36588.9
670.76	36598.84
671.109	36666.41
671.459	36732.62
671.808	36552.74
672.157	36558.16
672.507	36358.17
672.856	36458.96
673.205	36512.74
673.554	36594.55
673.904	36416.92
674.253	36647.65
674.602	36497.83
674.951	35982.81
675.3	35878.41
675.649	36427.09
675.998	36393.2
676.346	36467.09
676.695	36636.35
677.044	36293.54
677.393	36366.76
677.741	36446.75
678.09	36298.73
678.438	36240.21
678.787	36300.99
679.135	36329.02
679.484	35961.12
679.832	36145.29
680.181	35880.89
680.529	36067.55
680.877	35918.41
681.225	35980.55
681.573	36122.02
681.922	35924.73
682.27	35839.54
682.618	35746.66
682.966	35592.31
683.314	35835.7
683.661	35649.26
684.009	35487.68
684.357	35451.75
684.705	35453.33
685.053	35485.2
685.4	35543.27
685.748	35207.01
686.095	35391.19
686.443	35156.84
686.79	35088.37
687.138	35207.01
687.485	35225.99
687.832	34972.89
688.18	34998.2
688.527	34784.2
688.874	34787.14
689.221	34671.88
689.568	34509.4
689.915	34540.14
690.262	34564.77
690.609	34490.19
690.956	34477.09
691.303	34360.48
691.65	34156.64
691.997	34303.53
692.344	34091.56
692.69	34014.73
693.037	33976.31
693.383	33869.42
693.73	33985.58
694.077	33671.46
694.423	33703.32
694.769	33571.8
695.116	33494.29
695.462	33460.62
695.808	33344.69
696.155	33368.42
696.501	33139.95
696.847	33123.23
697.193	32933.4
697.539	33165.94
697.885	32669
698.231	32798.94
698.577	32664.71
698.923	32577.25
699.269	32487.31
699.614	32286.18
699.96	32264.04
700.306	32352.62
700.651	32131.16
700.997	32120.99
701.342	32041.45
701.688	31937.04
702.033	31886.87
702.379	31960.09
702.724	31758.74
703.069	31753.32
703.415	31359.88
703.76	31453.89
704.105	31496.38
704.45	31331.18
704.795	31203.5
705.14	31198.98
705.485	31040.12
705.83	30915.15
706.175	31086.22
706.52	31098.87
706.865	30836.96
707.209	30916.96
707.554	30594.93
707.899	30703.85
708.243	30625.66
708.588	30568.49
708.932	30289.63
709.277	30353.81
709.621	30436.74
709.966	30117.2
710.31	30169.4
710.654	30039.69
710.998	30043.98
711.342	30085.79
711.687	29811
712.031	29795.18
712.375	29751.56
712.719	29804.44
713.063	29768.74
713.407	29824.33
713.75	29605.8
714.094	29597.89
714.438	29472.7
714.782	29488.29
715.125	29301.4
715.469	29328.3
715.812	29286.72
716.156	29043.11
716.499	29072.03
716.843	29133.95
717.186	28955.88
717.53	28969.44
717.873	29164.01
718.216	28894.86
718.559	28803.34
718.902	28594.53
719.246	28663.68
719.589	28670.69
719.932	28455.55
720.275	28481.77
720.617	28607.86
720.96	28491.48
721.303	28439.73
721.646	28360.86
721.989	28230.7
722.331	28456.23
722.674	28261.88
723.016	28277.02
723.359	28097.82
723.701	28258.04
724.044	28023.7
724.386	28028.67
724.729	28063.02
725.071	27825.29
725.413	27963.81
725.755	27889.46
726.097	27730.15
726.439	27619.64
726.782	27722.01
727.124	27898.28
727.465	27509.14
727.807	27637.04
728.149	27553.2
728.491	27543.03
728.833	27570.83
729.175	27474.33
729.516	27414.45
729.858	27358.18
730.199	27315.47
730.541	27289.93
730.882	27361.12
731.224	27300.78
731.565	27082.03
731.906	27164.06
732.248	27072.54
732.589	27030.28
732.93	26883.62
733.271	27052.88
733.612	26993.89
733.953	26966.32
734.294	26765.65
734.635	26849.94
734.976	26865.99
735.317	26660.12
735.658	26696.5
735.999	26818.76
736.339	26687.91
736.68	26765.2
737.021	26588.48
737.361	26573.11
737.702	26705.54
738.042	26585.32
738.383	26565.88
738.723	26566.79
739.063	26532.21
739.404	26378.54
739.744	26411.99
740.084	26218.32
740.424	26353.01
740.764	26411.31
741.104	26268.94
741.444	26156.63
741.784	26138.78
742.124	26174.03
742.464	26117.31
742.804	25927.71
743.143	26086.35
743.483	26083.18
743.823	26009.97
744.162	25806.81
744.502	25900.14
744.841	25785.11
745.181	25932.91
745.52	25882.29
745.86	25870.99
746.199	25778.33
746.538	25699.01
746.877	25784.44
747.216	25735.17
747.556	25631.67
747.895	25695.85
748.234	25526.81
748.573	25424.44
748.911	25553.48
749.25	25417.21
749.589	25427.61
749.928	25408.63
750.267	25537.44
750.605	25337.67
750.944	25322.07
751.283	25239.59
751.621	25352.36
751.96	25187.16
752.298	25113.27
752.636	25172.25
752.975	25044.12
753.313	24752.37
753.651	25140.16
753.989	24932.93
754.327	24908.53
754.666	24811.35
755.004	24901.07
755.342	24878.47
755.679	24826.95
756.017	24650.45
756.355	24868.98
756.693	24535.2
757.031	24618.14
757.368	24612.49
757.706	24618.14
758.044	24465.83
758.381	24464.24
758.719	24381.76
759.056	24370.23
759.394	24298.37
759.731	24155.55
