Data from hue_40_FLMS001491_85.txt Node
Date: Mon Feb 06 15:08:40 GMT 2017
User: dcchb
Spectrometer: FLMS00149
Trigger mode: 0
Integration Time (sec): 2.000000E-2
Scans to average: 10
Electric dark correction enabled: true
Nonlinearity correction enabled: false
Boxcar width: 0
XAxis mode: Wavelengths
Number of Pixels in Spectrum: 2048
>>>>>Begin Spectral Data<<<<<
341.393	-32.36
341.776	-32.36
342.16	-32.36
342.543	-68.29
342.927	-53.83
343.31	-56.76
343.693	-66.26
344.077	-67.84
344.46	-80.04
344.843	-52.7
345.226	-34.84
345.61	-34.39
345.993	-14.96
346.376	-24
346.759	21.43
347.142	14.87
347.525	16
347.908	65.72
348.291	94.42
348.674	99.16
349.057	120.18
349.44	123.34
349.823	140.52
350.206	177.35
350.588	159.95
350.971	217.35
351.354	221.42
351.737	210.35
352.119	244.02
352.502	243.34
352.884	243.57
353.267	283.57
353.65	273.62
354.032	300.29
354.414	318.59
354.797	312.49
355.179	310.01
355.562	301.19
355.944	318.14
356.326	329.67
356.709	332.38
357.091	349.55
357.473	338.48
357.855	357.69
358.238	338.03
358.62	336.67
359.002	337.8
359.384	354.52
359.766	362.89
360.148	340.74
360.53	341.42
360.912	352.94
361.294	351.59
361.676	327.18
362.057	332.38
362.439	314.07
362.821	298.71
363.203	315.2
363.584	324.02
363.966	309.1
364.348	319.95
364.729	330.34
365.111	328.31
365.493	335.77
365.874	319.95
366.256	329.21
366.637	312.27
367.019	319.27
367.4	321.53
367.781	309.55
368.163	323.79
368.544	307.75
368.925	302.55
369.306	300.74
369.688	320.63
370.069	328.08
370.45	316.79
370.831	303
371.212	309.78
371.593	292.61
371.974	315.66
372.355	313.85
372.736	310.46
373.117	288.54
373.498	314.53
373.879	323.79
374.26	332.83
374.641	303.45
375.021	316.56
375.402	340.74
375.783	321.08
376.163	346.39
376.544	317.92
376.925	325.82
377.305	321.76
377.686	302.1
378.066	311.81
378.447	328.99
378.827	327.18
379.208	333.73
379.588	339.38
379.968	317.69
380.349	340.06
380.729	334.19
381.109	340.29
381.489	337.35
381.87	328.99
382.25	327.18
382.63	338.25
383.01	357.91
383.39	367.18
383.77	343
384.15	338.71
384.53	345.03
384.91	342.55
385.29	334.41
385.67	342.55
386.049	361.76
386.429	321.98
386.809	339.61
387.189	349.33
387.568	333.51
387.948	351.81
388.328	355.43
388.707	374.41
389.087	352.49
389.466	361.3
389.846	359.95
390.225	346.16
390.605	364.92
390.984	350
391.363	343.23
391.743	379.61
392.122	375.54
392.501	365.6
392.881	364.47
393.26	382.55
393.639	373.73
394.018	360.63
394.397	369.67
394.776	364.24
395.155	365.15
395.534	380.51
395.913	372.83
396.292	380.74
396.671	389.55
397.05	381.87
397.429	410.79
397.808	383.45
398.186	392.04
398.565	386.61
398.944	383
399.323	392.04
399.701	398.14
400.08	394.52
400.458	403.56
400.837	402.21
401.215	401.75
401.594	402.21
401.972	379.83
402.351	391.81
402.729	406.73
403.107	399.27
403.486	403.79
403.864	425.03
404.242	401.53
404.62	409.89
404.999	407.4
405.377	410.12
405.755	405.37
406.133	425.26
406.511	419.38
406.889	432.49
407.267	443.11
407.645	440.4
408.023	427.97
408.401	446.5
408.779	437.01
409.156	440.85
409.534	444.01
409.912	461.19
410.29	434.3
410.667	461.19
411.045	439.95
411.422	463.45
411.8	461.87
412.178	465.48
412.555	485.14
412.933	486.27
413.31	485.59
413.687	487.4
414.065	467.52
414.442	489.44
414.819	494.86
415.197	479.72
415.574	503
415.951	507.06
416.328	510
416.705	520.62
417.082	500.74
417.46	510.68
417.837	512.94
418.214	496.67
418.591	502.09
418.967	507.29
419.344	531.7
419.721	511.13
420.098	522.43
420.475	515.65
420.852	538.02
421.228	528.08
421.605	552.26
421.982	543.45
422.358	536.89
422.735	567.17
423.111	551.81
423.488	566.5
423.864	557.01
424.241	559.26
424.617	561.07
424.994	570.11
425.37	572.37
425.746	568.98
426.123	575.08
426.499	571.47
426.875	600.85
427.251	581.64
427.627	592.48
428.003	591.35
428.379	618.7
428.756	593.84
429.132	615.99
429.507	616.89
429.883	641.07
430.259	629.32
430.635	650.79
431.011	655.53
431.387	662.99
431.763	643.56
432.138	649.43
432.514	651.69
432.89	655.53
433.265	672.26
433.641	693.95
434.016	692.37
434.392	695.76
434.767	701.18
435.143	687.4
435.518	720.84
435.894	738.02
436.269	712.03
436.644	706.61
437.02	704.8
437.395	724.01
437.77	710.22
438.145	740.28
438.52	733.05
438.895	775.76
439.271	769.88
439.646	757.9
440.021	780.28
440.395	752.93
440.77	741.41
441.145	785.47
441.52	821.63
441.895	809.43
442.27	801.29
442.645	802.87
443.019	800.16
443.394	787.06
443.769	810.33
444.143	793.61
444.518	829.31
444.892	823.89
445.267	826.6
445.641	848.75
446.016	846.26
446.39	834.29
446.764	839.48
447.139	855.75
447.513	869.54
447.887	871.57
448.262	885.13
448.636	870.9
449.01	874.06
449.384	884.45
449.758	887.39
450.132	923.32
450.506	902.76
450.88	872.25
451.254	887.17
451.628	922.87
452.002	944.57
452.376	928.75
452.75	945.02
453.123	942.98
453.497	971.46
453.871	983.21
454.244	970.33
454.618	999.48
454.992	973.49
455.365	1000.84
455.739	1005.35
456.112	1024.79
456.486	1032.02
456.859	1031.57
457.232	1052.13
457.606	1069.76
457.979	1044.9
458.352	1089.87
458.725	1094.62
459.099	1082.42
459.472	1117.89
459.845	1142.07
460.218	1134.17
460.591	1143.2
460.964	1148.18
461.337	1164.67
461.71	1194.5
462.083	1209.87
462.456	1213.49
462.829	1223.2
463.201	1252.35
463.574	1277.66
463.947	1286.93
464.32	1337.32
464.692	1304.1
465.065	1291.9
465.438	1302.52
465.81	1364.89
466.183	1359.92
466.555	1398.34
466.928	1420.26
467.3	1434.27
467.672	1446.93
468.045	1474.5
468.417	1482.4
468.789	1480.37
469.161	1510.88
469.534	1567.37
469.906	1593.59
470.278	1587.26
470.65	1599.69
471.022	1628.39
471.394	1659.8
471.766	1732.12
472.138	1741.61
472.51	1770.53
472.882	1783.87
473.253	1818.89
473.625	1871.32
473.997	1868.84
474.369	1904.09
474.74	1937.31
475.112	2010.3
475.484	2052.79
475.855	2082.16
476.227	2123.52
476.598	2176.17
476.97	2241.03
477.341	2269.28
477.713	2306.56
478.084	2338.43
478.455	2405.09
478.827	2478.99
479.198	2526.22
479.569	2567.57
479.94	2646.89
480.311	2687.34
480.682	2746.78
481.053	2849.15
481.424	2956.04
481.795	2986.77
482.166	3026.54
482.537	3113.1
482.908	3209.59
483.279	3296.82
483.65	3337.5
484.021	3437.16
484.391	3536.59
484.762	3634.89
485.133	3672.63
485.503	3784.72
485.874	3863.36
486.244	3928.89
486.615	4102
486.985	4134.09
487.356	4241.65
487.726	4331.14
488.097	4443.68
488.467	4525.49
488.837	4682.32
489.207	4746.5
489.578	4829.66
489.948	4965.93
490.318	4994.63
490.688	5097.22
491.058	5233.49
491.428	5365.47
491.798	5443.43
492.168	5617.44
492.538	5665.8
492.908	5787.15
493.278	5901.05
493.648	5911.44
494.017	6066.24
494.387	6196.18
494.757	6333.58
495.126	6426.68
495.496	6457.41
495.866	6609.28
496.235	6687.47
496.605	6771.08
496.974	6853.79
497.344	6942.83
497.713	7068.92
498.082	7098.53
498.452	7261.01
498.821	7350.5
499.19	7400.67
499.559	7484.96
499.928	7563.83
500.298	7635.92
500.667	7808.57
501.036	7808.57
501.405	7941.9
501.774	7981.67
502.143	8054.89
502.512	8179.4
502.88	8281.1
503.249	8304.37
503.618	8407.19
503.987	8512.5
504.356	8639.05
504.724	8607.41
505.093	8643.12
505.462	8823.91
505.83	8832.49
506.199	8942.55
506.567	9127.63
506.936	9116.33
507.304	9254.86
507.672	9328.98
508.041	9321.52
508.409	9471.8
508.777	9559.71
509.145	9592.93
509.514	9644.68
509.882	9783.88
510.25	9853.94
510.618	9973.03
510.986	9996.53
511.354	10016.19
511.722	10092.12
512.09	10337.54
512.458	10213.47
512.826	10310.42
513.193	10472.68
513.561	10488.5
513.929	10506.57
514.297	10727.36
514.664	10749.28
515.032	10774.14
515.4	10896.62
515.767	10973.68
516.135	10961.25
516.502	11027.69
516.869	11147.69
517.237	11195.6
517.604	11177.06
517.972	11346.33
518.339	11384.52
518.706	11403.95
519.073	11512.88
519.44	11538.41
519.808	11724.85
520.175	11764.17
520.542	11944.95
520.909	11902.24
521.276	11930.72
521.643	12076.93
522.009	12171.61
522.376	12297.49
522.743	12360.99
523.11	12452.29
523.477	12520.76
523.843	12650.47
524.21	12683.24
524.577	12799.4
524.943	12834.65
525.31	12891.37
525.676	13041.87
526.043	13131.82
526.409	13103.12
526.776	13235.99
527.142	13329.78
527.508	13390.79
527.874	13535.19
528.241	13517.12
528.607	13604.57
528.973	13744.68
529.339	13727.51
529.705	13888.63
530.071	13990.32
530.437	14053.37
530.803	14077.33
531.169	14275.06
531.535	14259.24
531.901	14333.59
532.267	14342.41
532.632	14528.84
532.998	14546.92
533.364	14579.01
533.73	14649.06
534.095	14784.2
534.461	14798.66
534.826	14859.68
535.192	14939
535.557	14990.75
535.923	15000.92
536.288	15150.75
536.653	15237.3
537.019	15162.04
537.384	15253.34
537.749	15380.34
538.114	15369.5
538.479	15439.33
538.845	15469.83
539.21	15436.61
539.575	15547.12
539.94	15643.16
540.305	15756.61
540.67	15726.1
541.034	15770.16
541.399	15932.65
541.764	15880.9
542.129	16032.76
542.494	16066.65
542.858	16111.4
543.223	16188.01
543.587	16288.57
543.952	16272.07
544.316	16442.01
544.681	16387.78
545.045	16512.97
545.41	16663.25
545.774	16605.17
546.138	16692.63
546.503	16699.18
546.867	16779.86
547.231	16950.92
547.595	16905.28
547.959	16994.31
548.324	17013.07
548.688	16967.42
549.052	17138.26
549.416	17135.78
549.779	17215.32
550.143	17257.58
550.507	17404.7
550.871	17365.6
551.235	17440.4
551.599	17611.47
551.962	17511.81
552.326	17627.74
552.689	17782.99
553.053	17700.06
553.417	17713.84
553.78	17931.46
554.143	17869.77
554.507	17979.6
554.87	18159.03
555.234	18243.55
555.597	18166.49
555.96	18225.92
556.323	18305.47
556.686	18371.45
557.05	18550.43
557.413	18553.59
557.776	18527.83
558.139	18729.18
558.502	18698.45
558.865	18668.85
559.228	18873.59
559.59	18961.27
559.953	19044.43
560.316	19147.48
560.679	19106.35
561.041	19172.33
561.404	19339.56
561.767	19456.17
562.129	19431.76
562.492	19610.06
562.854	19552.44
563.217	19630.4
563.579	19749.49
563.941	19812.54
564.304	19921.47
564.666	19926.67
565.028	20010.5
565.39	20040.79
565.753	20238.75
566.115	20218.64
566.477	20348.35
566.839	20403.26
567.201	20553.09
567.563	20572.98
567.925	20723.25
568.287	20738.17
568.648	20750.82
569.01	20806.42
569.372	20951.5
569.734	21040.08
570.095	21139.51
570.457	21246.86
570.819	21279.62
571.18	21304.71
571.542	21439.39
571.903	21499.96
572.265	21584.7
572.626	21770.01
572.987	21861.76
573.349	21788.54
573.71	21904.92
574.071	22050.9
574.432	22133.61
574.794	22258.13
575.155	22271.69
575.516	22244.57
575.877	22442.98
576.238	22513.26
576.599	22687.72
576.96	22745.8
577.32	22841.16
577.681	23012.46
578.042	23133.59
578.403	23240.02
578.763	23251.55
579.124	23437.08
579.485	23600.92
579.845	23884.53
580.206	23860.57
580.566	23934.7
580.927	24136.72
581.287	24285.19
581.648	24352.31
582.008	24600.89
582.368	24605.41
582.728	24797.05
583.089	24908.68
583.449	25062.8
583.809	25262.34
584.169	25566.74
584.529	25492.62
584.889	25943
585.249	26018.26
585.609	26098.71
585.969	26404.01
586.329	26467.06
586.688	26580.28
587.048	26735.53
587.408	26970.1
587.768	27185.23
588.127	27251.9
588.487	27497.54
588.846	27746.8
589.206	27648.5
589.565	27993.12
589.925	28253
590.284	28284.41
590.643	28552.65
591.003	28723.95
591.362	28921.01
591.721	29059.53
592.08	29185.86
592.44	29363.03
592.799	29689.8
593.158	29813.19
593.517	29960.98
593.876	30254.3
594.235	30383.57
594.593	30391.93
594.952	30744.01
595.311	30754.63
595.67	31045.02
596.029	31331.56
596.387	31421.73
596.746	31601.84
597.104	31671.89
597.463	31832.34
597.822	32166.12
598.18	32199.11
598.538	32252.89
598.897	32681.36
599.255	32403.63
599.613	33158.41
599.972	33070.05
600.33	33159.09
600.688	33206.32
601.046	33403.15
601.404	33718.62
601.762	33782.35
602.12	33935.11
602.478	34134.65
602.836	34268.89
603.194	34237.93
603.552	34372.16
603.91	34400.18
604.268	34781.64
604.625	34816.44
604.983	34861.19
605.341	34847.4
605.698	35165.59
606.056	35257.34
606.413	35421.4
606.771	35499.82
607.128	35721.05
607.485	35760.37
607.843	35810.32
608.2	36080.36
608.557	36387.02
608.914	36265.44
609.272	36526.68
609.629	36479.9
609.986	36771.19
610.343	36747.01
610.7	37107.23
611.057	36958.31
611.414	37114.91
611.771	37145.65
612.127	37410.27
612.484	37395.36
612.841	37622.25
613.198	37506.32
613.554	37693.43
613.911	37891.84
614.267	37932.29
614.624	37916.25
614.98	38087.77
615.337	38484.6
615.693	38142.91
616.05	38312.85
616.406	38672.39
616.762	38476.01
617.118	38498.38
617.475	38676.91
617.831	38766.17
618.187	38779.5
618.543	38942.44
618.899	39214.52
619.255	39131.81
619.611	39103.79
619.967	39289.09
620.323	39496.77
620.678	39391.92
621.034	39346.72
621.39	39255.87
621.746	39247.29
622.101	39741.29
622.457	39587.39
622.812	39748.52
623.168	39760.04
623.523	39769.31
623.879	39906.48
624.234	39711.46
624.589	39985.57
624.945	39944.22
625.3	40066.02
625.655	40019.02
626.01	40136.53
626.365	40073.48
626.72	40056.98
627.075	40093.37
627.43	40039.81
627.785	39930.89
628.14	40008.4
628.495	40094.72
628.85	40074.38
629.205	40060.6
629.559	40349.86
629.914	40139.24
630.269	40120.03
630.623	40172.69
630.978	40079.81
631.332	40332.46
631.687	40326.13
632.041	40156.19
632.396	40280.93
632.75	40081.16
633.104	40097.43
633.459	40065.57
633.813	39918
634.167	39986.7
634.521	40038.45
634.875	40035.52
635.229	40055.4
635.583	39912.81
635.937	39978.34
636.291	39852.02
636.645	40004.33
636.999	39813.15
637.352	39942.86
637.706	39666.26
638.06	39763.43
638.413	39871.23
638.767	39741.74
639.121	39733.83
639.474	39627.39
639.828	39674.17
640.181	39766.37
640.534	39679.14
640.888	39566.15
641.241	39538.81
641.594	39653.38
641.947	39652.93
642.301	39609.54
642.654	39591.46
643.007	39672.36
643.36	39585.58
643.713	39519.82
644.066	39688.18
644.419	39320.05
644.771	39082.32
645.124	38775.21
645.477	38754.87
645.83	38553.75
646.182	38347.42
646.535	38222
646.888	38300.42
647.24	37999.86
647.593	38329.35
647.945	38226.07
648.298	38116.47
648.65	38013.65
649.002	37966.87
649.355	38038.05
649.707	37981.11
650.059	38153.98
650.411	38551.03
650.763	38729.56
651.115	38838.94
651.467	38705.83
651.819	38819.5
652.171	38897.01
652.523	38696.12
652.875	38722.33
653.227	38511.94
653.578	38685.49
653.93	38622.22
654.282	38538.38
654.633	38508.78
654.985	38520.3
655.337	38416.57
655.688	38440.08
656.039	38595.78
656.391	38330.7
656.742	38484.37
657.094	38486.18
657.445	38558.27
657.796	38470.58
658.147	38400.53
658.498	38359.4
658.849	38601.43
659.2	38513.3
659.551	38344.49
659.902	38338.84
660.253	38550.81
660.604	38480.08
660.955	38207.99
661.306	38384.49
661.656	38262.91
662.007	38326.63
662.358	38376.12
662.708	38317.14
663.059	38183.36
663.409	37986.08
663.76	38427.65
664.11	38266.75
664.461	38307.42
664.811	38222.68
665.161	38205.51
665.511	37986.76
665.862	38214.55
666.212	38307.88
666.562	38183.81
666.912	38140.42
667.262	38150.14
667.612	38057.94
667.962	38172.29
668.312	38049.8
668.662	38321.66
669.011	38210.25
669.361	38064.95
669.711	38015.23
670.06	38044.61
670.41	38016.81
670.76	37952.18
671.109	38035.34
671.459	38076.24
671.808	37963.71
672.157	37942.24
672.507	37674.45
672.856	37798.74
673.205	37910.83
673.554	37949.92
673.904	37825.86
674.253	38076.02
674.602	37890.26
674.951	37405.3
675.3	37179.55
675.649	37723.26
675.998	37796.25
676.346	37635.58
676.695	37815.23
677.044	37542.93
677.393	37563.49
677.741	37664.5
678.09	37562.36
678.438	37461.57
678.787	37450.27
679.135	37506.77
679.484	37304.74
679.832	37520.1
680.181	37305.42
680.529	37299.54
680.877	37173.67
681.225	37212.99
681.573	37462.25
681.922	37007.35
682.27	36942.94
682.618	37130.73
682.966	36812.55
683.314	36969.38
683.661	36854.81
684.009	36594.93
684.357	36624.98
684.705	36650.29
685.053	36631.76
685.4	36528.26
685.748	36380.7
686.095	36386.8
686.443	36305.67
686.79	36232.45
687.138	36316.52
687.485	36212.34
687.832	36186.58
688.18	36229.51
688.527	36017.09
688.874	36079.91
689.221	35977.54
689.568	35712.24
689.915	35776.64
690.262	35693.03
690.609	35597.89
690.956	35546.14
691.303	35593.6
691.65	35305.24
691.997	35434.73
692.344	35228.41
692.69	35209.88
693.037	35227.28
693.383	34783.68
693.73	34920.85
694.077	34753.39
694.423	34739.16
694.769	34543.68
695.116	34727.63
695.462	34589.33
695.808	34445.15
696.155	34506.85
696.501	34285.84
696.847	34228.21
697.193	34056.01
697.539	34096.46
697.885	33768.56
698.231	33785.96
698.577	33749.35
698.923	33636.36
699.269	33463.03
699.614	33343.71
699.96	33416.71
700.306	33244.51
700.651	33225.07
700.997	33132.42
701.342	32978.07
701.688	32966.32
702.033	32960.9
702.379	32840.68
702.724	32732.88
703.069	32908.92
703.415	32487.92
703.76	32529.72
704.105	32555.94
704.45	32405.21
704.795	32160.92
705.14	32059
705.485	32249.73
705.83	31986.46
706.175	31982.17
706.52	31828.27
706.865	31731.55
707.209	31759.57
707.554	31667.15
707.899	31690.42
708.243	31432.35
708.588	31548.73
708.932	31287.72
709.277	31299.93
709.621	31232.13
709.966	31194.84
710.31	31196.88
710.654	30785.81
710.998	31002.98
711.342	30990.78
711.687	30859.03
712.031	30630.79
712.375	30617.68
712.719	30648.19
713.063	30563.9
713.407	30652.48
713.75	30522.32
714.094	30483.22
714.438	30368.2
714.782	30381.53
715.125	30235.09
715.469	30294.98
715.812	30026.06
716.156	29914.88
716.499	29988.55
716.843	29932.96
717.186	29722.57
717.53	29877.59
717.873	29899.96
718.216	29781.32
718.559	29732.51
718.902	29433.08
719.246	29546.07
719.589	29383.14
719.932	29369.13
720.275	29323.48
720.617	29332.29
720.96	29274.44
721.303	29158.06
721.646	29278.74
721.989	29056.14
722.331	29066.31
722.674	29055.24
723.016	29084.16
723.359	28918.97
723.701	28969.59
724.044	28727.56
724.386	28730.28
724.729	28808.69
725.071	28713.33
725.413	28673.33
725.755	28686.89
726.097	28509.26
726.439	28408.02
726.782	28402.83
727.124	28459.55
727.465	28313.79
727.807	28386.56
728.149	28274.47
728.491	28320.12
728.833	28248.93
729.175	28171.42
729.516	28126.45
729.858	28026.11
730.199	27963.97
730.541	28016.62
730.882	28060.91
731.224	28174.58
731.565	27895.04
731.906	27912.44
732.248	27858.43
732.589	27862.28
732.93	27640.13
733.271	27794.03
733.612	27733.92
733.953	27691.66
734.294	27571.66
734.635	27434.04
734.976	27516.52
735.317	27471.1
735.658	27379.58
735.999	27323.76
736.339	27247.15
736.68	27291.67
737.021	27148.17
737.361	27094.16
737.702	27261.39
738.042	27123.09
738.383	26992.02
738.723	27047.61
739.063	26961.73
739.404	26980.94
739.744	26919.02
740.084	26790.67
740.424	26762.19
740.764	26790.67
741.104	26845.13
741.444	26634.06
741.784	26586.15
742.124	26616.66
742.464	26671.8
742.804	26510.45
743.143	26606.72
743.483	26459.83
743.823	26454.4
744.162	26488.75
744.502	26488.3
744.841	26295.31
745.181	26448.3
745.52	26282.2
745.86	26366.95
746.199	26104.36
746.538	26197.01
746.877	26240.62
747.216	26213.96
747.556	26055.32
747.895	26118.37
748.234	25938.48
748.573	25973.51
748.911	26025.94
749.25	25890.8
749.589	25698.72
749.928	25851.93
750.267	25900.75
750.605	25761.77
750.944	25576.46
751.283	25516.35
751.621	25620.3
751.96	25461.21
752.298	25443.58
752.636	25454.66
752.975	25292.17
753.313	25175.34
753.651	25255.56
753.989	25246.3
754.327	25161.78
754.666	25024.38
755.004	25075.46
755.342	25129.24
755.679	24957.49
756.017	24900.32
756.355	25032.97
756.693	24813.32
757.031	24925.63
