Data from hue_110_FLMS001491_00041.txt Node
Date: Tue Feb 07 17:01:21 GMT 2017
User: dcchb
Spectrometer: FLMS00149
Trigger mode: 0
Integration Time (sec): 2.000000E-2
Scans to average: 10
Electric dark correction enabled: true
Nonlinearity correction enabled: false
Boxcar width: 0
XAxis mode: Wavelengths
Number of Pixels in Spectrum: 2048
>>>>>Begin Spectral Data<<<<<
341.393	3.05
341.776	3.05
342.16	3.05
342.543	-69.04
342.927	-57.51
343.31	-67.23
343.693	-79.21
344.077	-74.01
344.46	-51.64
344.843	-52.99
345.226	-40.34
345.61	-23.16
345.993	-35.14
346.376	-21.36
346.759	4.18
347.142	14.35
347.525	37.17
347.908	76.04
348.291	80.11
348.674	104.29
349.057	128.92
349.44	114.91
349.823	146.1
350.206	168.47
350.588	193.78
350.971	241.01
351.354	222.25
351.737	240.56
352.119	255.93
352.502	245.08
352.884	292.53
353.267	297.73
353.65	290.27
354.032	326.21
354.414	311.52
354.797	328.01
355.179	310.16
355.562	330.5
355.944	343.61
356.326	337.96
356.709	342.25
357.091	322.36
357.473	333.44
357.855	343.38
358.238	340.89
358.62	341.8
359.002	338.64
359.384	353.78
359.766	341.57
360.148	337.28
360.53	333.44
360.912	338.18
361.294	346.54
361.676	339.54
362.057	342.93
362.439	341.35
362.821	333.21
363.203	329.14
363.584	346.32
363.966	313.55
364.348	324.62
364.729	324.17
365.111	328.47
365.493	354.68
365.874	328.47
366.256	332.31
366.637	344.28
367.019	322.36
367.4	338.18
367.781	321.91
368.163	316.49
368.544	316.26
368.925	326.66
369.306	341.8
369.688	325.98
370.069	315.58
370.45	292.53
370.831	323.27
371.212	332.53
371.593	331.4
371.974	325.3
372.355	326.43
372.736	318.52
373.117	310.84
373.498	324.85
373.879	316.94
374.26	328.24
374.641	323.27
375.021	295.02
375.402	330.95
375.783	333.89
376.163	329.6
376.544	328.92
376.925	347.22
377.305	350.39
377.686	329.37
378.066	337.73
378.447	339.09
378.827	343.83
379.208	331.63
379.588	315.58
379.968	346.54
380.349	326.43
380.729	348.58
381.109	342.25
381.489	343.38
381.87	334.57
382.25	339.09
382.63	344.06
383.01	357.17
383.39	361.23
383.77	368.69
384.15	363.49
384.53	344.96
384.91	355.36
385.29	375.7
385.67	363.27
386.049	358.75
386.429	366.43
386.809	366.88
387.189	361.46
387.568	374.79
387.948	369.59
388.328	370.05
388.707	375.24
389.087	369.59
389.466	388.35
389.846	366.66
390.225	389.03
390.605	374.57
390.984	381.57
391.363	377.28
391.743	395.36
392.122	377.5
392.501	403.49
392.881	361.01
393.26	398.29
393.639	368.24
394.018	392.87
394.397	389.71
394.776	400.1
395.155	406.66
395.534	391.29
395.913	390.16
396.292	401.23
396.671	391.74
397.05	401.68
397.429	421.12
397.808	431.74
398.186	406.2
398.565	418.86
398.944	427.22
399.323	442.81
399.701	426.54
400.08	428.35
400.458	407.56
400.837	408.46
401.215	422.47
401.594	425.64
401.972	411.63
402.351	425.41
402.729	438.29
403.107	437.62
403.486	433.55
403.864	429.93
404.242	437.84
404.62	455.02
404.999	456.82
405.377	432.19
405.755	438.75
406.133	455.69
406.511	450.04
406.889	463.15
407.267	450.95
407.645	456.37
408.023	450.04
408.401	469.71
408.779	479.87
409.156	469.48
409.534	458.63
409.912	488.46
410.29	481.68
410.667	477.84
411.045	500.21
411.422	488.24
411.8	505.64
412.178	485.98
412.555	505.41
412.933	517.16
413.31	523.04
413.687	522.59
414.065	511.06
414.442	527.1
414.819	540.21
415.197	544.05
415.574	538.4
415.951	551.28
416.328	534.11
416.705	565.07
417.082	557.16
417.46	547.22
417.837	554.67
418.214	561.23
418.591	578.4
418.967	551.96
419.344	582.47
419.721	582.7
420.098	581.79
420.475	569.14
420.852	598.74
421.228	625.63
421.605	581.11
421.982	606.88
422.358	604.84
422.735	598.74
423.111	593.32
423.488	619.08
423.864	608.23
424.241	626.09
424.617	623.6
424.994	626.76
425.37	629.02
425.746	641.23
426.123	637.61
426.499	638.97
426.875	625.41
427.251	652.98
427.627	657.5
428.003	665.41
428.379	662.92
428.756	689.36
429.132	697.95
429.507	714.9
429.883	724.16
430.259	712.64
430.635	719.42
431.011	711.28
431.387	724.39
431.763	733.2
432.138	742.01
432.514	753.54
432.89	744.27
433.265	733.43
433.641	769.36
434.016	776.82
434.392	776.82
434.767	785.4
435.143	811.17
435.518	826.08
435.894	810.26
436.269	842.58
436.644	812.97
437.02	824.5
437.395	846.87
437.77	845.97
438.145	877.6
438.52	854.78
438.895	885.29
439.271	858.85
439.646	873.08
440.021	880.54
440.395	883.03
440.77	897.72
441.145	880.09
441.52	907.89
441.895	912.41
442.27	931.39
442.645	941.33
443.019	930.26
443.394	930.94
443.769	931.39
444.143	943.59
444.518	972.74
444.892	949.47
445.267	989.92
445.641	989.01
446.016	957.6
446.39	975
446.764	990.37
447.139	997.83
447.513	1017.49
447.887	1027.43
448.262	1014.32
448.636	1000.31
449.01	1008.45
449.384	1033.53
449.758	1066.07
450.132	1055.9
450.506	1059.97
450.88	1083.7
451.254	1065.4
451.628	1076.92
452.002	1098.16
452.376	1100.65
452.75	1108.33
453.123	1130.25
453.497	1144.04
453.871	1170.93
454.244	1196.69
454.618	1200.76
454.992	1205.28
455.365	1172.74
455.739	1221.1
456.112	1242.79
456.486	1229.46
456.859	1260.42
457.232	1310.59
457.606	1294.99
457.979	1300.87
458.352	1310.14
458.725	1323.47
459.099	1342.22
459.472	1367.99
459.845	1377.7
460.218	1431.26
460.591	1411.38
460.964	1432.84
461.337	1456.12
461.71	1470.58
462.083	1518.27
462.456	1507.19
462.829	1488.44
463.201	1559.17
463.574	1560.07
463.947	1588.09
464.32	1607.53
464.692	1632.16
465.065	1652.72
465.438	1664.93
465.81	1711.48
466.183	1723.46
466.555	1760.29
466.928	1765.72
467.3	1810.23
467.672	1804.59
468.045	1866.05
468.417	1880.06
468.789	1910.8
469.161	1957.8
469.534	1988.99
469.906	2032.38
470.278	2030.57
470.65	2081.64
471.022	2132.94
471.394	2188.98
471.766	2241.64
472.138	2274.4
472.51	2316.66
472.882	2375.64
473.253	2390.78
473.625	2440.05
473.997	2548.75
474.369	2549.65
474.74	2620.84
475.112	2685.92
475.484	2734.28
475.855	2809.76
476.227	2827.38
476.598	2939.24
476.97	3026.7
477.341	3086.36
477.713	3181.27
478.084	3269.41
478.455	3390.98
478.827	3430.76
479.198	3591.43
479.569	3586.01
479.94	3714.59
480.311	3804.98
480.682	3953.46
481.053	4046.11
481.424	4158.65
481.795	4237.06
482.166	4337.4
482.537	4474.57
482.908	4621.69
483.279	4719.99
483.65	4830.27
484.021	4998.63
484.391	5105.29
484.762	5195.91
485.133	5327.2
485.503	5481.32
485.874	5683.58
486.244	5814.88
486.615	5927.41
486.985	6077.92
487.356	6292.38
487.726	6380.06
488.097	6566.04
488.467	6670.22
488.837	6896.88
489.207	7075.18
489.578	7196.31
489.948	7373.93
490.318	7520.82
490.688	7630.87
491.058	7814.82
491.428	8101.59
491.798	8260.46
492.168	8373.45
492.538	8542.26
492.908	8704.29
493.278	8976.83
493.648	9007.56
494.017	9231.28
494.387	9359.19
494.757	9539.98
495.126	9621.55
495.496	9770.7
495.866	9991.26
496.235	10156
496.605	10228.32
496.974	10391.25
497.344	10513.73
497.713	10660.85
498.082	10878.92
498.452	11008.41
498.821	11143.77
499.19	11285.69
499.559	11330.66
499.928	11520.94
500.298	11624.89
500.667	11760.03
501.036	11860.82
501.405	12023.07
501.774	12049.97
502.143	12226.46
502.512	12296.06
502.88	12492.67
503.249	12576.96
503.618	12630.74
503.987	12746.44
504.356	12928.59
504.724	13004.06
505.093	13028.25
505.462	13167.22
505.83	13220.33
506.199	13369.93
506.567	13626.42
506.936	13536.48
507.304	13707.55
507.672	13783.48
508.041	13921.1
508.409	13987.99
508.777	13999.97
509.145	14200.64
509.514	14215.56
509.882	14341.43
510.25	14415.78
510.618	14447.42
510.986	14451.71
511.354	14661.87
511.722	14731.03
512.09	14830.01
512.458	14855.99
512.826	14949.55
513.193	15037.91
513.561	15048.98
513.929	15148.19
514.297	15232.93
514.664	15366.26
515.032	15375.98
515.4	15364
515.767	15497.11
516.135	15475.19
516.502	15370.1
516.869	15697.1
517.237	15712.69
517.604	15651.68
517.972	15782.75
518.339	15806.48
518.706	15820.04
519.073	15910.43
519.44	15987.94
519.808	16075.62
520.175	16000.37
520.542	16166.02
520.909	16143.87
521.276	16140.48
521.643	16358.78
522.009	16296.18
522.376	16428.16
522.743	16441.94
523.11	16621.82
523.477	16648.04
523.843	16737.75
524.21	16823.17
524.577	16790.63
524.943	16889.16
525.31	16942.94
525.676	16990.63
526.043	16965.54
526.409	17055.94
526.776	17186.1
527.142	17117.85
527.508	17189.27
527.874	17192.88
528.241	17214.8
528.607	17221.13
528.973	17347.23
529.339	17268.59
529.705	17440.11
530.071	17417.73
530.437	17389.49
530.803	17376.61
531.169	17486.21
531.535	17415.25
531.901	17368.7
532.267	17402.59
532.632	17478.98
532.998	17415.02
533.364	17467.45
533.73	17471.74
534.095	17500.44
534.461	17447.56
534.826	17531.4
535.192	17477.39
535.557	17562.82
535.923	17523.95
536.288	17528.24
536.653	17366.44
537.019	17387.23
537.384	17355.81
537.749	17378.19
538.114	17344.97
538.479	17262.03
538.845	17360.56
539.21	17190.62
539.575	17173.22
539.94	17248.47
540.305	17134.35
540.67	17133
541.034	17157.18
541.399	17082.6
541.764	17096.39
542.129	17020.46
542.494	16971.64
542.858	17034.02
543.223	16940.46
543.587	17072.43
543.952	16897.75
544.316	16860.23
544.681	16859.78
545.045	16810.52
545.41	16834.02
545.774	16847.81
546.138	16779.78
546.503	16693.01
546.867	16606.46
547.231	16774.81
547.595	16635.61
547.959	16568.94
548.324	16542.05
548.688	16521.49
549.052	16485.33
549.416	16495.5
549.779	16405.33
550.143	16422.73
550.507	16482.84
550.871	16441.94
551.235	16313.58
551.599	16413.92
551.962	16291.66
552.326	16255.5
552.689	16274.49
553.053	16121.5
553.417	16196.07
553.78	16309.74
554.143	16155.85
554.507	16083.53
554.87	16130.99
555.234	16199.69
555.597	16099.35
555.96	16107.49
556.323	16125.56
556.686	16076.07
557.05	16076.3
557.413	16065.45
557.776	16107.03
558.139	16056.64
558.502	16045.11
558.865	16006.25
559.228	16050.31
559.59	16076.98
559.953	15986.13
560.316	16146.58
560.679	16104.1
561.041	16229.29
561.404	16095.96
561.767	16195.62
562.129	16084.89
562.492	16135.51
562.854	16094.61
563.217	16172.57
563.579	16231.32
563.941	16130.54
564.304	16217.77
564.666	16272.68
565.028	16204.66
565.39	16250.31
565.753	16270.42
566.115	16318.33
566.477	16232.23
566.839	16301.83
567.201	16398.55
567.563	16344.54
567.925	16432.22
568.287	16351.1
568.648	16309.51
569.01	16424.77
569.372	16464.54
569.734	16440.36
570.095	16394.26
570.457	16507.7
570.819	16575.5
571.18	16498.89
571.542	16472.22
571.903	16500.92
572.265	16599.68
572.626	16567.36
572.987	16598.32
573.349	16594.25
573.71	16586.57
574.071	16646
574.432	16710.41
574.794	16726.9
575.155	16651.88
575.516	16585.89
575.877	16705.21
576.238	16740.24
576.599	16733.23
576.96	16646.91
577.32	16686.91
577.681	16749.5
578.042	16827.24
578.403	16759.9
578.763	16720.8
579.124	16721.48
579.485	16769.84
579.845	16782.27
580.206	16773.68
580.566	16725.1
580.927	16721.03
581.287	16830.18
581.648	16792.44
582.008	16798.77
582.368	16721.71
582.728	16729.62
583.089	16704.08
583.449	16734.59
583.809	16691.43
584.169	16712.44
584.529	16629.05
584.889	16787.69
585.249	16636.74
585.609	16576.63
585.969	16623.18
586.329	16595.83
586.688	16692.1
587.048	16641.71
587.408	16598.32
587.768	16597.87
588.127	16562.39
588.487	16566.23
588.846	16639.68
589.206	16505.67
589.565	16501.15
589.925	16566.68
590.284	16448.27
590.643	16573.91
591.003	16542.05
591.362	16429.06
591.721	16504.99
592.08	16448.95
592.44	16578.66
592.799	16502.05
593.158	16398.33
593.517	16359.23
593.876	16416.18
594.235	16343.19
594.593	16516.74
594.952	16466.35
595.311	16392
595.67	16372.56
596.029	16495.95
596.387	16495.72
596.746	16443.97
597.104	16416.86
597.463	16385.44
597.822	16344.09
598.18	16347.48
598.538	16308.61
598.897	16388.83
599.255	16260.93
599.613	16487.82
599.972	16297.76
600.33	16312.68
600.688	16315.16
601.046	16378.21
601.404	16382.96
601.762	16346.58
602.12	16456.86
602.478	16384.77
602.836	16479.45
603.194	16342.51
603.552	16370.08
603.91	16221.16
604.268	16322.85
604.625	16197.88
604.983	16375.5
605.341	16285.56
605.698	16337.99
606.056	16372.11
606.413	16389.06
606.771	16363.75
607.128	16487.82
607.485	16351.77
607.843	16314.71
608.2	16453.92
608.557	16513.8
608.914	16276.52
609.272	16389.74
609.629	16490.07
609.986	16574.82
610.343	16448.27
610.7	16531.88
611.057	16547.7
611.414	16459.79
611.771	16485.1
612.127	16603.52
612.484	16616.85
612.841	16575.04
613.198	16513.13
613.554	16619.11
613.911	16594.03
614.267	16554.48
614.624	16591.09
614.98	16577.53
615.337	16645.1
615.693	16727.81
616.05	16681.93
616.406	16746.79
616.762	16673.12
617.118	16637.19
617.475	16660.92
617.831	16593.8
618.187	16732.33
618.543	16693.46
618.899	16876.28
619.255	16710.63
619.611	16690.75
619.967	16844.42
620.323	16833.57
620.678	16759.67
621.034	16690.97
621.39	16757.41
621.746	16771.88
622.101	16955.6
622.457	16856.84
622.812	16826.79
623.168	16808.26
623.523	16816.85
623.879	16851.42
624.234	16823.85
624.589	16884.41
624.945	16902.49
625.3	16789.95
625.655	16786.11
626.01	16789.73
626.365	16883.06
626.72	16852.78
627.075	16729.84
627.43	16797.64
627.785	16791.99
628.14	16838.31
628.495	16798.32
628.85	16764.87
629.205	16665.89
629.559	16855.49
629.914	16785.66
630.269	16777.3
630.623	16669.05
630.978	16786.34
631.332	16634.7
631.687	16783.4
632.041	16641.03
632.396	16663.63
632.75	16523.29
633.104	16655.27
633.459	16530.3
633.813	16591.77
634.167	16591.09
634.521	16507.7
634.875	16565.55
635.229	16474.03
635.583	16467.02
635.937	16425.67
636.291	16510.41
636.645	16528.72
636.999	16426.35
637.352	16452.56
637.706	16281.49
638.06	16397.42
638.413	16282.17
638.767	16274.94
639.121	16377.99
639.474	16196.98
639.828	16215.28
640.181	16235.84
640.534	16297.99
640.888	16162.4
641.241	16099.35
641.594	16170.54
641.947	16231.78
642.301	16145
642.654	16307.25
643.007	16259.8
643.36	16143.64
643.713	16140.71
644.066	16186.35
644.419	16068.84
644.771	15941.39
645.124	15840.83
645.477	15834.05
645.83	15712.92
646.182	15600.83
646.535	15619.59
646.888	15706.14
647.24	15559.93
647.593	15559.7
647.945	15520.16
648.298	15550.89
648.65	15465.7
649.002	15520.83
649.355	15665.92
649.707	15548.18
650.059	15635.63
650.411	15880.37
650.763	15862.52
651.115	15950.65
651.467	15960.37
651.819	15928.28
652.171	15861.39
652.523	15946.59
652.875	15832.01
653.227	15754.73
653.578	15921.5
653.93	15889.19
654.282	15917.43
654.633	15815.97
654.985	15905.68
655.337	15854.61
655.688	15837.44
656.039	15926.25
656.391	15830.43
656.742	15883.99
657.094	15886.7
657.445	15874.05
657.796	15933.93
658.147	15884.44
658.498	15920.15
658.849	15918.11
659.2	15938
659.551	15839.24
659.902	16014.61
660.253	15862.29
660.604	15947.04
660.955	15896.42
661.306	15931.45
661.656	16023.19
662.007	15917.66
662.358	15968.96
662.708	15954.04
663.059	16027.94
663.409	15859.58
663.76	16008.28
664.11	15913.37
664.461	15988.17
664.811	15951.78
665.161	15995.62
665.511	15940.48
665.862	15935.29
666.212	15965.12
666.562	16039.69
666.912	16024.55
667.262	15943.42
667.612	16060.71
667.962	16053.93
668.312	16017.32
668.662	16063.87
669.011	15927.6
669.361	15992.91
669.711	15981.84
670.06	15976.87
670.41	15810.54
670.76	15987.72
671.109	16018.9
671.459	15946.13
671.808	15834.72
672.157	15913.37
672.507	15763.09
672.856	15858.91
673.205	15856.42
673.554	15865.91
673.904	15872.24
674.253	15869.07
674.602	15812.58
674.951	15614.84
675.3	15513.38
675.649	15728.29
675.998	15752.02
676.346	15767.16
676.695	15815.29
677.044	15642.87
677.393	15639.48
677.741	15669.53
678.09	15666.14
678.438	15591.79
678.787	15522.19
679.135	15597.22
679.484	15518.35
679.832	15560.38
680.181	15461.63
680.529	15479.03
680.877	15414.17
681.225	15408.07
681.573	15470.89
681.922	15422.31
682.27	15384.34
682.618	15371.46
682.966	15323.33
683.314	15302.76
683.661	15274.74
684.009	15223.67
684.357	15215.08
684.705	15126.04
685.053	15245.81
685.4	15132.37
685.748	15058.25
686.095	14961.53
686.443	15001.07
686.79	14971.02
687.138	14996.33
687.485	15032.49
687.832	14964.47
688.18	14929.21
688.527	14838.59
688.874	14876.11
689.221	14776.9
689.568	14699.16
689.915	14648.32
690.262	14583.01
690.609	14596.57
690.956	14580.52
691.303	14468.66
691.65	14341.43
691.997	14423.91
692.344	14373.29
692.69	14343.46
693.037	14265.27
693.383	14118.39
693.73	14169.46
694.077	14108.67
694.423	14070.03
694.769	14079.52
695.116	14014.21
695.462	13907.54
695.808	13891.73
696.155	13956.13
696.501	13797.26
696.847	13781.22
697.193	13603.37
697.539	13771.28
697.885	13666.42
698.231	13569.7
698.577	13558.4
698.923	13474.79
699.269	13408.12
699.614	13324.96
699.96	13246.54
700.306	13268.01
700.651	13217.17
700.997	13170.16
701.342	13129.94
701.688	13032.09
702.033	13045.42
702.379	13065.31
702.724	12964.97
703.069	12972.43
703.415	12836.84
703.76	12789.38
704.105	12843.39
704.45	12783.05
704.795	12681.36
705.14	12704.86
705.485	12705.99
705.83	12587.35
706.175	12635.94
706.52	12502.16
706.865	12412.44
707.209	12435.94
707.554	12417.64
707.899	12388.26
708.243	12297.64
708.588	12365.66
708.932	12244.31
709.277	12249.28
709.621	12206.12
709.966	12202.96
710.31	12149.4
710.654	12117.76
710.998	12080.25
711.342	12036.86
711.687	11997.09
712.031	11940.36
712.375	11939.01
712.719	11916.18
713.063	11888.61
713.407	11901.95
713.75	11808.62
714.094	11853.13
714.438	11787.15
714.782	11796.86
715.125	11782.18
715.469	11753.93
715.812	11714.38
716.156	11694.04
716.499	11631.9
716.843	11642.52
717.186	11532.24
717.53	11645.91
717.873	11623.54
718.216	11600.26
718.559	11612.91
718.902	11501.51
719.246	11517.32
719.589	11510.32
719.932	11414.05
720.275	11459.92
720.617	11442.52
720.96	11400.27
721.303	11431
721.646	11390.55
721.989	11292.25
722.331	11376.76
722.674	11351
723.016	11370.66
723.359	11342.64
723.701	11310.32
724.044	11322.98
724.386	11219.93
724.729	11268.74
725.071	11229.42
725.413	11262.87
725.755	11188.52
726.097	11160.72
726.439	11080.73
726.782	11118.92
727.124	11190.55
727.465	11218.8
727.807	11076.66
728.149	11073.04
728.491	11064.23
728.833	11140.84
729.175	11076.66
729.516	11085.7
729.858	11070.78
730.199	11079.6
730.541	11108.07
730.882	11026.72
731.224	11109.65
731.565	11101.29
731.906	11049.77
732.248	11066.71
732.589	11038.69
732.93	11057.68
733.271	11025.81
733.612	11039.14
733.953	11162.53
734.294	11032.37
734.635	11017
734.976	11089.09
735.317	11011.8
735.658	11112.82
735.999	11018.35
736.339	11079.82
736.68	11079.82
737.021	11125.24
737.361	11040.5
737.702	11095.87
738.042	11131.12
738.383	11076.88
738.723	11042.08
739.063	11082.53
739.404	11146.26
739.744	11191.46
740.084	11140.61
740.424	11171.8
740.764	11164.11
741.104	11166.6
741.444	11178.35
741.784	11175.41
742.124	11249.76
742.464	11300.61
742.804	11236.88
743.143	11245.69
743.483	11353.49
743.823	11314.62
744.162	11317.1
744.502	11375.18
744.841	11377.67
745.181	11502.64
745.52	11437.78
745.86	11604.33
746.199	11527.72
746.538	11694.27
746.877	11737.66
747.216	11722.74
747.556	11795.51
747.895	11856.07
748.234	11823.53
748.573	12009.74
748.911	11978.56
749.25	12093.13
749.589	12134.26
749.928	12300.81
750.267	12334.48
750.605	12401.37
750.944	12524.76
751.283	12622.83
751.621	12740.79
751.96	12736.28
752.298	12904.63
752.636	13089.94
752.975	13084.97
753.313	13239.99
753.651	13351.17
753.989	13458.74
754.327	13605.4
754.666	13722.24
755.004	13878.39
755.342	14022.57
755.679	14206.07
