Data from hue_38_FLMS001491_00025.txt Node
Date: Tue Feb 07 17:31:17 GMT 2017
User: dcchb
Spectrometer: FLMS00149
Trigger mode: 0
Integration Time (sec): 2.000000E-2
Scans to average: 10
Electric dark correction enabled: true
Nonlinearity correction enabled: false
Boxcar width: 0
XAxis mode: Wavelengths
Number of Pixels in Spectrum: 2048
>>>>>Begin Spectral Data<<<<<
341.393	4.65
341.776	4.65
342.16	4.65
342.543	-50.94
342.927	-77.61
343.31	-56.82
343.693	-82.58
344.077	-44.17
344.46	-68.8
344.843	-38.74
345.226	-50.49
345.61	-26.76
345.993	-36.71
346.376	-0.55
346.759	2.61
347.142	37.41
347.525	53.91
347.908	60.46
348.291	71.99
348.674	75.38
349.057	103.85
349.44	138.88
349.823	157.86
350.206	175.72
350.588	203.06
350.971	227.01
351.354	229.27
351.737	246
352.119	275.37
352.502	281.25
352.884	280.12
353.267	297.07
353.65	288.48
354.032	306.56
354.414	329.38
354.797	321.25
355.179	324.64
355.562	331.87
355.944	346.56
356.326	343.17
356.709	333.9
357.091	337.52
357.473	341.81
357.855	351.76
358.238	362.83
358.62	348.14
359.002	337.29
359.384	359.44
359.766	353.34
360.148	334.13
360.53	351.3
360.912	350.4
361.294	338.42
361.676	325.99
362.057	356.28
362.439	336.62
362.821	338.42
363.203	345.2
363.584	331.42
363.966	336.16
364.348	339.1
364.729	328.71
365.111	325.32
365.493	321.47
365.874	344.07
366.256	338.42
366.637	330.51
367.019	327.35
367.4	342.72
367.781	317.63
368.163	289.16
368.544	322.38
368.925	325.54
369.306	340.23
369.688	342.49
370.069	329.61
370.45	322.83
370.831	316.95
371.212	321.25
371.593	321.7
371.974	318.54
372.355	335.94
372.736	329.84
373.117	339.55
373.498	332.32
373.879	337.29
374.26	330.51
374.641	329.61
375.021	334.13
375.402	334.13
375.783	333.9
376.163	332.1
376.544	333.45
376.925	331.87
377.305	342.49
377.686	342.72
378.066	316.28
378.447	322.38
378.827	332.1
379.208	343.85
379.588	347.46
379.968	344.3
380.349	365.99
380.729	328.48
381.109	335.49
381.489	364.64
381.87	336.84
382.25	352.43
382.63	348.14
383.01	369.83
383.39	359.44
383.77	363.51
384.15	351.08
384.53	365.09
384.91	354.69
385.29	356.5
385.67	358.99
386.049	339.78
386.429	344.75
386.809	358.76
387.189	366.45
387.568	341.36
387.948	374.13
388.328	351.76
388.707	377.52
389.087	361.7
389.466	374.13
389.846	368.93
390.225	379.55
390.605	365.54
390.984	388.14
391.363	371.64
391.743	389.95
392.122	377.07
392.501	363.28
392.881	399.44
393.26	375.03
393.639	383.85
394.018	404.86
394.397	399.66
394.776	406.9
395.155	396.73
395.534	382.94
395.913	364.19
396.292	396.5
396.671	412.09
397.05	398.31
397.429	426.1
397.808	389.5
398.186	393.34
398.565	403.96
398.944	400.57
399.323	389.04
399.701	408.03
400.08	424.97
400.458	425.2
400.837	421.58
401.215	404.64
401.594	410.29
401.972	405.31
402.351	395.6
402.729	425.2
403.107	410.06
403.486	410.96
403.864	434.47
404.242	411.19
404.62	410.74
404.999	405.77
405.377	427.91
405.755	444.64
406.133	436.73
406.511	444.41
406.889	447.57
407.267	435.14
407.645	435.14
408.023	462.04
408.401	445.77
408.779	451.19
409.156	461.58
409.534	453.45
409.912	476.05
410.29	444.41
410.667	469.72
411.045	455.71
411.422	456.39
411.8	486.89
412.178	478.08
412.555	481.24
412.933	496.16
413.31	485.76
413.687	476.05
414.065	481.47
414.442	487.12
414.819	505.2
415.197	504.75
415.574	525.99
415.951	494.35
416.328	517.18
416.705	527.8
417.082	512.88
417.46	523.05
417.837	518.08
418.214	530.73
418.591	523.5
418.967	506.78
419.344	532.99
419.721	536.84
420.098	528.93
420.475	556.27
420.852	533.9
421.228	547.23
421.605	557.85
421.982	561.24
422.358	551.3
422.735	556.95
423.111	583.39
423.488	559.43
423.864	572.32
424.241	576.38
424.617	586.1
424.994	571.86
425.37	570.51
425.746	571.86
426.123	580.22
426.499	621.81
426.875	591.75
427.251	599.89
427.627	618.87
428.003	638.08
428.379	617.51
428.756	627.68
429.132	624.97
429.507	629.04
429.883	639.88
430.259	657.06
430.635	649.6
431.011	627.91
431.387	655.03
431.763	664.52
432.138	648.7
432.514	647.12
432.89	668.13
433.265	688.47
433.641	679.88
434.016	687.79
434.392	717.17
434.767	723.95
435.143	721.92
435.518	727.11
435.894	717.17
436.269	724.85
436.644	726.89
437.02	739.77
437.395	726.44
437.77	743.38
438.145	763.5
438.52	767.56
438.895	749.71
439.271	769.15
439.646	766.89
440.021	792.87
440.395	781.58
440.77	797.62
441.145	810.05
441.52	792.42
441.895	818.86
442.27	821.12
442.645	815.7
443.019	831.52
443.394	832.87
443.769	824.06
444.143	836.72
444.518	851.4
444.892	840.56
445.267	849.37
445.641	838.75
446.016	854.57
446.39	861.35
446.764	848.92
447.139	839.43
447.513	846.43
447.887	869.93
448.262	860.9
448.636	878.97
449.01	913.1
449.384	906.77
449.758	892.31
450.132	904.51
450.506	903.38
450.88	925.53
451.254	929.82
451.628	931.18
452.002	929.59
452.376	957.16
452.75	972.76
453.123	978.41
453.497	975.92
453.871	988.12
454.244	992.19
454.618	1002.36
454.992	1003.72
455.365	1023.6
455.739	1023.38
456.112	1015.02
456.486	1014.56
456.859	1054.11
457.232	1056.6
457.606	1067.9
457.979	1099.08
458.352	1096.14
458.725	1109.48
459.099	1099.53
459.472	1145.86
459.845	1162.36
460.218	1166.65
460.591	1154.22
460.964	1183.82
461.337	1208.68
461.71	1222.92
462.083	1210.94
462.456	1228.34
462.829	1236.48
463.201	1243.71
463.574	1264.95
463.947	1285.74
464.32	1340.66
464.692	1310.38
465.065	1341.56
465.438	1341.56
465.81	1362.8
466.183	1392.86
466.555	1427.66
466.928	1431.95
467.3	1416.14
467.672	1460.88
468.045	1502.46
468.417	1513.99
468.789	1511.73
469.161	1523.02
469.534	1558.05
469.906	1591.5
470.278	1609.12
470.65	1640.99
471.022	1641.67
471.394	1689.8
471.766	1716.24
472.138	1732.51
472.51	1790.14
472.882	1823.13
473.253	1826.75
473.625	1878.5
473.997	1915.11
474.369	1959.17
474.74	1964.6
475.112	1991.94
475.484	2055.44
475.855	2078.49
476.227	2107.19
476.598	2201.88
476.97	2229
477.341	2272.84
477.713	2339.73
478.084	2424.7
478.455	2452.72
478.827	2490.23
479.198	2555.99
479.569	2617.23
479.94	2685.03
480.311	2747.17
480.682	2829.43
481.053	2917.79
481.424	2999.14
481.795	3023.1
482.166	3089.09
482.537	3151.68
482.908	3256.76
483.279	3315.29
483.65	3393.03
484.021	3487.04
484.391	3551.67
484.762	3609.07
485.133	3685
485.503	3795.51
485.874	3892.45
486.244	3983.75
486.615	4074.14
486.985	4179.45
487.356	4292.22
487.726	4343.97
488.097	4510.74
488.467	4516.17
488.837	4644.3
489.207	4760.68
489.578	4837.74
489.948	4962.48
490.318	5091.52
490.688	5156.38
491.058	5256.94
491.428	5382.81
491.798	5449.02
492.168	5656.25
492.538	5699.41
492.908	5788
493.278	5947.54
493.648	5958.16
494.017	6130.14
494.387	6232.28
494.757	6339.62
495.126	6376
495.496	6493.74
495.866	6568.54
496.235	6667.52
496.605	6800.17
496.974	6849.44
497.344	6962.66
497.713	7033.84
498.082	7090.56
498.452	7275.42
498.821	7288.98
499.19	7351.12
499.559	7492.13
499.928	7580.27
500.298	7618.23
500.667	7760.15
501.036	7850.32
501.405	7998.79
501.774	7948.62
502.143	8074.49
502.512	8168.95
502.88	8313.58
503.249	8316.29
503.618	8365.33
503.987	8493.24
504.356	8567.13
504.724	8634.02
505.093	8732.78
505.462	8752.89
505.83	8845.54
506.199	8959.21
506.567	9107.23
506.936	9133.67
507.304	9206.89
507.672	9225.87
508.041	9414.34
508.409	9382.03
508.777	9478.3
509.145	9589.71
509.514	9622.47
509.882	9713.32
510.25	9759.87
510.618	9791.28
510.986	9913.76
511.354	10016.13
511.722	10044.38
512.09	10159.63
512.458	10183.81
512.826	10292.06
513.193	10300.42
513.561	10416.58
513.929	10489.79
514.297	10537.7
514.664	10661.09
515.032	10652.28
515.4	10812.5
515.767	10823.12
516.135	10882.1
516.502	10874.64
516.869	11124.13
517.237	11072.38
517.604	11084.13
517.972	11201.19
518.339	11278.7
518.706	11301.75
519.073	11331.58
519.44	11431.69
519.808	11586.26
520.175	11525.7
520.542	11714.17
520.909	11772.47
521.276	11785.81
521.643	11917.55
522.009	11989.19
522.376	11957.78
522.743	12139.47
523.11	12194.38
523.477	12344.21
523.843	12424.89
524.21	12555.5
524.577	12609.29
524.943	12660.13
525.31	12717.98
525.676	12809.51
526.043	12866.91
526.409	12991.65
526.776	13073
527.142	13125.88
527.508	13161.59
527.874	13363.17
528.241	13350.96
528.607	13430.28
528.973	13533.78
529.339	13505.53
529.705	13729.94
530.071	13849.93
530.437	13825.07
530.803	13926.09
531.169	14048.57
531.535	14023.71
531.901	14069.14
532.267	14124.05
532.632	14176.7
532.998	14378.28
533.364	14418.05
533.73	14463.48
534.095	14495.79
534.461	14650.36
534.826	14658.27
535.192	14661.89
535.557	14822.79
535.923	14742.34
536.288	14896.46
536.653	14992.05
537.019	14920.19
537.384	15032.05
537.749	15095.32
538.114	15091.93
538.479	15226.85
538.845	15240.4
539.21	15282.21
539.575	15360.4
539.94	15347.29
540.305	15576.21
540.67	15480.62
541.034	15594.29
541.399	15641.98
541.764	15707.51
542.129	15804.91
542.494	15890.78
542.858	15846.49
543.223	15887.39
543.587	16087.61
543.952	15984.79
544.316	16109.99
544.681	16213.71
545.045	16221.85
545.41	16252.81
545.774	16394.95
546.138	16376.19
546.503	16425.01
546.867	16418.23
547.231	16578.67
547.595	16615.51
547.959	16725.34
548.324	16734.83
548.688	16749.97
549.052	16794.94
549.416	16902.06
549.779	16908.16
550.143	17061.83
550.507	17065.67
550.871	17190.86
551.235	17144.31
551.599	17298.43
551.962	17247.58
552.326	17420.46
552.689	17491.19
553.053	17382.04
553.417	17363.29
553.78	17682.37
554.143	17579.55
554.507	17646.22
554.87	17847.12
555.234	17999.2
555.597	17770.73
555.96	17969.6
556.323	18019.77
556.686	18032.87
557.05	18155.13
557.413	18259.53
557.776	18201.23
558.139	18370.04
558.502	18426.31
558.865	18299.53
559.228	18569.36
559.59	18644.61
559.953	18641.22
560.316	18812.74
560.679	18831.04
561.041	18895.68
561.404	18977.03
561.767	19100.19
562.129	19081.21
562.492	19217.7
562.854	19298.38
563.217	19280.3
563.579	19301.54
563.941	19422.89
564.304	19579.95
564.666	19681.42
565.028	19751.7
565.39	19720.51
565.753	19873.73
566.115	19871.02
566.477	19958.47
566.839	20008.41
567.201	20097.68
567.563	20233.27
567.925	20240.5
568.287	20290.89
568.648	20387.61
569.01	20451.57
569.372	20631.22
569.734	20577.44
570.095	20785.34
570.457	20835.96
570.819	20910.99
571.18	20992.34
571.542	21039.35
571.903	21181.72
572.265	21247.48
572.626	21301.04
572.987	21337.19
573.349	21504.65
573.71	21536.06
574.071	21763.62
574.432	21663.06
574.794	21982.83
575.155	22011.53
575.516	21980.57
575.877	22035.03
576.238	22211.29
576.599	22379.43
576.96	22438.86
577.32	22585.75
577.681	22731.28
578.042	22805.18
578.403	22895.8
578.763	23009.69
579.124	23152.06
579.485	23303.47
579.845	23480.19
580.206	23507.53
580.566	23630.69
580.927	23806.96
581.287	23976.9
581.648	24114.3
582.008	24430.45
582.368	24457.11
582.728	24702.08
583.089	24821.85
583.449	24872.47
583.809	25092.57
584.169	25361.72
584.529	25370.08
584.889	25825.21
585.249	25737.98
585.609	25900.24
585.969	26266.78
586.329	26496.61
586.688	26650.27
587.048	26837.61
587.408	26954.45
587.768	27140.66
588.127	27333.87
588.487	27499.07
588.846	27924.82
589.206	27909.22
589.565	28112.83
589.925	28492.26
590.284	28561.86
590.643	28747.62
591.003	29015.41
591.362	29254.5
591.721	29491.78
592.08	29635.73
592.44	29912.11
592.799	30256.51
593.158	30308.71
593.517	30584.18
593.876	30802.03
594.235	30858.75
594.593	31191.4
594.952	31440.2
595.311	31581.22
595.67	31751.16
596.029	32087.87
596.387	32373.97
596.746	32490.12
597.104	32427.3
597.463	32677.23
597.822	32996.1
598.18	33130.56
598.538	33158.35
598.897	33567.83
599.255	33556.98
599.613	34121.49
599.972	34051.44
600.33	34357.64
600.688	34371.65
601.046	34682.15
601.404	34971.41
601.762	35008.02
602.12	35284.17
602.478	35471.06
602.836	35577.04
603.194	35653.65
603.552	35708.34
603.91	35784.95
604.268	36198.05
604.625	36241.43
604.983	36450.24
605.341	36337.25
605.698	36778.14
606.056	36793.28
606.413	36969.78
606.771	37292.71
607.128	37425.36
607.485	37327.06
607.843	37470.33
608.2	37729.08
608.557	37885.91
608.914	37909.86
609.272	38141.95
609.629	38362.51
609.986	38511.2
610.343	38528.15
610.7	38991.64
611.057	38840.01
611.414	39013.79
611.771	39163.84
612.127	39385.98
612.484	39348.02
612.841	39560.22
613.198	39449.49
613.554	39713.21
613.911	40011.28
614.267	39898.97
614.624	40027.78
614.98	40068
615.337	40392.96
615.693	40330.37
616.05	40389.12
616.406	40656.91
616.762	40709.79
617.118	40747.3
617.475	40815.1
617.831	41001.76
618.187	41099.84
618.543	41230.68
618.899	41462.77
619.255	41475.87
619.611	41424.57
619.967	41618.02
620.323	41535.53
620.678	41739.59
621.034	41601.07
621.39	41640.61
621.746	41735.07
622.101	42209.86
622.457	41917.67
622.812	42027.27
623.168	42327.6
623.523	42164.67
623.879	42399.69
624.234	42188.4
624.589	42372.12
624.945	42407.37
625.3	42325.34
625.655	42510.2
626.01	42478.56
626.365	42585
626.72	42487.6
627.075	42650.31
627.43	42624.54
627.785	42580.02
628.14	42735.73
628.495	42654.82
628.85	42649.63
629.205	42591.32
629.559	42870.41
629.914	42596.97
630.269	42767.82
630.623	42574.6
630.978	42668.16
631.332	42793.8
631.687	42913.35
632.041	42783.18
632.396	42837.42
632.75	42754.26
633.104	42900.24
633.459	42609.4
633.813	42630.64
634.167	42670.87
634.521	42635.84
634.875	42982.5
635.229	42815.5
635.583	42643.75
635.937	42677.42
636.291	42663.86
636.645	42567.6
636.999	42541.16
637.352	42747.48
637.706	42505
638.06	42524.43
638.413	42567.37
638.767	42502.74
639.121	42461.61
639.474	42467.94
639.828	42474.72
640.181	42491.89
640.534	42522.4
640.888	42305.46
641.241	42209.41
641.594	42360.82
641.947	42505.9
642.301	42443.98
642.654	42382.52
643.007	42399.92
643.36	42435.4
643.713	42322.18
644.066	42309.3
644.419	42241.5
644.771	41947.72
645.124	41510
645.477	41579.37
645.83	41282.66
646.182	41092.15
646.535	41050.8
646.888	41217.12
647.24	41062.1
647.593	41173.73
647.945	41187.74
648.298	40879.28
648.65	40850.35
649.002	40865.49
649.355	40980.07
649.707	41024.36
650.059	41049.9
650.411	41459.38
650.763	41432.03
651.115	41910.44
651.467	41827.5
651.819	41857.78
652.171	41717.9
652.523	41731.69
652.875	41580.73
653.227	41475.19
653.578	41855.98
653.93	41727.17
654.282	41654.4
654.633	41462.09
654.985	41625.02
655.337	41521.3
655.688	41590.9
656.039	41681.97
656.391	41304.13
656.742	41459.83
657.094	41466.16
657.445	41589.99
657.796	41395.65
658.147	41452.37
658.498	41398.81
658.849	41491.92
659.2	41552.25
659.551	41207.18
659.902	41496.44
660.253	41269.55
660.604	41337.8
660.955	41244.24
661.306	41352.71
661.656	41325.14
662.007	41344.35
662.358	41266.16
662.708	41350.9
663.059	41249.89
663.409	40969.9
663.76	41406.95
664.11	41269.78
664.461	41411.02
664.811	41371.92
665.161	41319.94
665.511	41188.2
665.862	41371.02
666.212	41402.43
666.562	41345.93
666.912	41208.99
667.262	41116.79
667.612	41196.33
667.962	41265.26
668.312	41210.34
668.662	41505.93
669.011	41265.03
669.361	41240.62
669.711	41162.21
670.06	41029.33
670.41	40932.38
670.76	40995.66
671.109	41115.66
671.459	41094.19
671.808	40817.13
672.157	41031.82
672.507	40749.11
672.856	40875.44
673.205	40995.21
673.554	41020.07
673.904	40922.21
674.253	41094.64
674.602	40922.67
674.951	40390.03
675.3	40131.05
675.649	40777.59
675.998	40848.77
676.346	40763.8
676.695	40947.98
677.044	40592.96
677.393	40711.6
677.741	40742.33
678.09	40737.14
678.438	40607.19
678.787	40519.74
679.135	40675.22
679.484	40412.62
679.832	40472.51
680.181	40218.5
680.529	40496.24
680.877	40481.32
681.225	40393.42
681.573	40560.64
681.922	40165.4
682.27	40162.91
682.618	40236.13
682.966	40028
683.314	40154.55
683.661	39938.06
684.009	39938.06
684.357	39767.22
684.705	39775.8
685.053	39771.96
685.4	39673.21
685.748	39505.08
686.095	39482.93
686.443	39376.94
686.79	39309.83
687.138	39407.23
687.485	39390.96
687.832	39221.47
688.18	39317.96
688.527	39019.89
688.874	38983.51
689.221	38952.1
689.568	38988.48
689.915	38828.03
690.262	38730.41
690.609	38820.35
690.956	38645.66
691.303	38525.44
691.65	38331.77
691.997	38379.68
692.344	38174.04
692.69	38127.71
693.037	38239.12
693.383	37998.68
693.73	38048.62
694.077	37779.7
694.423	37843.65
694.769	37703.32
695.116	37651.11
695.462	37532.47
695.808	37354.85
696.155	37473.49
696.501	37118.02
696.847	37221.97
697.193	36958.93
697.539	37003
697.885	36830.57
698.231	36748.09
698.577	36700.86
698.923	36767.75
699.269	36464.71
699.614	36403.92
699.96	36381.77
700.306	36248.89
700.651	36042.57
700.997	36013.19
701.342	35965.74
701.688	35937.04
702.033	35792.18
702.379	35944.94
702.724	35595.8
703.069	35694.33
703.415	35315.81
703.76	35516.03
704.105	35473.54
704.45	35323.04
704.795	35122.59
705.14	35000.11
705.485	35018.87
705.83	34943.62
706.175	35001.47
706.52	34845.31
706.865	34795.14
707.209	34696.62
707.554	34668.59
707.899	34706.33
708.243	34436.06
708.588	34451.42
708.932	34188.38
709.277	34231.32
709.621	34054.82
709.966	33963.53
710.31	34010.08
710.654	33787.94
710.998	33754.27
711.342	33777.09
711.687	33768.05
712.031	33581.17
712.375	33461.62
712.719	33533.48
713.063	33437.89
713.407	33397.67
713.75	33075.42
714.094	33266.6
714.438	33141.63
714.782	33227.95
715.125	33008.52
715.469	33012.82
715.812	32833.39
716.156	32733.96
716.499	32896.44
716.843	32888.3
717.186	32683.79
717.53	32740.74
717.873	32680.62
718.216	32597.46
718.559	32557.46
718.902	32261.2
719.246	32347.75
719.589	32247.87
719.932	32032.28
720.275	32208.55
720.617	32064.37
720.96	32165.38
721.303	32021.21
721.646	31959.06
721.989	31740.54
722.331	31889.68
722.674	31832.06
723.016	31732.63
723.359	31624.15
723.701	31743.7
724.044	31467.55
724.386	31496.93
724.729	31462.35
725.071	31401.11
725.413	31457.61
725.755	31333.09
726.097	31184.62
726.439	31056.49
726.782	31176.93
727.124	31230.04
727.465	31074.79
727.807	31121.12
728.149	31018.52
728.491	30857.39
728.833	31047.67
729.175	30840.45
729.516	30734.23
729.858	30719.77
730.199	30734.69
730.541	30590.28
730.882	30643.16
731.224	30718.19
731.565	30409.95
731.906	30506.67
732.248	30588.48
732.589	30263.29
732.93	30245.21
733.271	30276.39
733.612	30264.64
733.953	30345.32
734.294	30174.93
734.635	30108.04
734.976	30238.65
735.317	29919.11
735.658	30025.1
735.999	29940.13
736.339	29909.62
736.68	29960.92
737.021	29921.83
737.361	29729.29
737.702	29852.45
738.042	29803.86
738.383	29844.09
738.723	29799.34
739.063	29662.62
739.404	29713.7
739.744	29574.04
740.084	29417.43
740.424	29469.41
740.764	29372.24
741.104	29567.26
741.444	29412.46
741.784	29259.7
742.124	29409.3
742.464	29310.54
742.804	29212.47
743.143	29086.14
743.483	29170.21
743.823	29001.4
744.162	29108.06
744.502	29103.77
744.841	28911.46
745.181	29011.79
745.52	28785.36
745.86	28960.72
746.199	28782.42
746.538	28749.43
746.877	28864.68
747.216	28788.3
747.556	28695.19
747.895	28687.06
748.234	28656.32
748.573	28353.51
748.911	28598.7
749.25	28466.72
749.589	28310.57
749.928	28349.44
750.267	28310.57
750.605	28377.23
750.944	28184.47
751.283	28113.74
751.621	28220.18
751.96	28058.15
752.298	27981.31
752.636	28046.4
752.975	27863.12
753.313	27717.36
753.651	27903.8
753.989	27700.42
754.327	27702.22
754.666	27524.38
755.004	27570.48
755.342	27495.9
755.679	27550.14
756.017	27365.28
756.355	27535.9
756.693	27278.73
757.031	27386.98
757.368	27180.66
