Data from hue_38_FLMS001491_00033.txt Node
Date: Tue Feb 07 17:31:24 GMT 2017
User: dcchb
Spectrometer: FLMS00149
Trigger mode: 0
Integration Time (sec): 2.000000E-2
Scans to average: 10
Electric dark correction enabled: true
Nonlinearity correction enabled: false
Boxcar width: 0
XAxis mode: Wavelengths
Number of Pixels in Spectrum: 2048
>>>>>Begin Spectral Data<<<<<
341.393	-9.28
341.776	-9.28
342.16	-9.28
342.543	-64.19
342.927	-74.36
343.31	-65.32
343.693	-66
344.077	-78.66
344.46	-55.61
344.843	-54.48
345.226	-43.85
345.61	-28.26
345.993	-4.53
346.376	-26.45
346.759	23.71
347.142	20.78
347.525	48.35
347.908	57.61
348.291	72.3
348.674	91.96
349.057	108.46
349.44	137.16
349.823	156.82
350.206	177.38
350.588	206.99
350.971	225.97
351.354	214.67
351.737	215.8
352.119	259.64
352.502	268.45
352.884	271.62
353.267	277.49
353.65	325.18
354.032	308.23
354.414	324.05
354.797	327.21
355.179	332.86
355.562	340.54
355.944	327.21
356.326	321.11
356.709	327.89
357.091	338.96
357.473	338.96
357.855	357.94
358.238	346.64
358.62	348.9
359.002	334.44
359.384	350.49
359.766	326.76
360.148	350.71
360.53	359.3
360.912	347.32
361.294	348.9
361.676	343.03
362.057	333.54
362.439	340.54
362.821	322.01
363.203	349.81
363.584	320.88
363.966	307.77
364.348	309.81
364.729	336.47
365.111	326.08
365.493	315.68
365.874	312.29
366.256	318.62
366.637	308
367.019	320.66
367.4	324.27
367.781	302.35
368.163	321.11
368.544	308.9
368.925	322.24
369.306	321.33
369.688	311.62
370.069	323.37
370.45	309.13
370.831	304.16
371.212	334.44
371.593	311.16
371.974	319.53
372.355	344.38
372.736	315.01
373.117	320.88
373.498	326.3
373.879	340.09
374.26	315.01
374.641	337.6
375.021	291.73
375.402	327.66
375.783	329.02
376.163	331.73
376.544	344.61
376.925	318.4
377.305	338.28
377.686	341.22
378.066	326.53
378.447	340.77
378.827	355.91
379.208	332.63
379.588	350.26
379.968	326.3
380.349	340.99
380.729	336.47
381.109	363.37
381.489	362.69
381.87	347.77
382.25	341.67
382.63	346.42
383.01	340.09
383.39	374.44
383.77	341.45
384.15	323.82
384.53	345.74
384.91	361.56
385.29	361.11
385.67	360.65
386.049	361.11
386.429	376.25
386.809	370.15
387.189	331.28
387.568	367.43
387.948	354.1
388.328	357.49
388.707	375.57
389.087	360.65
389.466	375.8
389.846	355
390.225	384.83
390.605	355
390.984	360.43
391.363	369.47
391.743	378.73
392.122	384.38
392.501	355
392.881	405.4
393.26	385.51
393.639	383.25
394.018	386.64
394.397	366.3
394.776	391.84
395.155	383.03
395.534	394.33
395.913	376.47
396.292	400.43
396.671	411.05
397.05	365.85
397.429	390.94
397.808	388.22
398.186	404.95
398.565	392.74
398.944	399.3
399.323	412.4
399.701	394.78
400.08	390.48
400.458	388.9
400.837	409.24
401.215	405.62
401.594	390.94
401.972	399.98
402.351	422.57
402.729	399.52
403.107	399.3
403.486	400.2
403.864	441.78
404.242	417.83
404.62	409.47
404.999	420.09
405.377	438.84
405.755	418.28
406.133	422.12
406.511	421.22
406.889	438.62
407.267	453.31
407.645	433.42
408.023	438.84
408.401	440.2
408.779	442.23
409.156	432.74
409.534	447.43
409.912	456.02
410.29	447.43
410.667	474.1
411.045	479.3
411.422	452.86
411.8	444.72
412.178	459.18
412.555	474.32
412.933	484.04
413.31	487.88
413.687	489.92
414.065	476.36
414.442	481.33
414.819	472.97
415.197	491.05
415.574	500.54
415.951	485.17
416.328	500.76
416.705	508.67
417.082	525.62
417.46	494.89
417.837	524.49
418.214	501.22
418.591	506.19
418.967	546.64
419.344	520.65
419.721	515.9
420.098	517.71
420.475	533.76
420.852	529.69
421.228	516.81
421.605	534.21
421.982	566.3
422.358	549.8
422.735	544.15
423.111	535.57
423.488	541.89
423.864	539.18
424.241	579.18
424.617	548.22
424.994	554.77
425.37	569.01
425.746	550.71
426.123	576.02
426.499	569.24
426.875	577.37
427.251	568.33
427.627	590.93
428.003	607.88
428.379	594.09
428.756	579.63
429.132	594.32
429.507	616.69
429.883	615.34
430.259	625.28
430.635	625.73
431.011	622.12
431.387	638.84
431.763	637.71
432.138	672.74
432.514	646.3
432.89	639.29
433.265	649.91
433.641	672.06
434.016	645.84
434.392	681.32
434.767	701.44
435.143	684.49
435.518	684.04
435.894	684.94
436.269	697.82
436.644	703.02
437.02	716.58
437.395	713.41
437.77	734.66
438.145	693.53
438.52	719.06
438.895	714.77
439.271	718.84
439.646	730.59
440.021	740.31
440.395	750.02
440.77	767.42
441.145	756.12
441.52	756.12
441.895	810.59
442.27	780.53
442.645	787.31
443.019	778.95
443.394	775.56
443.769	772.62
444.143	791.83
444.518	791.38
444.892	838.16
445.267	811.04
445.641	816.69
446.016	795.22
446.39	797.03
446.764	837.93
447.139	852.17
447.513	840.87
447.887	831.6
448.262	826.63
448.636	839.96
449.01	839.29
449.384	858.95
449.758	869.12
450.132	846.97
450.506	873.41
450.88	867.99
451.254	886.06
451.628	870.25
452.002	889.45
452.376	894.88
452.75	894.2
453.123	940.3
453.497	945.95
453.871	944.37
454.244	946.63
454.618	975.55
454.992	973.75
455.365	974.65
455.739	975.1
456.112	995.44
456.486	991.15
456.859	1013.97
457.232	1030.24
457.606	994.76
457.979	1032.73
458.352	1031.6
458.725	1044.25
459.099	1074.76
459.472	1094.65
459.845	1088.09
460.218	1101.43
460.591	1103.23
460.964	1121.99
461.337	1098.26
461.71	1143.23
462.083	1144.14
462.456	1171.71
462.829	1188.2
463.201	1213.74
463.574	1195.66
463.947	1235.89
464.32	1244.92
464.692	1233.85
465.065	1265.72
465.438	1267.07
465.81	1314.98
466.183	1307.52
466.555	1341.19
466.928	1367.63
467.3	1365.6
467.672	1396.56
468.045	1392.27
468.417	1432.94
468.789	1422.55
469.161	1485.82
469.534	1488.53
469.906	1518.14
470.278	1522.43
470.65	1536.67
471.022	1598.59
471.394	1588.87
471.766	1609.21
472.138	1667.74
472.51	1707.74
472.882	1727.4
473.253	1757.45
473.625	1787.74
473.997	1817.79
474.369	1868.86
474.74	1894.4
475.112	1872.03
475.484	1978.69
475.855	2044.23
476.227	2057.33
476.598	2136.2
476.97	2141.85
477.341	2183.66
477.713	2230.66
478.084	2289.19
478.455	2359.47
478.827	2386.82
479.198	2497.77
479.569	2503.65
479.94	2582.06
480.311	2643.31
480.682	2751.33
481.053	2785
481.424	2895.28
481.795	2932.11
482.166	2970.08
482.537	3067.93
482.908	3132.78
483.279	3192.44
483.65	3342.04
484.021	3361.25
484.391	3464.98
484.762	3555.15
485.133	3628.14
485.503	3685.31
485.874	3838.75
486.244	3864.52
486.615	3986.1
486.985	4097.05
487.356	4183.83
487.726	4248.24
488.097	4339.53
488.467	4426.76
488.837	4551.05
489.207	4667.21
489.578	4769.13
489.948	4894.09
490.318	4953.53
490.688	5012.06
491.058	5206.85
491.428	5284.59
491.798	5363.91
492.168	5471.03
492.538	5605.94
492.908	5718.25
493.278	5810.91
493.648	5880.06
494.017	6017.91
494.387	6029.43
494.757	6159.82
495.126	6327.96
495.496	6364.56
495.866	6456.54
496.235	6566.14
496.605	6655.63
496.974	6747.15
497.344	6827.15
497.713	6941.72
498.082	7082.51
498.452	7203.41
498.821	7223.75
499.19	7287.25
499.559	7315.95
499.928	7445.21
500.298	7515.72
500.667	7644.3
501.036	7737.41
501.405	7874.81
501.774	7853.79
502.143	7925.88
502.512	8028.25
502.88	8160
503.249	8195.7
503.618	8322.03
503.987	8324.74
504.356	8427.56
504.724	8503.49
505.093	8612.41
505.462	8621.68
505.83	8729.47
506.199	8805.86
506.567	8894.67
506.936	8953.65
507.304	9076.13
507.672	9115
508.041	9180.99
508.409	9287.88
508.777	9377.37
509.145	9480.87
509.514	9482.67
509.882	9505.27
510.25	9645.16
510.618	9749.79
510.986	9699.62
511.354	9830.01
511.722	9870.69
512.09	10023.68
512.458	10019.84
512.826	10172.37
513.193	10170.11
513.561	10181.87
513.929	10382.31
514.297	10398.58
514.664	10479.48
515.032	10569.43
515.4	10603.32
515.767	10621.18
516.135	10741.17
516.502	10713.38
516.869	10908.63
517.237	10923.09
517.604	10881.73
517.972	11052.12
518.339	11101.61
518.706	11076.53
519.073	11169.18
519.44	11257.77
519.808	11398.56
520.175	11298.9
520.542	11499.57
520.909	11582.05
521.276	11514.49
521.643	11658.44
522.009	11719.9
522.376	11850.07
522.743	11916.06
523.11	12068.14
523.477	12116.05
523.843	12144.3
524.21	12313.56
524.577	12332.77
524.943	12420.68
525.31	12536.15
525.676	12649.6
526.043	12615.7
526.409	12690.05
526.776	12796.71
527.142	12883.94
527.508	12936.14
527.874	13042.35
528.241	13196.25
528.607	13107.21
528.973	13316.02
529.339	13285.74
529.705	13416.13
530.071	13527.54
530.437	13495.22
530.803	13597.59
531.169	13750.58
531.535	13741.09
531.901	13794.2
532.267	13849.34
532.632	13919.17
532.998	14031.26
533.364	14118.48
533.73	14161.2
534.095	14249.1
534.461	14258.14
534.826	14351.25
535.192	14362.55
535.557	14491.81
535.923	14486.38
536.288	14539.49
536.653	14611.58
537.019	14555.99
537.384	14703.1
537.749	14715.08
538.114	14810.67
538.479	14912.59
538.845	15051.34
539.21	14910.33
539.575	14984.68
539.94	15055.64
540.305	15130.44
540.67	15212.92
541.034	15186.48
541.399	15304.89
541.764	15327.04
542.129	15485
542.494	15456.08
542.858	15539.46
543.223	15587.15
543.587	15726.8
543.952	15640.48
544.316	15802.06
544.681	15831.66
545.045	15890.42
545.41	15958.21
545.774	16007.02
546.138	16083.18
546.503	16071.43
546.867	16210.41
547.231	16221.48
547.595	16278.43
547.959	16343.51
548.324	16430.06
548.688	16369.5
549.052	16487.24
549.416	16486.56
549.779	16555.48
550.143	16605.2
550.507	16666.21
550.871	16771.75
551.235	16803.84
551.599	16935.36
551.962	16908.47
552.326	16974.45
552.689	17159.99
553.053	17063.72
553.417	17034.57
553.78	17249.02
554.143	17249.25
554.507	17355.46
554.87	17348.91
555.234	17613.76
555.597	17438.85
555.96	17595.91
556.323	17547.1
556.686	17673.65
557.05	17754.32
557.413	17892.17
557.776	17876.13
558.139	17967.65
558.502	18038.38
558.865	18083.58
559.228	18144.59
559.59	18229.56
559.953	18262.56
560.316	18445.6
560.679	18282.67
561.041	18534.64
561.404	18557.01
561.767	18721.53
562.129	18649.89
562.492	18849.43
562.854	18761.3
563.217	18841.52
563.579	18858.25
563.941	19070.67
564.304	19067.06
564.666	19174.62
565.028	19313.38
565.39	19242.42
565.753	19455.07
566.115	19537.33
566.477	19547.49
566.839	19596.53
567.201	19694.38
567.563	19703.65
567.925	19818.45
568.287	19961.27
568.648	19947.48
569.01	20057.99
569.372	20207.36
569.734	20145.22
570.095	20291.66
570.457	20425.44
570.819	20357.19
571.18	20498.66
571.542	20582.5
571.903	20628.6
572.265	20755.82
572.626	20761.25
572.987	20837.63
573.349	21001.24
573.71	21066.55
574.071	21223.38
574.432	21207.34
574.794	21519.19
575.155	21397.39
575.516	21522.58
575.877	21617.27
576.238	21819.98
576.599	21959.18
576.96	21993.31
577.32	22031.05
577.681	22255.22
578.042	22420.87
578.403	22456.34
578.763	22524.37
579.124	22734.08
579.485	22984.69
579.845	23054.29
580.206	23126.38
580.566	23377.45
580.927	23460.61
581.287	23604.11
581.648	23705.58
582.008	23927.94
582.368	24066.02
582.728	24290.87
583.089	24443.86
583.449	24487.93
583.809	24619.23
584.169	24875.04
584.529	24979.89
584.889	25286.33
585.249	25435.93
585.609	25575.13
585.969	25845.86
586.329	25948.46
586.688	26162.91
587.048	26446.07
587.408	26600.64
587.768	26749.11
588.127	26901.2
588.487	27001.99
588.846	27488.75
589.206	27370.34
589.565	27729.65
589.925	28112.02
590.284	28113.82
590.643	28378.67
591.003	28667.25
591.362	28850.3
591.721	28957.42
592.08	29296.62
592.44	29546.78
592.799	29656.38
593.158	29834
593.517	30042.36
593.876	30257.95
594.235	30450.03
594.593	30541.56
594.952	30986.06
595.311	31014.99
595.67	31193.97
596.029	31621.08
596.387	31749.43
596.746	32036.66
597.104	31952.82
597.463	32251.12
597.822	32393.94
598.18	32653.36
598.538	32732.01
598.897	33000.7
599.255	32995.73
599.613	33636.16
599.972	33561.59
600.33	33860.56
600.688	33702.6
601.046	33992.09
601.404	34430.72
601.762	34444.5
602.12	34744.16
602.478	34788.68
602.836	34925.85
603.194	34983.25
603.552	35170.13
603.91	35239.96
604.268	35627.75
604.625	35678.14
604.983	35820.74
605.341	35734.87
605.698	36085.82
606.056	36223.89
606.413	36418.69
606.771	36592.92
607.128	36746.59
607.485	36696.87
607.843	36882.41
608.2	37083.3
608.557	37344.31
608.914	37336.86
609.272	37489.17
609.629	37727.81
609.986	37773.23
610.343	37834.7
610.7	38169.15
611.057	38314.23
611.414	38323.72
611.771	38520.33
612.127	38564.62
612.484	38620.67
612.841	38933.43
613.198	38924.84
613.554	38989.02
613.911	39252.97
614.267	39190.59
614.624	39301.33
614.98	39499.06
615.337	39736.34
615.693	39727.3
616.05	39828.77
616.406	40097.46
616.762	39827.19
617.118	40024.92
617.475	40073.06
617.831	40268.76
618.187	40413.39
618.543	40565.7
618.899	40744
619.255	40742.19
619.611	40676.2
619.967	40907.16
620.323	40971.34
620.678	40924.79
621.034	40811.79
621.39	41040.94
621.746	41000.72
622.101	41291.33
622.457	41261.05
622.812	41248.62
623.168	41351.67
623.523	41388.73
623.879	41484.54
624.234	41390.76
624.589	41551.21
624.945	41554.83
625.3	41669.17
625.655	41659.68
626.01	41647.25
626.365	41803.86
626.72	41637.31
627.075	41818.55
627.43	41725.89
627.785	41731.54
628.14	41835.95
628.495	42000.46
628.85	41975.15
629.205	41915.49
629.559	42122.04
629.914	41908.26
630.269	41953.01
630.623	41906.23
630.978	41925.66
631.332	42006.56
631.687	42242.26
632.041	42006.11
632.396	42108.71
632.75	41915.72
633.104	42102.16
633.459	41849.96
633.813	41988.94
634.167	42131.08
634.521	41982.16
634.875	42208.37
635.229	42026.45
635.583	41999.33
635.937	41958.2
636.291	41988.03
636.645	42084.08
636.999	41726.57
637.352	41977.41
637.706	41697.65
638.06	41900.58
638.413	41776.97
638.767	41781.94
639.121	41901.26
639.474	41634.6
639.828	41734.26
640.181	41717.53
640.534	41715.05
640.888	41710.08
641.241	41427.6
641.594	41549.4
641.947	41686.8
642.301	41624.65
642.654	41680.7
643.007	41747.14
643.36	41502.4
643.713	41518.44
644.066	41811.54
644.419	41434.38
644.771	41144.67
645.124	40785.35
645.477	40721.85
645.83	40442.54
646.182	40379.49
646.535	40282.32
646.888	40415.65
647.24	40226.5
647.593	40497.45
647.945	40320.28
648.298	40162.77
648.65	40140.4
649.002	40133.62
649.355	40293.16
649.707	40175.2
650.059	40328.64
650.411	40780.38
650.763	40758.69
651.115	41319.13
651.467	41014.27
651.819	41084.1
652.171	40962.07
652.523	40905.35
652.875	40955.29
653.227	40666.49
653.578	40987.83
653.93	40872.81
654.282	40817.44
654.633	40671.01
654.985	40635.3
655.337	40786.03
655.688	40915.75
656.039	40926.14
656.391	40562.76
656.742	40642.76
657.094	40766.82
657.445	40857.89
657.796	40829.19
658.147	40589.43
658.498	40686.6
658.849	40670.1
659.2	40698.12
659.551	40589.43
659.902	40696.54
660.253	40749.42
660.604	40782.42
660.955	40521.63
661.306	40603.66
661.656	40597.34
662.007	40635.08
662.358	40630.56
662.708	40623.1
663.059	40614.96
663.409	40345.59
663.76	40645.24
664.11	40673.49
664.461	40635.98
664.811	40469.88
665.161	40498.13
665.511	40433.72
665.862	40357.79
666.212	40492.71
666.562	40424.46
666.912	40501.07
667.262	40393.27
667.612	40457.68
667.962	40405.7
668.312	40330.45
668.662	40555.08
669.011	40455.42
669.361	40363.22
669.711	40401.86
670.06	40195.54
670.41	40305.14
670.76	40236.67
671.109	40390.34
671.459	40330
671.808	40121.42
672.157	40238.48
672.507	40198.02
672.856	40109.44
673.205	40229.44
673.554	40195.31
673.904	40103.56
674.253	40396.66
674.602	40162.32
674.951	39693.18
675.3	39335.45
675.649	40060.63
675.998	40019.95
676.346	40167.52
676.695	40247.29
677.044	39943.34
677.393	40011.82
677.741	40122.09
678.09	39915.32
678.438	39853.4
678.787	39869.9
679.135	40008.2
679.484	39658.83
679.832	39783.57
680.181	39620.41
680.529	39749.9
680.877	39539.06
681.225	39560.3
681.573	39682.33
681.922	39453.64
682.27	39340.65
682.618	39359.63
682.966	39227.65
683.314	39373.64
683.661	39201.89
684.009	39114.21
684.357	39034.21
684.705	38949.02
685.053	39083.25
685.4	38925.29
685.748	38790.15
686.095	38690.95
686.443	38514
686.79	38668.35
687.138	38586.99
687.485	38664.05
687.832	38512.19
688.18	38548.58
688.527	38363.95
688.874	38288.92
689.221	38300.9
689.568	38203.95
689.915	38006.9
690.262	38019.1
690.609	37979.78
690.956	37836.96
691.303	37839.67
691.65	37673.8
691.997	37743.85
692.344	37354.48
692.69	37324.2
693.037	37499.34
693.383	37171.44
693.73	37237.65
694.077	37034.27
694.423	37054.83
694.769	36953.82
695.116	36836.76
695.462	36819.36
695.808	36795.63
696.155	36676.76
696.501	36388.41
696.847	36319.26
697.193	36165.59
697.539	36290.33
697.885	36161.29
698.231	35946.39
698.577	36169.2
698.923	35979.38
699.269	35847.4
699.614	35584.36
699.96	35638.37
700.306	35703
700.651	35414.42
700.997	35311.83
701.342	35316.12
701.688	35250.81
702.033	35146.86
702.379	35020.31
702.724	35077.71
703.069	34996.81
703.415	34712.97
703.76	34740.54
704.105	34718.17
704.45	34568.34
704.795	34468.01
705.14	34445.86
705.485	34321.8
705.83	34260.1
706.175	34270.5
706.52	34202.48
706.865	34004.29
707.209	33949.6
707.554	34043.38
707.899	33898.76
708.243	33801.36
708.588	33737.4
708.932	33506.68
709.277	33538.77
709.621	33498.09
709.966	33323.86
710.31	33447.02
710.654	32970.64
710.998	33136.06
711.342	33088.61
711.687	33024.65
712.031	32837.31
712.375	32698.11
712.719	32918.44
713.063	32815.85
713.407	32876.64
713.75	32623.99
714.094	32640.26
714.438	32453.14
714.782	32468.51
715.125	32307.61
715.469	32446.14
715.812	32369.53
716.156	32110.55
716.499	32193.49
716.843	32051.8
717.186	31993.27
717.53	31957.56
717.873	32024.68
718.216	31976.77
718.559	31785.82
718.902	31689.77
719.246	31613.62
719.589	31715.54
719.932	31526.16
720.275	31341.31
720.617	31437.8
720.96	31358.03
721.303	31323.91
721.646	31254.76
721.989	31069.68
722.331	31334.98
722.674	31112.16
723.016	31149.45
723.359	31074.65
723.701	31070.58
724.044	30932.28
724.386	30809.8
724.729	30904.94
725.071	30792.62
725.413	30738.39
725.755	30711.49
726.097	30622.68
726.439	30709.01
726.782	30631.04
727.124	30721.44
727.465	30401.67
727.807	30570.03
728.149	30408.23
728.491	30248.46
728.833	30421.33
729.175	30111.06
729.516	30205.52
729.858	30142.47
730.199	30100.44
730.541	30091.85
730.882	29952.87
731.224	30039.2
731.565	29949.03
731.906	29887.79
732.248	29878.97
732.589	29746.77
732.93	29598.98
733.271	29567.34
733.612	29623.39
733.953	29756.72
734.294	29582.26
734.635	29498.42
734.976	29524.41
735.317	29361.25
735.658	29423.62
735.999	29348.14
736.339	29290.74
736.68	29360.57
737.021	29255.49
737.361	29153.8
737.702	29301.36
738.042	29158.54
738.383	29091.2
738.723	29121.48
739.063	28889.4
739.404	29051.2
739.744	28955.16
740.084	28962.39
740.424	28815.73
740.764	28844.43
741.104	28826.12
741.444	28651.21
741.784	28673.81
742.124	28788.83
742.464	28629.06
742.804	28653.47
743.143	28579.12
743.483	28568.05
743.823	28492.12
744.162	28356.75
744.502	28393.59
744.841	28248.06
745.181	28490.31
745.52	28316.53
745.86	28251.45
746.199	28245.34
746.538	28166.93
746.877	28161.96
747.216	28043.32
747.556	28057.55
747.895	28105.24
748.234	28001.28
748.573	27833.38
748.911	27888.29
749.25	27768.75
749.589	27764.23
749.928	27761.29
750.267	27842.64
750.605	27834.51
750.944	27577.79
751.283	27557
751.621	27607.62
751.96	27416.44
752.298	27354.07
752.636	27383.22
752.975	27314.97
753.313	27117.92
753.651	27199.95
753.989	27215.32
754.327	27107.3
754.666	26925.61
755.004	26970.35
755.342	27082.21
755.679	26968.09
756.017	26789.56
756.355	26872.73
756.693	26760.86
757.031	26829.79
757.368	26626.4
