Data from hue_26_FLMS001491_00041.txt Node
Date: Tue Feb 07 17:14:03 GMT 2017
User: dcchb
Spectrometer: FLMS00149
Trigger mode: 0
Integration Time (sec): 2.000000E-2
Scans to average: 10
Electric dark correction enabled: true
Nonlinearity correction enabled: false
Boxcar width: 0
XAxis mode: Wavelengths
Number of Pixels in Spectrum: 2048
>>>>>Begin Spectral Data<<<<<
341.393	-7.75
341.776	-7.75
342.16	-7.75
342.543	-65.61
342.927	-62.89
343.31	-73.52
343.693	-54.31
344.077	-57.02
344.46	-43.23
344.843	-62.44
345.226	-48.2
345.61	-45.04
345.993	-36
346.376	-12.5
346.759	4.22
347.142	27.05
347.525	48.29
347.908	69.76
348.291	79.02
348.674	91.23
349.057	112.69
349.44	133.49
349.823	148.63
350.206	156.08
350.588	184.78
350.971	201.96
351.354	232.01
351.737	236.76
352.119	251.67
352.502	258.91
352.884	261.17
353.267	300.49
353.65	283.09
354.032	271.56
354.414	307.49
354.797	303.2
355.179	314.5
355.562	304.78
355.944	325.57
356.326	334.38
356.709	332.12
357.091	338.9
357.473	322.63
357.855	324.21
358.238	330.32
358.62	329.86
359.002	319.24
359.384	352.46
359.766	330.77
360.148	341.16
360.53	355.63
360.912	354.95
361.294	346.13
361.676	338.9
362.057	333.25
362.439	338.45
362.821	349.07
363.203	317.44
363.584	316.76
363.966	319.92
364.348	308.85
364.729	328.51
365.111	337.32
365.493	315.63
365.874	324.89
366.256	314.27
366.637	299.58
367.019	332.58
367.4	322.63
367.781	334.84
368.163	322.63
368.544	316.98
368.925	305.01
369.306	307.49
369.688	307.72
370.069	323.54
370.45	311.33
370.831	333.03
371.212	321.5
371.593	319.02
371.974	305.91
372.355	298.45
372.736	304.1
373.117	298.23
373.498	320.15
373.879	316.31
374.26	342.07
374.641	312.24
375.021	300.71
375.402	329.41
375.783	319.69
376.163	338
376.544	331.67
376.925	327.83
377.305	330.32
377.686	330.09
378.066	298
378.447	338.45
378.827	345.46
379.208	321.28
379.588	332.35
379.968	312.24
380.349	344.33
380.729	320.82
381.109	351.11
381.489	342.07
381.87	333.03
382.25	338
382.63	331.22
383.01	320.15
383.39	362.18
383.77	326.25
384.15	345.46
384.53	336.42
384.91	358.34
385.29	357.43
385.67	335.74
386.049	358.11
386.429	348.39
386.809	351.56
387.189	358.79
387.568	371.22
387.948	340.03
388.328	349.07
388.707	364.21
389.087	365.8
389.466	356.53
389.846	365.12
390.225	363.31
390.605	366.93
390.984	360.15
391.363	360.82
391.743	363.99
392.122	349.3
392.501	353.37
392.881	364.67
393.26	356.53
393.639	381.16
394.018	376.19
394.397	375.29
394.776	352.46
395.155	366.47
395.534	382.07
395.913	382.07
396.292	384.78
396.671	395.17
397.05	386.13
397.429	390.88
397.808	374.83
398.186	395.4
398.565	384.33
398.944	396.76
399.323	377.77
399.701	395.17
400.08	409.64
400.458	413.03
400.837	410.99
401.215	394.72
401.594	394.95
401.972	389.75
402.351	402.4
402.729	401.05
403.107	399.69
403.486	406.92
403.864	398.56
404.242	407.83
404.62	415.51
404.999	409.41
405.377	419.35
405.755	421.84
406.133	425.68
406.511	423.65
406.889	416.42
407.267	421.39
407.645	445.12
408.023	413.48
408.401	451.67
408.779	437.88
409.156	440.6
409.534	433.36
409.912	432.01
410.29	446.47
410.667	446.92
411.045	460.26
411.422	439.24
411.8	437.43
412.178	462.52
412.555	457.77
412.933	453.7
413.31	457.32
413.687	479.69
414.065	470.88
414.442	457.32
414.819	481.5
415.197	473.14
415.574	490.54
415.951	476.53
416.328	476.53
416.705	492.12
417.082	465.91
417.46	488.05
417.837	502.29
418.214	496.64
418.591	510.65
418.967	499.35
419.344	500.03
419.721	520.14
420.098	497.54
420.475	515.62
420.852	512.91
421.228	505.68
421.605	508.16
421.982	529.86
422.358	529.18
422.735	533.7
423.111	523.31
423.488	531.44
423.864	514.49
424.241	537.77
424.617	546.58
424.994	538.45
425.37	569.18
425.746	540.71
426.123	535.73
426.499	593.36
426.875	562.17
427.251	563.76
427.627	592.68
428.003	586.58
428.379	573.02
428.756	582.29
429.132	588.39
429.507	605.11
429.883	599.46
430.259	589.07
430.635	606.92
431.011	590.42
431.387	617.99
431.763	611.44
432.138	603.98
432.514	608.73
432.89	613.47
433.265	632.68
433.641	632
434.016	654.38
434.392	634.94
434.767	660.03
435.143	652.79
435.518	662.51
435.894	673.13
436.269	690.53
436.644	678.56
437.02	656.64
437.395	680.14
437.77	705
438.145	702.74
438.52	713.36
438.895	719.01
439.271	691.89
439.646	721.27
440.021	708.16
440.395	707.71
440.77	730.53
441.145	730.53
441.52	746.35
441.895	755.39
442.27	741.38
442.645	759.68
443.019	752
443.394	766.69
443.769	770.53
444.143	757.88
444.518	788.38
444.892	751.32
445.267	764.43
445.641	772.34
446.016	770.3
446.39	771.89
446.764	777.08
447.139	755.62
447.513	794.03
447.887	793.35
448.262	817.08
448.636	835.61
449.01	809.17
449.384	807.82
449.758	823.64
450.132	831.09
450.506	841.94
450.88	829.96
451.254	840.36
451.628	864.09
452.002	878.1
452.376	845.56
452.75	854.6
453.123	885.1
453.497	884.65
453.871	880.13
454.244	896.63
454.618	882.84
454.992	900.47
455.365	898.21
455.739	947.7
456.112	931.88
456.486	940.92
456.859	959.45
457.232	960.81
457.606	961.03
457.979	975.5
458.352	995.84
458.725	1008.94
459.099	1006.46
459.472	1005.33
459.845	1015.5
460.218	1030.64
460.591	1026.12
460.964	1070.18
461.337	1059.56
461.71	1078.55
462.083	1102.95
462.456	1067.25
462.829	1098.66
463.201	1093.69
463.574	1116.51
463.947	1138.66
464.32	1154.48
464.692	1154.48
465.065	1183.18
465.438	1171.88
465.81	1181.59
466.183	1205.55
466.555	1235.38
466.928	1232.44
467.3	1234.47
467.672	1255.49
468.045	1271.99
468.417	1259.33
468.789	1305.66
469.161	1340.91
469.534	1347.69
469.906	1340.01
470.278	1357.86
470.65	1387.01
471.022	1417.07
471.394	1436.05
471.766	1454.35
472.138	1453.22
472.51	1510.62
472.882	1507.69
473.253	1537.74
473.625	1564.86
473.997	1610.28
474.369	1610.96
474.74	1641.69
475.112	1634.01
475.484	1676.72
475.855	1704.07
476.227	1698.64
476.598	1799.2
476.97	1810.05
477.341	1815.7
477.713	1867.68
478.084	1926.21
478.455	1959.43
478.827	1976.37
479.198	2030.38
479.569	2045.98
479.94	2057.73
480.311	2117.39
480.682	2164.84
481.053	2204.17
481.424	2227.22
481.795	2265.63
482.166	2283.26
482.537	2375.01
482.908	2400.77
483.279	2436.7
483.65	2509.47
484.021	2521.9
484.391	2553.99
484.762	2581.1
485.133	2660.42
485.503	2692.29
485.874	2741.78
486.244	2769.12
486.615	2858.61
486.985	2880.98
487.356	2948.33
487.726	2971.83
488.097	3056.12
488.467	3092.96
488.837	3166.4
489.207	3194.87
489.578	3240.52
489.948	3301.54
490.318	3346.28
490.688	3324.59
491.058	3433.96
491.428	3467.63
491.798	3510.57
492.168	3558.71
492.538	3614.07
492.908	3667.4
493.278	3739.27
493.648	3725.03
494.017	3783.56
494.387	3839.6
494.757	3897.23
495.126	3927.51
495.496	3921.41
495.866	3972.93
496.235	4024.46
496.605	4046.38
496.974	4083.66
497.344	4112.82
497.713	4168.18
498.082	4240.27
498.452	4257.9
498.821	4293.6
499.19	4275.98
499.559	4400.04
499.928	4367.05
500.298	4355.97
500.667	4479.36
501.036	4456.31
501.405	4490.88
501.774	4499.47
502.143	4506.03
502.512	4564.78
502.88	4584.67
503.249	4579.92
503.618	4619.92
503.987	4630.54
504.356	4723.2
504.724	4728.62
505.093	4751.89
505.462	4781.05
505.83	4809.52
506.199	4855.62
506.567	4892.46
506.936	4880.48
507.304	4944.88
507.672	4983.08
508.041	4980.82
508.409	5038.44
508.777	5024.66
509.145	5050.87
509.514	5044.09
509.882	5108.27
510.25	5103.07
510.618	5144.43
510.986	5172.45
511.354	5224.88
511.722	5255.84
512.09	5268.27
512.458	5225.1
512.826	5324.31
513.193	5341.48
513.561	5343.97
513.929	5367.47
514.297	5436.4
514.664	5365.89
515.032	5428.94
515.4	5468.03
515.767	5497.41
516.135	5526.11
516.502	5479.11
516.869	5560.46
517.237	5521.59
517.604	5591.87
517.972	5639.56
518.339	5631.19
518.706	5662.61
519.073	5640.01
519.44	5720.23
519.808	5795.26
520.175	5735.82
520.542	5800.23
520.909	5845.43
521.276	5834.35
521.643	5898.08
522.009	5906.89
522.376	5886.78
522.743	5936.27
523.11	5971.3
523.477	6043.61
523.843	6035.93
524.21	6095.59
524.577	6128.81
524.943	6179.43
525.31	6120.9
525.676	6258.07
526.043	6213.55
526.409	6288.35
526.776	6349.82
527.142	6365.86
527.508	6409.25
527.874	6409.48
528.241	6408.35
528.607	6418.74
528.973	6514.56
529.339	6531.74
529.705	6542.36
530.071	6583.71
530.437	6559.3
530.803	6693.76
531.169	6705.06
531.535	6672.75
531.901	6743.03
532.267	6762.24
532.632	6848.34
532.998	6863.25
533.364	6837.26
533.73	6922.69
534.095	6990.25
534.461	6969.01
534.826	7002.68
535.192	7068.67
535.557	7051.27
535.923	6989.12
536.288	7151.83
536.653	7109.35
537.019	7150.7
537.384	7171.27
537.749	7191.38
538.114	7228.21
538.479	7240.87
538.845	7294.2
539.21	7293.07
539.575	7329.45
539.94	7366.97
540.305	7416.91
540.67	7401.09
541.034	7480.41
541.399	7460.52
541.764	7516.79
542.129	7545.49
542.494	7558.83
542.858	7559.05
543.223	7635.66
543.587	7668.88
543.952	7598.37
544.316	7737.13
544.681	7684.93
545.045	7750.01
545.41	7851.93
545.774	7853.51
546.138	7840.85
546.503	7925.14
546.867	7905.03
547.231	7993.62
547.595	7996.1
547.959	8018.25
548.324	8062.99
548.688	8072.26
549.052	8110.9
549.416	8118.81
549.779	8089.21
550.143	8181.86
550.507	8148.19
550.871	8244.01
551.235	8175.31
551.599	8299.15
551.962	8321.07
552.326	8346.15
552.689	8426.6
553.053	8340.73
553.417	8408.75
553.78	8462.53
554.143	8474.28
554.507	8505.47
554.87	8571.91
555.234	8594.96
555.597	8580.04
555.96	8672.92
556.323	8703.2
556.686	8681.06
557.05	8712.02
557.413	8680.61
557.776	8754.73
558.139	8772.58
558.502	8858
558.865	8841.96
559.228	8937.77
559.59	8883.76
559.953	8930.99
560.316	8970.09
560.679	8964.21
561.041	9062.97
561.404	9041.73
561.767	9194.49
562.129	9088.28
562.492	9146.81
562.854	9207.82
563.217	9168.95
563.579	9271.55
563.941	9232.91
564.304	9290.76
564.666	9357.65
565.028	9385.22
565.39	9440.13
565.753	9471.77
566.115	9458.21
566.477	9536.63
566.839	9586.12
567.201	9585.89
567.563	9596.51
567.925	9584.31
568.287	9686.68
568.648	9758.32
569.01	9773.68
569.372	9828.6
569.734	9767.58
570.095	9913.79
570.457	9872.89
570.819	9997.63
571.18	9950.18
571.542	10011.87
571.903	10041.93
572.265	10186.55
572.626	10236.27
572.987	10135.71
573.349	10246.67
573.71	10358.3
574.071	10392.2
574.432	10517.84
574.794	10513.1
575.155	10568.01
575.516	10641.23
575.877	10685.75
576.238	10829.48
576.599	10871.06
576.96	10909.47
577.32	10899.98
577.681	11099.98
578.042	11111.5
578.403	11290.03
578.763	11337.03
579.124	11376.58
579.485	11468.78
579.845	11719.85
580.206	11680.53
580.566	11784.25
580.927	11872.84
581.287	12105.83
581.648	12191.25
582.008	12365.93
582.368	12526.15
582.728	12709.43
583.089	12812.7
583.449	12927.5
583.809	13206.36
584.169	13317.32
584.529	13432.12
584.889	13710.76
585.249	13819.23
585.609	14035.94
585.969	14302.38
586.329	14413.11
586.688	14669.15
587.048	14849.48
587.408	15103.04
587.768	15312.07
588.127	15518.84
588.487	15761.77
588.846	16082.9
589.206	16189.79
589.565	16467.97
589.925	16819.37
590.284	17039.93
590.643	17391.34
591.003	17662.52
591.362	17928.95
591.721	18186.8
592.08	18429.95
592.44	18795.59
592.799	19032.2
593.158	19384.05
593.517	19646.42
593.876	19863.81
594.235	20173.41
594.593	20422.44
594.952	20913.5
595.311	21115.98
595.67	21418.8
596.029	21806.36
596.387	22085.9
596.746	22437.98
597.104	22706.45
597.463	22889.5
597.822	23341.91
598.18	23498.52
598.538	23779.19
598.897	24251.72
599.255	24383.02
599.613	25001.31
599.972	25005.37
600.33	25523.1
600.688	25553.38
601.046	25940.49
601.404	26461.83
601.762	26583.64
602.12	26955.83
602.478	27199.67
602.836	27400.11
603.194	27616.6
603.552	27891.4
603.91	28194.67
604.268	28617.93
604.625	28687.54
604.983	29044.36
605.341	29241.65
605.698	29706.27
606.056	29901.29
606.413	30067.61
606.771	30379.24
607.128	30634.15
607.485	30771.55
607.843	31044.76
608.2	31484.98
608.557	31740.79
608.914	31715.25
609.272	32200.66
609.629	32313.88
609.986	32692.63
610.343	32732.85
610.7	33091.26
611.057	33112.28
611.414	33422.55
611.771	33613.51
612.127	33944.12
612.484	34060.28
612.841	34465.92
613.198	34450.55
613.554	34687.83
613.911	34850.09
614.267	35186.57
614.624	35159.68
614.98	35523.74
615.337	35766.9
615.693	35857.29
616.05	35933.22
616.406	36310.16
616.762	36302.03
617.118	36466.99
617.475	36537.73
617.831	36759.87
618.187	36991.73
618.543	37105.85
618.899	37537.7
619.255	37513.07
619.611	37544.48
619.967	37906.5
620.323	37825.38
620.678	37811.36
621.034	37826.51
621.39	38042.09
621.746	38113.73
622.101	38720.49
622.457	38466.26
622.812	38596.65
623.168	38822.86
623.523	38847.95
623.879	39259.91
624.234	38946.7
624.589	39155.51
624.945	39115.74
625.3	39219.92
625.655	39362.06
626.01	39440.25
626.365	39547.36
626.72	39708.26
627.075	39667.81
627.43	39661.03
627.785	39721.37
628.14	39911.65
628.495	39992.78
628.85	40007.92
629.205	39788.94
629.559	40096.95
629.914	40030.97
630.269	40009.5
630.623	40077.29
630.978	40080.91
631.332	40304.18
631.687	40402.71
632.041	40327.91
632.396	40371.07
632.75	40202.26
633.104	40511.18
633.459	40186.9
633.813	40153.45
634.167	40231.41
634.521	40304.41
634.875	40304.63
635.229	40338.08
635.583	40195.48
635.937	40358.42
636.291	40163.39
636.645	40347.8
636.999	40221.92
637.352	40250.85
637.706	40173.79
638.06	40444.06
638.413	40333.56
638.767	40167.23
639.121	40462.59
639.474	40167.91
639.828	40262.15
640.181	40228.93
640.534	40372.88
640.888	40213.34
641.241	40034.81
641.594	40190.51
641.947	40274.58
642.301	40162.04
642.654	40188.93
643.007	40235.26
643.36	40200.91
643.713	40138.08
644.066	40335.37
644.419	40118.65
644.771	39884.08
645.124	39280.48
645.477	39470.53
645.83	39223.53
646.182	39105.79
646.535	38931.56
646.888	39167.71
647.24	38885.01
647.593	39123.87
647.945	38974.27
648.298	38904.9
648.65	38768.18
649.002	38765.24
649.355	38907.61
649.707	38865.57
650.059	39068.51
650.411	39574.26
650.763	39524.31
651.115	39959.56
651.467	39756.85
651.819	39789.84
652.171	39716.85
652.523	39578.55
652.875	39818.54
653.227	39512.11
653.578	39937.64
653.93	39722.95
654.282	39564.76
654.633	39547.59
654.985	39583.3
655.337	39729.73
655.688	39607.93
656.039	39733.12
656.391	39452.45
656.742	39436.41
657.094	39490.42
657.445	39610.87
657.796	39539.68
658.147	39460.59
658.498	39506.46
658.849	39607.7
659.2	39491.32
659.551	39366.35
659.902	39433.02
660.253	39492
660.604	39561.15
660.955	39338.1
661.306	39516.86
661.656	39309.4
662.007	39340.59
662.358	39311.89
662.708	39461.49
663.059	39422.62
663.409	39153.48
663.76	39374.94
664.11	39437.31
664.461	39437.76
664.811	39456.07
665.161	39255.17
665.511	39133.14
665.862	39301.49
666.212	39249.97
666.562	39357.76
666.912	39354.83
667.262	39336.3
667.612	39211.78
667.962	39247.03
668.312	39216.53
668.662	39404.54
669.011	39454.71
669.361	39246.36
669.711	39329.74
670.06	39282.74
670.41	39119.13
670.76	39097.88
671.109	39348.27
671.459	39165.23
671.808	39151.67
672.157	39227.82
672.507	38888.62
672.856	38995.97
673.205	39036.19
673.554	39270.31
673.904	39190.54
674.253	39270.31
674.602	39088.17
674.951	38529.09
675.3	38398.92
675.649	38947.38
675.998	39019.02
676.346	38858.79
676.695	39080.26
677.044	38710.78
677.393	38863.77
677.741	38973.14
678.09	38779.25
678.438	38655.64
678.787	38752.81
679.135	38732.02
679.484	38514.62
679.832	38568.63
680.181	38421.52
680.529	38594.39
680.877	38340.16
681.225	38398.69
681.573	38662.64
681.922	38350.11
682.27	38175.65
682.618	38186.27
682.966	38096.1
683.314	38287.51
683.661	38182.88
684.009	37936.78
684.357	38004.81
684.705	37857.01
685.053	37967.29
685.4	37852.49
685.748	37710.35
686.095	37708.09
686.443	37636.23
686.79	37541.77
687.138	37518.04
687.485	37580.64
687.832	37439.4
688.18	37412.96
688.527	37251.15
688.874	37236.69
689.221	37218.84
689.568	37044.83
689.915	36940.2
690.262	37008.22
690.609	36946.3
690.956	36716.48
691.303	36829.47
691.65	36549.7
691.997	36621.11
692.344	36328.92
692.69	36427.67
693.037	36219.99
693.383	35963.5
693.73	36229.71
694.077	36054.35
694.423	35984.07
694.769	35874.01
695.116	35888.25
695.462	35597.86
695.808	35621.37
696.155	35712.44
696.501	35356.51
696.847	35368.72
697.193	35070.87
697.539	35307.48
697.885	35034.94
698.231	34939.12
698.577	35021.38
698.923	34925.79
699.269	34793.36
699.614	34565.8
699.96	34519.02
700.306	34459.14
700.651	34331
700.997	34233.83
701.342	34198.35
701.688	34224.34
702.033	33918.81
702.379	34041.07
702.724	33947.29
703.069	34134.85
703.415	33770.79
703.76	33693.96
704.105	33707.97
704.45	33768.53
704.795	33485.83
705.14	33308.21
705.485	33261.65
705.83	33089
706.175	33155.67
706.52	33110.7
706.865	33041.09
707.209	33034.09
707.554	32979.85
707.899	32858.5
708.243	32723.81
708.588	32700.99
708.932	32475.01
709.277	32509.36
709.621	32531.5
709.966	32289.25
710.31	32447.89
710.654	32103.49
710.998	32251.28
711.342	32126.77
711.687	32039.54
712.031	31833.67
712.375	31766.1
712.719	31803.16
713.063	31695.59
713.407	31854.46
713.75	31660.34
714.094	31585.54
714.438	31490.17
714.782	31522.26
715.125	31384.64
715.469	31383.96
715.812	31313.23
716.156	31022.39
716.499	31093.58
716.843	31169.05
717.186	30823.98
717.53	31110.98
717.873	31101.03
718.216	30973.58
718.559	30918.89
718.902	30633.02
719.246	30642.51
719.589	30615.17
719.932	30538.79
720.275	30441.16
720.617	30593.25
720.96	30474.83
721.303	30393.71
721.646	30251.11
721.989	30118.46
722.331	30303.09
722.674	30277.33
723.016	30350.77
723.359	30214.5
723.701	30120.04
724.044	30002.98
724.386	29820.16
724.729	29967.5
725.071	29817.22
725.413	29744.01
725.755	29831.01
726.097	29751.46
726.439	29574.07
726.782	29621.98
727.124	29641.18
727.465	29491.36
727.807	29582.65
728.149	29374.75
728.491	29411.36
728.833	29463.11
729.175	29148.99
729.516	29266.28
729.858	29212.04
730.199	29113.29
730.541	29139.5
730.882	29098.37
731.224	29200.97
731.565	28882.56
731.906	28996
732.248	28947.19
732.589	28847.08
732.93	28715.78
733.271	28859.28
733.612	28763.69
733.953	28839.4
734.294	28733.41
734.635	28716.91
734.976	28716.91
735.317	28565.51
735.658	28665.62
735.999	28669.01
736.339	28412.52
736.68	28617.71
737.021	28516.24
737.361	28337.49
737.702	28400.54
738.042	28214.55
738.383	28280.99
738.723	28241.9
739.063	28181.11
739.404	28358.28
739.744	28131.85
740.084	28064.5
740.424	28174.56
740.764	27963.71
741.104	27923.94
741.444	27881.91
741.784	27857.5
742.124	27808.69
742.464	27775.92
742.804	27748.58
743.143	27631.07
743.483	27703.61
743.823	27590.39
744.162	27583.38
744.502	27500.22
744.841	27441.47
745.181	27652.76
745.52	27505.87
745.86	27544.06
746.199	27490.28
746.538	27343.84
746.877	27469.04
747.216	27443.95
747.556	27320.79
747.895	27263.17
748.234	27197.41
748.573	27173.45
748.911	27088.71
749.25	27137.75
749.589	26945.66
749.928	27103.62
750.267	27010.29
750.605	26982.72
750.944	26943.85
751.283	26840.81
751.621	26935.49
751.96	26763.52
752.298	26847.81
752.636	26766.46
752.975	26592.9
753.313	26510.42
753.651	26724.42
753.989	26490.76
754.327	26478.78
754.666	26312.23
755.004	26397.43
755.342	26437.88
755.679	26470.87
756.017	26233.36
756.355	26334.6
756.693	26183.2
757.031	26249.18
757.368	26037.21
757.706	26101.39
758.044	25998.34
758.381	25943.88
758.719	25841.96
759.056	25855.75
759.394	25713.6
759.731	25604.91
760.068	25579.37
