Data from hue_330_FLMS001491_2.txt Node
Date: Mon Feb 06 15:44:47 GMT 2017
User: dcchb
Spectrometer: FLMS00149
Trigger mode: 0
Integration Time (sec): 2.000000E-2
Scans to average: 10
Electric dark correction enabled: true
Nonlinearity correction enabled: false
Boxcar width: 0
XAxis mode: Wavelengths
Number of Pixels in Spectrum: 2048
>>>>>Begin Spectral Data<<<<<
341.393	-10.2
341.776	-10.2
342.16	-10.2
342.543	-59.01
342.927	-81.61
343.31	-71.89
343.693	-84.32
344.077	-63.08
344.46	-54.49
344.843	-55.62
345.226	-56.07
345.61	-17.88
345.993	-14.04
346.376	-1.61
346.759	13.98
347.142	17.37
347.525	32.29
347.908	57.15
348.291	80.2
348.674	112.29
349.057	105.73
349.44	122.23
349.823	139.4
350.206	175.79
350.588	193.19
350.971	190.25
351.354	218.05
351.737	242.68
352.119	235.9
352.502	269.8
352.884	270.47
353.267	289
353.65	315.67
354.032	304.6
354.414	302.34
354.797	303.01
355.179	311.15
355.562	329.68
355.944	313.64
356.326	312.96
356.709	331.26
357.091	337.14
357.473	342.34
357.855	322.68
358.238	319.51
358.62	329
359.002	335.78
359.384	335.1
359.766	336.01
360.148	343.69
360.53	329.91
360.912	344.14
361.294	310.7
361.676	343.24
362.057	335.1
362.439	326.97
362.821	336.46
363.203	335.78
363.584	333.75
363.966	331.94
364.348	319.29
364.729	322.68
365.111	326.97
365.493	313.18
365.874	303.69
366.256	319.06
366.637	321.77
367.019	313.86
367.4	322.68
367.781	310.25
368.163	309.79
368.544	309.34
368.925	313.41
369.306	301.43
369.688	303.69
370.069	313.86
370.45	309.57
370.831	308.21
371.212	299.62
371.593	292.17
371.974	316.8
372.355	311.38
372.736	308.44
373.117	324.26
373.498	327.19
373.879	310.7
374.26	321.32
374.641	301.66
375.021	320.42
375.402	307.53
375.783	315.44
376.163	317.03
376.544	322.22
376.925	333.3
377.305	312.73
377.686	324.71
378.066	331.94
378.447	334.88
378.827	338.49
379.208	331.71
379.588	355.44
379.968	314.77
380.349	341.66
380.729	324.48
381.109	345.27
381.489	356.8
381.87	316.8
382.25	341.21
382.63	340.53
383.01	353.18
383.39	346.4
383.77	322
384.15	329.23
384.53	354.09
384.91	363.13
385.29	340.08
385.67	344.14
386.049	338.72
386.429	358.38
386.809	352.05
387.189	364.48
387.568	350.02
387.948	352.28
388.328	347.76
388.707	346.63
389.087	359.51
389.466	362.67
389.846	353.63
390.225	364.71
390.605	380.53
390.984	368.32
391.363	357.25
391.743	373.97
392.122	351.6
392.501	383.24
392.881	366.97
393.26	370.13
393.639	385.5
394.018	365.61
394.397	384.14
394.776	359.51
395.155	372.17
395.534	365.16
395.913	375.33
396.292	382.56
396.671	398.61
397.05	392.96
397.429	394.09
397.808	385.05
398.186	380.3
398.565	394.31
398.944	388.89
399.323	396.57
399.701	408.32
400.08	405.16
400.458	402.67
400.837	414.65
401.215	414.2
401.594	423.92
401.972	411.26
402.351	407.19
402.729	420.3
403.107	407.87
403.486	417.81
403.864	426.18
404.242	406.29
404.62	435.21
404.999	423.46
405.377	415.78
405.755	433.18
406.133	426.63
406.511	429.79
406.889	447.64
407.267	467.08
407.645	440.19
408.023	441.99
408.401	434.31
408.779	462.56
409.156	453.75
409.534	474.99
409.912	489
410.29	474.31
410.667	467.53
411.045	487.64
411.422	469.34
411.8	470.24
412.178	510.24
412.555	501.43
412.933	517.25
413.31	536.45
413.687	511.14
414.065	493.29
414.442	510.69
414.819	525.16
415.197	536.91
415.574	562.89
415.951	555.44
416.328	576
416.705	568.77
417.082	552.95
417.46	565.38
417.837	585.72
418.214	591.82
418.591	575.1
418.967	592.27
419.344	627.75
419.721	596.11
420.098	602.44
420.475	592.95
420.852	601.99
421.228	627.75
421.605	623.23
421.982	624.81
422.358	638.15
422.735	639.95
423.111	653.06
423.488	649.22
423.864	671.37
424.241	658.94
424.617	688.99
424.994	672.95
425.37	665.94
425.746	693.96
426.123	709.33
426.499	691.93
426.875	704.81
427.251	729.22
427.627	730.57
428.003	728.31
428.379	750.91
428.756	760.63
429.132	780.06
429.507	775.54
429.883	761.53
430.259	799.72
430.635	785.94
431.011	768.77
431.387	806.5
431.763	806.05
432.138	823.68
432.514	832.04
432.89	845.15
433.265	876.11
433.641	848.09
434.016	854.64
434.392	870.68
434.767	886.5
435.143	870.46
435.518	894.41
435.894	898.71
436.269	935.54
436.644	893.06
437.02	913.17
437.395	907.74
437.77	942.55
438.145	935.09
438.52	977.8
438.895	952.26
439.271	967.63
439.646	979.83
440.021	996.33
440.395	990.91
440.77	990.45
441.145	982.77
441.52	1046.27
441.895	1019.83
442.27	1021.41
442.645	1029.1
443.019	1036.33
443.394	1017.35
443.769	1056.44
444.143	1052.6
444.518	1059.83
444.892	1050.79
445.267	1106.84
445.641	1082.66
446.016	1075.88
446.39	1078.59
446.764	1081.53
447.139	1080.85
447.513	1068.42
447.887	1070
448.262	1109.32
448.636	1097.12
449.01	1098.93
449.384	1104.58
449.758	1118.81
450.132	1146.16
450.506	1127.85
450.88	1146.16
451.254	1119.26
451.628	1132.6
452.002	1139.15
452.376	1154.74
452.75	1157
453.123	1197.91
453.497	1181.86
453.871	1174.86
454.244	1197
454.618	1204.69
454.992	1230.45
455.365	1230.67
455.739	1241.3
456.112	1258.47
456.486	1276.32
456.859	1265.7
457.232	1286.27
457.606	1271.12
457.979	1278.13
458.352	1333.95
458.725	1316.77
459.099	1291.92
459.472	1345.25
459.845	1344.34
460.218	1384.57
460.591	1352.48
460.964	1361.74
461.337	1407.84
461.71	1411.46
462.083	1431.57
462.456	1424.12
462.829	1425.7
463.201	1474.74
463.574	1423.44
463.947	1477.45
464.32	1484.23
464.692	1498.69
465.065	1509.08
465.438	1498.01
465.81	1554.96
466.183	1557.67
466.555	1566.26
466.928	1546.15
467.3	1597.44
467.672	1579.14
468.045	1617.56
468.417	1662.3
468.789	1626.14
469.161	1645.35
469.534	1678.35
469.906	1687.84
470.278	1710.44
470.65	1761.28
471.022	1742.07
471.394	1765.12
471.766	1802.18
472.138	1789.53
472.51	1834.05
472.882	1855.97
473.253	1860.26
473.625	1892.13
473.997	1930.09
474.369	1888.51
474.74	1944.33
475.112	1973.03
475.484	1983.2
475.855	2038.56
476.227	2038.79
476.598	2062.52
476.97	2070.88
477.341	2137.09
477.713	2136.64
478.084	2145.23
478.455	2159.91
478.827	2207.6
479.198	2288.27
479.569	2275.17
479.94	2333.24
480.311	2350.19
480.682	2374.82
481.053	2421.6
481.424	2430.42
481.795	2435.39
482.166	2502.05
482.537	2563.29
482.908	2572.33
483.279	2602.84
483.65	2669.05
484.021	2658.21
484.391	2711.54
484.762	2706.12
485.133	2720.13
485.503	2773.01
485.874	2819.33
486.244	2792.89
486.615	2866.56
486.985	2915.15
487.356	2941.14
487.726	2946.79
488.097	3002.83
488.467	3009.16
488.837	3088.03
489.207	3068.14
489.578	3149.95
489.948	3165.54
490.318	3181.36
490.688	3199.44
491.058	3253.22
491.428	3267.68
491.798	3331.41
492.168	3381.13
492.538	3349.71
492.908	3406.44
493.278	3424.06
493.648	3487.79
494.017	3497.51
494.387	3530.73
494.757	3535.25
495.126	3568.69
495.496	3542.48
495.866	3581.12
496.235	3598.52
496.605	3624.96
496.974	3686.43
497.344	3677.84
497.713	3698.63
498.082	3734.34
498.452	3767.33
498.821	3755.13
499.19	3795.58
499.559	3831.28
499.928	3861.57
500.298	3849.36
500.667	3904.28
501.036	3875.12
501.405	3901.34
501.774	3911.51
502.143	3949.02
502.512	3944.73
502.88	4013.43
503.249	3952.64
503.618	3966.87
503.987	4065.63
504.356	4102.01
504.724	4037.61
505.093	4092.07
505.462	4069.7
505.83	4122.35
506.199	4130.48
506.567	4113.76
506.936	4152.63
507.304	4171.84
507.672	4206.19
508.041	4243.7
508.409	4181.1
508.777	4243.25
509.145	4278.28
509.514	4299.07
509.882	4343.81
510.25	4279.86
510.618	4327.99
510.986	4291.61
511.354	4374.09
511.722	4352.85
512.09	4425.84
512.458	4371.16
512.826	4466.97
513.193	4421.78
513.561	4442.57
513.929	4430.36
514.297	4528.21
514.664	4508.55
515.032	4523.24
515.4	4548.78
515.767	4539.74
516.135	4524.82
516.502	4507.2
516.869	4623.58
517.237	4628.32
517.604	4601.43
517.972	4640.98
518.339	4655.89
518.706	4635.33
519.073	4683.01
519.44	4704.71
519.808	4706.74
520.175	4717.14
520.542	4694.76
520.909	4759.85
521.276	4804.37
521.643	4768.21
522.009	4856.79
522.376	4814.08
522.743	4874.87
523.11	4875.1
523.477	4891.82
523.843	4906.51
524.21	4980.41
524.577	4984.7
524.943	5000.74
525.31	4972.95
525.676	5084.36
526.043	5119.61
526.409	5082.78
526.776	5157.35
527.142	5117.13
527.508	5203.45
527.874	5200.74
528.241	5201.42
528.607	5234.18
528.973	5300.4
529.339	5260.85
529.705	5306.27
530.071	5410.68
530.437	5426.5
530.803	5405.48
531.169	5418.81
531.535	5428.53
531.901	5504.46
532.267	5482.31
532.632	5489.32
532.998	5529.54
533.364	5534.97
533.73	5528.19
534.095	5657.68
534.461	5604.34
534.826	5624
535.192	5663.33
535.557	5672.14
535.923	5680.73
536.288	5686.83
536.653	5749.43
537.019	5726.15
537.384	5820.61
537.749	5814.28
538.114	5774.74
538.479	5820.16
538.845	5915.52
539.21	5878.69
539.575	5944.45
539.94	5952.36
540.305	6023.99
540.67	5977.44
541.034	6037.1
541.399	6046.59
541.764	6033.26
542.129	6052.02
542.494	6082.3
542.858	6124.56
543.223	6135.18
543.587	6190.54
543.952	6197.55
544.316	6206.36
544.681	6213.14
545.045	6247.27
545.41	6266.47
545.774	6356.19
546.138	6331.33
546.503	6357.32
546.867	6371.78
547.231	6477.99
547.595	6493.81
547.959	6444.32
548.324	6482.29
548.688	6509.63
549.052	6503.98
549.416	6553.47
549.779	6568.16
550.143	6597.31
550.507	6611.32
550.871	6679.12
551.235	6623.07
551.599	6648.16
551.962	6731.77
552.326	6698.78
552.689	6752.34
553.053	6769.51
553.417	6772.68
553.78	6826.68
554.143	6756.86
554.507	6837.76
554.87	6840.24
555.234	6938.32
555.597	6806.57
555.96	6902.16
556.323	6897.19
556.686	6950.3
557.05	6987.36
557.413	7018.77
557.776	7002.95
558.139	7019.67
558.502	7082.72
558.865	7032.33
559.228	7094.93
559.59	7138.09
559.953	7148.94
560.316	7198.65
560.679	7195.49
561.041	7195.04
561.404	7266
561.767	7264.64
562.129	7310.06
562.492	7319.55
562.854	7381.02
563.217	7359.55
563.579	7376.5
563.941	7447.01
564.304	7500.34
564.666	7486.33
565.028	7548.47
565.39	7527.01
565.753	7590.96
566.115	7647.45
566.477	7659.66
566.839	7622.37
567.201	7685.42
567.563	7624.86
567.925	7725.42
568.287	7698.07
568.648	7727.68
569.01	7827.56
569.372	7827.11
569.734	7842.93
570.095	7948.01
570.457	7930.38
570.819	7984.62
571.18	7977.39
571.542	8063.04
571.903	8138.51
572.265	8186.65
572.626	8152.53
572.987	8149.14
573.349	8223.48
573.71	8288.34
574.071	8358.17
574.432	8381.9
574.794	8539.18
575.155	8464.38
575.516	8546.19
575.877	8589.58
576.238	8669.12
576.599	8766.07
576.96	8745.05
577.32	8820.76
577.681	8880.64
578.042	9030.47
578.403	9174.65
578.763	9198.6
579.124	9247.19
579.485	9367.64
579.845	9451.25
580.206	9507.07
580.566	9659.38
580.927	9728.3
581.287	9896.43
581.648	9997.22
582.008	10205.13
582.368	10251.68
582.728	10408.74
583.089	10555.17
583.449	10703.19
583.809	10835.62
584.169	11009.85
584.529	11184.54
584.889	11376.4
585.249	11547.46
585.609	11703.84
585.969	11936.16
586.329	12179.99
586.688	12345.64
587.048	12583.37
587.408	12792.4
587.768	13067.65
588.127	13214.09
588.487	13440.75
588.846	13709.44
589.206	13875.99
589.565	14092.93
589.925	14450.67
590.284	14648.63
590.643	14981.5
591.003	15200.25
591.362	15460.81
591.721	15782.38
592.08	16029.83
592.44	16335.81
592.799	16649.7
593.158	16812.41
593.517	17203.14
593.876	17465.95
594.235	17625.05
594.593	18052.38
594.952	18319.49
595.311	18545.47
595.67	18916.31
596.029	19258.45
596.387	19629.96
596.746	19795.16
597.104	20090.97
597.463	20433.78
597.822	20728.92
598.18	20936.14
598.538	21214.33
598.897	21600.08
599.255	21751.72
599.613	22271.48
599.972	22400.51
600.33	22718.92
600.688	22893.38
601.046	23327.95
601.404	23768.39
601.762	23847.93
602.12	24191.88
602.478	24501.02
602.836	24821.24
603.194	24874.12
603.552	25194.56
603.91	25440.43
604.268	25713.87
604.625	25921.32
604.983	26340.97
605.341	26448.32
605.698	26886.5
606.056	27117.45
606.413	27288.29
606.771	27601.73
607.128	27851.22
607.485	28014.15
607.843	28267.7
608.2	28446.23
608.557	28825.88
608.914	28903.17
609.272	29386.77
609.629	29481.23
609.986	29939.3
610.343	29893.87
610.7	30297.71
611.057	30479.4
611.414	30591.03
611.771	30739.05
612.127	31044.58
612.484	31190.11
612.841	31478.24
613.198	31538.13
613.554	31632.36
613.911	32027.15
614.267	32186.92
614.624	32235.73
614.98	32492
615.337	32790.07
615.693	32782.61
616.05	32866.68
616.406	33138.99
616.762	33284.52
617.118	33468.02
617.475	33537.17
617.831	33761.12
618.187	33899.19
618.543	34183.71
618.899	34334.44
619.255	34446.3
619.611	34480.65
619.967	34653.3
620.323	34951.14
620.678	34913.63
621.034	35022.33
621.39	35166.73
621.746	35088.54
622.101	35688.75
622.457	35462.09
622.812	35531.47
623.168	35901.17
623.523	35832.25
623.879	36016.2
624.234	35891.01
624.589	36020.95
624.945	36210.32
625.3	36274.27
625.655	36285.8
626.01	36424.78
626.365	36497.32
626.72	36608.95
627.075	36561.95
627.43	36561.27
627.785	36530.76
628.14	36762.39
628.495	36840.13
628.85	36910.87
629.205	36719.91
629.559	37080.13
629.914	36939.79
630.269	37042.39
630.623	37152.89
630.978	37079.22
631.332	37315.15
631.687	37352.89
632.041	37296.39
632.396	37351.98
632.75	37321.7
633.104	37407.35
633.459	37235.15
633.813	37366.9
634.167	37333.45
634.521	37368.48
634.875	37450.96
635.229	37405.77
635.583	37278.09
635.937	37404.41
636.291	37295.26
636.645	37413.23
636.999	37342.27
637.352	37530.74
637.706	37211.65
638.06	37462.26
638.413	37275.83
638.767	37244.42
639.121	37402.15
639.474	37153.12
639.828	37263.4
640.181	37250.29
640.534	37322.38
640.888	37335.71
641.241	37120.13
641.594	37173.68
641.947	37359.22
642.301	37194.02
642.654	37240.57
643.007	37292.1
643.36	37227.92
643.713	37160.12
644.066	37354.7
644.419	37209.84
644.771	37000.81
645.124	36521.05
645.477	36503.42
645.83	36396.08
646.182	36333.03
646.535	36099.14
646.888	36177.1
647.24	36115.41
647.593	36257.55
647.945	36211
648.298	36128.51
648.65	35961.06
649.002	35980.49
649.355	36154.5
649.707	36073.6
650.059	36269.53
650.411	36609.63
650.763	36632.45
651.115	37019.11
651.467	36987.02
651.819	36888.27
652.171	36864.09
652.523	36933.01
652.875	36789.29
653.227	36661.61
653.578	36874.93
653.93	36800.36
654.282	36558.78
654.633	36446.7
654.985	36707.48
655.337	36706.58
655.688	36616.41
656.039	36742.96
656.391	36428.39
656.742	36448.28
657.094	36620.7
657.445	36615.05
657.796	36751.32
658.147	36535.96
658.498	36650.08
658.849	36626.13
659.2	36650.76
659.551	36472.69
659.902	36673.36
660.253	36589.97
660.604	36636.3
660.955	36539.58
661.306	36511.33
661.656	36557.88
662.007	36617.09
662.358	36609.4
662.708	36547.94
663.059	36520.59
663.409	36314.72
663.76	36550.2
664.11	36569.63
664.461	36520.14
664.811	36563.76
665.161	36412.12
665.511	36383.87
665.862	36448.5
666.212	36599.46
666.562	36608.73
666.912	36481.27
667.262	36393.82
667.612	36377.09
667.962	36349.52
668.312	36416.19
668.662	36641.72
669.011	36451.89
669.361	36472.46
669.711	36238.34
670.06	36211.9
670.41	36322.18
670.76	36258.23
671.109	36433.36
671.459	36272.46
671.808	36206.25
672.157	36271.79
672.507	36037.89
672.856	36166.48
673.205	36119.02
673.554	36192.47
673.904	36184.56
674.253	36423.19
674.602	36341.84
674.951	35638.36
675.3	35470
675.649	36227.04
675.998	36170.55
676.346	36064.79
676.695	36106.82
677.044	35860.5
677.393	36048.06
677.741	36082.64
678.09	36017.33
678.438	35922.19
678.787	35905.92
679.135	35965.58
679.484	35721.52
679.832	35920.61
680.181	35614.4
680.529	35816.88
680.877	35585.02
681.225	35613.95
681.573	35895.53
681.922	35603.56
682.27	35491.69
682.618	35596.1
682.966	35378.02
683.314	35540.28
683.661	35423.45
684.009	35231.59
684.357	35194.53
684.705	35110.46
685.053	35225.26
685.4	35106.62
685.748	34841.09
686.095	34907.3
686.443	34894.42
686.79	34784.37
687.138	34842.9
687.485	34854.87
687.832	34705.95
688.18	34721.77
688.527	34599.06
688.874	34584.37
689.221	34555
689.568	34513.87
689.915	34426.86
690.262	34363.14
690.609	34121.56
690.956	34124.5
691.303	34049.25
691.65	33935.8
691.997	33913.2
692.344	33713.21
692.69	33622.14
693.037	33752.08
693.383	33382.6
693.73	33546.43
694.077	33480.9
694.423	33411.75
694.769	33239.55
695.116	33253.11
695.462	33131.08
695.808	33062.15
696.155	33085.2
696.501	32787.81
696.847	32807.7
697.193	32732.44
697.539	32671.88
697.885	32505.56
698.231	32359.8
698.577	32447.93
698.923	32341.49
699.269	32241.38
699.614	32125.91
699.96	32099.24
700.306	32163.19
700.651	31917.55
700.997	31796.88
701.342	31696.09
701.688	31850.89
702.033	31612.93
702.379	31695.41
702.724	31490.67
703.069	31562.53
703.415	31317.79
703.76	31193.5
704.105	31207.96
704.45	31072.15
704.795	30944.47
705.14	30925.03
705.485	30890.23
705.83	30810.69
706.175	30835.09
706.52	30799.61
706.865	30544.25
707.209	30630.35
707.554	30466.06
707.899	30564.59
708.243	30270.36
708.588	30370.7
708.932	30140.87
709.277	30096.58
709.621	30158.27
709.966	29868.34
710.31	29978.84
710.654	29722.35
710.998	29810.94
711.342	29843.48
711.687	29716.03
712.031	29693.43
712.375	29576.14
712.719	29622.7
713.063	29518.07
713.407	29611.85
713.75	29455.92
714.094	29395.58
714.438	29126.66
714.782	29258.41
715.125	29066.78
715.469	29138.19
715.812	29068.36
716.156	28821.36
716.499	28803.96
716.843	28793.56
717.186	28636.51
717.53	28768.93
717.873	28700.01
718.216	28705.43
718.559	28535.27
718.902	28404.87
719.246	28591.31
719.589	28549.73
719.932	28317.65
720.275	28252.56
720.617	28236.52
720.96	28316.52
721.303	28288.49
721.646	28168.27
721.989	28013.47
722.331	28168.72
722.674	27950.65
723.016	27995.39
723.359	27945.23
723.701	28015.51
724.044	27900.93
724.386	27686.48
724.729	27773.7
725.071	27744.55
725.413	27770.09
725.755	27669.53
726.097	27622.3
726.439	27335.75
726.782	27359.03
727.124	27564.9
727.465	27362.87
727.807	27345.02
728.149	27225.92
728.491	27264.57
728.833	27284.9
729.175	27298.24
729.516	27016.44
729.858	26956.1
730.199	27119.03
730.541	27065.93
730.882	26954.97
731.224	27023.67
731.565	26828.64
731.906	26989.77
732.248	26914.07
732.589	26797.01
732.93	26644.69
733.271	26648.99
733.612	26747.52
733.953	26710.68
734.294	26507.75
734.635	26539.84
734.976	26490.12
735.317	26406.51
735.658	26312.5
735.999	26424.36
736.339	26411.93
736.68	26396.57
737.021	26410.12
737.361	26046.97
737.702	26368.32
738.042	26163.58
738.383	26175.78
738.723	26167.42
739.063	26022.34
739.404	26187.31
739.744	25984.6
740.084	25964.94
740.424	26051.49
740.764	25893.75
741.104	26058.72
741.444	25787.77
741.784	25655.12
742.124	25734.21
742.464	25751.16
742.804	25718.17
743.143	25640.88
743.483	25680.43
743.823	25540.09
744.162	25655.79
744.502	25540.32
744.841	25447.66
745.181	25502.35
745.52	25276.82
745.86	25355.69
746.199	25216.26
746.538	25293.54
746.877	25407.89
747.216	25256.93
747.556	25141.91
747.895	25234.34
748.234	24976.49
748.573	25075.24
748.911	24991.63
749.25	25007.22
749.589	24854.01
749.928	24884.74
750.267	24921.12
750.605	24892.65
750.944	24709.6
751.283	24590.51
751.621	24768.59
751.96	24651.07
752.298	24563.62
752.636	24615.14
752.975	24483.85
753.313	24369.27
753.651	24461.25
753.989	24319.78
754.327	24287.02
754.666	24193.69
755.004	24137.87
755.342	24237.53
755.679	24047.02
756.017	24028.04
756.355	23983.52
756.693	23952.79
757.031	23951.21
757.368	23802.51
757.706	23790.31
758.044	23732.46
758.381	23760.02
758.719	23647.94
759.056	23663.76
759.394	23582.4
759.731	23321.17
760.068	23402.52
