Data from hue_32_FLMS001491_00074.txt Node
Date: Tue Feb 07 17:23:53 GMT 2017
User: dcchb
Spectrometer: FLMS00149
Trigger mode: 0
Integration Time (sec): 2.000000E-2
Scans to average: 10
Electric dark correction enabled: true
Nonlinearity correction enabled: false
Boxcar width: 0
XAxis mode: Wavelengths
Number of Pixels in Spectrum: 2048
>>>>>Begin Spectral Data<<<<<
341.393	-30.38
341.776	-30.38
342.16	-30.38
342.543	-69.93
342.927	-53.43
343.31	-59.76
343.693	-76.71
344.077	-68.57
344.46	-77.16
344.843	-68.35
345.226	-60.66
345.61	-39.42
345.993	-9.59
346.376	-6.2
346.759	14.59
347.142	23.18
347.525	72.89
347.908	64.31
348.291	69.96
348.674	120.12
349.057	101.37
349.44	123.97
349.823	155.83
350.206	158.32
350.588	206.45
350.971	202.16
351.354	230.63
351.737	237.63
352.119	256.62
352.502	249.61
352.884	269.5
353.267	272.21
353.65	284.41
354.032	310.18
354.414	311.76
354.797	329.61
355.179	344.98
355.562	344.52
355.944	343.85
356.326	331.19
356.709	329.61
357.091	335.94
357.473	339.33
357.855	333.68
358.238	352.89
358.62	342.94
359.002	343.17
359.384	364.41
359.766	343.85
360.148	342.49
360.53	326.45
360.912	357.41
361.294	347.69
361.676	350.85
362.057	343.39
362.439	320.8
362.821	313.34
363.203	335.26
363.584	329.84
363.966	354.02
364.348	325.54
364.729	332.32
365.111	320.34
365.493	334.58
365.874	321.7
366.256	313.11
366.637	331.42
367.019	322.15
367.4	302.27
367.781	320.57
368.163	329.84
368.544	319.21
368.925	340.68
369.306	337.52
369.688	314.7
370.069	331.64
370.45	309.95
370.831	328.25
371.212	319.89
371.593	315.83
371.974	356.95
372.355	343.85
372.736	330.97
373.117	327.8
373.498	313.79
373.879	342.94
374.26	305.66
374.641	308.14
375.021	307.24
375.402	312.21
375.783	328.48
376.163	339.33
376.544	324.41
376.925	345.43
377.305	318.31
377.686	344.3
378.066	356.95
378.447	356.95
378.827	326.67
379.208	327.12
379.588	351.53
379.968	357.86
380.349	332.32
380.729	356.05
381.109	338.2
381.489	347.69
381.87	345.43
382.25	347.69
382.63	343.85
383.01	357.63
383.39	347.01
383.77	333.68
384.15	341.59
384.53	357.86
384.91	367.8
385.29	347.24
385.67	362.6
386.049	360.12
386.429	373.9
386.809	340.46
387.189	379.55
387.568	350.63
387.948	365.09
388.328	337.97
388.707	371.64
389.087	357.41
389.466	375.71
389.846	366.45
390.225	373.45
390.605	362.83
390.984	387.46
391.363	368.25
391.743	383.85
392.122	368.03
392.501	368.93
392.881	378.2
393.26	374.81
393.639	385.2
394.018	389.27
394.397	373.22
394.776	377.74
395.155	379.1
395.534	370.96
395.913	392.89
396.292	385.65
396.671	390.85
397.05	391.98
397.429	389.04
397.808	395.14
398.186	401.92
398.565	382.94
398.944	381.13
399.323	382.49
399.701	377.52
400.08	392.89
400.458	394.92
400.837	396.95
401.215	404.64
401.594	394.47
401.972	391.76
402.351	410.06
402.729	401.92
403.107	422.71
403.486	429.04
403.864	419.78
404.242	422.71
404.62	431.3
404.999	428.36
405.377	408.03
405.755	430.85
406.133	432.66
406.511	417.52
406.889	428.14
407.267	436.95
407.645	441.02
408.023	437.4
408.401	443.73
408.779	455.26
409.156	442.38
409.534	450.96
409.912	458.19
410.29	438.53
410.667	450.06
411.045	439.89
411.422	450.28
411.8	459.55
412.178	453
412.555	461.36
412.933	461.36
413.31	481.7
413.687	485.99
414.065	488.48
414.442	467.46
414.819	485.76
415.197	468.14
415.574	491.87
415.951	476.27
416.328	487.35
416.705	486.22
417.082	488.7
417.46	516.5
417.837	499.77
418.214	499.55
418.591	504.07
418.967	516.95
419.344	536.16
419.721	507.46
420.098	517.4
420.475	523.28
420.852	485.54
421.228	526.89
421.605	554.69
421.982	526.21
422.358	521.02
422.735	514.01
423.111	567.8
423.488	547.23
423.864	550.85
424.241	554.91
424.617	571.86
424.994	580.9
425.37	567.34
425.746	578.64
426.123	546.33
426.499	567.12
426.875	575.03
427.251	591.52
427.627	598.76
428.003	598.08
428.379	598.76
428.756	595.37
429.132	609.83
429.507	615.03
429.883	597.63
430.259	619.55
430.635	611.41
431.011	627.23
431.387	658.87
431.763	661.58
432.138	643.73
432.514	670.39
432.89	659.54
433.265	671.75
433.641	673.56
434.016	670.62
434.392	661.8
434.767	679.88
435.143	678.75
435.518	685.53
435.894	719.88
436.269	694.57
436.644	716.27
437.02	690.73
437.395	721.69
437.77	711.75
438.145	716.72
438.52	719.2
438.895	761.91
439.271	711.97
439.646	748.81
440.021	756.94
440.395	735.48
440.77	764.85
441.145	765.76
441.52	765.08
441.895	773.67
442.27	777.51
442.645	775.47
443.019	770.95
443.394	784.97
443.769	779.77
444.143	780.22
444.518	798.52
444.892	794
445.267	808.69
445.641	798.98
446.016	815.25
446.39	806.43
446.764	829.03
447.139	814.34
447.513	840.33
447.887	828.58
448.262	837.85
448.636	842.36
449.01	842.14
449.384	854.79
449.758	882.36
450.132	862.93
450.506	867.22
450.88	870.84
451.254	871.74
451.628	876.49
452.002	911.29
452.376	881.01
452.75	893.89
453.123	881.46
453.497	923.72
453.871	917.84
454.244	917.84
454.618	948.12
454.992	988.58
455.365	968.01
455.739	981.12
456.112	985.64
456.486	967.11
456.859	971.85
457.232	991.06
457.606	1002.13
457.979	1023.38
458.352	1029.03
458.725	1048.69
459.099	1051.85
459.472	1088.01
459.845	1096.6
460.218	1068.12
460.591	1100.66
460.964	1103.83
461.337	1115.8
461.71	1139.98
462.083	1173.2
462.456	1162.58
462.829	1167.78
463.201	1192.41
463.574	1206.65
463.947	1215.24
464.32	1202.81
464.692	1257.72
465.065	1239.42
465.438	1245.97
465.81	1278.29
466.183	1302.47
466.555	1306.99
466.928	1346.31
467.3	1299.3
467.672	1332.97
468.045	1368.45
468.417	1404.16
468.789	1417.26
469.161	1447.55
469.534	1435.12
469.906	1459.75
470.278	1478.51
470.65	1504.72
471.022	1530.93
471.394	1560.76
471.766	1603.7
472.138	1577.71
472.51	1633.76
472.882	1652.74
473.253	1666.07
473.625	1718.95
473.997	1746.52
474.369	1804.37
474.74	1806.41
475.112	1859.06
475.484	1866.07
475.855	1922.79
476.227	1948.78
476.598	1993.07
476.97	2015.44
477.341	2082.11
477.713	2113.97
478.084	2149
478.455	2226.96
478.827	2223.57
479.198	2301.54
479.569	2348.77
479.94	2440.97
480.311	2451.59
480.682	2540.17
481.053	2581.3
481.424	2639.15
481.795	2705.59
482.166	2736.78
482.537	2821.97
482.908	2873.27
483.279	2982.87
483.65	2969.09
484.021	3075.75
484.391	3157.56
484.762	3209.31
485.133	3249.53
485.503	3317.78
485.874	3411.56
486.244	3491.11
486.615	3543.54
486.985	3650.65
487.356	3746.47
487.726	3790.76
488.097	3866.92
488.467	3940.59
488.837	4050.64
489.207	4131.09
489.578	4228.94
489.948	4259.22
490.318	4383.51
490.688	4442.5
491.058	4522.27
491.428	4649.95
491.798	4673.45
492.168	4820.11
492.538	4870.06
492.908	4900.34
493.278	4995.7
493.648	5083.84
494.017	5182.82
494.387	5270.95
494.757	5290.84
495.126	5389.14
495.496	5466.88
495.866	5553.65
496.235	5585.97
496.605	5672.75
496.974	5698.73
497.344	5808.34
497.713	5846.53
498.082	5956.58
498.452	6005.84
498.821	6116.58
499.19	6147.99
499.559	6286.06
499.928	6290.36
500.298	6272.28
500.667	6426.85
501.036	6444.48
501.405	6565.83
501.774	6511.82
502.143	6604.47
502.512	6628.43
502.88	6806.5
503.249	6817.57
503.618	6847.4
503.987	6923.33
504.356	6945.48
504.724	7044.91
505.093	7070.9
505.462	7057.34
505.83	7179.6
506.199	7232.03
506.567	7352.02
506.936	7349.99
507.304	7439.48
507.672	7418.46
508.041	7506.37
508.409	7593.83
508.777	7565.13
509.145	7694.16
509.514	7701.17
509.882	7779.13
510.25	7837.44
510.618	7835.85
510.986	7937.77
511.354	7991.33
511.722	8086.69
512.09	8140.48
512.458	8123.53
512.826	8146.58
513.193	8190.65
513.561	8222.28
513.929	8256.41
514.297	8374.6
514.664	8409.62
515.032	8453.46
515.4	8474.71
515.767	8482.39
516.135	8604.42
516.502	8650.75
516.869	8714.02
517.237	8757.41
517.604	8756.51
517.972	8776.39
518.339	8861.14
518.706	8878.31
519.073	8928.93
519.44	8938.65
519.808	9037.86
520.175	8958.08
520.542	9114.92
520.909	9139.77
521.276	9217.74
521.643	9300.67
522.009	9318.07
522.376	9372.76
522.743	9436.72
523.11	9530.5
523.477	9567.33
523.843	9620.89
524.21	9757.38
524.577	9768.46
524.943	9791.06
525.31	9859.3
525.676	9944.5
526.043	9977.04
526.409	10045.06
526.776	10138.17
527.142	10072.18
527.508	10185.62
527.874	10179.07
528.241	10322.57
528.607	10344.49
528.973	10376.35
529.339	10392.62
529.705	10496.35
530.071	10644.37
530.437	10622.9
530.803	10704.25
531.169	10710.13
531.535	10796.23
531.901	10862.67
532.267	10782.44
532.632	10908.99
532.998	10920.07
533.364	11026.73
533.73	11021.76
534.095	11168.65
534.461	11113.73
534.826	11175.43
535.192	11284.8
535.557	11342.43
535.923	11358.47
536.288	11394.86
536.653	11452.48
537.019	11441.63
537.384	11508.75
537.749	11574.29
538.114	11577.45
538.479	11681.63
538.845	11749.65
539.21	11745.36
539.575	11785.58
539.94	11800.95
540.305	11953.94
540.67	11935.18
541.034	11903.32
541.399	12015.63
541.764	12041.39
542.129	12131.56
542.494	12149.41
542.858	12173.14
543.223	12186.7
543.587	12227.38
543.952	12237.32
544.316	12390.31
544.681	12309.41
545.045	12383.3
545.41	12589.85
545.774	12545.33
546.138	12573.81
546.503	12623.98
546.867	12644.99
547.231	12756.85
547.595	12712.34
547.959	12812.9
548.324	12864.42
548.688	12936.51
549.052	12946.68
549.416	13014.93
549.779	13032.78
550.143	13091.08
550.507	13177.86
550.871	13225.99
551.235	13154.81
551.599	13320.45
551.962	13282.26
552.326	13343.51
552.689	13442.49
553.053	13452.65
553.417	13442.03
553.78	13586.89
554.143	13503.5
554.507	13541.92
554.87	13649.94
555.234	13746.88
555.597	13686.55
555.96	13760.22
556.323	13865.3
556.686	13851.29
557.05	13980.1
557.413	14019.87
557.776	14045.63
558.139	14182.35
558.502	14191.84
558.865	14179.19
559.228	14284.27
559.59	14377.6
559.953	14284.5
560.316	14434.1
560.679	14472.29
561.041	14590.25
561.404	14568.11
561.767	14625.28
562.129	14616.24
562.492	14787.76
562.854	14727.42
563.217	14781.21
563.579	14816.23
563.941	14908.44
564.304	14923.35
564.666	15010.81
565.028	15065.04
565.39	15058.94
565.753	15196.79
566.115	15217.81
566.477	15242.66
566.839	15366.95
567.201	15409.44
567.563	15307.97
567.925	15575.99
568.287	15579.38
568.648	15542.32
569.01	15721.75
569.372	15704.12
569.734	15700.51
570.095	15871.8
570.457	15917.67
570.819	15898.24
571.18	16021.63
571.542	16164.45
571.903	16145.69
572.265	16218.46
572.626	16327.83
572.987	16394.72
573.349	16379.13
573.71	16516.75
574.071	16576.19
574.432	16732.79
574.794	16928.5
575.155	16890.3
575.516	16928.95
575.877	17113.8
576.238	17187.7
576.599	17246.23
576.96	17375.04
577.32	17477.86
577.681	17592.66
578.042	17721.02
578.403	17750.17
578.763	17915.59
579.124	18008.69
579.485	18229.93
579.845	18529.81
580.206	18448.91
580.566	18658.17
580.927	18766.41
581.287	19102
581.648	19181.32
582.008	19406.17
582.368	19533.62
582.728	19763.9
583.089	19860.62
583.449	20063.1
583.809	20281.4
584.169	20492.92
584.529	20633.03
584.889	20988.73
585.249	20913.7
585.609	21283.64
585.969	21628.48
586.329	21725.66
586.688	22060.56
587.048	22266.66
587.408	22464.17
587.768	22651.96
588.127	22900.54
588.487	23081.55
588.846	23517.7
589.206	23650.35
589.565	23886.96
589.925	24159.94
590.284	24391.12
590.643	24696.2
591.003	25011.9
591.362	25368.05
591.721	25472.68
592.08	25812.56
592.44	26083.28
592.799	26355.37
593.158	26599.43
593.517	26883.49
593.876	27259.52
594.235	27360.76
594.593	27539.52
594.952	28010.92
595.311	28135.21
595.67	28390.34
596.029	28807.05
596.387	29056.31
596.746	29341.73
597.104	29488.84
597.463	29732.9
597.822	30105.32
598.18	30220.58
598.538	30540.79
598.897	31051.29
599.255	30934.45
599.613	31544.83
599.972	31720.87
600.33	31922.45
600.688	31970.13
601.046	32277.92
601.404	32725.14
601.762	32819.6
602.12	33253.49
602.478	33409.87
602.836	33572.58
603.194	33609.64
603.552	33861.84
603.91	33949.97
604.268	34411.65
604.625	34513.34
604.983	34785.2
605.341	34836.05
605.698	35121.46
606.056	35450.27
606.413	35483.04
606.771	35743.59
607.128	36063.81
607.485	36104.04
607.843	36196.24
608.2	36454.54
608.557	36891.13
608.914	36681.2
609.272	37044.8
609.629	37235.31
609.986	37607.73
610.343	37577.22
610.7	37874.16
611.057	37948.73
611.414	38079.8
611.771	38327.93
612.127	38494.48
612.484	38701.93
612.841	38950.74
613.198	38948.03
613.554	38992.1
613.911	39310.28
614.267	39426.44
614.624	39474.34
614.98	39613.1
615.337	40030.49
615.693	39995.46
616.05	40018.06
616.406	40310.93
616.762	40328.78
617.118	40382.12
617.475	40465.96
617.831	40614.88
618.187	40851.71
618.543	41012.38
618.899	41180.06
619.255	41192.94
619.611	41178.03
619.967	41424.12
620.323	41594.97
620.678	41524.68
621.034	41626.6
621.39	41601.07
621.746	41736.88
622.101	42187.94
622.457	41882.19
622.812	41998.34
623.168	42070.43
623.523	42142.97
623.879	42341.39
624.234	42108.4
624.589	42272.91
624.945	42396.3
625.3	42485.56
625.655	42509.52
626.01	42536.18
626.365	42727.37
626.72	42669.74
627.075	42777.53
627.43	42867.7
627.785	42709.29
628.14	42802.62
628.495	42907.7
628.85	43025.66
629.205	42743.41
629.559	42951.31
629.914	42878.32
630.269	43014.36
630.623	42865.89
630.978	42966.91
631.332	42960.58
631.687	43244.41
632.041	42929.85
632.396	43006.45
632.75	42976.62
633.104	42927.81
633.459	42960.81
633.813	43030.41
634.167	42953.35
634.521	43106.79
634.875	43130.52
635.229	43034.93
635.583	42801.26
635.937	42853.69
636.291	42827.93
636.645	42820.02
636.999	42781.15
637.352	42972.56
637.706	42749.06
638.06	42973.01
638.413	42889.62
638.767	42897.3
639.121	42907.25
639.474	42559.46
639.828	42760.36
640.181	42824.76
640.534	42786.8
640.888	42647.14
641.241	42574.6
641.594	42651.89
641.947	42688.72
642.301	42684.88
642.654	42679.68
643.007	42657.99
643.36	42697.54
643.713	42568.05
644.066	42887.36
644.419	42488.5
644.771	42257.55
645.124	41802.19
645.477	41776.88
645.83	41566.49
646.182	41492.82
646.535	41374.63
646.888	41426.83
647.24	41154.3
647.593	41492.6
647.945	41434.97
648.298	41284.69
648.65	41233.85
649.002	41090.12
649.355	41204.47
649.707	41286.5
650.059	41368.3
650.411	41896.88
650.763	41702.76
651.115	42197.66
651.467	42039.02
651.819	42088.96
652.171	42115.63
652.523	42049.87
652.875	41932.81
653.227	41887.39
653.578	42081.96
653.93	41951.11
654.282	41735.3
654.633	41685.13
654.985	41846.03
655.337	41870.89
655.688	41805.81
656.039	41951.11
656.391	41664.12
656.742	41780.95
657.094	41793.38
657.445	41912.7
657.796	41810.55
658.147	41709.09
658.498	41626.38
658.849	41774.17
659.2	41727.84
659.551	41608.52
659.902	41666.38
660.253	41761.97
660.604	41590.9
660.955	41511.58
661.306	41711.35
661.656	41606.26
662.007	41687.17
662.358	41736.2
662.708	41691.23
663.059	41589.32
663.409	41324.01
663.76	41679.94
664.11	41597.68
664.461	41626.38
664.811	41801.74
665.161	41681.52
665.511	41515.42
665.862	41585.47
666.212	41684.45
666.562	41656.88
666.912	41467.06
667.262	41324.24
667.612	41523.1
667.962	41498.25
668.312	41516.1
668.662	41716.09
669.011	41518.36
669.361	41417.57
669.711	41345.93
670.06	41368.76
670.41	41251.7
670.76	41133.96
671.109	41420.73
671.459	41306.84
671.808	41211.25
672.157	41413.95
672.507	41083.79
672.856	41107.75
673.205	41257.35
673.554	41388.87
673.904	41072.04
674.253	41298.7
674.602	41296.44
674.951	40712.5
675.3	40316.13
675.649	41132.38
675.998	40952.27
676.346	41035.66
676.695	41255.09
677.044	40822.78
677.393	40932.61
677.741	40965.6
678.09	40932.16
678.438	40903.68
678.787	41005.38
679.135	40940.75
679.484	40714.76
679.832	40720.19
680.181	40637.25
680.529	40690.36
680.877	40714.08
681.225	40599.06
681.573	40834.53
681.922	40458.72
682.27	40380.53
682.618	40393.64
682.966	40391.61
683.314	40436.35
683.661	40297.37
684.009	40275.9
684.357	39998.17
684.705	40129.69
685.053	40078.4
685.4	40073.2
685.748	39825.75
686.095	39762.92
686.443	39608.8
686.79	39618.75
687.138	39759.31
687.485	39701.91
687.832	39493.33
688.18	39504.4
688.527	39369.94
688.874	39271.86
689.221	39163.17
689.568	39151.87
689.915	39067.12
690.262	38978.54
690.609	38733.57
690.956	38757.53
691.303	38706.23
691.65	38552.56
691.997	38571.77
692.344	38432.79
692.69	38264.66
693.037	38357.76
693.383	38035.74
693.73	38146.24
694.077	38102.63
694.423	37857.89
694.769	37895.85
695.116	37738.57
695.462	37859.02
695.808	37791
696.155	37637.56
696.501	37455.64
696.847	37575.86
697.193	37162.99
697.539	37433.04
697.885	36997.57
698.231	37077.57
698.577	36953.51
698.923	37021.53
699.269	36679.39
699.614	36527.3
699.96	36473.97
700.306	36511.48
700.651	36305.61
700.997	36226.52
701.342	36129.12
701.688	35957.15
702.033	36050.7
702.379	36000.76
702.724	35847.32
703.069	35922.35
703.415	35475.58
703.76	35444.62
704.105	35448.23
704.45	35537.95
704.795	35221.12
705.14	35175.02
705.485	35027.45
705.83	34932.32
706.175	35142.93
706.52	34873.56
706.865	34845.54
707.209	34819.32
707.554	34542.95
707.899	34731.87
708.243	34636.05
708.588	34416.4
708.932	34250.75
709.277	34224.99
709.621	34399.9
709.966	34069.51
710.31	34158.55
710.654	33931.21
710.998	33878.33
711.342	33929.4
711.687	33686.7
712.031	33643.31
712.375	33556.31
712.719	33526.48
713.063	33567.61
713.407	33531.22
713.75	33367.61
714.094	33448.74
714.438	33229.76
714.782	33197.67
715.125	33070.44
715.469	33127.84
715.812	33130.56
716.156	32893.5
716.499	32765.82
716.843	32899.15
717.186	32656.44
717.53	32881.75
717.873	32756.1
718.216	32677.91
718.559	32613.28
718.902	32249.9
719.246	32517.92
719.589	32369.67
719.932	32225.27
720.275	32249.67
720.617	32224.36
720.96	32225.72
721.303	32118.15
721.646	32187.98
721.989	31843.13
722.331	32004.03
722.674	31926.75
723.016	31939.17
723.359	31782.34
723.701	31846.97
724.044	31649.24
724.386	31439.98
724.729	31569.47
725.071	31479.53
725.413	31539.64
725.755	31404.95
726.097	31305.29
726.439	31161.57
726.782	31220.32
727.124	31377.16
727.465	31089.48
727.807	31165.41
728.149	31090.38
728.491	31021.01
728.833	31123.15
729.175	30870.73
729.516	30816.94
729.858	30881.12
730.199	30859.2
730.541	30752.76
730.882	30693.11
731.224	30890.16
731.565	30525.88
731.906	30653.78
732.248	30674.35
732.589	30518.19
732.93	30306.22
733.271	30396.84
733.612	30374.02
733.953	30444.07
734.294	30289.5
734.635	30260.35
734.976	30251.99
735.317	30040.47
735.658	29998.43
735.999	30112.78
736.339	30122.27
736.68	30031.65
737.021	29936.06
737.361	29866.46
737.702	29920.24
738.042	29953.01
738.383	29877.53
738.723	29858.78
739.063	29724.77
739.404	29692.23
739.744	29704.66
740.084	29588.28
740.424	29642.51
740.764	29527.26
741.104	29629.4
741.444	29449.97
741.784	29349.86
742.124	29450.2
742.464	29463.08
742.804	29230.77
743.143	29260.83
743.483	29209.08
743.823	29087.95
744.162	29147.84
744.502	29202.3
744.841	29044.56
745.181	29062.87
745.52	28967.95
745.86	28974.73
746.199	28971.79
746.538	28842.98
746.877	28993.94
747.216	28937.45
747.556	28834.4
747.895	28870.55
748.234	28727.06
748.573	28664.46
748.911	28610.67
749.25	28503.33
749.589	28514.18
749.928	28454.29
750.267	28458.14
750.605	28311.02
750.944	28290.23
751.283	28254.53
751.621	28372.49
751.96	28117.13
752.298	28154.64
752.636	28117.13
752.975	28058.15
753.313	27904.93
753.651	27936.12
753.989	27821.32
754.327	27866.06
754.666	27627.2
755.004	27678.27
755.342	27767.31
755.679	27612.96
756.017	27584.71
756.355	27632.17
756.693	27539.52
757.031	27533.87
757.368	27303.59
757.706	27360.09
