Data from hue_230_FLMS001491_00059.txt Node
Date: Tue Feb 07 16:37:27 GMT 2017
User: dcchb
Spectrometer: FLMS00149
Trigger mode: 0
Integration Time (sec): 2.000000E-2
Scans to average: 10
Electric dark correction enabled: true
Nonlinearity correction enabled: false
Boxcar width: 0
XAxis mode: Wavelengths
Number of Pixels in Spectrum: 2048
>>>>>Begin Spectral Data<<<<<
341.393	-19.97
341.776	-19.97
342.16	-19.97
342.543	-62.46
342.927	-61.33
343.31	-69.46
343.693	-62.46
344.077	-73.98
344.46	-51.83
344.843	-43.47
345.226	-54.09
345.61	-25.85
345.993	-16.58
346.376	-20.2
346.759	22.06
347.142	11.89
347.525	30.42
347.908	65.68
348.291	76.07
348.674	95.96
349.057	115.84
349.44	116.07
349.823	158.56
350.206	157.65
350.588	178.89
350.971	236.29
351.354	238.1
351.737	212.34
352.119	244.88
352.502	242.17
352.884	260.7
353.267	266.57
353.65	278.33
354.032	276.74
354.414	306.57
354.797	311.77
355.179	312.68
355.562	318.55
355.944	324.88
356.326	320.13
356.709	312.22
357.091	328.95
357.473	343.86
357.855	313.81
358.238	339.12
358.62	325.1
359.002	340.7
359.384	314.03
359.766	335.73
360.148	345.22
360.53	326.69
360.912	326.69
361.294	296.86
361.676	311.32
362.057	328.04
362.439	326.01
362.821	315.61
363.203	319.45
363.584	335.05
363.966	302.51
364.348	320.81
364.729	331.43
365.111	301.38
365.493	301.38
365.874	294.37
366.256	299.34
366.637	298.44
367.019	312
367.4	312
367.781	304.31
368.163	320.58
368.544	293.69
368.925	308.16
369.306	290.08
369.688	303.18
370.069	286.01
370.45	323.52
370.831	303.41
371.212	307.93
371.593	311.77
371.974	287.82
372.355	320.81
372.736	319.91
373.117	316.29
373.498	317.87
373.879	295.5
374.26	306.35
374.641	287.59
375.021	317.87
375.402	315.39
375.783	311.32
376.163	324.43
376.544	324.43
376.925	306.12
377.305	324.2
377.686	312
378.066	318.55
378.447	308.61
378.827	309.96
379.208	324.2
379.588	322.39
379.968	323.52
380.349	332.34
380.729	331.88
381.109	324.88
381.489	326.69
381.87	335.05
382.25	329.85
382.63	322.62
383.01	332.56
383.39	334.14
383.77	355.16
384.15	331.88
384.53	335.05
384.91	321.71
385.29	344.09
385.67	330.53
386.049	363.97
386.429	338.66
386.809	347.25
387.189	348.61
387.568	366.69
387.948	340.47
388.328	355.61
388.707	351.09
389.087	341.6
389.466	359.68
389.846	339.57
390.225	363.75
390.605	358.78
390.984	333.01
391.363	350.41
391.743	331.43
392.122	355.61
392.501	366.23
392.881	353.35
393.26	354.26
393.639	355.16
394.018	365.1
394.397	374.82
394.776	363.75
395.155	369.62
395.534	379.11
395.913	387.25
396.292	373.69
396.671	379.34
397.05	387.93
397.429	395.16
397.808	390.41
398.186	380.7
398.565	383.18
398.944	382.28
399.323	392.9
399.701	383.86
400.08	382.5
400.458	387.7
400.837	386.8
401.215	404.65
401.594	408.04
401.972	419.57
402.351	427.93
402.729	400.13
403.107	402.16
403.486	416.63
403.864	393.35
404.242	408.94
404.62	435.61
404.999	454.82
405.377	420.92
405.755	443.97
406.133	439
406.511	429.28
406.889	450.3
407.267	462.28
407.645	453.69
408.023	466.12
408.401	462.05
408.779	463.86
409.156	484.2
409.534	480.35
409.912	478.55
410.29	492.78
410.667	487.81
411.045	508.15
411.422	510.41
411.8	515.16
412.178	547.7
412.555	530.97
412.933	533.23
413.31	534.14
413.687	567.36
414.065	534.36
414.442	536.4
414.819	556.06
415.197	554.93
415.574	549.28
415.951	573.01
416.328	590.63
416.705	576.85
417.082	586.79
417.46	612.78
417.837	606.23
418.214	615.72
418.591	626.79
418.967	630.63
419.344	641.93
419.721	643.97
420.098	636.51
420.475	656.85
420.852	658.65
421.228	663.85
421.605	690.97
421.982	709.73
422.358	693.91
422.735	720.8
423.111	726.22
423.488	732.78
423.864	758.54
424.241	755.38
424.617	761.48
424.994	775.04
425.37	766.22
425.746	777.3
426.123	829.27
426.499	832.44
426.875	813.45
427.251	833.79
427.627	869.95
428.003	859.55
428.379	859.55
428.756	882.6
429.132	892.77
429.507	890.51
429.883	908.59
430.259	916.05
430.635	934.35
431.011	928.7
431.387	937.97
431.763	969.38
432.138	996.73
432.514	947.91
432.89	972.32
433.265	1008.48
433.641	1027.23
434.016	1020.45
434.392	1074.24
434.767	1068.14
435.143	1067.46
435.518	1092.32
435.894	1127.12
436.269	1136.16
436.644	1146.1
437.02	1161.92
437.395	1193.33
437.77	1205.53
438.145	1216.38
438.52	1238.07
438.895	1262.71
439.271	1233.56
439.646	1283.72
440.021	1324.4
440.395	1313.1
440.77	1316.94
441.145	1328.02
441.52	1324.17
441.895	1360.56
442.27	1386.77
442.645	1368.24
443.019	1393.55
443.394	1418.64
443.769	1445.3
444.143	1417.96
444.518	1463.83
444.892	1456.15
445.267	1477.84
445.641	1472.19
446.016	1507.9
446.39	1497.95
446.764	1530.72
447.139	1511.06
447.513	1543.38
447.887	1535.69
448.262	1562.13
448.636	1565.98
449.01	1597.39
449.384	1595.81
449.758	1602.81
450.132	1625.86
450.506	1622.02
450.88	1660.66
451.254	1622.92
451.628	1663.37
452.002	1689.59
452.376	1690.72
452.75	1697.5
453.123	1711.51
453.497	1732.98
453.871	1743.37
454.244	1783.6
454.618	1786.76
454.992	1791.73
455.365	1824.05
455.739	1859.08
456.112	1853.43
456.486	1885.06
456.859	1918.96
457.232	1925.97
457.606	1905.63
457.979	1940.88
458.352	1978.62
458.725	2027.88
459.099	2048.67
459.472	2046.64
459.845	2081.89
460.218	2088
460.591	2125.51
460.964	2147.88
461.337	2137.03
461.71	2182.68
462.083	2169.12
462.456	2215.68
462.829	2218.16
463.201	2267.43
463.574	2236.92
463.947	2332.06
464.32	2356.24
464.692	2354.66
465.065	2359.85
465.438	2465.61
465.81	2453.86
466.183	2474.2
466.555	2513.07
466.928	2509
467.3	2491.83
467.672	2559.62
468.045	2646.4
468.417	2586.97
468.789	2655.44
469.161	2656.57
469.534	2689.79
469.906	2752.16
470.278	2788.54
470.65	2793.06
471.022	2857.47
471.394	2859.73
471.766	2896.56
472.138	2928.2
472.51	2968.65
472.882	2997.58
473.253	3079.83
473.625	3063.79
473.997	3148.98
474.369	3174.07
474.74	3227.4
475.112	3226.95
475.484	3300.62
475.855	3333.61
476.227	3394.18
476.598	3448.64
476.97	3434.85
477.341	3514.63
477.713	3591.01
478.084	3587.17
478.455	3668.52
478.827	3708.52
479.198	3799.14
479.569	3796.65
479.94	3908.97
480.311	3882.53
480.682	4054.5
481.053	4052.46
481.424	4120.71
481.795	4143.31
482.166	4208.17
482.537	4262.63
482.908	4364.55
483.279	4380.59
483.65	4441.83
484.021	4515.05
484.391	4539
484.762	4549.17
485.133	4592.34
485.503	4693.8
485.874	4773.58
486.244	4755.95
486.615	4889.05
486.985	4909.16
487.356	5016.28
487.726	5030.97
488.097	5131.31
488.467	5138.09
488.837	5223.51
489.207	5243.39
489.578	5328.14
489.948	5327.91
490.318	5421.02
490.688	5446.1
491.058	5488.36
491.428	5557.96
491.798	5567.9
492.168	5724.06
492.538	5738.75
492.908	5798.41
493.278	5792.76
493.648	5825.07
494.017	5889.7
494.387	5959.08
494.757	5980.32
495.126	6013.77
495.496	6078.4
495.866	6113.65
496.235	6114.33
496.605	6183.03
496.974	6256.47
497.344	6297.6
497.713	6265.74
498.082	6266.42
498.452	6358.62
498.821	6388.45
499.19	6436.36
499.559	6449.46
499.928	6477.26
500.298	6462.34
500.667	6543.47
501.036	6529.91
501.405	6577.82
501.774	6586.86
502.143	6608.1
502.512	6629.35
502.88	6645.84
503.249	6702.34
503.618	6757.7
503.987	6746.86
504.356	6801.77
504.724	6732.17
505.093	6815.1
505.462	6819.85
505.83	6819.62
506.199	6896.01
506.567	6929.9
506.936	6925.61
507.304	6987.3
507.672	7066.4
508.041	7071.14
508.409	7072.5
508.777	7053.29
509.145	7138.48
509.514	7139.84
509.882	7107.98
510.25	7132.38
510.618	7174.87
510.986	7164.7
511.354	7270.46
511.722	7231.36
512.09	7321.98
512.458	7282.89
512.826	7318.82
513.193	7378.7
513.561	7358.82
513.929	7419.16
514.297	7443.34
514.664	7413.28
515.032	7393.85
515.4	7527.85
515.767	7434.3
516.135	7472.26
516.502	7422.77
516.869	7497.12
517.237	7540.06
517.604	7513.84
517.972	7582.54
518.339	7524.46
518.706	7583.67
519.073	7568.76
519.44	7577.8
519.808	7635.87
520.175	7586.16
520.542	7715.64
520.909	7643.33
521.276	7655.53
521.643	7693.27
522.009	7722.65
522.376	7777.34
522.743	7792.93
523.11	7755.64
523.477	7831.57
523.843	7895.53
524.21	7948.86
524.577	7882.87
524.943	7955.41
525.31	7968.07
525.676	7939.37
526.043	8017.33
526.409	7989.08
526.776	8033.83
527.142	7970.1
527.508	8073.83
527.874	7993.6
528.241	8079.02
528.607	8015.98
528.973	8046.03
529.339	8062.3
529.705	8080.38
530.071	8135.52
530.437	8061.4
530.803	8079.02
531.169	8137.55
531.535	8057.1
531.901	8029.08
532.267	8072.7
532.632	8157.21
532.998	8078.12
533.364	8078.12
533.73	8152.47
534.095	8138.91
534.461	8105.24
534.826	8110.44
535.192	8089.87
535.557	8136.88
535.923	8175.07
536.288	8141.17
536.653	8135.29
537.019	8066.6
537.384	8067.95
537.749	8060.49
538.114	8100.04
538.479	8090.1
538.845	8065.24
539.21	8020.72
539.575	8027.95
539.94	7951.57
540.305	8062.75
540.67	7977.33
541.034	7969.2
541.399	7996.09
541.764	7948.41
542.129	7972.81
542.494	7903.89
542.858	8003.77
543.223	7931.23
543.587	7968.07
543.952	7867.73
544.316	7897.79
544.681	7900.05
545.045	7892.59
545.41	7947.73
545.774	7854.4
546.138	7856.43
546.503	7821.18
546.867	7777.11
547.231	7831.35
547.595	7752.71
547.959	7854.4
548.324	7775.53
548.688	7757.9
549.052	7762.42
549.416	7801.97
549.779	7700.5
550.143	7771.46
550.507	7740.73
550.871	7758.13
551.235	7683.33
551.599	7785.93
551.962	7718.13
552.326	7704.57
552.689	7720.16
553.053	7637.68
553.417	7655.53
553.78	7748.86
554.143	7624.12
554.507	7712.71
554.87	7639.94
555.234	7632.48
555.597	7704.8
555.96	7649.88
556.323	7625.25
556.686	7626.61
557.05	7674.06
557.413	7682.2
557.776	7632.71
558.139	7587.51
558.502	7668.64
558.865	7664.12
559.228	7636.78
559.59	7732.59
559.953	7654.63
560.316	7726.27
560.679	7679.94
561.041	7699.15
561.404	7730.11
561.767	7781.18
562.129	7672.48
562.492	7778.02
562.854	7703.67
563.217	7728.3
563.579	7807.39
563.941	7775.53
564.304	7808.07
564.666	7837
565.028	7852.14
565.39	7846.94
565.753	7831.8
566.115	7849.88
566.477	7834.29
566.839	7878.8
567.201	7874.51
567.563	7894.17
567.925	7966.71
568.287	7936.43
568.648	7954.73
569.01	8056.88
569.372	8036.99
569.734	7961.74
570.095	8035.41
570.457	8063.88
570.819	8062.75
571.18	8105.24
571.542	8043.09
571.903	8092.81
572.265	8086.71
572.626	8091.68
572.987	8131.9
573.349	8150.21
573.71	8162.19
574.071	8137.1
574.432	8205.35
574.794	8245.57
575.155	8257.55
575.516	8218.23
575.877	8214.61
576.238	8238.79
576.599	8261.84
576.96	8353.82
577.32	8303.65
577.681	8355.63
578.042	8387.27
578.403	8355.63
578.763	8381.39
579.124	8388.62
579.485	8444.44
579.845	8461.84
580.206	8368.96
580.566	8441.05
580.927	8500.26
581.287	8505.23
581.648	8496.87
582.008	8559.46
582.368	8472.46
582.728	8571.67
583.089	8493.48
583.449	8544.55
583.809	8608.73
584.169	8586.13
584.529	8604.66
584.889	8645.11
585.249	8550.88
585.609	8606.02
585.969	8656.41
586.329	8599.92
586.688	8655.05
587.048	8659.57
587.408	8640.82
587.768	8597.2
588.127	8669.29
588.487	8596.53
588.846	8733.24
589.206	8691.89
589.565	8660.25
589.925	8771.21
590.284	8711.32
590.643	8768.27
591.003	8790.64
591.362	8850.53
591.721	8737.76
592.08	8821.38
592.44	8822.28
592.799	8774.6
593.158	8821.38
593.517	8803.3
593.876	8799.23
594.235	8820.25
594.593	8853.69
594.952	8871.09
595.311	8817.08
595.67	8902.28
596.029	8884.43
596.387	8904.09
596.746	8933.92
597.104	8852.11
597.463	8879.23
597.822	8924.43
598.18	8917.65
598.538	8898.21
598.897	8979.57
599.255	8845.78
599.613	8952.67
599.972	8990.87
600.33	8955.39
600.688	8896.63
601.046	8997.19
601.404	9003.07
601.762	8971.2
602.12	9037.64
602.478	9053.01
602.836	9042.39
603.194	8981.83
603.552	8980.24
603.91	8999.68
604.268	9013.24
604.625	8983.18
604.983	9040.36
605.341	8932.11
605.698	9050.52
606.056	9040.58
606.413	9022.05
606.771	9044.65
607.128	9134.14
607.485	9034.03
607.843	9015.72
608.2	9130.3
608.557	9040.13
608.914	9103.4
609.272	9073.35
609.629	9062.28
609.986	9167.81
610.343	9076.96
610.7	9178.66
611.057	9148.83
611.414	9189.28
611.771	9137.98
612.127	9219.79
612.484	9239.22
612.841	9251.65
613.198	9210.29
613.554	9142.27
613.911	9288.03
614.267	9206
614.624	9285.09
614.98	9253.91
615.337	9287.58
615.693	9258.88
616.05	9221.59
616.406	9226.57
616.762	9238.99
617.118	9237.19
617.475	9227.7
617.831	9340.01
618.187	9318.09
618.543	9319.67
618.899	9366
619.255	9302.04
619.611	9370.06
619.967	9368.26
620.323	9405.09
620.678	9274.02
621.034	9412.55
621.39	9316.51
621.746	9365.32
622.101	9420.46
622.457	9409.39
622.812	9363.51
623.168	9382.95
623.523	9367.35
623.879	9370.74
624.234	9340.69
624.589	9414.36
624.945	9403.74
625.3	9372.1
625.655	9358.99
626.01	9403.96
626.365	9404.19
626.72	9335.94
627.075	9361.25
627.43	9320.57
627.785	9306.34
628.14	9338.88
628.495	9336.84
628.85	9334.36
629.205	9372.78
629.559	9337.97
629.914	9340.46
630.269	9323.74
630.623	9273.34
630.978	9283.29
631.332	9347.01
631.687	9384.08
632.041	9270.41
632.396	9294.59
632.75	9219.56
633.104	9233.8
633.459	9213.01
633.813	9164.65
634.167	9213.23
634.521	9201.03
634.875	9162.84
635.229	9172.1
635.583	9121.71
635.937	9179.56
636.291	9126.45
636.645	9130.97
636.999	9083.07
637.352	9086.91
637.706	9034.93
638.06	9175.04
638.413	9078.09
638.767	9070.64
639.121	9089.62
639.474	9028.38
639.828	9071.99
640.181	9057.76
640.534	9003.52
640.888	9022.5
641.241	8979.34
641.594	8959
641.947	9036.74
642.301	8982.96
642.654	9050.07
643.007	9021.15
643.36	8973.46
643.713	9000.81
644.066	9023.41
644.419	8961.26
644.771	8895.27
645.124	8777.31
645.477	8779.12
645.83	8810.76
646.182	8723.53
646.535	8685.34
646.888	8697.99
647.24	8594.04
647.593	8706.58
647.945	8647.15
648.298	8606.24
648.65	8584.77
649.002	8584.77
649.355	8643.98
649.707	8655.28
650.059	8670.42
650.411	8762.4
650.763	8794.94
651.115	8872.9
651.467	8820.93
651.819	8836.75
652.171	8779.35
652.523	8798.1
652.875	8794.49
653.227	8777.99
653.578	8798.78
653.93	8779.8
654.282	8771.89
654.633	8752.91
654.985	8813.47
655.337	8834.94
655.688	8802.17
656.039	8893.69
656.391	8775.5
656.742	8812.79
657.094	8861.38
657.445	8797.88
657.796	8761.94
658.147	8794.71
658.498	8867.48
658.849	8810.08
659.2	8768.72
659.551	8758.33
659.902	8797.42
660.253	8770.98
660.604	8787.71
660.955	8797.88
661.306	8817.08
661.656	8789.97
662.007	8841.04
662.358	8774.6
662.708	8829.74
663.059	8829.74
663.409	8710.19
663.76	8808.5
664.11	8850.53
664.461	8892.11
664.811	8789.51
665.161	8737.54
665.511	8859.57
665.862	8815.73
666.212	8819.57
666.562	8907.03
666.912	8826.12
667.262	8795.84
667.612	8821.38
667.962	8854.82
668.312	8845.78
668.662	8886.91
669.011	8807.82
669.361	8773.02
669.711	8847.82
670.06	8804.2
670.41	8780.25
670.76	8760.36
671.109	8808.95
671.459	8756.3
671.808	8776.63
672.157	8844.65
672.507	8803.3
672.856	8682.17
673.205	8744.54
673.554	8718.33
673.904	8688.27
674.253	8736.41
674.602	8756.75
674.951	8607.82
675.3	8620.03
675.649	8764.2
675.998	8724.88
676.346	8695.28
676.695	8682.62
677.044	8653.7
677.393	8679.69
677.741	8648.73
678.09	8683.98
678.438	8626.81
678.787	8638.11
679.135	8637.43
679.484	8562.4
679.832	8582.29
680.181	8542.06
680.529	8592.68
680.877	8580.25
681.225	8527.6
681.573	8569.86
681.922	8511.33
682.27	8505
682.618	8463.42
682.966	8509.3
683.314	8487.6
683.661	8401.05
684.009	8412.12
684.357	8377.77
684.705	8354.27
685.053	8415.74
685.4	8326.02
685.748	8274.5
686.095	8309.3
686.443	8274.73
686.79	8218.91
687.138	8256.65
687.485	8228.63
687.832	8209.87
688.18	8210.32
688.527	8175.29
688.874	8153.83
689.221	8084.45
689.568	8065.92
689.915	8086.93
690.262	8051.45
690.609	8036.54
690.956	8040.61
691.303	7968.07
691.65	7980.72
691.997	7997.9
692.344	7929.88
692.69	7856.43
693.037	7891.01
693.383	7898.24
693.73	7885.58
694.077	7830.44
694.423	7884.45
694.769	7756.32
695.116	7769.2
695.462	7709.09
695.808	7687.62
696.155	7657.12
696.501	7615.08
696.847	7657.79
697.193	7580.28
697.539	7605.59
697.885	7519.27
698.231	7504.8
698.577	7439.49
698.923	7490.57
699.269	7422.32
699.614	7373.96
699.96	7404.69
700.306	7312.72
700.651	7358.59
700.997	7337.58
701.342	7286.73
701.688	7298.25
702.033	7172.83
702.379	7234.53
702.724	7242.44
703.069	7149.56
703.415	7122.89
703.76	7091.25
704.105	7127.86
704.45	7127.41
704.795	7050.13
705.14	7046.51
705.485	7025.04
705.83	6947.08
706.175	6988.88
706.52	6945.04
706.865	6899.85
707.209	6908.66
707.554	6878.83
707.899	6936.46
708.243	6816.91
708.588	6790.02
708.932	6779.17
709.277	6797.25
709.621	6780.53
709.966	6773.3
710.31	6763.81
710.654	6719.51
710.998	6684.03
711.342	6656.69
711.687	6666.86
712.031	6684.03
712.375	6613.07
712.719	6596.8
713.063	6600.19
713.407	6629.8
713.75	6564.49
714.094	6570.14
714.438	6534.21
714.782	6589.35
715.125	6512.06
715.469	6533.53
715.812	6453.08
716.156	6462.8
716.499	6508.67
716.843	6499.86
717.186	6431.84
717.53	6527.65
717.873	6438.62
718.216	6447.2
718.559	6459.18
718.902	6392.97
719.246	6376.02
719.589	6430.93
719.932	6365.17
720.275	6385.74
720.617	6341.22
720.96	6374.89
721.303	6340.31
721.646	6351.61
721.989	6328.56
722.331	6363.14
722.674	6342.57
723.016	6341.67
723.359	6342.12
723.701	6299.41
724.044	6265.06
724.386	6279.75
724.729	6274.78
725.071	6265.06
725.413	6254.89
725.755	6278.17
726.097	6219.19
726.439	6246.08
726.782	6194.78
727.124	6241.33
727.465	6214.22
727.807	6215.12
728.149	6191.62
728.491	6228.68
728.833	6250.82
729.175	6210.83
729.516	6194.78
729.858	6194.78
730.199	6221.22
730.541	6216.7
730.882	6168.57
731.224	6201.56
731.565	6202.01
731.906	6231.16
732.248	6202.46
732.589	6182.8
732.93	6114.56
733.271	6213.31
733.612	6164.05
733.953	6170.83
734.294	6122.01
734.635	6204.5
734.976	6169.92
735.317	6179.19
735.658	6126.76
735.999	6202.69
736.339	6215.35
736.68	6189.36
737.021	6166.08
737.361	6245.17
737.702	6226.19
738.042	6219.64
738.383	6157.04
738.723	6230.03
739.063	6190.71
739.404	6194.78
739.744	6219.86
740.084	6231.84
740.424	6201.79
740.764	6264.61
741.104	6241.33
741.444	6205.18
741.784	6216.7
742.124	6202.46
742.464	6262.35
742.804	6300.54
743.143	6280.43
743.483	6281.11
743.823	6252.41
744.162	6314.1
744.502	6352.29
744.841	6355.45
745.181	6395.45
745.52	6440.65
745.86	6443.14
746.199	6456.02
746.538	6428.67
746.877	6543.25
747.216	6569.91
747.556	6589.12
747.895	6605.17
748.234	6575.56
748.573	6627.99
748.911	6690.59
749.25	6768.1
749.589	6707.99
749.928	6832.96
750.267	6899.85
750.605	6943.24
750.944	6984.82
751.283	6972.61
751.621	7119.5
751.96	7122.21
752.298	7127.41
752.636	7225.04
752.975	7297.58
753.313	7350.23
753.651	7451.92
753.989	7488.31
754.327	7588.64
754.666	7639.94
755.004	7745.25
755.342	7879.48
755.679	7930.33
756.017	7928.29
756.355	8192.69
756.693	8132.58
757.031	8391.56
757.368	8364.89
757.706	8515.62
758.044	8590.65
758.381	8740.48
758.719	8766.24
759.056	8869.74
759.394	9062.73
759.731	9100.01
760.068	9209.39
760.405	9310.4
760.743	9417.52
761.08	9568.03
761.417	9649.38
761.754	9769.83
762.091	9915.59
762.428	9969.6
762.765	10088.46
763.102	10261.57
763.438	10307.44
763.775	10469.7
764.112	10496.14
764.449	10720.09
764.785	10782.91
765.122	10853.64
765.458	10925.96
765.795	11068.1
766.131	11139.28
766.467	11246.85
766.804	11374.53
767.14	11414.98
767.476	11543.79
767.812	11563.9
768.148	11768.42
768.485	11748.08
768.821	11784.92
769.157	11974.06
769.492	11992.82
