Data from hue_210_FLMS001491_00028.txt Node
Date: Tue Feb 07 16:40:58 GMT 2017
User: dcchb
Spectrometer: FLMS00149
Trigger mode: 0
Integration Time (sec): 2.000000E-2
Scans to average: 10
Electric dark correction enabled: true
Nonlinearity correction enabled: false
Boxcar width: 0
XAxis mode: Wavelengths
Number of Pixels in Spectrum: 2048
>>>>>Begin Spectral Data<<<<<
341.393	-4.43
341.776	-4.43
342.16	-4.43
342.543	-47.15
342.927	-50.54
343.31	-67.94
343.693	-62.51
344.077	-79.01
344.46	-55.28
344.843	-64.09
345.226	-40.82
345.61	-39.91
345.993	-10.76
346.376	-10.31
346.759	27.65
347.142	26.52
347.525	52.29
347.908	51.83
348.291	80.76
348.674	70.82
349.057	120.76
349.44	139.97
349.823	153.98
350.206	148.78
350.588	188.78
350.971	197.37
351.354	227.65
351.737	224.26
352.119	273.52
352.502	254.99
352.884	276.69
353.267	269.68
353.65	294.09
354.032	279.4
354.414	306.07
354.797	309.91
355.179	308.55
355.562	314.43
355.944	319.85
356.326	330.7
356.709	339.51
357.091	320.98
357.473	342.9
357.855	337.7
358.238	328.21
358.62	330.47
359.002	345.84
359.384	350.36
359.766	351.49
360.148	347.87
360.53	333.86
360.912	347.42
361.294	336.35
361.676	323.01
362.057	330.25
362.439	336.8
362.821	320.75
363.203	308.78
363.584	314.88
363.966	309.91
364.348	336.8
364.729	320.53
365.111	332.05
365.493	313.52
365.874	329.12
366.256	313.75
366.637	320.98
367.019	312.17
367.4	318.72
367.781	316.46
368.163	309.46
368.544	316.23
368.925	313.52
369.306	293.86
369.688	299.96
370.069	302
370.45	330.92
370.831	312.84
371.212	293.41
371.593	315.78
371.974	296.35
372.355	295.67
372.736	325.5
373.117	299.51
373.498	311.94
373.879	295.9
374.26	311.94
374.641	303.58
375.021	294.99
375.402	323.47
375.783	313.75
376.163	335.9
376.544	314.2
376.925	328.89
377.305	306.29
377.686	317.14
378.066	327.76
378.447	337.93
378.827	331.38
379.208	337.03
379.588	320.08
379.968	325.73
380.349	357.82
380.729	350.81
381.109	319.85
381.489	333.18
381.87	333.64
382.25	326.63
382.63	343.35
383.01	337.48
383.39	334.99
383.77	321.21
384.15	328.89
384.53	346.06
384.91	335.67
385.29	338.83
385.67	351.94
386.049	349.68
386.429	338.83
386.809	367.08
387.189	334.77
387.568	333.41
387.948	352.84
388.328	355.56
388.707	359.85
389.087	356.23
389.466	361.66
389.846	355.56
390.225	363.01
390.605	348.1
390.984	376.35
391.363	359.17
391.743	367.76
392.122	349.45
392.501	353.97
392.881	356.91
393.26	366.18
393.639	372.96
394.018	397.36
394.397	384.71
394.776	371.6
395.155	383.58
395.534	360.3
395.913	388.32
396.292	370.92
396.671	370.7
397.05	385.39
397.429	390.81
397.808	410.7
398.186	381.77
398.565	383.8
398.944	388.32
399.323	390.58
399.701	391.26
400.08	405.27
400.458	405.72
400.837	399.85
401.215	399.62
401.594	428.55
401.972	417.7
402.351	429.68
402.729	423.12
403.107	418.15
403.486	401.2
403.864	434.88
404.242	430.81
404.62	439.4
404.999	444.82
405.377	426.97
405.755	455.67
406.133	445.95
406.511	452.95
406.889	473.97
407.267	468.1
407.645	470.81
408.023	492.5
408.401	454.99
408.779	467.64
409.156	499.05
409.534	506.51
409.912	508.77
410.29	520.98
410.667	524.59
411.045	532.05
411.422	542.9
411.8	520.3
412.178	557.81
412.555	542.9
412.933	575.66
413.31	589.45
413.687	591.48
414.065	586.74
414.442	624.93
414.819	617.24
415.197	622.67
415.574	620.63
415.951	646.17
416.328	653.17
416.705	649.56
417.082	674.42
417.46	660.18
417.837	675.32
418.214	664.93
418.591	699.5
418.967	713.29
419.344	713.06
419.721	735.21
420.098	714.87
420.475	725.04
420.852	759.84
421.228	772.72
421.605	769.33
421.982	759.61
422.358	810.23
422.735	819.27
423.111	813.62
423.488	846.39
423.864	852.72
424.241	864.24
424.617	859.05
424.994	916.67
425.37	905.15
425.746	896.11
426.123	908.99
426.499	936.11
426.875	944.24
427.251	970.45
427.627	991.02
428.003	1015.65
428.379	1018.59
428.756	1016.78
429.132	1021.3
429.507	1052.26
429.883	1052.26
430.259	1070.57
430.635	1089.77
431.011	1092.71
431.387	1130.68
431.763	1135.42
432.138	1170.68
432.514	1145.82
432.89	1172.94
433.265	1174.52
433.641	1216.1
434.016	1254.29
434.392	1257.9
434.767	1314.17
435.143	1309.2
435.518	1340.16
435.894	1326.83
436.269	1364.12
436.644	1397.79
437.02	1434.62
437.395	1431.23
437.77	1447.05
438.145	1510.78
438.52	1495.64
438.895	1544.9
439.271	1526.15
439.646	1592.36
440.021	1617.67
440.395	1635.07
440.77	1621.06
441.145	1650.66
441.52	1686.59
441.895	1697.44
442.27	1729.76
442.645	1707.84
443.019	1741.51
443.394	1748.06
443.769	1810.21
444.143	1815.18
444.518	1820.83
444.892	1824.44
445.267	1855.18
445.641	1887.72
446.016	1902.41
446.39	1900.37
446.764	1910.32
447.139	1906.7
447.513	1935.4
447.887	1985.12
448.262	1951.67
448.636	2026.7
449.01	2007.49
449.384	2010.88
449.758	2014.5
450.132	2036.64
450.506	2026.7
450.88	2079.13
451.254	2077.54
451.628	2131.78
452.002	2134.04
452.376	2175.85
452.75	2160.48
453.123	2173.81
453.497	2235.73
453.871	2250.87
454.244	2307.59
454.618	2283.41
454.992	2368.84
455.365	2320.7
455.739	2333.36
456.112	2393.02
456.486	2418.78
456.859	2425.78
457.232	2443.18
457.606	2458.33
457.979	2527.48
458.352	2548.04
458.725	2600.24
459.099	2582.16
459.472	2611.77
459.845	2691.31
460.218	2664.2
460.591	2704.42
460.964	2720.24
461.337	2796.85
461.71	2794.81
462.083	2846.11
462.456	2867.81
462.829	2906
463.201	2936.05
463.574	2935.6
463.947	2965.2
464.32	3070.06
464.692	3057.18
465.065	3051.53
465.438	3106.9
465.81	3191.64
466.183	3197.74
466.555	3254.69
466.928	3292.2
467.3	3247.01
467.672	3356.38
468.045	3388.24
468.417	3404.97
468.789	3445.42
469.161	3473.89
469.534	3493.55
469.906	3590.5
470.278	3569.48
470.65	3654.68
471.022	3709.37
471.394	3792.53
471.766	3762.25
472.138	3843.15
472.51	3892.64
472.882	3950.72
473.253	4004.05
473.625	4023.71
473.997	4111.84
474.369	4128.56
474.74	4169.47
475.112	4244.27
475.484	4320.42
475.855	4317.26
476.227	4394.32
476.598	4543.02
476.97	4534.65
477.341	4639.74
477.713	4629.12
478.084	4706.4
478.455	4861.2
478.827	4874.76
479.198	4983
479.569	5038.37
479.94	5086.05
480.311	5182.77
480.682	5263.45
481.053	5372.15
481.424	5466.61
481.795	5463.9
482.166	5528.3
482.537	5578.92
482.908	5713.15
483.279	5684
483.65	5819.37
484.021	5923.09
484.391	5990.89
484.762	6010.1
485.133	6103.88
485.503	6168.06
485.874	6253.25
486.244	6290.54
486.615	6434.27
486.985	6506.35
487.356	6568.95
487.726	6586.13
488.097	6724.2
488.467	6750.19
488.837	6900.69
489.207	6875.84
489.578	7008.71
489.948	7004.87
490.318	7099.33
490.688	7151.76
491.058	7246.67
491.428	7284.64
491.798	7362.6
492.168	7581.58
492.538	7542.03
492.908	7629.71
493.278	7671.75
493.648	7652.31
494.017	7754.91
494.387	7828.13
494.757	7883.72
495.126	7968.69
495.496	7928.01
495.866	8027.9
496.235	8082.13
496.605	8140.89
496.974	8151.73
497.344	8196.25
497.713	8257.04
498.082	8303.82
498.452	8372.97
498.821	8440.77
499.19	8356.93
499.559	8484.83
499.928	8498.17
500.298	8541.33
500.667	8576.36
501.036	8535
501.405	8631.04
501.774	8626.75
502.143	8690.93
502.512	8667.88
502.88	8739.29
503.249	8732.51
503.618	8747.43
503.987	8806.63
504.356	8835.56
504.724	8890.7
505.093	8849.12
505.462	8961.88
505.83	8939.51
506.199	8990.81
506.567	9028.1
506.936	8997.59
507.304	9136.79
507.672	9089.34
508.041	9090.47
508.409	9158.26
508.777	9239.39
509.145	9200.97
509.514	9252.5
509.882	9222.22
510.25	9220.18
510.618	9279.16
510.986	9262.67
511.354	9329.1
511.722	9373.85
512.09	9383.79
512.458	9388.76
512.826	9407.3
513.193	9414.98
513.561	9426.05
513.929	9429.89
514.297	9442.32
514.664	9495.65
515.032	9520.06
515.4	9556.44
515.767	9515.99
516.135	9627.63
516.502	9559.38
516.869	9593.96
517.237	9594.63
517.604	9581.98
517.972	9621.07
518.339	9608.65
518.706	9706.5
519.073	9650.68
519.44	9656.33
519.808	9662.88
520.175	9628.31
520.542	9758.92
520.909	9701.98
521.276	9673.5
521.643	9736.1
522.009	9761.64
522.376	9713.95
522.743	9745.37
523.11	9799.83
523.477	9818.36
523.843	9865.14
524.21	9960.05
524.577	9902.88
524.943	9890.22
525.31	9940.16
525.676	9963.21
526.043	9904.46
526.409	9935.19
526.776	9998.69
527.142	10005.92
527.508	9981.07
527.874	9975.64
528.241	9987.84
528.607	9981.74
528.973	9972.03
529.339	9937.45
529.705	10092.25
530.071	10027.39
530.437	10048.41
530.803	10038.46
531.169	10004.12
531.535	9932.93
531.901	9890.9
532.267	9906.94
532.632	9991.23
532.998	9902.42
533.364	9878.7
533.73	9910.11
534.095	9896.1
534.461	9942.87
534.826	9865.36
535.192	9919.15
535.557	9951.69
535.923	9895.87
536.288	9870.56
536.653	9816.55
537.019	9703.78
537.384	9792.6
537.749	9786.27
538.114	9740.62
538.479	9708.53
538.845	9682.99
539.21	9636.67
539.575	9662.88
539.94	9607.74
540.305	9609.78
540.67	9636.89
541.034	9480.29
541.399	9576.1
541.764	9467.63
542.129	9494.52
542.494	9450.23
542.858	9489.55
543.223	9398.71
543.587	9426.96
543.952	9390.8
544.316	9341.53
544.681	9281.65
545.045	9291.14
545.41	9260.63
545.774	9265.38
546.138	9238.94
546.503	9198.49
546.867	9134.08
547.231	9172.72
547.595	9156
547.959	9132.73
548.324	9065.84
548.688	9048.21
549.052	9111.71
549.416	8990.81
549.779	8928.89
550.143	8955.1
550.507	8950.58
550.871	8882.79
551.235	8872.62
551.599	8917.59
551.962	8877.82
552.326	8810.02
552.689	8796.01
553.053	8740.87
553.417	8699.97
553.78	8793.07
554.143	8708.78
554.507	8700.65
554.87	8626.07
555.234	8789.68
555.597	8677.82
555.96	8607.32
556.323	8665.85
556.686	8588.56
557.05	8557.83
557.413	8631.27
557.776	8592.4
558.139	8581.33
558.502	8525.06
558.865	8510.6
559.228	8618.84
559.59	8574.77
559.953	8527.32
560.316	8641.89
560.679	8589.69
561.041	8490.26
561.404	8485.96
561.767	8507.21
562.129	8540.88
562.492	8563.25
562.854	8545.17
563.217	8555.34
563.579	8497.26
563.941	8495.91
564.304	8569.35
564.666	8607.99
565.028	8589.92
565.39	8523.02
565.753	8583.14
566.115	8595.11
566.477	8566.19
566.839	8560.31
567.201	8610.48
567.563	8652.51
567.925	8649.35
568.287	8603.7
568.648	8612.29
569.01	8732.96
569.372	8711.72
569.734	8661.33
570.095	8708.1
570.457	8630.82
570.819	8717.14
571.18	8744.71
571.542	8751.95
571.903	8685.96
572.265	8731.15
572.626	8718.05
572.987	8666.98
573.349	8733.19
573.71	8762.34
574.071	8763.92
574.432	8710.59
574.794	8819.97
575.155	8799.4
575.516	8830.59
575.877	8795.33
576.238	8784.03
576.599	8805.73
576.96	8840.08
577.32	8880.3
577.681	8916.23
578.042	8863.58
578.403	8841.43
578.763	8848.44
579.124	8937.7
579.485	8945.84
579.845	8942.67
580.206	8923.69
580.566	9014.09
580.927	8956.69
581.287	8985.84
581.648	8980.64
582.008	9012.05
582.368	8974.31
582.728	8984.48
583.089	8980.87
583.449	8979.96
583.809	8998.94
584.169	8997.36
584.529	9032.16
584.889	9094.99
585.249	9059.28
585.609	8990.36
585.969	9056.12
586.329	9055.21
586.688	9043.91
587.048	9077.36
587.408	9091.37
587.768	8984.48
588.127	9025.84
588.487	8970.7
588.846	9100.86
589.206	9100.64
589.565	9122.1
589.925	9133.18
590.284	9123.23
590.643	9081.65
591.003	9183.12
591.362	9137.25
591.721	9180.86
592.08	9098.83
592.44	9175.66
592.799	9196.91
593.158	9180.41
593.517	9171.6
593.876	9139.28
594.235	9160.97
594.593	9158.94
594.952	9143.8
595.311	9203.01
595.67	9093.86
596.029	9314.19
596.387	9236
596.746	9211.82
597.104	9248.43
597.463	9150.13
597.822	9179.28
598.18	9146.06
598.538	9130.92
598.897	9220.41
599.255	9080.98
599.613	9234.87
599.972	9253.85
600.33	9225.15
600.688	9226.28
601.046	9260.63
601.404	9264.47
601.762	9196.91
602.12	9305.15
602.478	9273.51
602.836	9245.49
603.194	9232.84
603.552	9221.09
603.91	9214.31
604.268	9289.78
604.625	9188.09
604.983	9300.41
605.341	9228.77
605.698	9245.94
606.056	9301.76
606.413	9278.71
606.771	9331.36
607.128	9273.06
607.485	9270.8
607.843	9255.43
608.2	9302.89
608.557	9322.33
608.914	9344.02
609.272	9358.48
609.629	9339.5
609.986	9383.11
610.343	9318.26
610.7	9368.65
611.057	9380.18
611.414	9337.24
611.771	9381.08
612.127	9447.52
612.484	9427.63
612.841	9440.97
613.198	9428.99
613.554	9379.73
613.911	9440.29
614.267	9433.74
614.624	9438.48
614.98	9464.92
615.337	9501.08
615.693	9467.41
616.05	9470.57
616.406	9575.88
616.762	9513.05
617.118	9450.68
617.475	9511.7
617.831	9549.44
618.187	9529.33
618.543	9537.69
618.899	9529.1
619.255	9544.69
619.611	9571.58
619.967	9549.66
620.323	9554.64
620.678	9496.56
621.034	9485.03
621.39	9494.98
621.746	9502.43
622.101	9591.02
622.457	9540.62
622.812	9554.41
623.168	9486.39
623.523	9515.77
623.879	9538.59
624.234	9526.84
624.589	9493.17
624.945	9513.96
625.3	9503.11
625.655	9545.82
626.01	9498.14
626.365	9520.06
626.72	9494.52
627.075	9509.44
627.43	9581.3
627.785	9525.03
628.14	9543.79
628.495	9573.62
628.85	9511.25
629.205	9539.27
629.559	9509.89
629.914	9523.68
630.269	9468.31
630.623	9402.32
630.978	9511.93
631.332	9501.3
631.687	9471.93
632.041	9390.8
632.396	9437.58
632.75	9421.53
633.104	9361.87
633.459	9343.34
633.813	9341.76
634.167	9346.05
634.521	9351.48
634.875	9340.4
635.229	9362.78
635.583	9278.26
635.937	9277.58
636.291	9259.95
636.645	9270.12
636.999	9269.45
637.352	9279.84
637.706	9243.01
638.06	9199.84
638.413	9235.1
638.767	9215.66
639.121	9172.27
639.474	9214.31
639.828	9190.35
640.181	9205.27
640.534	9169.34
640.888	9198.49
641.241	9167.08
641.594	9172.5
641.947	9188.54
642.301	9099.05
642.654	9112.61
643.007	9115.78
643.36	9158.26
643.713	9106.29
644.066	9197.81
644.419	9046.17
644.771	9036.23
645.124	8918.27
645.477	8977.02
645.83	8902.45
646.182	8813.41
646.535	8825.84
646.888	8861.77
647.24	8771.83
647.593	8816.58
647.945	8731.61
648.298	8766.18
648.65	8721.66
649.002	8725.96
649.355	8822
649.707	8806.18
650.059	8824.94
650.411	8941.54
650.763	8949.45
651.115	9000.98
651.467	9017.25
651.819	9008.44
652.171	9020.86
652.523	8968.44
652.875	8965.05
653.227	8970.7
653.578	8999.62
653.93	8925.95
654.282	8916.23
654.633	9006.4
654.985	9066.51
655.337	8960.98
655.688	8997.81
656.039	9055.89
656.391	8948.55
656.742	8948.32
657.094	8956.01
657.445	9022.67
657.796	8986.52
658.147	9013.86
658.498	8929.12
658.849	9015.21
659.2	8998.94
659.551	9012.5
659.902	9053.86
660.253	9054.76
660.604	9077.36
660.955	9022.67
661.306	9010.92
661.656	9018.38
662.007	9096.57
662.358	8982.9
662.708	9001.43
663.059	9076
663.409	9042.11
663.76	9108.77
664.11	9062.67
664.461	9088.43
664.811	9124.36
665.161	9053.41
665.511	9057.7
665.862	9044.82
666.212	9139.73
666.562	9063.58
666.912	9017.25
667.262	9088.89
667.612	9027.87
667.962	9075.33
668.312	9073.97
668.662	9100.41
669.011	9043.46
669.361	9059.06
669.711	9024.25
670.06	9050.69
670.41	9069
670.76	9010.7
671.109	9085.5
671.459	9006.63
671.808	9010.7
672.157	9074.87
672.507	9012.05
672.856	8960.08
673.205	8978.38
673.554	9010.47
673.904	8980.19
674.253	9019.96
674.602	8963.46
674.951	8849.8
675.3	8812.51
675.649	8960.98
675.998	8926.4
676.346	8860.64
676.695	8967.76
677.044	8831.49
677.393	8830.81
677.741	8888.44
678.09	8923.69
678.438	8855.9
678.787	8810.25
679.135	8805.28
679.484	8753.75
679.832	8879.63
680.181	8766.41
680.529	8791.27
680.877	8780.64
681.225	8748.1
681.573	8766.63
681.922	8711.72
682.27	8705.39
682.618	8771.61
682.966	8654.32
683.314	8678.95
683.661	8677.6
684.009	8579.97
684.357	8575.23
684.705	8559.41
685.053	8602.8
685.4	8565.96
685.748	8515.57
686.095	8526.19
686.443	8471.27
686.79	8549.46
687.138	8461.33
687.485	8529.8
687.832	8449.58
688.18	8398.06
688.527	8425.17
688.874	8384.72
689.221	8289.36
689.568	8316.02
689.915	8329.13
690.262	8274.22
690.609	8242.58
690.956	8170.04
691.303	8243.03
691.65	8181.34
691.997	8116.26
692.344	8157.84
692.69	8076.93
693.037	8072.87
693.383	7996.26
693.73	8082.36
694.077	7974.79
694.423	8003.04
694.769	7917.39
695.116	7942.7
695.462	7844.85
695.808	7853.89
696.155	7842.36
696.501	7810.27
696.847	7788.58
697.193	7688.24
697.539	7746.32
697.885	7685.98
698.231	7637.17
698.577	7671.3
698.923	7623.84
699.269	7613.22
699.614	7515.82
699.96	7555.82
700.306	7457.52
700.651	7466.1
700.997	7404.41
701.342	7440.34
701.688	7413.68
702.033	7353.11
702.379	7374.81
702.724	7299.78
703.069	7331.87
703.415	7271.98
703.76	7260.01
704.105	7205.09
704.45	7176.62
704.795	7171.42
705.14	7150.86
705.485	7165.55
705.83	7069.73
706.175	7042.61
706.52	7026.57
706.865	7007.36
707.209	6995.16
707.554	7036.51
707.899	6998.09
708.243	7002.84
708.588	6944.53
708.932	6900.24
709.277	6895.72
709.621	6861.15
709.966	6831.54
710.31	6808.49
710.654	6765.1
710.998	6743.64
711.342	6777.31
711.687	6756.74
712.031	6692.34
712.375	6727.59
712.719	6690.53
713.063	6694.82
713.407	6712.68
713.75	6628.39
714.094	6632.9
714.438	6615.96
714.782	6627.71
715.125	6623.64
715.469	6607.59
715.812	6579.8
716.156	6584.54
716.499	6551.55
716.843	6567.14
717.186	6497.77
717.53	6601.04
717.873	6546.81
718.216	6514.94
718.559	6483.76
718.902	6493.93
719.246	6510.87
719.589	6448.95
719.932	6418
720.275	6471.55
720.617	6480.14
720.96	6452.8
721.303	6461.16
721.646	6475.85
721.989	6408.05
722.331	6403.76
722.674	6359.47
723.016	6421.84
723.359	6372.35
723.701	6424.1
724.044	6401.72
724.386	6374.61
724.729	6389.52
725.071	6402.85
725.413	6367.37
725.755	6323.53
726.097	6382.06
726.439	6308.17
726.782	6377.32
727.124	6367.37
727.465	6313.59
727.807	6355.17
728.149	6333.93
728.491	6299.58
728.833	6344.32
729.175	6295.29
729.516	6297.77
729.858	6299.13
730.199	6346.81
730.541	6288.96
730.882	6311.11
731.224	6336.64
731.565	6314.72
731.906	6281.05
732.248	6314.72
732.589	6286.7
732.93	6272.46
733.271	6290.09
733.612	6269.3
733.953	6322.63
734.294	6244.89
734.635	6335.51
734.976	6273.37
735.317	6281.5
735.658	6258.9
735.999	6321.27
736.339	6235.4
736.68	6304.78
737.021	6300.94
737.361	6335.29
737.702	6333.93
738.042	6326.92
738.383	6354.49
738.723	6362.18
739.063	6366.92
739.404	6335.96
739.744	6382.52
740.084	6346.58
740.424	6427.49
740.764	6450.31
741.104	6407.37
741.444	6440.59
741.784	6358.79
742.124	6445.34
742.464	6469.52
742.804	6493.93
743.143	6443.98
743.483	6552.68
743.823	6522.85
744.162	6562.4
744.502	6557.2
744.841	6632.23
745.181	6657.31
745.52	6603.53
745.86	6715.16
746.199	6700.7
746.538	6773.92
746.877	6814.37
747.216	6864.54
747.556	6906.57
747.895	6916.29
748.234	6947.25
748.573	7021.14
748.911	7092.33
749.25	7108.37
749.589	7128.94
749.928	7231.98
750.267	7320.12
750.605	7388.82
750.944	7381.59
751.283	7435.37
751.621	7575.48
751.96	7690.28
752.298	7675.36
752.636	7780.22
752.975	7843.72
753.313	7882.14
753.651	8042.81
753.989	8145.41
754.327	8189.47
754.666	8329.58
755.004	8477.83
755.342	8550.59
755.679	8675.56
756.017	8821.32
756.355	8976.35
756.693	9099.73
757.031	9283.23
757.368	9268.99
757.706	9443.23
758.044	9551.47
758.381	9738.13
758.719	9816.78
759.056	10010.67
759.394	10187.84
759.731	10316.65
760.068	10506.93
760.405	10563.2
760.743	10723.19
761.08	10982.39
761.417	11081.15
761.754	11254.48
762.091	11468.48
762.428	11559.33
762.765	11617.86
763.102	11959.32
763.438	12017.4
763.775	12223.94
764.112	12385.52
764.449	12540.77
764.785	12696.93
765.122	12843.59
765.458	12931.5
765.795	13165.84
766.131	13313.86
766.467	13474.53
766.804	13591.14
767.14	13738.48
767.476	13891.7
767.812	13974.63
768.148	14142.31
768.485	14302.53
768.821	14431.8
769.157	14533.26
