Data from hue_90_FLMS001491_4.txt Node
Date: Mon Feb 06 15:24:35 GMT 2017
User: dcchb
Spectrometer: FLMS00149
Trigger mode: 0
Integration Time (sec): 2.000000E-2
Scans to average: 10
Electric dark correction enabled: true
Nonlinearity correction enabled: false
Boxcar width: 0
XAxis mode: Wavelengths
Number of Pixels in Spectrum: 2048
>>>>>Begin Spectral Data<<<<<
341.393	2.92
341.776	2.92
342.16	2.92
342.543	-58.09
342.927	-70.07
343.31	-70.75
343.693	-72.1
344.077	-71.65
344.46	-69.16
344.843	-61.48
345.226	-35.49
345.61	-44.76
345.993	-16.06
346.376	-1.6
346.759	11.06
347.142	28.91
347.525	49.25
347.908	65.52
348.291	66.42
348.674	115.92
349.057	105.97
349.44	144.39
349.823	166.08
350.206	185.74
350.588	188.91
350.971	197.95
351.354	215.35
351.737	244.27
352.119	259.87
352.502	256.93
352.884	276.36
353.267	294.89
353.65	296.93
354.032	296.93
354.414	285.85
354.797	298.28
355.179	327.43
355.562	329.24
355.944	344.16
356.326	332.86
356.709	332.63
357.091	340.09
357.473	345.97
357.855	333.31
358.238	329.02
358.62	335.12
359.002	335.12
359.384	350.49
359.766	354.55
360.148	336.93
360.53	305.51
360.912	336.7
361.294	335.34
361.676	329.24
362.057	339.64
362.439	340.09
362.821	336.25
363.203	320.43
363.584	335.12
363.966	320.43
364.348	328.34
364.729	325.4
365.111	297.61
365.493	315.91
365.874	308.23
366.256	295.8
366.637	297.61
367.019	319.07
367.4	319.07
367.781	322.92
368.163	294.67
368.544	315.01
368.925	316.59
369.306	321.56
369.688	312.97
370.069	314.78
370.45	297.61
370.831	331.5
371.212	315.68
371.593	321.56
371.974	324.05
372.355	301.45
372.736	314.33
373.117	318.4
373.498	321.11
373.879	311.62
374.26	309.13
374.641	314.1
375.021	333.31
375.402	315.01
375.783	329.24
376.163	308.23
376.544	323.59
376.925	318.17
377.305	310.49
377.686	333.31
378.066	318.4
378.447	325.4
378.827	320.88
379.208	319.53
379.588	315.91
379.968	330.82
380.349	332.41
380.729	306.19
381.109	331.73
381.489	345.97
381.87	326.08
382.25	321.79
382.63	331.5
383.01	322.01
383.39	347.55
383.77	345.29
384.15	343.25
384.53	331.95
384.91	347.55
385.29	355.46
385.67	344.38
386.049	328.79
386.429	364.95
386.809	345.29
387.189	338.73
387.568	356.81
387.948	348.9
388.328	356.13
388.707	357.26
389.087	368.11
389.466	366.98
389.846	354.78
390.225	361.56
390.605	354.78
390.984	388.68
391.363	352.52
391.743	372.86
392.122	374.44
392.501	364.27
392.881	364.95
393.26	362.46
393.639	379.64
394.018	381.22
394.397	367.66
394.776	369.69
395.155	390.48
395.534	384.61
395.913	378.28
396.292	395
396.671	379.41
397.05	384.16
397.429	376.7
397.808	401.33
398.186	386.64
398.565	406.98
398.944	373.76
399.323	378.73
399.701	397.26
400.08	385.51
400.458	384.38
400.837	428.9
401.215	397.04
401.594	399.75
401.972	395.91
402.351	406.3
402.729	412.4
403.107	410.82
403.486	449.01
403.864	420.09
404.242	422.12
404.62	398.17
404.999	404.27
405.377	406.3
405.755	406.08
406.133	443.14
406.511	421.44
406.889	446.98
407.267	420.77
407.645	435.45
408.023	430.93
408.401	430.26
408.779	416.47
409.156	460.09
409.534	446.3
409.912	442.01
410.29	462.35
410.667	443.59
411.045	458.28
411.422	463.7
411.8	459.86
412.178	468.67
412.555	470.03
412.933	467.09
413.31	476.36
413.687	489.01
414.065	465.74
414.442	479.07
414.819	482.91
415.197	468.9
415.574	475.23
415.951	479.07
416.328	455.79
416.705	490.37
417.082	513.87
417.46	502.8
417.837	505.96
418.214	485.17
418.591	489.46
418.967	518.84
419.344	509.35
419.721	520.65
420.098	533.76
420.475	523.81
420.852	545.96
421.228	523.81
421.605	524.27
421.982	508.45
422.358	563.59
422.735	525.17
423.111	513.19
423.488	543.25
423.864	544.38
424.241	552.51
424.617	555.9
424.994	553.42
425.37	567.65
425.746	569.01
426.123	571.5
426.499	576.02
426.875	576.47
427.251	558.39
427.627	586.41
428.003	584.83
428.379	586.64
428.756	594.32
429.132	606.07
429.507	620.08
429.883	607.43
430.259	628.22
430.635	625.96
431.011	636.35
431.387	633.42
431.763	649.01
432.138	646.07
432.514	630.03
432.89	668.89
433.265	673.41
433.641	694.88
434.016	682.45
434.392	669.8
434.767	675.45
435.143	680.42
435.518	692.4
435.894	680.19
436.269	697.14
436.644	728.78
437.02	699.85
437.395	719.51
437.77	706.86
438.145	707.31
438.52	747.99
438.895	733.53
439.271	750.25
439.646	769.01
440.021	775.11
440.395	760.42
440.77	784.37
441.145	771.04
441.52	796.58
441.895	797.03
442.27	786.41
442.645	784.15
443.019	787.76
443.394	804.71
443.769	792.28
444.143	794.77
444.518	817.59
444.892	811.49
445.267	833.18
445.641	809.68
446.016	822.34
446.39	828.21
446.764	834.77
447.139	849.23
447.513	851.94
447.887	870.7
448.262	864.6
448.636	849.91
449.01	840.19
449.384	865.95
449.758	870.92
450.132	901.21
450.506	890.81
450.88	920.41
451.254	889.68
451.628	915.44
452.002	926.06
452.376	923.13
452.75	926.29
453.123	928.55
453.497	935.1
453.871	977.81
454.244	969.9
454.618	989.34
454.992	1003.58
455.365	1009
455.739	1008.55
456.112	1027.53
456.486	1019.62
456.859	1034.76
457.232	1055.1
457.606	1066.17
457.979	1071.82
458.352	1102.33
458.725	1110.01
459.099	1113.4
459.472	1128.77
459.845	1137.81
460.218	1132.39
460.591	1170.58
460.964	1187.75
461.337	1168.99
461.71	1217.81
462.083	1226.62
462.456	1216.45
462.829	1232.95
463.201	1273.62
463.574	1258.94
463.947	1276.11
464.32	1317.01
464.692	1309.56
465.065	1331.48
465.438	1345.04
465.81	1366.73
466.183	1380.29
466.555	1404.02
466.928	1435.43
467.3	1425.49
467.672	1451.93
468.045	1479.95
468.417	1513.17
468.789	1490.79
469.161	1550
469.534	1567.4
469.906	1599.27
470.278	1630.23
470.65	1662.77
471.022	1677.46
471.394	1684.91
471.766	1730.11
472.138	1756.1
472.51	1820.05
472.882	1834.06
473.253	1877.22
473.625	1904.57
473.997	1952.25
474.369	1984.11
474.74	2005.58
475.112	2084.45
475.484	2109.76
475.855	2180.27
476.227	2175.07
476.598	2274.73
476.97	2283.32
477.341	2398.57
477.713	2418
478.084	2440.6
478.455	2532.57
478.827	2540.03
479.198	2691.89
479.569	2730.76
479.94	2817.09
480.311	2850.98
480.682	2942.73
481.053	3008.72
481.424	3095.5
481.795	3155.61
482.166	3265.21
482.537	3279.22
482.908	3407.58
483.279	3446.9
483.65	3622.49
484.021	3686.44
484.391	3775.93
484.762	3820.45
485.133	3887.79
485.503	4038.07
485.874	4158.07
486.244	4214.56
486.615	4325.07
486.985	4443.26
487.356	4524.16
487.726	4650.03
488.097	4816.58
488.467	4874.43
488.837	4985.62
489.207	5104.03
489.578	5254.09
489.948	5352.61
490.318	5455.44
490.688	5548.54
491.058	5689.55
491.428	5784.69
491.798	5883.45
492.168	6123.21
492.538	6162.54
492.908	6338.8
493.278	6419.48
493.648	6455.86
494.017	6606.37
494.387	6779.92
494.757	6830.99
495.126	6962.51
495.496	7039.35
495.866	7122.51
496.235	7230.53
496.605	7391.88
496.974	7463.52
497.344	7610.18
497.713	7717.75
498.082	7768.82
498.452	7914.58
498.821	7966.1
499.19	8061.47
499.559	8207.45
499.928	8298.07
500.298	8318.19
500.667	8455.81
501.036	8476.37
501.405	8623.71
501.774	8694.9
502.143	8796.59
502.512	8850.6
502.88	8985.06
503.249	8978.28
503.618	9124.72
503.987	9186.64
504.356	9246.75
504.724	9340.31
505.093	9408.78
505.462	9451.49
505.83	9544.59
506.199	9681.77
506.567	9811.48
506.936	9776.23
507.304	9882.44
507.672	9875.43
508.041	9969.22
508.409	10034.52
508.777	10091.7
509.145	10200.17
509.514	10228.42
509.882	10250.56
510.25	10366.04
510.618	10354.06
510.986	10444.46
511.354	10520.39
511.722	10529.65
512.09	10620.27
512.458	10678.12
512.826	10699.37
513.193	10733.49
513.561	10812.81
513.929	10950.66
514.297	10926.25
514.664	10975.74
515.032	11011.9
515.4	11088.51
515.767	11055.74
516.135	11052.35
516.502	11025.01
516.869	11208.05
517.237	11194.27
517.604	11154.49
517.972	11291.67
518.339	11334.83
518.706	11321.72
519.073	11391.32
519.44	11359.01
519.808	11439.01
520.175	11483.53
520.542	11564.88
520.909	11570.53
521.276	11540.25
521.643	11585.67
522.009	11697.31
522.376	11674.03
522.743	11761.71
523.11	11797.42
523.477	11864.08
523.843	11872.22
524.21	11930.75
524.577	11998.09
524.943	11934.59
525.31	11981.14
525.676	12083.51
526.043	12060.69
526.409	11974.81
526.776	12182.26
527.142	12005.77
527.508	12172.1
527.874	12220.91
528.241	12229.27
528.607	12156.73
528.973	12224.3
529.339	12209.61
529.705	12223.85
530.071	12264.3
530.437	12310.17
530.803	12302.26
531.169	12337.97
531.535	12237.18
531.901	12305.88
532.267	12330.96
532.632	12347.91
532.998	12305.65
533.364	12350.62
533.73	12334.12
534.095	12266.78
534.461	12396.95
534.826	12327.57
535.192	12305.43
535.557	12317.18
535.923	12334.8
536.288	12277.86
536.653	12246.44
537.019	12219.1
537.384	12179.33
537.749	12213.22
538.114	12154.47
538.479	12095.71
538.845	12162.15
539.21	12067.47
539.575	12027.01
539.94	12087.8
540.305	12166.22
540.67	12056.62
541.034	12009.39
541.399	12056.39
541.764	11979.56
542.129	12036.73
542.494	11941.14
542.858	11990.41
543.223	11932.1
543.587	12000.35
543.952	11933.23
544.316	11848.26
544.681	11744.54
545.045	11858.21
545.41	11818.43
545.774	11759.9
546.138	11727.59
546.503	11673.8
546.867	11776.4
547.231	11674.03
547.595	11587.03
547.959	11594.03
548.324	11600.36
548.688	11542.96
549.052	11571.43
549.416	11541.38
549.779	11499.57
550.143	11512.23
550.507	11500.25
550.871	11535.95
551.235	11491.44
551.599	11559.46
551.962	11512.23
552.326	11484.2
552.689	11431.55
553.053	11389.97
553.417	11339.8
553.78	11455.5
554.143	11323.08
554.507	11313.13
554.87	11416.41
555.234	11417.76
555.597	11278.79
555.96	11283.08
556.323	11356.07
556.686	11192.69
557.05	11319.91
557.413	11274.04
557.776	11352
558.139	11278.79
558.502	11303.64
558.865	11233.36
559.228	11297.32
559.59	11311.33
559.953	11262.74
560.316	11298.22
560.679	11342.96
561.041	11387.03
561.404	11405.56
561.767	11401.27
562.129	11322.17
562.492	11403.98
562.854	11387.94
563.217	11308.39
563.579	11339.35
563.941	11491.66
564.304	11404.66
564.666	11402.4
565.028	11472.45
565.39	11406.01
565.753	11448.05
566.115	11490.31
566.477	11501.38
566.839	11483.3
567.201	11645.78
567.563	11533.69
567.925	11563.52
568.287	11608.72
568.648	11518.33
569.01	11622.73
569.372	11673.58
569.734	11549.51
570.095	11698.89
570.457	11650.98
570.819	11703.86
571.18	11675.39
571.542	11734.82
571.903	11709.28
572.265	11711.77
572.626	11649.17
572.987	11679
573.349	11833.8
573.71	11778.21
574.071	11784.31
574.432	11888.94
574.794	11932.78
575.155	11813.91
575.516	11778.89
575.877	11840.35
576.238	11825.21
576.599	11793.12
576.96	11893.46
577.32	11961.48
577.681	11801.26
578.042	11813.69
578.403	11889.84
578.763	11836.28
579.124	11841.48
579.485	11922.16
579.845	11926.9
580.206	11952.44
580.566	11807.81
580.927	11909.28
581.287	11973.46
581.648	11878.77
582.008	11994.7
582.368	11906.11
582.728	11900.69
583.089	11829.05
583.449	11854.36
583.809	11848.49
584.169	11826.12
584.529	11815.04
584.889	11856.62
585.249	11796.96
585.609	11809.84
585.969	11845.32
586.329	11811.88
586.688	11891.88
587.048	11785.66
587.408	11801.03
587.768	11805.1
588.127	11789.73
588.487	11790.41
588.846	11892.1
589.206	11734.14
589.565	11759.68
589.925	11797.64
590.284	11704.08
590.643	11779.79
591.003	11787.92
591.362	11800.58
591.721	11787.47
592.08	11769.85
592.44	11783.63
592.799	11665.22
593.158	11737.3
593.517	11663.63
593.876	11704.99
594.235	11702.73
594.593	11673.13
594.952	11700.02
595.311	11641.26
595.67	11756.96
596.029	11707.7
596.387	11730.98
596.746	11748.6
597.104	11680.13
597.463	11676.97
597.822	11728.04
598.18	11622.96
598.538	11619.79
598.897	11702.95
599.255	11632.9
599.613	11675.16
599.972	11671.09
600.33	11754.93
600.688	11666.35
601.046	11719.9
601.404	11675.84
601.762	11656.63
602.12	11730.07
602.478	11706.8
602.836	11671.54
603.194	11654.82
603.552	11601.26
603.91	11671.54
604.268	11733.24
604.625	11629.28
604.983	11775.5
605.341	11663.63
605.698	11774.82
606.056	11724.2
606.413	11721.03
606.771	11664.99
607.128	11736.17
607.485	11633.8
607.843	11670.41
608.2	11723.07
608.557	11722.39
608.914	11724.42
609.272	11729.85
609.629	11774.37
609.986	11797.42
610.343	11796.96
610.7	11853.69
611.057	11844.87
611.414	11785.21
611.771	11808.94
612.127	11911.31
612.484	11865.89
612.841	11868.6
613.198	11864.08
613.554	11840.58
613.911	11854.82
614.267	11932.78
614.624	11907.47
614.98	11888.71
615.337	11951.31
615.693	11934.14
616.05	11850.07
616.406	12067.92
616.762	11890.07
617.118	11898.88
617.475	11916.96
617.831	11946.56
618.187	11992.21
618.543	11930.29
618.899	11957.19
619.255	11997.41
619.611	11975.72
619.967	12015.94
620.323	12046.45
620.678	11990.63
621.034	11957.86
621.39	11960.35
621.746	11979.11
622.101	12203.96
622.457	11986.56
622.812	12001.03
623.168	12025.88
623.523	12060.23
623.879	12022.95
624.234	11992.89
624.589	12029.73
624.945	12116.73
625.3	12095.49
625.655	12066.11
626.01	12082.15
626.365	12091.19
626.72	12027.47
627.075	12047.8
627.43	11979.56
627.785	11984.3
628.14	12124.64
628.495	11972.55
628.85	12066.79
629.205	12052.78
629.559	11992.21
629.914	11880.58
630.269	12011.42
630.623	11957.86
630.978	11883.97
631.332	11987.02
631.687	11953.34
632.041	11921.48
632.396	11907.24
632.75	11873.35
633.104	11934.59
633.459	11831.31
633.813	11838.09
634.167	11819.11
634.521	11850.3
634.875	11798.55
635.229	11825.21
635.583	11783.86
635.937	11739.79
636.291	11704.76
636.645	11740.92
636.999	11707.25
637.352	11753.12
637.706	11646.23
638.06	11752.67
638.413	11688.72
638.767	11644.2
639.121	11696.85
639.474	11583.41
639.828	11643.97
640.181	11616.63
640.534	11644.88
640.888	11577.99
641.241	11525.56
641.594	11504.77
641.947	11588.16
642.301	11631.77
642.654	11660.02
643.007	11527.59
643.36	11543.64
643.713	11495.73
644.066	11494.6
644.419	11545.9
644.771	11394.49
645.124	11278.33
645.477	11310.65
645.83	11204.89
646.182	11193.59
646.535	11135.74
646.888	11138.9
647.24	11112.91
647.593	11194.49
647.945	11154.27
648.298	11100.71
648.65	11088.96
649.002	11033.14
649.355	11063.65
649.707	11122.63
650.059	11154.49
650.411	11288.05
650.763	11269.75
651.115	11356.07
651.467	11388.39
651.819	11312.23
652.171	11411.21
652.523	11301.84
652.875	11270.88
653.227	11306.13
653.578	11413.7
653.93	11284.89
654.282	11357.43
654.633	11246.7
654.985	11390.65
655.337	11307.71
655.688	11381.38
656.039	11375.96
656.391	11269.97
656.742	11303.64
657.094	11301.38
657.445	11298.9
657.796	11327.37
658.147	11282.63
658.498	11309.29
658.849	11271.55
659.2	11325.34
659.551	11307.71
659.902	11334.38
660.253	11328.28
660.604	11360.82
660.955	11272.23
661.306	11340.48
661.656	11303.64
662.007	11338.22
662.358	11361.72
662.708	11380.93
663.059	11293.25
663.409	11249.41
663.76	11410.53
664.11	11272.68
664.461	11356.07
664.811	11338.9
665.161	11292.34
665.511	11323.76
665.862	11346.35
666.212	11370.08
666.562	11363.08
666.912	11302.06
667.262	11415.96
667.612	11317.2
667.962	11353.59
668.312	11324.66
668.662	11363.08
669.011	11296.86
669.361	11294.38
669.711	11235.85
670.06	11368.73
670.41	11370.53
670.76	11273.59
671.109	11378.44
671.459	11334.6
671.808	11252.35
672.157	11373.7
672.507	11204.44
672.856	11190.88
673.205	11269.07
673.554	11205.34
673.904	11272.01
674.253	11306.81
674.602	11265.68
674.951	11117.66
675.3	11050.77
675.649	11179.35
675.998	11193.36
676.346	11152.01
676.695	11189.97
677.044	11170.77
677.393	11206.7
677.741	11170.77
678.09	11130.77
678.438	11143.42
678.787	11108.62
679.135	11045.35
679.484	11040.15
679.832	10977.55
680.181	10962.86
680.529	10996.31
680.877	11067.04
681.225	10999.02
681.573	11051.67
681.922	10951.34
682.27	10959.47
682.618	10892.58
682.966	10898
683.314	10896.42
683.661	10881.73
684.009	10726.03
684.357	10762.41
684.705	10797.44
685.053	10745.92
685.4	10723.09
685.748	10640.38
686.095	10660.95
686.443	10635.41
686.79	10573.27
687.138	10668.41
687.485	10591.35
687.832	10509.31
688.18	10553.38
688.527	10492.82
688.874	10617.11
689.221	10495.3
689.568	10423.67
689.915	10400.39
690.262	10466.15
690.609	10307.51
690.956	10385.93
691.303	10296.21
691.65	10256.67
691.997	10277.91
692.344	10228.19
692.69	10217.12
693.037	10150.23
693.383	10116.1
693.73	10109.1
694.077	10065.71
694.423	10041.98
694.769	10010.34
695.116	10008.54
695.462	9969.67
695.808	9936.22
696.155	9885.38
696.501	9822.33
696.847	9823.23
697.193	9786.4
697.539	9757.7
697.885	9721.99
698.231	9712.27
698.577	9682.9
698.923	9603.35
699.269	9536.68
699.614	9528.32
699.96	9480.19
700.306	9465.27
700.651	9471.15
700.997	9398.61
701.342	9325.84
701.688	9388.67
702.033	9332.17
702.379	9296.69
702.724	9319.29
703.069	9207.43
703.415	9224.6
703.76	9185.06
704.105	9187.09
704.45	9146.41
704.795	9111.16
705.14	9108.9
705.485	9069.13
705.83	9038.84
706.175	9041.33
706.52	9013.76
706.865	8940.54
707.209	8899.19
707.554	8896.7
707.899	8919.98
708.243	8843.82
708.588	8798.17
708.932	8803.14
709.277	8682.47
709.621	8792.98
709.966	8703.26
710.31	8715.01
710.654	8698.97
710.998	8637.72
711.342	8586.88
711.687	8594.56
712.031	8577.39
712.375	8541.46
712.719	8587.78
713.063	8552.08
713.407	8549.37
713.75	8601.57
714.094	8562.25
714.438	8502.59
714.782	8484.96
715.125	8431.85
715.469	8458.29
715.812	8426.2
716.156	8382.59
716.499	8374.68
716.843	8392.99
717.186	8333.55
717.53	8402.93
717.873	8377.17
718.216	8340.11
718.559	8274.12
718.902	8234.57
719.246	8286.32
719.589	8254.91
719.932	8205.65
720.275	8226.66
720.617	8152.54
720.96	8191.63
721.303	8242.26
721.646	8232.31
721.989	8186.66
722.331	8173.33
722.674	8164.52
723.016	8218.07
723.359	8236.61
723.701	8171.97
724.044	8067.57
724.386	8074.58
724.729	8139.66
725.071	8102.6
725.413	8072.99
725.755	8104.41
726.097	8115.93
726.439	8073.67
726.782	8036.84
727.124	8074.12
727.465	8079.77
727.807	8077.51
728.149	8095.82
728.491	8051.3
728.833	8032.99
729.175	8088.59
729.516	8019.66
729.858	7984.63
730.199	8016.95
730.541	7979.66
730.882	7996.16
731.224	8011.75
731.565	7962.26
731.906	7964.75
732.248	7961.58
732.589	7872.1
732.93	7938.08
733.271	7869.16
733.612	7980.57
733.953	7992.32
734.294	8002.71
734.635	7915.94
734.976	7981.02
735.317	7928.82
735.658	7938.76
735.999	7986.67
736.339	7905.54
736.68	8016.5
737.021	7983.96
737.361	7936.95
737.702	8010.85
738.042	7960.23
738.383	7972.88
738.723	7976.95
739.063	7933.11
739.404	8018.98
739.744	7959.1
740.084	7956.16
740.424	7961.36
740.764	7963.84
741.104	8019.66
741.444	8052.66
741.784	8067.34
742.124	8055.37
742.464	7976.73
742.804	8094.01
743.143	8115.25
743.483	8040.68
743.823	8125.2
744.162	8124.07
744.502	8194.12
744.841	8097.63
745.181	8201.13
745.52	8177.17
745.86	8258.07
746.199	8276.83
746.538	8308.92
746.877	8352.31
747.216	8382.82
747.556	8363.61
747.895	8443.83
748.234	8497.62
748.573	8427.11
748.911	8536.71
749.25	8652.41
749.589	8608.12
749.928	8665.97
750.267	8723.82
750.605	8767.44
750.944	8865.06
751.283	8848.57
751.621	9019.18
751.96	9026.87
752.298	9093.98
752.636	9152.97
752.975	9286.75
753.313	9293.3
753.651	9497.36
753.989	9440.42
754.327	9504.59
754.666	9698.94
755.004	9750.24
755.342	9907.3
755.679	9968.99
756.017	10060.96
756.355	10205.14
756.693	10260.73
757.031	10393.16
757.368	10505.02
757.706	10644.23
758.044	10677.45
758.381	10899.36
758.719	11002.18
759.056	11154.04
759.394	11207.83
759.731	11344.77
760.068	11476.29
