Data from hue_32_FLMS001491_00039.txt Node
Date: Tue Feb 07 17:23:18 GMT 2017
User: dcchb
Spectrometer: FLMS00149
Trigger mode: 0
Integration Time (sec): 2.000000E-2
Scans to average: 10
Electric dark correction enabled: true
Nonlinearity correction enabled: false
Boxcar width: 0
XAxis mode: Wavelengths
Number of Pixels in Spectrum: 2048
>>>>>Begin Spectral Data<<<<<
341.393	-7.03
341.776	-7.03
342.16	-7.03
342.543	-56.3
342.927	-58.56
343.31	-70.08
343.693	-69.86
344.077	-64.43
344.46	-60.37
344.843	-29.86
345.226	-43.87
345.61	-38.67
345.993	-20.82
346.376	2.91
346.759	-4.55
347.142	21.21
347.525	49.91
347.908	59.86
348.291	66.64
348.674	87.88
349.057	114.09
349.44	124.04
349.823	151.15
350.206	157.93
350.588	179.18
350.971	203.81
351.354	233.19
351.737	234.54
352.119	242.23
352.502	249.91
352.884	290.81
353.267	283.58
353.65	293.98
354.032	286.52
354.414	291.94
354.797	297.59
355.179	312.51
355.562	320.42
355.944	308.21
356.326	350.92
356.709	330.58
357.091	347.53
357.473	348.89
357.855	336.23
358.238	338.04
358.62	359.74
359.002	357.93
359.384	340.53
359.766	351.37
360.148	344.14
360.53	320.87
360.912	328.1
361.294	335.56
361.676	330.58
362.057	339.62
362.439	338.72
362.821	318.83
363.203	333.07
363.584	343.69
363.966	312.28
364.348	328.32
364.729	352.05
365.111	327.87
365.493	317.7
365.874	307.99
366.256	327.42
366.637	317.7
367.019	313.64
367.4	317.25
367.781	310.25
368.163	316.57
368.544	311.6
368.925	303.92
369.306	310.7
369.688	298.72
370.069	331.04
370.45	297.59
370.831	305.5
371.212	308.66
371.593	317.48
371.974	319.51
372.355	323.35
372.736	328.78
373.117	332.39
373.498	330.13
373.879	333.75
374.26	320.19
374.641	329.45
375.021	312.28
375.402	317.93
375.783	317.03
376.163	312.05
376.544	333.3
376.925	316.12
377.305	310.02
377.686	336.23
378.066	328.32
378.447	342.56
378.827	354.31
379.208	324.48
379.588	325.16
379.968	315.9
380.349	332.17
380.729	333.75
381.109	341.21
381.489	355.44
381.87	342.11
382.25	346.18
382.63	345.27
383.01	350.92
383.39	360.41
383.77	337.59
384.15	340.98
384.53	333.75
384.91	340.75
385.29	324.48
385.67	350.02
386.049	340.98
386.429	355.67
386.809	343.92
387.189	362.45
387.568	361.32
387.948	329.68
388.328	372.84
388.707	352.96
389.087	378.72
389.466	361.54
389.846	363.58
390.225	368.55
390.605	362.45
390.984	347.31
391.363	362.22
391.743	373.52
392.122	371.94
392.501	367.42
392.881	383.24
393.26	393.63
393.639	367.65
394.018	390.02
394.397	367.65
394.776	381.88
395.155	390.24
395.534	383.92
395.913	378.49
396.292	375.78
396.671	400.41
397.05	386.18
397.429	399.28
397.808	389.57
398.186	379.4
398.565	378.94
398.944	381.43
399.323	387.76
399.701	375.56
400.08	392.05
400.458	395.22
400.837	407.87
401.215	381.66
401.594	399.51
401.972	386.63
402.351	413.52
402.729	391.6
403.107	407.42
403.486	410.58
403.864	428.89
404.242	414.65
404.62	416.23
404.999	430.02
405.377	432.05
405.755	409
406.133	426.18
406.511	415.33
406.889	423.46
407.267	427.98
407.645	437.25
408.023	435.44
408.401	432.73
408.779	447.64
409.156	438.6
409.534	447.42
409.912	440.41
410.29	434.76
410.667	462.56
411.045	439.96
411.422	457.81
411.8	479.73
412.178	456.23
412.555	461.43
412.933	464.82
413.31	464.82
413.687	481.09
414.065	465.5
414.442	499.17
414.819	478.15
415.197	481.32
415.574	482.67
415.951	486.06
416.328	489.68
416.705	495.55
417.082	503.91
417.46	489.9
417.837	527.64
418.214	499.85
418.591	500.07
418.967	529
419.344	512.95
419.721	514.76
420.098	513.86
420.475	521.09
420.852	521.09
421.228	531.94
421.605	511.6
421.982	539.84
422.358	521.31
422.735	534.19
423.111	535.32
423.488	549.11
423.864	537.58
424.241	545.72
424.617	557.47
424.994	533.52
425.37	560.63
425.746	584.14
426.123	553.18
426.499	566.28
426.875	586.4
427.251	567.64
427.627	583.01
428.003	584.14
428.379	592.72
428.756	592.05
429.132	589.33
429.507	584.82
429.883	627.3
430.259	619.39
430.635	614.87
431.011	625.49
431.387	624.59
431.763	637.02
432.138	613.97
432.514	645.38
432.89	651.93
433.265	642.21
433.641	647.64
434.016	648.09
434.392	679.5
434.767	668.2
435.143	673.4
435.518	669.78
435.894	683.8
436.269	680.63
436.644	692.61
437.02	708.2
437.395	706.17
437.77	717.02
438.145	705.49
438.52	722.89
438.895	718.37
439.271	731.7
439.646	747.3
440.021	730.8
440.395	725.6
440.77	743.91
441.145	742.1
441.52	756.79
441.895	766.05
442.27	773.96
442.645	760.86
443.019	768.54
443.394	772.38
443.769	774.41
444.143	797.46
444.518	790.01
444.892	783.91
445.267	800.85
445.641	792.04
446.016	789.1
446.39	784.13
446.764	816.22
447.139	825.71
447.513	828.42
447.887	827.52
448.262	813.28
448.636	816.9
449.01	833.62
449.384	833.85
449.758	834.3
450.132	855.09
450.506	845.83
450.88	868.65
451.254	868.88
451.628	864.36
452.002	870.01
452.376	897.12
452.75	876.78
453.123	911.59
453.497	905.48
453.871	905.94
454.244	950.68
454.618	950
454.992	934.41
455.365	948.2
455.739	958.59
456.112	971.25
456.486	948.87
456.859	977.8
457.232	1004.47
457.606	1013.5
457.979	1012.15
458.352	993.62
458.725	1060.96
459.099	1038.59
459.472	1057.35
459.845	1045.37
460.218	1067.97
460.591	1058.25
460.964	1059.6
461.337	1124.46
461.71	1103.45
462.083	1156.33
462.456	1128.3
462.829	1135.08
463.201	1158.81
463.574	1185.25
463.947	1178.7
464.32	1186.61
464.692	1204.23
465.065	1223.67
465.438	1226.83
465.81	1255.98
466.183	1261.86
466.555	1309.32
466.928	1318.81
467.3	1312.71
467.672	1331.46
468.045	1359.26
468.417	1382.08
468.789	1399.26
469.161	1397.68
469.534	1433.61
469.906	1462.53
470.278	1450.33
470.65	1476.32
471.022	1492.81
471.394	1544.11
471.766	1567.39
472.138	1542.3
472.51	1587.95
472.882	1651.45
473.253	1674.28
473.625	1665.46
473.997	1722.64
474.369	1750.66
474.74	1760.6
475.112	1815.07
475.484	1826.59
475.855	1845.35
476.227	1898
476.598	1994.72
476.97	1960.6
477.341	2003.99
477.713	2064.55
478.084	2108.39
478.455	2166.02
478.827	2192.23
479.198	2267.93
479.569	2274.04
479.94	2357.65
480.311	2408.27
480.682	2465.44
481.053	2522.39
481.424	2560.81
481.795	2653.24
482.166	2665.89
482.537	2748.37
482.908	2822.72
483.279	2892.78
483.65	2944.98
484.021	2998.09
484.391	3067.69
484.762	3090.96
485.133	3200.79
485.503	3271.52
485.874	3320.79
486.244	3415.02
486.615	3499.31
486.985	3561.69
487.356	3649.59
487.726	3699.76
488.097	3790.61
488.467	3856.82
488.837	3966.65
489.207	4028.11
489.578	4122.58
489.948	4202.12
490.318	4263.59
490.688	4356.02
491.058	4425.62
491.428	4490.7
491.798	4584.71
492.168	4656.57
492.538	4722.11
492.908	4843.69
493.278	4915.32
493.648	4930.01
494.017	5032.83
494.387	5139.72
494.757	5180.4
495.126	5290.68
495.496	5287.06
495.866	5381.75
496.235	5466.72
496.605	5569.32
496.974	5621.29
497.344	5770.89
497.713	5769.31
498.082	5804.56
498.452	5923.88
498.821	5999.14
499.19	6004.11
499.559	6074.61
499.928	6153.48
500.298	6220.37
500.667	6301.27
501.036	6307.15
501.405	6405
501.774	6449.97
502.143	6458.33
502.512	6560.93
502.88	6627.14
503.249	6634.6
503.618	6756.86
503.987	6785.56
504.356	6796.86
504.724	6878.21
505.093	6924.08
505.462	6955.27
505.83	7091.99
506.199	7145.77
506.567	7199.56
506.936	7226.67
507.304	7348.71
507.672	7332.43
508.041	7427.35
508.409	7454.47
508.777	7518.64
509.145	7555.48
509.514	7550.73
509.882	7618.75
510.25	7690.39
510.618	7714.57
510.986	7820.78
511.354	7825.3
511.722	7888.8
512.09	7936.26
512.458	7984.85
512.826	8011.29
513.193	8105.75
513.561	8142.36
513.929	8181.9
514.297	8297.83
514.664	8324.05
515.032	8313.88
515.4	8400.65
515.767	8447.66
516.135	8509.58
516.502	8530.82
516.869	8566.07
517.237	8603.81
517.604	8562.46
517.972	8689.23
518.339	8726.75
518.706	8777.82
519.073	8768.55
519.44	8819.4
519.808	8947.76
520.175	8945.5
520.542	9083.12
520.909	9040.19
521.276	9052.84
521.643	9136.68
522.009	9193.63
522.376	9165.38
522.743	9276.56
523.11	9297.35
523.477	9418.26
523.843	9509.55
524.21	9564.47
524.577	9639.04
524.943	9672.94
525.31	9660.06
525.676	9761.52
526.043	9849.43
526.409	9855.08
526.776	10001.74
527.142	9942.99
527.508	10031.8
527.874	10103.21
528.241	10097.56
528.607	10187.5
528.973	10325.35
529.339	10308.18
529.705	10415.29
530.071	10515.63
530.437	10445.8
530.803	10545.01
531.169	10588.39
531.535	10620.94
531.901	10688.28
532.267	10689.41
532.632	10756.98
532.998	10880.36
533.364	10888.5
533.73	10881.04
534.095	10972.11
534.461	11077.87
534.826	11057.08
535.192	11107.93
535.557	11146.8
535.923	11186.34
536.288	11221.37
536.653	11275.38
537.019	11288.49
537.384	11349.28
537.749	11364.64
538.114	11461.37
538.479	11479.67
538.845	11491.2
539.21	11587.46
539.575	11588.14
539.94	11628.59
540.305	11779.78
540.67	11685.54
541.034	11737.06
541.399	11779.32
541.764	11937.96
542.129	11903.84
542.494	11991.07
542.858	12085.76
543.223	12041.92
543.587	12076.26
543.952	12116.72
544.316	12176.37
544.681	12214.57
545.045	12300.67
545.41	12363.94
545.774	12363.71
546.138	12425.63
546.503	12471.73
546.867	12487.33
547.231	12596.7
547.595	12580.88
547.959	12655.91
548.324	12687.77
548.688	12654.78
549.052	12824.49
549.416	12868.33
549.779	12795.79
550.143	12822.69
550.507	12909.69
550.871	12994.88
551.235	12980.2
551.599	13052.06
551.962	13123.47
552.326	13220.19
552.689	13247.98
553.053	13253.41
553.417	13197.36
553.78	13407.08
554.143	13409.11
554.507	13450.24
554.87	13457.92
555.234	13565.49
555.597	13487.3
555.96	13569.78
556.323	13651.36
556.686	13693.85
557.05	13773.17
557.413	13818.59
557.776	13811.13
558.139	13892.04
558.502	13912.15
558.865	13964.12
559.228	13983.11
559.59	14085.93
559.953	14055.42
560.316	14194.4
560.679	14174.74
561.041	14332.93
561.404	14353.27
561.767	14471
562.129	14402.08
562.492	14511.91
562.854	14497.9
563.217	14523.43
563.579	14590.32
563.941	14718.45
564.304	14708.29
564.666	14906.7
565.028	14822.63
565.39	14878.68
565.753	15008.62
566.115	14988.96
566.477	15097.43
566.839	14984.66
567.201	15152.34
567.563	15175.84
567.925	15353.24
568.287	15406.35
568.648	15420.36
569.01	15477.08
569.372	15582.16
569.734	15511.2
570.095	15663.74
570.457	15666
570.819	15770.63
571.18	15765.21
571.542	15978.53
571.903	15941.7
572.265	15990.06
572.626	16061.02
572.987	16094.24
573.349	16196.61
573.71	16325.19
574.071	16385.53
574.432	16484.51
574.794	16616.03
575.155	16675.92
575.516	16642.02
575.877	16755.46
576.238	16976.7
576.599	16960.43
576.96	17139.41
577.32	17176.02
577.681	17431.38
578.042	17442.22
578.403	17525.16
578.763	17664.14
579.124	17777.36
579.485	17986.62
579.845	18107.29
580.206	18197.23
580.566	18406.49
580.927	18475.64
581.287	18733.04
581.648	18778.91
582.008	19056.42
582.368	19196.76
582.728	19352.46
583.089	19547.71
583.449	19682.84
583.809	19868.6
584.169	20059.33
584.529	20386.55
584.889	20656.38
585.249	20675.13
585.609	20913.77
585.969	21215.23
586.329	21408
586.688	21692.96
587.048	21836.46
587.408	21992.61
587.768	22131.14
588.127	22562.99
588.487	22694.97
588.846	23118.01
589.206	23183.77
589.565	23459.24
589.925	23847.48
590.284	23955.95
590.643	24256.96
591.003	24595.48
591.362	24932.42
591.721	25119.31
592.08	25294.22
592.44	25741.22
592.799	25922
593.158	26218.72
593.517	26434.3
593.876	26794.97
594.235	26987.06
594.593	27300.95
594.952	27536.2
595.311	27793.37
595.67	28115.16
596.029	28460.47
596.387	28786.11
596.746	29041.24
597.104	29167.34
597.463	29469.93
597.822	29790.37
598.18	29909.47
598.538	30120.31
598.897	30604.82
599.255	30610.92
599.613	31232.14
599.972	31307.62
600.33	31732.7
600.688	31760.04
601.046	32045.46
601.404	32359.57
601.762	32584.65
602.12	32823.52
602.478	33000.91
602.836	33159.33
603.194	33459.88
603.552	33694.68
603.91	33839.99
604.268	34086.53
604.625	34216.47
604.983	34604.71
605.341	34510.7
605.698	34835.89
606.056	35228.88
606.413	35188.2
606.771	35540.28
607.128	35783.44
607.485	35893.27
607.843	36093.49
608.2	36337.55
608.557	36657.99
608.914	36546.13
609.272	37120.35
609.629	37215.04
609.986	37394.92
610.343	37521.25
610.7	37854.57
611.057	37951.97
611.414	38161.68
611.771	38257.04
612.127	38327.78
612.484	38556.47
612.841	38798.95
613.198	38775.22
613.554	38973.64
613.911	39173.63
614.267	39314.64
614.624	39401.65
614.98	39438.48
615.337	39878.7
615.693	39820.85
616.05	39843.9
616.406	40245.24
616.762	40050.67
617.118	40278.69
617.475	40384.67
617.831	40521.39
618.187	40624.89
618.543	40774.49
618.899	41115.5
619.255	41144.2
619.611	41081.6
619.967	41312.56
620.323	41532.67
620.678	41457.86
621.034	41469.62
621.39	41469.62
621.746	41628.71
622.101	42074.57
622.457	41796.39
622.812	42022.37
623.168	42130.39
623.523	42148.24
623.879	42395.24
624.234	42005.65
624.589	42264.85
624.945	42543.94
625.3	42479.08
625.655	42541
626.01	42546.2
626.365	42663.48
626.72	42686.08
627.075	42596.82
627.43	42634.56
627.785	42612.64
628.14	42909.35
628.495	42900.76
628.85	42875
629.205	42760.66
629.559	42980.54
629.914	42842.46
630.269	42933.08
630.623	42832.29
630.978	42828.45
631.332	43021.44
631.687	43060.99
632.041	42973.31
632.396	43133.75
632.75	42889.24
633.104	43079.74
633.459	42917.71
633.813	42958.84
634.167	43002.68
634.521	43071.83
634.875	42948.9
635.229	43083.13
635.583	42875
635.937	42826.64
636.291	43023.93
636.645	42981.67
636.999	42918.17
637.352	43136.69
637.706	42883.82
638.06	42951.38
638.413	43016.24
638.767	42863.93
639.121	42895.34
639.474	42679.53
639.828	42708.68
640.181	42852.4
640.534	42856.25
640.888	42718.62
641.241	42430.04
641.594	42791.61
641.947	42832.07
642.301	42659.64
642.654	42720.66
643.007	42662.8
643.36	42760.2
643.713	42441.12
644.066	42624.39
644.419	42377.16
644.771	42223.27
645.124	41911.86
645.477	41813.34
645.83	41558.88
646.182	41471.2
646.535	41345.33
646.888	41486.79
647.24	41356.62
647.593	41408.37
647.945	41391.88
648.298	41246.34
648.65	41197.98
649.002	41087.03
649.355	41375.61
649.707	41211.54
650.059	41437.07
650.411	41912.54
650.763	41801.58
651.115	42174.91
651.467	41987.79
651.819	42007.45
652.171	42051.07
652.523	41907.57
652.875	42069.6
653.227	41718.42
653.578	42005.65
653.93	42021.92
654.282	41860.34
654.633	41797.97
654.985	41771.3
655.337	41974.69
655.688	42007
656.039	41998.42
656.391	41678.2
656.742	41899.21
657.094	41832.09
657.445	41928.81
657.796	41830.06
658.147	41668.93
658.498	41714.81
658.849	41896.5
659.2	41830.51
659.551	41657.86
659.902	41828.02
660.253	41691.76
660.604	41747.8
660.955	41687.92
661.306	41738.08
661.656	41653.79
662.007	41671.64
662.358	41661.93
662.708	41614.02
663.059	41601.59
663.409	41578.77
663.76	41724.3
664.11	41741.25
664.461	41648.37
664.811	41623.28
665.161	41542.16
665.511	41527.47
665.862	41498.54
666.212	41539.9
666.562	41573.12
666.912	41352.33
667.262	41488.15
667.612	41403.4
667.962	41491.31
668.312	41382.84
668.662	41585.32
669.011	41488.82
669.361	41394.14
669.711	41464.64
670.06	41396.17
670.41	41300.13
670.76	41180.81
671.109	41375.61
671.459	41415.38
671.808	41204.76
672.157	41412.22
672.507	41121.83
672.856	41159.34
673.205	41173.8
673.554	41414.93
673.904	41253.12
674.253	41409.96
674.602	41270.53
674.951	40781.5
675.3	40456.08
675.649	41147.14
675.998	41054.71
676.346	41118.66
676.695	41246.57
677.044	40935.84
677.393	40979.23
677.741	40989.63
678.09	40833.25
678.438	40953.92
678.787	40970.87
679.135	40939.46
679.484	40653.82
679.832	40752.35
680.181	40579.92
680.529	40878.22
680.877	40654.5
681.225	40570.43
681.573	40788.73
681.922	40503.54
682.27	40393.26
682.618	40410.43
682.966	40327.27
683.314	40501.96
683.661	40298.35
684.009	40169.31
684.357	40146.26
684.705	40080.73
685.053	40008.19
685.4	40087.28
685.748	39781.98
686.095	39900.84
686.443	39772.26
686.79	39808.19
687.138	39715.99
687.485	39719.38
687.832	39532.27
688.18	39576.56
688.527	39492.04
688.874	39385.15
689.221	39226.51
689.568	39047.53
689.915	39094.09
690.262	39058.83
690.609	39047.08
690.956	38903.58
691.303	38949.46
691.65	38583.59
691.997	38590.6
692.344	38375.69
692.69	38310.15
693.037	38442.58
693.383	38172.08
693.73	38223.83
694.077	37947.9
694.423	37965.08
694.769	37849.82
695.116	37881.01
695.462	37871.74
695.808	37733.44
696.155	37708.36
696.501	37400.34
696.847	37437.86
697.193	37261.59
697.539	37341.81
697.885	36957.19
698.231	36912.9
698.577	37054.59
698.923	36998.77
699.269	36818.21
699.614	36628.84
699.96	36504.55
700.306	36630.42
700.651	36396.98
700.997	36282.18
701.342	36335.74
701.688	36235.63
702.033	36044.67
702.379	35904.34
702.724	35893.72
703.069	35999.7
703.415	35539.6
703.76	35627.51
704.105	35499.15
704.45	35558.81
704.795	35285.15
705.14	35109.78
705.485	35225.03
705.83	35079.5
706.175	35121.99
706.52	35019.62
706.865	34851.71
707.209	34832.05
707.554	34645.16
707.899	34714.31
708.243	34557.26
708.588	34485.39
708.932	34300.09
709.277	34291.95
709.621	34303.02
709.966	34107.78
710.31	34205.4
710.654	33936.03
710.998	33920.89
711.342	34050.6
711.687	33697.39
712.031	33662.14
712.375	33551.41
712.719	33656.71
713.063	33536.04
713.407	33651.52
713.75	33410.17
714.094	33445.65
714.438	33156.61
714.782	33233.22
715.125	33090.85
715.469	33157.07
715.812	33152.55
716.156	32882.05
716.499	32878.88
716.843	32933.8
717.186	32735.61
717.53	32967.92
717.873	32925.43
718.216	32720.92
718.559	32614.48
718.902	32438.21
719.246	32589.4
719.589	32462.62
719.932	32209.97
720.275	32252.23
720.617	32348.95
720.96	32198.22
721.303	32165.68
721.646	32080.94
721.989	31928.17
722.331	32057.21
722.674	31990.09
723.016	31982.86
723.359	31908.51
723.701	32000.03
724.044	31802.3
724.386	31469.43
724.729	31754.17
725.071	31549.42
725.413	31534.74
725.755	31513.04
726.097	31403.89
726.439	31155.76
726.782	31169.77
727.124	31457.22
727.465	31312.59
727.807	31174.29
728.149	31133.84
728.491	31094.3
728.833	31155.08
729.175	30937.46
729.516	30833.29
729.858	30947.41
730.199	30763.46
730.541	30709.22
730.882	30683.91
731.224	30872.38
731.565	30607.3
731.906	30681.42
732.248	30640.52
732.589	30529.56
732.93	30316.69
733.271	30327.08
733.612	30422.67
733.953	30437.82
734.294	30353.3
734.635	30201.21
734.976	30303.81
735.317	30123.47
735.658	30180.65
735.999	30214.32
736.339	30073.08
736.68	30106.98
737.021	29995.34
737.361	29728.23
737.702	29986.08
738.042	29833.99
738.383	29786.31
738.723	29887.1
739.063	29731.39
739.404	29785.18
739.744	29776.36
740.084	29676.48
740.424	29675.12
740.764	29551.96
741.104	29691.17
741.444	29571.62
741.784	29523.26
742.124	29537.27
742.464	29379.31
742.804	29264.51
743.143	29325.08
743.483	29372.76
743.823	29023.62
744.162	29181.13
744.502	29217.06
744.841	29062.26
745.181	29058.42
745.52	28915.82
745.86	29132.54
746.199	28979.1
746.538	28872.88
746.877	28970.74
747.216	28959.66
747.556	28741.59
747.895	28728.48
748.234	28691.87
748.573	28641.25
748.911	28728.26
749.25	28663.85
749.589	28529.17
749.928	28483.52
750.267	28554.02
750.605	28490.75
750.944	28337.53
751.283	28280.81
751.621	28304.99
751.96	28295.05
752.298	28235.39
752.636	28233.13
752.975	28132.34
753.313	27928.05
753.651	28041.49
753.989	27939.58
754.327	27933.25
754.666	27744.78
755.004	27779.81
755.342	27821.16
755.679	27810.09
756.017	27680.6
756.355	27641.96
756.693	27471.79
757.031	27544.11
757.368	27401.06
757.706	27377.78
758.044	27295.98
