Data from hue_26_FLMS001491_00048.txt Node
Date: Tue Feb 07 17:14:04 GMT 2017
User: dcchb
Spectrometer: FLMS00149
Trigger mode: 0
Integration Time (sec): 2.000000E-2
Scans to average: 10
Electric dark correction enabled: true
Nonlinearity correction enabled: false
Boxcar width: 0
XAxis mode: Wavelengths
Number of Pixels in Spectrum: 2048
>>>>>Begin Spectral Data<<<<<
341.393	-13.8
341.776	-13.8
342.16	-13.8
342.543	-59
342.927	-58.09
343.31	-44.53
343.693	-71.65
344.077	-57.19
344.46	-66.68
344.843	-69.84
345.226	-35.27
345.61	-25.1
345.993	-16.06
346.376	9.93
346.759	-2.73
347.142	17.16
347.525	44.5
347.908	40.66
348.291	74.11
348.674	85.63
349.057	117.04
349.44	119.08
349.823	114.79
350.206	171.05
350.588	184.84
350.971	220.77
351.354	215.12
351.737	233.65
352.119	250.15
352.502	256.48
352.884	272.3
353.267	272.75
353.65	261.67
354.032	299.41
354.414	303.48
354.797	326.08
355.179	324.5
355.562	322.69
355.944	338.96
356.326	339.64
356.709	318.85
357.091	345.97
357.473	326.98
357.855	337.6
358.238	356.59
358.62	315.01
359.002	338.96
359.384	319.53
359.766	323.14
360.148	344.16
360.53	345.06
360.912	334.89
361.294	323.14
361.676	321.11
362.057	335.34
362.439	331.95
362.821	328.79
363.203	282.46
363.584	327.21
363.966	309.58
364.348	309.13
364.729	310.94
365.111	304.16
365.493	305.97
365.874	330.15
366.256	315.91
366.637	313.65
367.019	291.05
367.4	308
367.781	316.14
368.163	332.86
368.544	300.54
368.925	322.24
369.306	317.04
369.688	309.13
370.069	294.44
370.45	308.45
370.831	293.76
371.212	330.6
371.593	314.78
371.974	305.97
372.355	328.11
372.736	311.16
373.117	330.6
373.498	327.43
373.879	314.33
374.26	315.91
374.641	291.28
375.021	309.81
375.402	317.72
375.783	326.76
376.163	339.41
376.544	319.98
376.925	341.22
377.305	329.47
377.686	320.66
378.066	313.88
378.447	307.32
378.827	321.56
379.208	327.89
379.588	335.57
379.968	305.74
380.349	329.24
380.729	322.24
381.109	329.24
381.489	323.14
381.87	333.99
382.25	326.53
382.63	338.06
383.01	344.61
383.39	356.81
383.77	328.79
384.15	324.5
384.53	324.5
384.91	336.93
385.29	345.97
385.67	335.12
386.049	354.78
386.429	340.77
386.809	347.32
387.189	351.39
387.568	352.74
387.948	364.27
388.328	348.23
388.707	353.65
389.087	343.93
389.466	351.39
389.846	362.91
390.225	372.63
390.605	375.34
390.984	340.99
391.363	368.79
391.743	355.46
392.122	343.48
392.501	368.79
392.881	358.85
393.26	376.25
393.639	354.78
394.018	357.49
394.397	367.43
394.776	369.69
395.155	392.52
395.534	377.83
395.913	358.39
396.292	362.91
396.671	373.08
397.05	396.59
397.429	382.57
397.808	380.31
398.186	409.47
398.565	370.15
398.944	388.9
399.323	380.09
399.701	381.9
400.08	393.42
400.458	399.52
400.837	405.17
401.215	377.83
401.594	379.18
401.972	391.61
402.351	395.68
402.729	395.91
403.107	379.41
403.486	416.25
403.864	392.52
404.242	374.44
404.62	403.59
404.999	403.14
405.377	409.01
405.755	408.11
406.133	413.31
406.511	412.18
406.889	405.85
407.267	417.83
407.645	425.51
408.023	422.35
408.401	421.9
408.779	430.03
409.156	424.38
409.534	454.21
409.912	426.87
410.29	466.64
410.667	430.26
411.045	445.4
411.422	446.75
411.8	458.73
412.178	456.92
412.555	459.41
412.933	458.05
413.31	471.39
413.687	464.61
414.065	447.66
414.442	466.87
414.819	476.13
415.197	477.04
415.574	477.49
415.951	472.74
416.328	483.14
416.705	489.24
417.082	492.4
417.46	491.72
417.837	507.54
418.214	519.97
418.591	487.2
418.967	498.28
419.344	488.33
419.721	506.87
420.098	507.77
420.475	500.76
420.852	500.54
421.228	498.5
421.605	530.82
421.982	510.25
422.358	510.93
422.735	538.5
423.111	527.88
423.488	545.28
423.864	549.12
424.241	526.07
424.617	541.44
424.994	552.97
425.37	532.4
425.746	553.42
426.123	532.4
426.499	541.21
426.875	540.31
427.251	579.41
427.627	573.76
428.003	565.85
428.379	582.8
428.756	576.24
429.132	562.46
429.507	599.74
429.883	608.78
430.259	602.91
430.635	592.51
431.011	597.71
431.387	615.79
431.763	626.64
432.138	622.34
432.514	644.26
432.89	629.57
433.265	633.64
433.641	636.58
434.016	647.2
434.392	648.56
434.767	630.48
435.143	632.06
435.518	673.19
435.894	659.18
436.269	674.77
436.644	680.65
437.02	683.36
437.395	681.55
437.77	704.15
438.145	717.93
438.52	696.46
438.895	699.85
439.271	691.49
439.646	714.54
440.021	694.66
440.395	707.76
440.77	727.88
441.145	749.34
441.52	726.52
441.895	727.88
442.27	738.72
442.645	740.08
443.019	722.68
443.394	732.17
443.769	765.16
444.143	741.66
444.518	762
444.892	752.06
445.267	762.45
445.641	773.52
446.016	755.45
446.39	766.07
446.764	781.66
447.139	801.77
447.513	809.91
447.887	794.77
448.262	802.22
448.636	804.26
449.01	809.91
449.384	796.12
449.758	820.76
450.132	825.95
450.506	839.29
450.88	848.55
451.254	817.59
451.628	846.07
452.002	845.16
452.376	858.04
452.75	881.09
453.123	880.19
453.497	868.44
453.871	907.08
454.244	874.09
454.618	900.53
454.992	916.8
455.365	947.31
455.739	930.81
456.112	956.12
456.486	946.63
456.859	968.1
457.232	959.51
457.606	957.7
457.979	984.82
458.352	986.17
458.725	1002.9
459.099	1000.19
459.472	1030.92
459.845	1014.87
460.218	1020.52
460.591	998.38
460.964	1046.74
461.337	1064.36
461.71	1065.49
462.083	1099.17
462.456	1101.88
462.829	1110.69
463.201	1098.26
463.574	1126.06
463.947	1156.79
464.32	1155.44
464.692	1167.86
465.065	1169.67
465.438	1196.79
465.81	1222.1
466.183	1223.23
466.555	1227.3
466.928	1244.47
467.3	1234.08
467.672	1272.49
468.045	1288.09
468.417	1303.68
468.789	1314.98
469.161	1323.79
469.534	1332.15
469.906	1361.31
470.278	1403.11
470.65	1392.27
471.022	1417.12
471.394	1449.21
471.766	1446.28
472.138	1482.21
472.51	1486.5
472.882	1520.85
473.253	1519.95
473.625	1553.84
473.997	1606.5
474.369	1592.71
474.74	1610.34
475.112	1647.85
475.484	1697.79
475.855	1719.49
476.227	1735.99
476.598	1786.83
476.97	1805.81
477.341	1822.99
477.713	1846.49
478.084	1900.05
478.455	1950.22
478.827	1970.78
479.198	2030.21
479.569	2045.81
479.94	2083.09
480.311	2109.99
480.682	2154.96
481.053	2219.81
481.424	2227.72
481.795	2299.36
482.166	2325.35
482.537	2319.7
482.908	2434.5
483.279	2473.59
483.65	2460.94
484.021	2544.1
484.391	2586.81
484.762	2632.46
485.133	2619.35
485.503	2697.32
485.874	2724.66
486.244	2786.81
486.615	2853.7
486.985	2869.29
487.356	2946.58
487.726	3049.85
488.097	3070.19
488.467	3053.01
488.837	3143.86
489.207	3207.13
489.578	3238.77
489.948	3284.42
490.318	3323.29
490.688	3351.76
491.058	3421.59
491.428	3458.2
491.798	3536.62
492.168	3580.46
492.538	3565.54
492.908	3681.25
493.278	3742.71
493.648	3715.14
494.017	3796.27
494.387	3823.61
494.757	3875.82
495.126	3939.09
495.496	3947
495.866	3967.11
496.235	4030.61
496.605	4059.99
496.974	4101.8
497.344	4135.7
497.713	4184.96
498.082	4198.97
498.452	4225.19
498.821	4286.65
499.19	4301.34
499.559	4373.66
499.928	4337.72
500.298	4384.05
500.667	4467.21
501.036	4446.65
501.405	4489.59
501.774	4500.43
502.143	4557.15
502.512	4558.74
502.88	4569.36
503.249	4592.63
503.618	4612.52
503.987	4628.79
504.356	4757.37
504.724	4757.15
505.093	4749.47
505.462	4798.5
505.83	4803.48
506.199	4839.86
506.567	4871.04
506.936	4876.92
507.304	4971.15
507.672	4954.43
508.041	4952.85
508.409	5015.22
508.777	5012.96
509.145	5064.49
509.514	5054.32
509.882	5115.33
510.25	5116.69
510.618	5146.74
510.986	5208.44
511.354	5205.27
511.722	5280.07
512.09	5305.61
512.458	5280.75
512.826	5305.38
513.193	5363.69
513.561	5359.17
513.929	5356.68
514.297	5452.72
514.664	5408.21
515.032	5466.96
515.4	5449.79
515.767	5469.22
516.135	5485.72
516.502	5532.04
516.869	5573.17
517.237	5582.89
517.604	5582.66
517.972	5647.75
518.339	5672.61
518.706	5675.32
519.073	5708.99
519.44	5717.12
519.808	5788.99
520.175	5735.65
520.542	5777.24
520.909	5868.08
521.276	5832.6
521.643	5914.41
522.009	5858.36
522.376	5980.17
522.743	5990.79
523.11	5956.21
523.477	6059.94
523.843	6131.12
524.21	6120.5
524.577	6158.24
524.943	6162.31
525.31	6249.54
525.676	6296.09
526.043	6315.53
526.409	6287.28
526.776	6353.94
527.142	6395.3
527.508	6401.63
527.874	6441.4
528.241	6483.21
528.607	6514.84
528.973	6492.24
529.339	6541.28
529.705	6572.02
530.071	6658.34
530.437	6701.73
530.803	6676.65
531.169	6724.78
531.535	6703.09
531.901	6755.51
532.267	6773.59
532.632	6855.85
532.998	6850.2
533.364	6902.4
533.73	6941.5
534.095	7007.94
534.461	7016.3
534.826	7064.43
535.192	6989.18
535.557	7086.58
535.923	7089.07
536.288	7109.86
536.653	7163.64
537.019	7153.7
537.384	7197.08
537.749	7211.1
538.114	7259.91
538.479	7270.98
538.845	7338.1
539.21	7297.65
539.575	7386.23
539.94	7383.75
540.305	7418.77
540.67	7471.65
541.034	7453.8
541.399	7503.74
541.764	7480.02
542.129	7560.69
542.494	7578.77
542.858	7657.86
543.223	7704.19
543.587	7729.95
543.952	7709.16
544.316	7764.98
544.681	7758.88
545.045	7816.05
545.41	7876.61
545.774	7929.04
546.138	7890.63
546.503	7940.57
546.867	7964.3
547.231	8041.81
547.595	8055.14
547.959	8047.91
548.324	8093.11
548.688	8085.87
549.052	8133.33
549.416	8152.77
549.779	8132.2
550.143	8156.16
550.507	8264.4
550.871	8284.06
551.235	8258.3
551.599	8358.18
551.962	8361.8
552.326	8408.8
552.689	8454.68
553.053	8491.97
553.417	8411.29
553.78	8523.15
554.143	8517.05
554.507	8590.49
554.87	8562.25
555.234	8729.7
555.597	8610.38
555.96	8635.47
556.323	8717.95
556.686	8703.71
557.05	8788.68
557.413	8759.3
557.776	8794.33
558.139	8816.93
558.502	8868.23
558.865	8861.9
559.228	8923.82
559.59	8934.89
559.953	8976.7
560.316	9020.99
560.679	9022.57
561.041	9132.63
561.404	9130.59
561.767	9110.25
562.129	9123.81
562.492	9256.24
562.854	9233.19
563.217	9244.04
563.579	9229.8
563.941	9322
564.304	9375.78
564.666	9352.06
565.028	9366.75
565.39	9423.92
565.753	9493.07
566.115	9488.55
566.477	9548.89
566.839	9562.67
567.201	9646.29
567.563	9649.45
567.925	9693.06
568.287	9728.77
568.648	9750.92
569.01	9824.59
569.372	9831.14
569.734	9876.56
570.095	9886.28
570.457	9982.77
570.819	10096.67
571.18	10082.66
571.542	10074.3
571.903	10175.99
572.265	10204.01
572.626	10282.2
572.987	10284.69
573.349	10351.8
573.71	10381.41
574.071	10472.03
574.432	10462.54
574.794	10587.96
575.155	10628.63
575.516	10581.85
575.877	10751.34
576.238	10866.14
576.599	10844.45
576.96	10975.29
577.32	10980.04
577.681	11106.36
578.042	11215.06
578.403	11268.39
578.763	11348.61
579.124	11427.93
579.485	11649.85
579.845	11695.5
580.206	11803.07
580.566	11880.58
580.927	12045.32
581.287	12170.74
581.648	12241.92
582.008	12419.09
582.368	12539.09
582.728	12737.96
583.089	12912.19
583.449	12960.32
583.809	13181.56
584.169	13436.92
584.529	13537.93
584.889	13827.42
585.249	13862.45
585.609	14088.65
585.969	14382.88
586.329	14512.37
586.688	14685.48
587.048	14971.57
587.408	15105.35
587.768	15365.01
588.127	15602.97
588.487	15847.25
588.846	16155.27
589.206	16322.27
589.565	16593.45
589.925	16970.16
590.284	17049.71
590.643	17391.17
591.003	17713.19
591.362	18002.9
591.721	18203.8
592.08	18496.9
592.44	18914.06
592.799	19148.63
593.158	19415.07
593.517	19688.51
593.876	19973.47
594.235	20201.71
594.593	20566.68
594.952	20914.69
595.311	21117.85
595.67	21435.81
596.029	21873.54
596.387	22273.3
596.746	22535.89
597.104	22572.05
597.463	23031.92
597.822	23376.77
598.18	23629.2
598.538	23910.54
598.897	24324.54
599.255	24413.58
599.613	25059.89
599.972	25177.85
600.33	25515.47
600.688	25673.89
601.046	25941.9
601.404	26373.98
601.762	26702.33
602.12	26943.01
602.478	27253.28
602.836	27574.4
603.194	27751.35
603.552	27955.18
603.91	28163.77
604.268	28601.72
604.625	28693.24
604.983	29158.54
605.341	29337.97
605.698	29747.45
606.056	30071.74
606.413	30266.99
606.771	30445.06
607.128	30710.59
607.485	30816.58
607.843	31149.68
608.2	31324.59
608.557	31812.48
608.914	31974.29
609.272	32372.02
609.629	32630.99
609.986	32713.02
610.343	32882.74
610.7	33146.68
611.057	33339.67
611.414	33355.27
611.771	33564.08
612.127	34116.6
612.484	34178.75
612.841	34529.47
613.198	34490.15
613.554	34662.58
613.911	35016.01
614.267	35181.89
614.624	35337.36
614.98	35492.39
615.337	35950
615.693	35843.79
616.05	36051.92
616.406	36459.14
616.762	36511.12
617.118	36526.03
617.475	36677.21
617.831	36918.79
618.187	37088.95
618.543	37248.05
618.899	37552.44
619.255	37407.36
619.611	37476.06
619.967	37882.61
620.323	38042.15
620.678	38012.32
621.034	38074.46
621.39	38119.21
621.746	38216.83
622.101	38721.23
622.457	38507.67
622.812	38655.92
623.168	38813.88
623.523	38824.73
623.879	39142.69
624.234	39030.82
624.589	39240.99
624.945	39252.97
625.3	39449.34
625.655	39505.61
626.01	39636.91
626.365	39632.16
626.72	39685.04
627.075	39821.31
627.43	39767.08
627.785	39676.23
628.14	39840.75
628.495	40057.24
628.85	39950.57
629.205	40020.18
629.559	40197.35
629.914	40040.29
630.269	40128.65
630.623	40138.14
630.978	40271.24
631.332	40319.83
631.687	40461.52
632.041	40277.57
632.396	40579.94
632.75	40364.8
633.104	40385.59
633.459	40127.74
633.813	40343.78
634.167	40319.38
634.521	40424.01
634.875	40430.79
635.229	40394.4
635.583	40193.73
635.937	40309.66
636.291	40206.61
636.645	40348.08
636.999	40367.96
637.352	40518.92
637.706	40175.2
638.06	40428.53
638.413	40431.24
638.767	40237.8
639.121	40456.1
639.474	40176.1
639.828	40159.16
640.181	40364.12
640.534	40377.46
640.888	40312.37
641.241	40088.42
641.594	40217.69
641.947	40380.85
642.301	40285.93
642.654	40335.65
643.007	40366.61
643.36	40299.94
643.713	40209.32
644.066	40467.62
644.419	40108.31
644.771	39936.79
645.124	39497.48
645.477	39452.96
645.83	39305.39
646.182	39122.8
646.535	39058.39
646.888	39107.88
647.24	38755.13
647.593	39188.79
647.945	39179.97
648.298	38823.82
648.65	38947.89
649.002	38889.13
649.355	38902.92
649.707	38882.58
650.059	39096.13
650.411	39719.85
650.763	39614.76
651.115	40044.36
651.467	39866.51
651.819	39857.47
652.171	39912.83
652.523	39698.15
652.875	39687.53
653.227	39606.4
653.578	40010.46
653.93	39837.81
654.282	39594.65
654.633	39561.21
654.985	39742.67
655.337	39659.51
655.688	39694.31
656.039	39720.75
656.391	39605.05
656.742	39687.53
657.094	39678.72
657.445	39738.15
657.796	39654.31
658.147	39568.21
658.498	39611.83
658.849	39706.74
659.2	39553.75
659.551	39524.14
659.902	39629
660.253	39549.23
660.604	39521.88
660.955	39295.9
661.306	39530.92
661.656	39411.38
662.007	39413.41
662.358	39405.28
662.708	39457.03
663.059	39433.53
663.409	39193.53
663.76	39523.01
664.11	39486.41
664.461	39444.6
664.811	39417.03
665.161	39407.31
665.511	39365.73
665.862	39438.04
666.212	39499.51
666.562	39467.65
666.912	39367.31
667.262	39311.27
667.612	39412.96
667.962	39404.37
668.312	39316.24
668.662	39533.18
669.011	39449.34
669.361	39309.23
669.711	39389.91
670.06	39373.19
670.41	39184.72
670.76	39203.93
671.109	39387.88
671.459	39196.47
671.808	39298.16
672.157	39348.1
672.507	39038.96
672.856	39147.66
673.205	39131.16
673.554	39215.23
673.904	39106.08
674.253	39357.14
674.602	39187.2
674.951	38593.32
675.3	38391.07
675.649	39116.92
675.998	39022.91
676.346	38946.98
676.695	39147.88
677.044	38738.4
677.393	38965.51
677.741	38911.51
678.09	38927.78
678.438	38810.26
678.787	38768.23
679.135	38852.52
679.484	38539.09
679.832	38778.85
680.181	38456.38
680.529	38584.06
680.877	38521.23
681.225	38457.51
681.573	38753.54
681.922	38371.63
682.27	38335.48
682.618	38211.86
682.966	38296.38
683.314	38253.9
683.661	38050.96
684.009	37977.52
684.357	38027.46
684.705	37906.79
685.053	37951.3
685.4	38003.28
685.748	37807.58
686.095	37692.1
686.443	37550.41
686.79	37644.65
687.138	37614.14
687.485	37608.94
687.832	37486.01
688.18	37551.99
688.527	37390.87
688.874	37371.21
689.221	37254.37
689.568	37229.06
689.915	37021.16
690.262	36998.34
690.609	36861.84
690.956	36766.93
691.303	36807.83
691.65	36656.65
691.997	36593.15
692.344	36458.46
692.69	36530.32
693.037	36441.06
693.383	36047.4
693.73	36255.76
694.077	36014.18
694.423	36034.29
694.769	35992.26
695.116	35931.24
695.462	35852.83
695.808	35601.31
696.155	35670.46
696.501	35446.06
696.847	35607.19
697.193	35145.5
697.539	35364.93
697.885	35028.22
698.231	34956.81
698.577	35075.67
698.923	34879.97
699.269	34784.83
699.614	34648.11
699.96	34656.02
700.306	34671.16
700.651	34509.81
700.997	34366.54
701.342	34365.18
701.688	34236.37
702.033	34121.35
702.379	34185.53
702.724	34018.98
703.069	34131.07
703.415	33738.99
703.76	33785.54
704.105	33724.07
704.45	33631.87
704.795	33525.43
705.14	33538.09
705.485	33406.79
705.83	33370.86
706.175	33301.48
706.52	33218.77
706.865	33049.06
707.209	33136.52
707.554	32998.44
707.899	32866.01
708.243	32699.47
708.588	32761.61
708.932	32564.33
709.277	32614.5
709.621	32562.29
709.966	32287.5
710.31	32371.34
710.654	32152.81
710.998	32233.04
711.342	32258.12
711.687	32098.12
712.031	31923.44
712.375	31719.83
712.719	31786.27
713.063	31829.43
713.407	31894.06
713.75	31703.56
714.094	31611.58
714.438	31555.09
714.782	31576.78
715.125	31496.11
715.469	31426.73
715.812	31341.31
716.156	31250.46
716.499	31222.22
716.843	31220.18
717.186	31181.31
717.53	31145.38
717.873	31154.65
718.216	30920.53
718.559	30819.97
718.902	30653.64
719.246	30765.96
719.589	30652.51
719.932	30584.27
720.275	30613.19
720.617	30533.65
720.96	30410.94
721.303	30380.88
721.646	30400.32
721.989	30229.47
722.331	30315.57
722.674	30328.23
723.016	30163.03
723.359	30267.44
723.701	30277.61
724.044	30009.59
724.386	29887.34
724.729	30063.6
725.071	30011.63
725.413	29976.37
725.755	29894.57
726.097	29746.77
726.439	29630.85
726.782	29629.72
727.124	29910.61
727.465	29505.2
727.807	29499.55
728.149	29495.03
728.491	29478.98
728.833	29587.68
729.175	29393.79
729.516	29271.53
729.858	29308.14
730.199	29295.03
730.541	29167.81
730.882	29120.58
731.224	29205.32
731.565	29098.43
731.906	29115.83
732.248	29089.39
732.589	28876.51
732.93	28747.03
733.271	28757.42
733.612	28862.28
733.953	28858.89
734.294	28761.94
734.635	28726.01
734.976	28759.68
735.317	28629.06
735.658	28565.56
735.999	28720.81
736.339	28578.44
736.68	28681.49
737.021	28517.43
737.361	28444.89
737.702	28500.93
738.042	28332.8
738.383	28253.03
738.723	28504.1
739.063	28220.26
739.404	28298.45
739.744	28173.26
740.084	28072.24
740.424	28107.95
740.764	28095.52
741.104	28151.11
741.444	28065.24
741.784	27937.1
742.124	27907.05
742.464	28009.19
742.804	27803.32
743.143	27725.13
743.483	27695.3
743.823	27618.02
744.162	27712.25
744.502	27496.44
744.841	27670.22
745.181	27570.79
745.52	27467.29
745.86	27524.23
746.199	27462.09
746.538	27385.71
746.877	27441.52
747.216	27362.66
747.556	27328.08
747.895	27377.35
748.234	27190.46
748.573	27216.45
748.911	27177.12
749.25	27155.43
749.589	27066.17
749.928	27108.65
750.267	27115.43
750.605	26963.34
750.944	27039.27
751.283	26903.46
751.621	27021.2
751.96	26696.01
752.298	26880.64
752.636	26840.18
752.975	26689
753.313	26618.27
753.651	26717.93
753.989	26604.03
754.327	26538.72
754.666	26418.5
755.004	26535.79
755.342	26571.26
755.679	26354.77
756.017	26267.54
756.355	26289.24
756.693	26207.21
757.031	26233.87
757.368	26078.4
757.706	25999.3
758.044	25977.16
758.381	26011.96
758.719	25939.42
759.056	25871.62
759.394	25847.44
759.731	25679.76
760.068	25683.38
