Data from hue_32_FLMS001491_00032.txt Node
Date: Tue Feb 07 17:23:17 GMT 2017
User: dcchb
Spectrometer: FLMS00149
Trigger mode: 0
Integration Time (sec): 2.000000E-2
Scans to average: 10
Electric dark correction enabled: true
Nonlinearity correction enabled: false
Boxcar width: 0
XAxis mode: Wavelengths
Number of Pixels in Spectrum: 2048
>>>>>Begin Spectral Data<<<<<
341.393	-12.75
341.776	-12.75
342.16	-12.75
342.543	-52.53
342.927	-72.41
343.31	-74.67
343.693	-63.6
344.077	-74.67
344.46	-72.19
344.843	-53.66
345.226	-26.76
345.61	-42.36
345.993	-21.57
346.376	-7.78
346.759	13.23
347.142	13.23
347.525	49.84
347.908	55.04
348.291	81.93
348.674	104.31
349.057	119.67
349.44	123.06
349.823	153.34
350.206	167.13
350.588	191.53
350.971	210.74
351.354	208.03
351.737	230.18
352.119	229.5
352.502	241.48
352.884	287.35
353.267	278.09
353.65	306.11
354.032	291.19
354.414	334.58
354.797	303.4
355.179	313.34
355.562	320.12
355.944	333.45
356.326	322.6
356.709	321.02
357.091	330.29
357.473	324.64
357.855	335.94
358.238	365.99
358.62	326.9
359.002	338.42
359.384	344.98
359.766	340.23
360.148	335.26
360.53	346.56
360.912	330.06
361.294	329.84
361.676	360.12
362.057	337.29
362.439	310.4
362.821	332.32
363.203	336.39
363.584	317.41
363.966	340.01
364.348	333.45
364.729	362.83
365.111	325.99
365.493	332.77
365.874	335.71
366.256	308.37
366.637	311.98
367.019	337.75
367.4	327.12
367.781	321.25
368.163	315.37
368.544	322.38
368.925	300.46
369.306	321.7
369.688	317.41
370.069	302.94
370.45	299.78
370.831	307.92
371.212	312.66
371.593	303.85
371.974	310.4
372.355	316.5
372.736	344.3
373.117	307.69
373.498	340.46
373.879	315.83
374.26	313.34
374.641	316.5
375.021	311.08
375.402	328.48
375.783	322.15
376.163	334.81
376.544	323.96
376.925	339.33
377.305	351.3
377.686	338.65
378.066	321.47
378.447	318.54
378.827	327.58
379.208	359.44
379.588	349.72
379.968	325.54
380.349	336.16
380.729	326.67
381.109	330.74
381.489	335.49
381.87	338.65
382.25	331.87
382.63	342.04
383.01	327.8
383.39	336.62
383.77	331.19
384.15	328.48
384.53	338.88
384.91	344.52
385.29	335.03
385.67	341.14
386.049	366.9
386.429	372.32
386.809	362.38
387.189	361.02
387.568	359.89
387.948	361.25
388.328	347.91
388.707	371.42
389.087	362.15
389.466	357.86
389.846	356.05
390.225	367.8
390.605	363.28
390.984	386.78
391.363	384.75
391.743	381.81
392.122	381.13
392.501	382.72
392.881	366.67
393.26	373.22
393.639	389.04
394.018	380.68
394.397	372.77
394.776	371.87
395.155	373
395.534	404.64
395.913	389.04
396.292	387.24
396.671	380.23
397.05	362.38
397.429	383.39
397.808	386.56
398.186	375.71
398.565	399.44
398.944	373.9
399.323	396.5
399.701	366.9
400.08	397.4
400.458	403.05
400.837	413.45
401.215	404.41
401.594	374.13
401.972	393.79
402.351	400.57
402.729	415.48
403.107	422.71
403.486	410.51
403.864	414.35
404.242	399.66
404.62	431.53
404.999	410.51
405.377	426.78
405.755	414.35
406.133	434.92
406.511	403.96
406.889	416.61
407.267	417.74
407.645	457.97
408.023	433.11
408.401	441.7
408.779	457.74
409.156	435.82
409.534	442.38
409.912	446.22
410.29	452.32
410.667	439.21
411.045	472.66
411.422	460.23
411.8	455.26
412.178	473.11
412.555	483.73
412.933	445.09
413.31	469.04
413.687	451.64
414.065	449.83
414.442	477.85
414.819	492.09
415.197	478.31
415.574	492.32
415.951	488.93
416.328	494.35
416.705	510.85
417.082	500.23
417.46	493.22
417.837	502.49
418.214	505.2
418.591	509.27
418.967	503.16
419.344	508.81
419.721	531.41
420.098	500.68
420.475	518.08
420.852	532.99
421.228	538.19
421.605	537.06
421.982	542.03
422.358	528.7
422.735	533.22
423.111	550.4
423.488	550.62
423.864	523.96
424.241	548.36
424.617	549.94
424.994	563.28
425.37	546.1
425.746	541.81
426.123	565.76
426.499	549.72
426.875	554.46
427.251	584.29
427.627	590.85
428.003	609.38
428.379	595.59
428.756	581.58
429.132	603.28
429.507	610.73
429.883	612.99
430.259	600.79
430.635	616.61
431.011	625.42
431.387	605.53
431.763	628.59
432.138	628.59
432.514	661.58
432.89	641.69
433.265	639.21
433.641	666.78
434.016	644.63
434.392	650.73
434.767	665.87
435.143	660.45
435.518	698.87
435.894	672.65
436.269	688.24
436.644	697.06
437.02	674.69
437.395	713.1
437.77	717.62
438.145	704.06
438.52	709.94
438.895	704.74
439.271	722.14
439.646	714.01
440.021	721.24
440.395	742.71
440.77	732.31
441.145	734.12
441.52	731.18
441.895	774.57
442.27	749.71
442.645	751.97
443.019	787.9
443.394	781.58
443.769	802.59
444.143	758.53
444.518	767.34
444.892	787.9
445.267	794.91
445.641	814.57
446.016	795.36
446.39	801.46
446.764	791.07
447.139	795.81
447.513	824.51
447.887	802.82
448.262	825.64
448.636	817.05
449.01	838.3
449.384	841.46
449.758	841.91
450.132	856.38
450.506	852.76
450.88	869.26
451.254	862.7
451.628	877.17
452.002	879.2
452.376	872.42
452.75	882.59
453.123	883.49
453.497	895.24
453.871	903.83
454.244	943.61
454.618	894.79
454.992	932.53
455.365	945.64
455.739	971.85
456.112	951.51
456.486	967.33
456.859	980.67
457.232	1007.33
457.606	988.12
457.979	989.93
458.352	1020.21
458.725	1012.98
459.099	1036.71
459.472	1045.52
459.845	1048.24
460.218	1029.25
460.591	1057.95
460.964	1071.74
461.337	1080.1
461.71	1114.45
462.083	1134.56
462.456	1139.98
462.829	1127.78
463.201	1131.17
463.574	1164.16
463.947	1198.51
464.32	1188.8
464.692	1227.67
465.065	1203.49
465.438	1241.9
465.81	1270.15
466.183	1256.82
466.555	1304.73
466.928	1293.65
467.3	1290.71
467.672	1296.36
468.045	1333.88
468.417	1352.63
468.789	1382.92
469.161	1342.46
469.534	1423.14
469.906	1437.38
470.278	1470.37
470.65	1459.3
471.022	1471.95
471.394	1518.96
471.766	1575.45
472.138	1560.54
472.51	1599.86
472.882	1611.61
473.253	1671.95
473.625	1666.75
473.997	1712.62
474.369	1708.56
474.74	1760.08
475.112	1798.95
475.484	1798.95
475.855	1853.86
476.227	1888.44
476.598	1952.62
476.97	1982.22
477.341	2035.78
477.713	2080.07
478.084	2107.42
478.455	2127.98
478.827	2187.64
479.198	2284.59
479.569	2288.2
479.94	2372.49
480.311	2389.67
480.682	2455.2
481.053	2513.96
481.424	2575.2
481.795	2589.44
482.166	2697.68
482.537	2748.08
482.908	2807.51
483.279	2864.68
483.65	2927.06
484.021	3025.81
484.391	3069.42
484.762	3087.05
485.133	3158.91
485.503	3247.5
485.874	3341.51
486.244	3377.21
486.615	3489.75
486.985	3568.85
487.356	3612.24
487.726	3655.4
488.097	3769.52
488.467	3814.94
488.837	3955.96
489.207	4017.65
489.578	4082.96
489.948	4134.26
490.318	4285.44
490.688	4301.26
491.058	4415.6
491.428	4508.26
491.798	4563.17
492.168	4631.42
492.538	4742.15
492.908	4813.56
493.278	4905.99
493.648	4939.21
494.017	5015.59
494.387	5088.35
494.757	5166.54
495.126	5218.97
495.496	5279.99
495.866	5328.57
496.235	5458.97
496.605	5542.35
496.974	5602.24
497.344	5696.7
497.713	5713.42
498.082	5776.92
498.452	5853.31
498.821	5867.54
499.19	5939.63
499.559	6027.99
499.928	6117.71
500.298	6181.89
500.667	6284.93
501.036	6314.09
501.405	6345.05
501.774	6352.95
502.143	6506.62
502.512	6513.63
502.88	6617.81
503.249	6580.75
503.618	6624.59
503.987	6773.06
504.356	6791.36
504.724	6839.95
505.093	6928.98
505.462	6957.23
505.83	6981.86
506.199	6980.06
506.567	7145.48
506.936	7170.56
507.304	7257.34
507.672	7282.87
508.041	7322.65
508.409	7374.85
508.777	7431.12
509.145	7455.07
509.514	7571.45
509.882	7593.37
510.25	7610.32
510.618	7655.97
510.986	7736.42
511.354	7790.66
511.722	7865.01
512.09	7916.53
512.458	7934.83
512.826	7954.95
513.193	8063.19
513.561	8054.6
513.929	8163.98
514.297	8196.97
514.664	8237.42
515.032	8239.68
515.4	8354.48
515.767	8291.43
516.135	8412.34
516.502	8404.43
516.869	8462.73
517.237	8539.56
517.604	8495.27
517.972	8575.72
518.339	8650.52
518.706	8631.31
519.073	8714.25
519.44	8726.68
519.808	8840.35
520.175	8773.46
520.542	8962.15
520.909	8951.76
521.276	8909.5
521.643	9043.51
522.009	8989.5
522.376	9112.66
522.743	9216.83
523.11	9299.54
523.477	9352.88
523.843	9421.57
524.21	9446.21
524.577	9551.29
524.943	9543.83
525.31	9597.39
525.676	9697.5
526.043	9762.13
526.409	9786.31
526.776	9829.02
527.142	9857.72
527.508	9911.96
527.874	9988.34
528.241	10055.46
528.607	10124.15
528.973	10191.72
529.339	10149.01
529.705	10255.22
530.071	10363.02
530.437	10374.77
530.803	10436.24
531.169	10533.64
531.535	10430.81
531.901	10532.73
532.267	10619.28
532.632	10687.3
532.998	10724.14
533.364	10800.07
533.73	10812.72
534.095	10948.09
534.461	10917.81
534.826	10964.81
535.192	11060.85
535.557	11031.7
535.923	11090.23
536.288	11145.37
536.653	11153.96
537.019	11144.69
537.384	11159.61
537.749	11322.32
538.114	11286.16
538.479	11355.99
538.845	11464.01
539.21	11412.03
539.575	11507.62
539.94	11553.04
540.305	11605.47
540.67	11588.3
541.034	11620.39
541.399	11735.41
541.764	11745.58
542.129	11812.47
542.494	11825.58
542.858	11831.45
543.223	11930.89
543.587	11977.21
543.952	11964.78
544.316	12090.66
544.681	12029.42
545.045	12179.47
545.41	12226.92
545.774	12222.4
546.138	12204.55
546.503	12353.47
546.867	12324.1
547.231	12474.6
547.595	12546.01
547.959	12551.66
548.324	12594.15
548.688	12598.89
549.052	12680.02
549.416	12751.2
549.779	12661.04
550.143	12746.01
550.507	12809.06
550.871	12854.93
551.235	12886.12
551.599	12968.15
551.962	13017.64
552.326	12953.23
552.689	13022.38
553.053	13002.72
553.417	13174.24
553.78	13308.25
554.143	13228.93
554.507	13273.45
554.87	13334.47
555.234	13459.89
555.597	13347.57
555.96	13438.64
556.323	13457.17
556.686	13447.46
557.05	13612.88
557.413	13629.37
557.776	13655.59
558.139	13700.11
558.502	13740.78
558.865	13808.13
559.228	13889.93
559.59	13884.51
559.953	13965.41
560.316	14074.11
560.679	14069.81
561.041	14039.08
561.404	14190.04
561.767	14357.04
562.129	14213.76
562.492	14374.21
562.854	14348.68
563.217	14308.9
563.579	14470.26
563.941	14503.02
564.304	14558.39
564.666	14637.93
565.028	14646.3
565.39	14806.97
565.753	14851.04
566.115	14863.01
566.477	14854.2
566.839	14903.92
567.201	15071.82
567.563	15013.52
567.925	15182.55
568.287	15194.08
568.648	15280.63
569.01	15284.7
569.372	15383.45
569.734	15371.25
570.095	15426.39
570.457	15534.41
570.819	15649.21
571.18	15626.61
571.542	15747.74
571.903	15753.16
572.265	15851.46
572.626	15797.68
572.987	15858.24
573.349	16011.91
573.71	16121.06
574.071	16198.35
574.432	16254.39
574.794	16340.49
575.155	16388.4
575.516	16477.21
575.877	16641.72
576.238	16735.73
576.599	16827.71
576.96	16945.22
577.32	16921.72
577.681	17206.68
578.042	17382.95
578.403	17344.3
578.763	17441.48
579.124	17569.83
579.485	17795.37
579.845	17943.16
580.206	18019.31
580.566	18018.86
580.927	18236.26
581.287	18487.78
581.648	18582.92
582.008	18817.03
582.368	18949.46
582.728	19165.05
583.089	19332.27
583.449	19540.4
583.809	19766.61
584.169	19963.67
584.529	20036.44
584.889	20475.29
585.249	20454.96
585.609	20691.79
585.969	20973.36
586.329	21129.06
586.688	21494.03
587.048	21616.51
587.408	21817.41
587.768	21943.05
588.127	22183.72
588.487	22552.98
588.846	22829.58
589.206	22956.59
589.565	23240.19
589.925	23546.63
590.284	23750.69
590.643	24051.92
591.003	24345.7
591.362	24638.35
591.721	24855.07
592.08	25222.97
592.44	25493.02
592.799	25621.6
593.158	25913.57
593.517	26113.79
593.876	26575.7
594.235	26655.92
594.593	26923.26
594.952	27317.83
595.311	27514.88
595.67	27738.83
596.029	28224.92
596.387	28500.39
596.746	28822.19
597.104	28872.59
597.463	29091.11
597.822	29383.99
598.18	29722.74
598.538	29839.79
598.897	30393.9
599.255	30407.46
599.613	31035.24
599.972	31088.58
600.33	31389.13
600.688	31369.7
601.046	31670.71
601.404	32075.44
601.762	32181.43
602.12	32582.1
602.478	32789.32
602.836	32954.74
603.194	32976.66
603.552	33178.24
603.91	33323.54
604.268	33726.92
604.625	33833.81
604.983	34132.11
605.341	34207.59
605.698	34555.15
606.056	34827.69
606.413	34982.03
606.771	35241.91
607.128	35454.56
607.485	35394.9
607.843	35728.45
608.2	36166.86
608.557	36233.75
608.914	36310.58
609.272	36569.79
609.629	36816.33
609.986	37218.81
610.343	37072.37
610.7	37414.28
611.057	37492.02
611.414	37657.22
611.771	37761.39
612.127	37953.93
612.484	38205.45
612.841	38327.25
613.198	38389.85
613.554	38501.26
613.911	38837.07
614.267	38915.94
614.624	38995.94
614.98	39187.8
615.337	39454.23
615.693	39451.52
616.05	39471.63
616.406	39811.96
616.762	39687.67
617.118	39974.9
617.475	40027.1
617.831	40065.29
618.187	40275.23
618.543	40351.16
618.899	40725.16
619.255	40685.61
619.611	40735.33
619.967	40960.86
620.323	41216.67
620.678	41081.53
621.034	41101.65
621.39	41030.23
621.746	41157.46
622.101	41687.17
622.457	41278.82
622.812	41689.43
623.168	41582.31
623.523	41713.38
623.879	41962.41
624.234	41784.57
624.589	41963.54
624.945	41952.7
625.3	42158.11
625.655	42078.34
626.01	42087.38
626.365	42242.18
626.72	42356.98
627.075	42251.22
627.43	42202.41
627.785	42321.05
628.14	42393.14
628.495	42419.35
628.85	42409.18
629.205	42328.28
629.559	42568.5
629.914	42382.52
630.269	42568.5
630.623	42445.56
630.978	42493.47
631.332	42629.29
631.687	42753.81
632.041	42540.25
632.396	42608.5
632.75	42491.89
633.104	42644.66
633.459	42475.85
633.813	42548.61
634.167	42637.2
634.521	42443.08
634.875	42571.89
635.229	42639.46
635.583	42437.66
635.937	42342.06
636.291	42508.39
636.645	42473.59
636.999	42349.52
637.352	42531.44
637.706	42320.37
638.06	42577.31
638.413	42457.77
638.767	42255.06
639.121	42472.91
639.474	42280.15
639.828	42326.02
640.181	42485.79
640.534	42518.11
640.888	42250.77
641.241	42108.17
641.594	42256.87
641.947	42454.38
642.301	42139.81
642.654	42304.78
643.007	42479.91
643.36	42275.63
643.713	42165.12
644.066	42324.44
644.419	42050.32
644.771	41709.09
645.124	41457.57
645.477	41439.49
645.83	41103.68
646.182	41006.05
646.535	41027.07
646.888	40901.2
647.24	40813.97
647.593	41013.29
647.945	40961.08
648.298	40777.59
648.65	40686.29
649.002	40692.62
649.355	40812.61
649.707	40914.08
650.059	41066.62
650.411	41366.27
650.763	41433.84
651.115	41761.97
651.467	41646.04
651.819	41638.81
652.171	41546.38
652.523	41649.2
652.875	41644.23
653.227	41530.11
653.578	41644
653.93	41535.76
654.282	41359.27
654.633	41392.94
654.985	41197.24
655.337	41409.43
655.688	41581.63
656.039	41640.84
656.391	41208.31
656.742	41354.97
657.094	41326.27
657.445	41429.09
657.796	41393.61
658.147	41367.63
658.498	41300.74
658.849	41459.6
659.2	41327.85
659.551	41229.55
659.902	41421.41
660.253	41321.53
660.604	41373.5
660.955	41168.31
661.306	41381.86
661.656	41150.23
662.007	41333.28
662.358	41118.37
662.708	41227.07
663.059	41246.05
663.409	40937.13
663.76	41262.54
664.11	41200.4
664.461	41191.59
664.811	41274.97
665.161	41180.74
665.511	41173.51
665.862	41117.46
666.212	41204.92
666.562	41048.09
666.912	41073.85
667.262	41077.24
667.612	41050.57
667.962	41126.28
668.312	41062.78
668.662	41003.79
669.011	41119.27
669.361	40989.78
669.711	40995.66
670.06	40918.37
670.41	40874.53
670.76	40965.38
671.109	40979.39
671.459	40960.63
671.808	40934.64
672.157	40966.28
672.507	40747.3
672.856	40751.37
673.205	40901.65
673.554	40945.27
673.904	40851.71
674.253	41081.31
674.602	40730.58
674.951	40265.06
675.3	40124.5
675.649	40778.72
675.998	40783.24
676.346	40692.16
676.695	40927.64
677.044	40531.72
677.393	40587.08
677.741	40772.61
678.09	40625.95
678.438	40303.7
678.787	40555.9
679.135	40544.37
679.484	40263.02
679.832	40403.13
680.181	40243.59
680.529	40331.95
680.877	40151.39
681.225	40233.65
681.573	40318.62
681.922	40093.76
682.27	40072.75
682.618	40019.87
682.966	39910.04
683.314	39984.39
683.661	39941.9
684.009	39672.3
684.357	39614.23
684.705	39455.13
685.053	39654.9
685.4	39472.99
685.748	39486.77
686.095	39389.83
686.443	39396.83
686.79	39242.26
687.138	39308.02
687.485	39236.16
687.832	39070.96
688.18	39295.59
688.527	38892.66
688.874	38907.58
689.221	38838.2
689.568	38745.55
689.915	38734.93
690.262	38637.3
690.609	38486.12
690.956	38568.83
691.303	38422.85
691.65	38291.55
691.997	38254.04
692.344	37967.04
692.69	38045.45
693.037	37969.07
693.383	37668.29
693.73	37899.92
694.077	37563.21
694.423	37645.69
694.769	37664.22
695.116	37383.32
695.462	37361.4
695.808	37314.63
696.155	37550.33
696.501	37136.1
696.847	36988.99
697.193	36880.74
697.539	36891.81
697.885	36773.62
698.231	36711.93
698.577	36612.27
698.923	36557.13
699.269	36323.01
699.614	36162.11
699.96	36147.2
700.306	36230.36
700.651	36102
700.997	35974.77
701.342	35780.43
701.688	35775.46
702.033	35566.65
702.379	35661.34
702.724	35516.48
703.069	35610.94
703.415	35195.81
703.76	35190.39
704.105	35277.17
704.45	35182.7
704.795	34967.57
705.14	34884.41
705.485	35052.09
705.83	34629.5
706.175	34700.91
706.52	34670.4
706.865	34479.9
707.209	34358.55
707.554	34230.19
707.899	34394.25
708.243	34223.41
708.588	34123.75
708.932	33995.84
709.277	33901.83
709.621	33877.2
709.966	33831.78
710.31	33779.13
710.654	33433.37
710.998	33434.28
711.342	33531.22
711.687	33610.32
712.031	33456.42
712.375	33257.56
712.719	33159.03
713.063	33226.82
713.407	33248.97
713.75	33220.5
714.094	33159.71
714.438	32945.25
714.782	32934.18
715.125	32777.12
715.469	32809.43
715.812	32790.68
716.156	32589.33
716.499	32526.5
716.843	32553.62
717.186	32458.26
717.53	32689.44
717.873	32442.44
718.216	32275.89
718.559	32339.39
718.902	32054.2
719.246	32154.99
719.589	32024.6
719.932	31892.85
720.275	31885.16
720.617	31860.98
720.96	31800.87
721.303	31755.68
721.646	31789.8
721.989	31581.22
722.331	31711.61
722.674	31673.19
723.016	31608.11
723.359	31689.92
723.701	31624.38
724.044	31305.52
724.386	31197.27
724.729	31304.61
725.071	31220.32
725.413	31142.36
725.755	31198.63
726.097	30977.17
726.439	30848.13
726.782	30814.01
727.124	31073.43
727.465	30910.05
727.807	30854.91
728.149	30703.5
728.491	30720.45
728.833	30770.17
729.175	30712.77
729.516	30552.54
729.858	30693.78
730.199	30590.51
730.541	30472.32
730.882	30422.83
731.224	30514.58
731.565	30255.38
731.906	30375.83
732.248	30222.38
732.589	30149.16
732.93	30028.94
733.271	30096.28
733.612	30126.79
733.953	30174.7
734.294	30026
734.635	29935.16
734.976	29983.52
735.317	29773.13
735.658	29750.53
735.999	29823.75
736.339	29692.23
736.68	29772.68
737.021	29691.32
737.361	29606.58
737.702	29665.11
738.042	29653.36
738.383	29452.69
738.723	29624.21
739.063	29368.85
739.404	29578.11
739.744	29478.9
740.084	29318.68
740.424	29396.64
740.764	29280.26
741.104	29460.82
741.444	29124.56
741.784	29101.96
742.124	29160.49
742.464	29059.25
742.804	29018.35
743.143	29003.43
743.483	28999.36
743.823	28816.09
744.162	28774.06
744.502	28835.53
744.841	28733.61
745.181	28769.09
745.52	28684.12
745.86	28751.24
746.199	28689.32
746.538	28683.89
746.877	28759.37
747.216	28520.28
747.556	28496.1
747.895	28538.81
748.234	28490.9
748.573	28418.14
748.911	28351.92
749.25	28287.07
749.589	28219.72
749.928	28221.53
750.267	28344.24
750.605	28243.23
750.944	28226.96
751.283	27994.19
751.621	28026.73
751.96	27969.34
752.298	27969.34
752.636	27900.86
752.975	27780.64
753.313	27845.72
753.651	27734.77
753.989	27730.7
754.327	27580.42
754.666	27455.68
755.004	27535
755.342	27558.27
755.679	27445.73
756.017	27343.81
756.355	27436.47
756.693	27332.29
757.031	27279.86
757.368	27102.47
757.706	27031.96
