Data from hue_240_FLMS001491_00063.txt Node
Date: Tue Feb 07 16:35:47 GMT 2017
User: dcchb
Spectrometer: FLMS00149
Trigger mode: 0
Integration Time (sec): 2.000000E-2
Scans to average: 10
Electric dark correction enabled: true
Nonlinearity correction enabled: false
Boxcar width: 0
XAxis mode: Wavelengths
Number of Pixels in Spectrum: 2048
>>>>>Begin Spectral Data<<<<<
341.393	-35.15
341.776	-35.15
342.16	-35.15
342.543	-64.31
342.927	-53.23
343.31	-68.37
343.693	-45.78
344.077	-61.82
344.46	-58.2
344.843	-52.1
345.226	-50.97
345.61	-50.07
345.993	-20.69
346.376	2.36
346.759	17.5
347.142	32.19
347.525	42.36
347.908	62.24
348.291	64.73
348.674	95.92
349.057	90.72
349.44	130.72
349.823	170.04
350.206	169.81
350.588	178.17
350.971	218.62
351.354	202.13
351.737	236.25
352.119	234.22
352.502	259.08
352.884	255.23
353.267	274.44
353.65	302.92
354.032	311.05
354.414	309.47
354.797	299.75
355.179	299.07
355.562	316.93
355.944	298.62
356.326	326.87
356.709	296.59
357.091	345.17
357.473	327.77
357.855	354.44
358.238	320.54
358.62	332.75
359.002	349.92
359.384	354.67
359.766	335.23
360.148	336.14
360.53	337.04
360.912	310.15
361.294	326.87
361.676	317.83
362.057	330.94
362.439	337.94
362.821	306.76
363.203	306.53
363.584	343.37
363.966	343.82
364.348	315.34
364.729	313.99
365.111	307.89
365.493	311.05
365.874	319.19
366.256	333.2
366.637	314.44
367.019	294.33
367.4	313.76
367.781	301.33
368.163	301.33
368.544	301.79
368.925	310.6
369.306	342.91
369.688	302.69
370.069	314.89
370.45	304.72
370.831	309.02
371.212	313.08
371.593	309.24
371.974	288.9
372.355	301.56
372.736	295.46
373.117	309.24
373.498	314.44
373.879	320.77
374.26	313.99
374.641	294.78
375.021	314.89
375.402	315.12
375.783	323.71
376.163	318.73
376.544	307.66
376.925	331.62
377.305	311.28
377.686	325.06
378.066	326.87
378.447	307.66
378.827	314.44
379.208	336.36
379.588	311.05
379.968	320.99
380.349	328
380.729	336.14
381.109	339.75
381.489	329.58
381.87	352.41
382.25	343.59
382.63	332.52
383.01	347.43
383.39	331.84
383.77	328
384.15	340.88
384.53	334.33
384.91	340.65
385.29	370.48
385.67	349.69
386.049	326.64
386.429	354.21
386.809	333.2
387.189	342.46
387.568	345.4
387.948	344.27
388.328	356.93
388.707	369.58
389.087	370.94
389.466	340.2
389.846	360.99
390.225	345.85
390.605	361.45
390.984	347.89
391.363	352.18
391.743	358.96
392.122	369.35
392.501	361.9
392.881	389.47
393.26	366.19
393.639	352.41
394.018	398.73
394.397	389.69
394.776	366.19
395.155	373.2
395.534	379.75
395.913	383.14
396.292	402.57
396.671	371.61
397.05	398.96
397.429	399.18
397.808	387.43
398.186	400.09
398.565	380.88
398.944	398.73
399.323	410.48
399.701	386.08
400.08	418.84
400.458	398.51
400.837	389.92
401.215	417.04
401.594	410.48
401.972	409.58
402.351	412.52
402.729	412.29
403.107	437.38
403.486	427.43
403.864	440.77
404.242	432.4
404.62	452.52
404.999	430.82
405.377	452.97
405.755	440.99
406.133	454.78
406.511	463.59
406.889	454.1
407.267	472.85
407.645	445.28
408.023	464.04
408.401	455
408.779	480.31
409.156	479.41
409.534	467.88
409.912	482.12
410.29	472.18
410.667	489.58
411.045	524.83
411.422	512.4
411.8	527.54
412.178	523.47
412.555	534.77
412.933	530.03
413.31	546.07
413.687	545.85
414.065	553.98
414.442	565.06
414.819	564.38
415.197	565.06
415.574	586.3
415.951	586.98
416.328	606.18
416.705	596.02
417.082	596.47
417.46	610.7
417.837	615.9
418.214	631.95
418.591	643.7
418.967	626.98
419.344	647.09
419.721	634.21
420.098	622.91
420.475	667.2
420.852	634.88
421.228	661.55
421.605	671.72
421.982	700.42
422.358	685.73
422.735	695.22
423.111	721.89
423.488	733.86
423.864	736.8
424.241	731.38
424.617	752.17
424.994	744.26
425.37	760.76
425.746	766.18
426.123	771.15
426.499	786.29
426.875	783.36
427.251	818.38
427.627	808.89
428.003	821.32
428.379	840.3
428.756	820.19
429.132	852.28
429.507	881.66
429.883	875.56
430.259	874.65
430.635	887.53
431.011	890.02
431.387	907.42
431.763	917.36
432.138	943.8
432.514	942
432.89	947.64
433.265	986.51
433.641	962.33
434.016	997.13
434.392	1009.56
434.767	1039.39
435.143	1028.32
435.518	1047.98
435.894	1089.34
436.269	1064.48
436.644	1092.73
437.02	1090.24
437.395	1104.93
437.77	1104.48
438.145	1149.22
438.52	1157.36
438.895	1182.44
439.271	1178.82
439.646	1202.1
440.021	1231.25
440.395	1243
440.77	1212.04
441.145	1230.8
441.52	1273.51
441.895	1276.45
442.27	1280.74
442.645	1305.83
443.019	1317.8
443.394	1308.99
443.769	1320.74
444.143	1333.62
444.518	1334.75
444.892	1343.79
445.267	1358.26
445.641	1363
446.016	1379.95
446.39	1400.51
446.764	1413.85
447.139	1414.52
447.513	1413.17
447.887	1424.69
448.262	1399.38
448.636	1459.04
449.01	1460.85
449.384	1463.11
449.758	1493.62
450.132	1518.93
450.506	1501.3
450.88	1518.48
451.254	1510.79
451.628	1560.96
452.002	1553.05
452.376	1560.28
452.75	1591.47
453.123	1567.06
453.497	1609.77
453.871	1607.06
454.244	1641.19
454.618	1682.54
454.992	1699.72
455.365	1686.16
455.739	1740.17
456.112	1749.66
456.486	1758.92
456.859	1753.5
457.232	1760.96
457.606	1774.06
457.979	1830.33
458.352	1824.01
458.725	1868.75
459.099	1870.33
459.472	1926.38
459.845	1899.71
460.218	1925.7
460.591	1928.41
460.964	1941.97
461.337	2010.44
461.71	2006.15
462.083	2050.44
462.456	2062.87
462.829	2067.39
463.201	2091.8
463.574	2084.79
463.947	2132.25
464.32	2154.39
464.692	2179.02
465.065	2201.4
465.438	2197.56
465.81	2244.33
466.183	2294.73
466.555	2288.63
466.928	2280.49
467.3	2343.77
467.672	2324.78
468.045	2385.35
468.417	2401.62
468.789	2431.9
469.161	2449.07
469.534	2500.15
469.906	2554.16
470.278	2565.46
470.65	2576.3
471.022	2598.67
471.394	2705.34
471.766	2697.2
472.138	2721.16
472.51	2767.26
472.882	2768.61
473.253	2827.14
473.625	2829.18
473.997	2913.69
474.369	2909.17
474.74	2945.33
475.112	3019.23
475.484	3049.28
475.855	3081.15
476.227	3098.32
476.598	3199.11
476.97	3206.34
477.341	3263.74
477.713	3284.98
478.084	3335.38
478.455	3403.63
478.827	3420.8
479.198	3502.15
479.569	3466.45
479.94	3645.88
480.311	3615.82
480.682	3672.32
481.053	3718.42
481.424	3810.39
481.795	3833.22
482.166	3890.62
482.537	3936.04
482.908	3997.28
483.279	4032.76
483.65	4093.55
484.021	4165.64
484.391	4177.62
484.762	4246.99
485.133	4221.46
485.503	4284.28
485.874	4417.16
486.244	4422.81
486.615	4503.71
486.985	4508.23
487.356	4619.19
487.726	4661.67
488.097	4739.41
488.467	4740.54
488.837	4824.15
489.207	4884.26
489.578	4930.36
489.948	4999.74
490.318	5033.64
490.688	5078.84
491.058	5102.34
491.428	5166.74
491.798	5194.76
492.168	5317.7
492.538	5334.42
492.908	5373.29
493.278	5399.05
493.648	5430.92
494.017	5507.98
494.387	5585.26
494.757	5560.4
495.126	5613.74
495.496	5625.49
495.866	5668.88
496.235	5748.42
496.605	5782.32
496.974	5793.62
497.344	5823.9
497.713	5843.56
498.082	5922.43
498.452	5965.82
498.821	5920.17
499.19	5976.89
499.559	5989.32
499.928	5988.87
500.298	6077
500.667	6117
501.036	6117
501.405	6123.33
501.774	6136.21
502.143	6184.8
502.512	6194.74
502.88	6229.31
503.249	6269.76
503.618	6314.51
503.987	6291.01
504.356	6321.74
504.724	6429.76
505.093	6377.33
505.462	6375.98
505.83	6474.28
506.199	6506.14
506.567	6556.76
506.936	6519.48
507.304	6563.77
507.672	6563.09
508.041	6641.73
508.409	6631.56
508.777	6703.88
509.145	6703.88
509.514	6704.78
509.882	6734.16
510.25	6776.87
510.618	6775.51
510.986	6789.07
511.354	6811.67
511.722	6882.63
512.09	6892.35
512.458	6907.49
512.826	6897.09
513.193	6956.3
513.561	6938.67
513.929	7055.05
514.297	7041.27
514.664	7051.66
515.032	7059.35
515.4	7069.52
515.767	7134.83
516.135	7083.53
516.502	7086.92
516.869	7130.53
517.237	7192.45
517.604	7176.41
517.972	7197.65
518.339	7190.64
518.706	7215.5
519.073	7253.02
519.44	7241.49
519.808	7305.67
520.175	7290.08
520.542	7336.4
520.909	7359.45
521.276	7378.66
521.643	7422.28
522.009	7402.62
522.376	7469.28
522.743	7437.64
523.11	7483.52
523.477	7544.08
523.843	7629.28
524.21	7570.75
524.577	7633.12
524.943	7609.62
525.31	7623.4
525.676	7707.01
526.043	7690.97
526.409	7744.98
526.776	7731.65
527.142	7761.02
527.508	7758.76
527.874	7797.63
528.241	7844.86
528.607	7793.34
528.973	7888.71
529.339	7847.12
529.705	7881.93
530.071	7913.34
530.437	7893.9
530.803	7984.52
531.169	7967.35
531.535	7866.33
531.901	7923.96
532.267	7930.29
532.632	7931.64
532.998	7959.44
533.364	7984.75
533.73	8020.9
534.095	8018.42
534.461	8070.85
534.826	8035.82
535.192	8066.78
535.557	8065.65
535.923	8050.96
536.288	8013.67
536.653	8071.07
537.019	7978.87
537.384	8015.71
537.749	7991.75
538.114	7997.85
538.479	7968.48
538.845	8035.59
539.21	7927.35
539.575	7934.35
539.94	7942.04
540.305	7970.51
540.67	7979.32
541.034	7930.51
541.399	7971.19
541.764	8035.37
542.129	7903.85
542.494	7972.54
542.858	7964.18
543.223	7973.67
543.587	8071.98
543.952	7969.38
544.316	7974.8
544.681	7978.65
545.045	7950.4
545.41	7958.53
545.774	7934.13
546.138	7937.07
546.503	7913.79
546.867	7919.44
547.231	7955.14
547.595	7941.81
547.959	7970.51
548.324	7906.56
548.688	7895.26
549.052	7920.12
549.416	7911.53
549.779	7930.74
550.143	7925.77
550.507	7946.56
550.871	7923.73
551.235	7910.63
551.599	7924.86
551.962	7929.16
552.326	7934.58
552.689	7907.46
553.053	7905.43
553.417	7850.29
553.78	7966.22
554.143	7873.11
554.507	7912.21
554.87	7939.1
555.234	7908.14
555.597	7907.69
555.96	7941.13
556.323	7925.54
556.686	7918.53
557.05	7950.4
557.413	7961.47
557.776	7966.22
558.139	8026.33
558.502	8034.46
558.865	7935.48
559.228	8032.66
559.59	8011.64
559.953	8012.54
560.316	8068.59
560.679	8043.05
561.041	8060.68
561.404	8100.9
561.767	8106.1
562.129	8102.26
562.492	8210.96
562.854	8080.79
563.217	8096.38
563.579	8141.35
563.941	8163.27
564.304	8202.14
564.666	8250.28
565.028	8232.88
565.39	8243.72
565.753	8258.64
566.115	8328.47
566.477	8330.05
566.839	8347.45
567.201	8412.53
567.563	8404.17
567.925	8410.5
568.287	8399.2
568.648	8469.25
569.01	8459.76
569.372	8522.59
569.734	8514.45
570.095	8544.51
570.457	8572.75
570.819	8530.04
571.18	8571.62
571.542	8559.87
571.903	8518.52
572.265	8665.63
572.626	8684.62
572.987	8682.36
573.349	8650.27
573.71	8622.92
574.071	8711.51
574.432	8699.08
574.794	8827.21
575.155	8796.25
575.516	8748.34
575.877	8856.14
576.238	8791.96
576.599	8929.58
576.96	8841.45
577.32	8887.1
577.681	8974.33
578.042	8849.36
578.403	8931.84
578.763	8983.59
579.124	8943.14
579.485	8925.74
579.845	8956.47
580.206	9010.48
580.566	8975.68
580.927	9023.82
581.287	9080.54
581.648	9008
582.008	9142.23
582.368	9026.3
582.728	9090.03
583.089	9111.05
583.449	9117.15
583.809	9080.99
584.169	9148.56
584.529	9138.39
584.889	9204.15
585.249	9131.84
585.609	9130.25
585.969	9159.86
586.329	9160.08
586.688	9215.45
587.048	9166.64
587.408	9196.92
587.768	9170.93
588.127	9204.83
588.487	9219.52
588.846	9194.43
589.206	9237.37
589.565	9217.71
589.925	9278.05
590.284	9261.78
590.643	9186.98
591.003	9257.71
591.362	9319.63
591.721	9277.6
592.08	9275.79
592.44	9344.03
592.799	9278.72
593.158	9347.2
593.517	9356.69
593.876	9318.72
594.235	9351.04
594.593	9365.5
594.952	9368.44
595.311	9298.61
595.67	9342.45
596.029	9340.64
596.387	9479.62
596.746	9488.21
597.104	9341.32
597.463	9354.88
597.822	9481.88
598.18	9395.56
598.538	9389.23
598.897	9427.65
599.255	9401.43
599.613	9490.7
599.972	9438.95
600.33	9495.44
600.688	9396.24
601.046	9411.38
601.404	9466.97
601.762	9465.39
602.12	9501.54
602.478	9468.55
602.836	9565.95
603.194	9466.52
603.552	9486.4
603.91	9455.44
604.268	9544.48
604.625	9488.44
604.983	9485.73
605.341	9452.51
605.698	9560.53
606.056	9592.62
606.413	9568.66
606.771	9537.48
607.128	9558.72
607.485	9495.67
607.843	9564.14
608.2	9546.97
608.557	9649.11
608.914	9554.65
609.272	9567.3
609.629	9638.26
609.986	9627.19
610.343	9554.88
610.7	9652.95
611.057	9656.12
611.414	9669.22
611.771	9700.86
612.127	9660.64
612.484	9627.64
612.841	9717.81
613.198	9668.77
613.554	9709
613.911	9680.07
614.267	9715.1
614.624	9718.71
614.98	9765.72
615.337	9780.86
615.693	9772.95
616.05	9701.54
616.406	9891.14
616.762	9754.87
617.118	9765.27
617.475	9840.74
617.831	9793.06
618.187	9869.44
618.543	9758.26
618.899	9860.18
619.255	9847.98
619.611	9760.29
619.967	9851.59
620.323	9943.34
620.678	9891.14
621.034	9865.15
621.39	9881.42
621.746	9802.1
622.101	9864.47
622.457	9834.64
622.812	9846.39
623.168	9854.53
623.523	9865.6
623.879	9908.99
624.234	9808.2
624.589	9871.48
624.945	9850.24
625.3	9899.73
625.655	9860.86
626.01	9859.05
626.365	9876.22
626.72	9870.8
627.075	9835.55
627.43	9882.1
627.785	9868.77
628.14	9918.93
628.495	9899.73
628.85	9880.07
629.205	9771.14
629.559	9892.27
629.914	9788.99
630.269	9810.69
630.623	9765.27
630.978	9829.9
631.332	9845.94
631.687	9781.76
632.041	9747.41
632.396	9699.73
632.75	9795.1
633.104	9765.49
633.459	9666.51
633.813	9676.45
634.167	9652.27
634.521	9714.65
634.875	9716
635.229	9757.58
635.583	9589.68
635.937	9654.31
636.291	9678.49
636.645	9631.48
636.999	9623.35
637.352	9631.26
637.706	9557.59
638.06	9578.38
638.413	9604.82
638.767	9513.75
639.121	9558.27
639.474	9454.99
639.828	9549.9
640.181	9477.14
640.534	9483.01
640.888	9443.01
641.241	9381.32
641.594	9529.57
641.947	9534.09
642.301	9482.56
642.654	9504.26
643.007	9528.89
643.36	9384.48
643.713	9448.21
644.066	9460.64
644.419	9389.91
644.771	9388.55
645.124	9211.83
645.477	9257.93
645.83	9131.84
646.182	9110.14
646.535	9095.45
646.888	9141.78
647.24	9117.37
647.593	9103.59
647.945	9151.27
648.298	9044.83
648.65	9040.54
649.002	9057.94
649.355	9122.12
649.707	9034.66
650.059	9010.94
650.411	9222
650.763	9207.31
651.115	9274.88
651.467	9226.52
651.819	9217.94
652.171	9318.27
652.523	9266.75
652.875	9244.83
653.227	9242.79
653.578	9289.8
653.93	9288.44
654.282	9241.66
654.633	9232.4
654.985	9222
655.337	9245.96
655.688	9266.75
656.039	9200.08
656.391	9175.22
656.742	9171.61
657.094	9256.35
657.445	9258.61
657.796	9278.5
658.147	9167.77
658.498	9163.7
658.849	9232.4
659.2	9250.03
659.551	9215.9
659.902	9233.75
660.253	9201.21
660.604	9202.34
660.955	9166.41
661.306	9218.84
661.656	9194.21
662.007	9207.31
662.358	9169.12
662.708	9171.38
663.059	9204.6
663.409	9165.96
663.76	9183.36
664.11	9217.26
664.461	9290.93
664.811	9262
665.161	9255.22
665.511	9193.3
665.862	9199.41
666.212	9244.15
666.562	9194.89
666.912	9198.5
667.262	9151.72
667.612	9222.46
667.962	9191.27
668.312	9145.17
668.662	9210.7
669.011	9213.87
669.361	9187.2
669.711	9165.73
670.06	9117.15
670.41	9164.83
670.76	9165.96
671.109	9217.48
671.459	9215.9
671.808	9083.7
672.157	9143.59
672.507	9138.84
672.856	9105.85
673.205	9135.68
673.554	9153.98
673.904	9092.97
674.253	9201.44
674.602	9099.07
674.951	9016.13
675.3	8990.14
675.649	9063.82
675.998	9090.26
676.346	9090.48
676.695	9068.34
677.044	9022.69
677.393	9021.56
677.741	9061.1
678.09	9002.12
678.438	9017.49
678.787	9029.92
679.135	9022.23
679.484	8921.9
679.832	8955.12
680.181	8874.22
680.529	8958.06
680.877	8881
681.225	8901.33
681.573	8925.29
681.922	8916.25
682.27	8892.29
682.618	8755.57
682.966	8782.47
683.314	8823.82
683.661	8831.05
684.009	8737.95
684.357	8744.73
684.705	8749.93
685.053	8735.01
685.4	8726.65
685.748	8712.86
686.095	8610.95
686.443	8630.83
686.79	8618.86
687.138	8595.81
687.485	8697.05
687.832	8603.49
688.18	8629.48
688.527	8523.26
688.874	8578.86
689.221	8477.84
689.568	8458.18
689.915	8489.37
690.262	8433.55
690.609	8404.4
690.956	8400.1
691.303	8380.44
691.65	8366.66
691.997	8345.64
692.344	8280.33
692.69	8331.41
693.037	8344.29
693.383	8241.24
693.73	8195.36
694.077	8104.29
694.423	8212.31
694.769	8134.35
695.116	8122.15
695.462	8126.44
695.808	8081.02
696.155	8088.7
696.501	7984.75
696.847	7970.74
697.193	7902.72
697.539	7912.21
697.885	7934.81
698.231	7895.03
698.577	7849.61
698.923	7865.88
699.269	7803.96
699.614	7759.22
699.96	7730.74
700.306	7780.69
700.651	7695.72
700.997	7689.16
701.342	7620.24
701.688	7623.4
702.033	7559.22
702.379	7608.49
702.724	7574.36
703.069	7570.52
703.415	7502.27
703.76	7474.7
704.105	7479.45
704.45	7478.32
704.795	7362.84
705.14	7435.16
705.485	7389.51
705.83	7375.27
706.175	7405.78
706.52	7325.78
706.865	7323.97
707.209	7396.06
707.554	7223.41
707.899	7217.76
708.243	7193.81
708.588	7195.84
708.932	7146.13
709.277	7166.92
709.621	7123.3
709.966	7134.37
710.31	7142.28
710.654	7112.68
710.998	7033.59
711.342	7011.67
711.687	7066.35
712.031	6951.33
712.375	6987.26
712.719	7048.95
713.063	6983.64
713.407	7001.27
713.75	7004.21
714.094	6982.97
714.438	6914.04
714.782	6940.71
715.125	6886.92
715.469	6932.8
715.812	6866.58
716.156	6844.66
716.499	6773.03
716.843	6852.12
717.186	6792.91
717.53	6861.39
717.873	6848.05
718.216	6819.58
718.559	6761.95
718.902	6759.24
719.246	6744.55
719.589	6718.11
719.932	6733.93
720.275	6685.35
720.617	6698.91
720.96	6697.32
721.303	6702.3
721.646	6678.12
721.989	6662.07
722.331	6693.93
722.674	6690.32
723.016	6689.41
723.359	6624.11
723.701	6661.84
724.044	6615.29
724.386	6587.04
724.729	6653.26
725.071	6584.11
725.413	6614.16
725.755	6578.91
726.097	6527.84
726.439	6566.48
726.782	6570.32
727.124	6520.15
727.465	6516.09
727.807	6566.71
728.149	6524.45
728.491	6512.47
728.833	6499.14
729.175	6522.87
729.516	6534.16
729.858	6516.31
730.199	6505.69
730.541	6467.05
730.882	6448.97
731.224	6568.06
731.565	6454.62
731.906	6495.3
732.248	6470.44
732.589	6483.09
732.93	6380.95
733.271	6477.89
733.612	6441.74
733.953	6530.32
734.294	6469.53
734.635	6476.76
734.976	6449.42
735.317	6439.25
735.658	6477.89
735.999	6471.79
736.339	6439.93
736.68	6465.69
737.021	6467.73
737.361	6456.88
737.702	6458.69
738.042	6462.98
738.383	6464.11
738.723	6503.88
739.063	6506.37
739.404	6500.94
739.744	6483.54
740.084	6383.21
740.424	6493.04
740.764	6448.06
741.104	6478.35
741.444	6457.1
741.784	6448.52
742.124	6490.1
742.464	6532.81
742.804	6499.36
743.143	6537.1
743.483	6558.8
743.823	6551.11
744.162	6533.26
744.502	6572.58
744.841	6533.49
745.181	6632.92
745.52	6618.91
745.86	6643.99
746.199	6659.36
746.538	6679.25
746.877	6666.36
747.216	6737.1
747.556	6763.08
747.895	6762.18
748.234	6783.88
748.573	6825.46
748.911	6872.01
749.25	6935.96
749.589	6929.63
749.928	6939.8
750.267	7032.91
750.605	7011.89
750.944	7089.4
751.283	7094.38
751.621	7155.84
751.96	7163.98
752.298	7211.21
752.636	7323.52
752.975	7314.93
753.313	7361.49
753.651	7493.01
753.989	7441.03
754.327	7565.78
754.666	7616.17
755.004	7714.02
755.342	7798.31
755.679	7812.55
756.017	7894.58
756.355	7994.92
756.693	8101.81
757.031	8213.44
757.368	8225.42
757.706	8274.91
758.044	8351.07
758.381	8468.58
758.719	8560.78
759.056	8726.88
759.394	8676.03
759.731	8758.51
760.068	8845.97
760.405	8967.55
760.743	8992.63
761.08	9113.98
761.417	9222.91
761.754	9300.65
762.091	9408.44
762.428	9538.83
762.765	9521.88
763.102	9708.54
763.438	9717.58
763.775	9841.65
764.112	9870.12
764.449	10108.99
764.785	10147.18
765.122	10145.82
765.458	10232.82
765.795	10275.08
766.131	10386.04
766.467	10407.28
766.804	10484.79
767.14	10612.02
767.476	10602.53
767.812	10649.31
768.148	10789.87
768.485	10768.63
768.821	10751.91
769.157	11016.98
769.492	10958.23
