Data from hue_36_FLMS001491_00076.txt Node
Date: Tue Feb 07 17:30:16 GMT 2017
User: dcchb
Spectrometer: FLMS00149
Trigger mode: 0
Integration Time (sec): 2.000000E-2
Scans to average: 10
Electric dark correction enabled: true
Nonlinearity correction enabled: false
Boxcar width: 0
XAxis mode: Wavelengths
Number of Pixels in Spectrum: 2048
>>>>>Begin Spectral Data<<<<<
341.393	-0.61
341.776	-0.61
342.16	-0.61
342.543	-78.12
342.927	-72.92
343.31	-67.72
343.693	-69.98
344.077	-74.5
344.46	-67.5
344.843	-49.19
345.226	-43.09
345.61	-33.83
345.993	-31.79
346.376	-9.19
346.759	10.47
347.142	55.44
347.525	38.94
347.908	53.63
348.291	71.71
348.674	113.51
349.057	103.12
349.44	114.64
349.823	152.38
350.206	199.16
350.588	212.49
350.971	221.08
351.354	215.88
351.737	231.02
352.119	256.56
352.502	256.79
352.884	258.59
353.267	293.17
353.65	287.97
354.032	289.78
354.414	311.02
354.797	348.31
355.179	322.55
355.562	333.85
355.944	330.46
356.326	348.08
356.709	358.25
357.091	345.15
357.473	348.08
357.855	346.5
358.238	332.94
358.62	352.6
359.002	354.41
359.384	345.6
359.766	346.95
360.148	373.17
360.53	353.51
360.912	350.8
361.294	340.17
361.676	344.69
362.057	347.86
362.439	344.69
362.821	320.06
363.203	345.82
363.584	339.04
363.966	331.81
364.348	336.33
364.729	322.32
365.111	322.1
365.493	325.94
365.874	290.01
366.256	327.07
366.637	318.03
367.019	327.52
367.4	325.03
367.781	327.07
368.163	315.99
368.544	307.41
368.925	352.15
369.306	336.33
369.688	322.55
370.069	310.57
370.45	320.51
370.831	313.06
371.212	326.39
371.593	322.77
371.974	342.66
372.355	327.97
372.736	338.82
373.117	308.09
373.498	339.5
373.879	322.1
374.26	314.64
374.641	327.52
375.021	338.59
375.402	348.76
375.783	325.03
376.163	341.98
376.544	344.47
376.925	335.66
377.305	309.67
377.686	332.04
378.066	333.62
378.447	306.28
378.827	350.12
379.208	332.94
379.588	333.85
379.968	348.31
380.349	359.38
380.729	355.32
381.109	356.22
381.489	328.65
381.87	343.56
382.25	347.41
382.63	337.24
383.01	359.38
383.39	366.61
383.77	353.06
384.15	350.34
384.53	367.97
384.91	352.15
385.29	355.77
385.67	377.46
386.049	364.35
386.429	367.97
386.809	369.78
387.189	369.55
387.568	386.5
387.948	368.2
388.328	354.19
388.707	377.46
389.087	349.44
389.466	363
389.846	362.77
390.225	360.51
390.605	390.12
390.984	363.68
391.363	374.52
391.743	368.42
392.122	395.31
392.501	374.07
392.881	401.64
393.26	386.28
393.639	370.46
394.018	360.06
394.397	388.99
394.776	390.79
395.155	381.76
395.534	390.12
395.913	390.34
396.292	390.12
396.671	404.35
397.05	376.78
397.429	393.28
397.808	398.25
398.186	396.9
398.565	381.53
398.944	387.63
399.323	408.87
399.701	404.35
400.08	394.41
400.458	396.67
400.837	405.71
401.215	384.24
401.594	415.2
401.972	398.93
402.351	411.13
402.729	406.16
403.107	404.81
403.486	411.59
403.864	420.85
404.242	419.72
404.62	421.3
404.999	426.27
405.377	404.35
405.755	409.78
406.133	441.64
406.511	435.77
406.889	428.31
407.267	438.48
407.645	422.66
408.023	426.27
408.401	431.02
408.779	438.7
409.156	442.77
409.534	438.48
409.912	447.29
410.29	466.27
410.667	440.74
411.045	451.81
411.422	449.1
411.8	480.28
412.178	449.32
412.555	480.28
412.933	479.15
413.31	473.5
413.687	471.7
414.065	490.45
414.442	473.96
414.819	479.61
415.197	494.75
415.574	497.01
415.951	493.39
416.328	508.08
416.705	470.57
417.082	492.71
417.46	485.03
417.837	516.67
418.214	520.96
418.591	511.92
418.967	519.15
419.344	518.25
419.721	509.21
420.098	503.56
420.475	508.53
420.852	552.6
421.228	522.99
421.605	532.49
421.982	532.71
422.358	557.57
422.735	523.22
423.111	540.17
423.488	543.33
423.864	558.93
424.241	551.92
424.617	553.28
424.994	558.25
425.37	545.14
425.746	539.04
426.123	564.8
426.499	584.01
426.875	564.58
427.251	570.45
427.627	588.3
428.003	574.74
428.379	586.72
428.756	593.5
429.132	605.48
429.507	588.3
429.883	612.71
430.259	611.81
430.635	613.39
431.011	637.34
431.387	625.59
431.763	635.53
432.138	645.25
432.514	647.51
432.89	673.27
433.265	650
433.641	663.33
434.016	652.71
434.392	679.37
434.767	709.88
435.143	716.89
435.518	719.6
435.894	689.77
436.269	682.09
436.644	708.07
437.02	703.33
437.395	719.37
437.77	721.86
438.145	701.97
438.52	718.47
438.895	746.72
439.271	725.48
439.646	760.28
440.021	730.67
440.395	743.55
440.77	733.61
441.145	776.1
441.52	734.51
441.895	765.02
442.27	746.27
442.645	764.57
443.019	764.57
443.394	786.72
443.769	784.91
444.143	774.29
444.518	806.15
444.892	787.85
445.267	818.81
445.641	781.52
446.016	791.91
446.39	821.97
446.764	800.28
447.139	822.42
447.513	810.67
447.887	836.21
448.262	815.42
448.636	836.88
449.01	848.64
449.384	838.47
449.758	859.03
450.132	855.19
450.506	833.72
450.88	877.79
451.254	873.04
451.628	881.4
452.002	873.95
452.376	892.25
452.75	900.61
453.123	885.02
453.497	913.94
453.871	915.75
454.244	889.76
454.618	934.06
454.992	951.01
455.365	938.35
455.739	946.71
456.112	961.85
456.486	987.16
456.859	980.61
457.232	993.49
457.606	981.97
457.979	1002.3
458.352	1050.44
458.725	1013.83
459.099	1049.53
459.472	1051.34
459.845	1059.03
460.218	1059.93
460.591	1101.96
460.964	1067.16
461.337	1091.12
461.71	1124.33
462.083	1145.35
462.456	1128.18
462.829	1153.94
463.201	1159.59
463.574	1153.49
463.947	1177.21
464.32	1215.63
464.692	1207.5
465.065	1260.83
465.438	1250.89
465.81	1263.31
466.183	1279.36
466.555	1334.5
466.928	1271.45
467.3	1328.85
467.672	1355.29
468.045	1393.71
468.417	1351.22
468.789	1382.86
469.161	1435.74
469.534	1425.8
469.906	1465.34
470.278	1466.47
470.65	1500.82
471.022	1492.91
471.394	1581.95
471.766	1574.04
472.138	1594.15
472.51	1610.65
472.882	1679.12
473.253	1688.39
473.625	1758.44
473.997	1780.36
474.369	1769.29
474.74	1804.09
475.112	1830.76
475.484	1884.77
475.855	1925.67
476.227	1941.71
476.598	1969.28
476.97	2045.89
477.341	2090.64
477.713	2134.03
478.084	2141.03
478.455	2237.07
478.827	2267.36
479.198	2350.07
479.569	2338.54
479.94	2454.47
480.311	2482.49
480.682	2541.92
481.053	2645.88
481.424	2682.94
481.795	2753.67
482.166	2793.44
482.537	2901.92
482.908	2977.39
483.279	3037.28
483.65	3114.11
484.021	3172.19
484.391	3240.66
484.762	3340.32
485.133	3376.03
485.503	3483.82
485.874	3571.95
486.244	3656.92
486.615	3758.84
486.985	3848.78
487.356	3942.11
487.726	4000.42
488.097	4146.63
488.467	4180.98
488.837	4328.77
489.207	4406.73
489.578	4498.48
489.948	4579.39
490.318	4663
490.688	4753.84
491.058	4883.33
491.428	4941.41
491.798	5014.63
492.168	5206.49
492.538	5302.76
492.908	5374.84
493.278	5472.24
493.648	5562.18
494.017	5656.42
494.387	5815.51
494.757	5876.53
495.126	5952.46
495.496	6020.48
495.866	6093.02
496.235	6238.78
496.605	6312.67
496.974	6377.3
497.344	6511.54
497.713	6525.1
498.082	6673.34
498.452	6740.01
498.821	6794.69
499.19	6917.85
499.559	6984.07
499.928	7086.21
500.298	7145.87
500.667	7293.89
501.036	7293.21
501.405	7335.24
501.774	7434.68
502.143	7527.33
502.512	7643.71
502.88	7706.08
503.249	7730.26
503.618	7829.92
503.987	7883.93
504.356	8101.1
504.724	8061.33
505.093	8119.41
505.462	8242.57
505.83	8265.84
506.199	8434.43
506.567	8514.2
506.936	8504.71
507.304	8636.91
507.672	8683.01
508.041	8739.05
508.409	8772.27
508.777	8889.78
509.145	8970.46
509.514	9082.54
509.882	9070.57
510.25	9160.73
510.618	9190.34
510.986	9270.34
511.354	9359.15
511.722	9469.43
512.09	9516.2
512.458	9562.31
512.826	9630.33
513.193	9615.86
513.561	9724.79
513.929	9818.57
514.297	9890.66
514.664	9940.83
515.032	9984.44
515.4	10069.18
515.767	10105.57
516.135	10185.57
516.502	10208.16
516.869	10399.8
517.237	10351.21
517.604	10360.02
517.972	10522.96
518.339	10558.66
518.706	10631.2
519.073	10632.33
519.44	10733.57
519.808	10836.4
520.175	10794.59
520.542	10965.66
520.909	10974.02
521.276	11025.32
521.643	11130.63
522.009	11183.51
522.376	11274.58
522.743	11338.3
523.11	11468.02
523.477	11488.36
523.843	11546.89
524.21	11657.84
524.577	11722.7
524.943	11833.66
525.31	11879.53
525.676	11990.49
526.043	12053.54
526.409	12081.33
526.776	12211.95
527.142	12352.51
527.508	12361.1
527.874	12394.1
528.241	12565.84
528.607	12609
528.973	12640.64
529.339	12665.05
529.705	12809.9
530.071	12915.44
530.437	12915.44
530.803	13002.67
531.169	13047.41
531.535	13072.95
531.901	13147.3
532.267	13228.42
532.632	13297.8
532.998	13308.65
533.364	13443.33
533.73	13394.97
534.095	13534.63
534.461	13621.41
534.826	13629.77
535.192	13719.94
535.557	13784.34
535.923	13839.48
536.288	13975.07
536.653	13949.08
537.019	13935.52
537.384	14035.41
537.749	14127.61
538.114	14143.65
538.479	14182.52
538.845	14304.78
539.21	14252.13
539.575	14294.38
539.94	14345.23
540.305	14514.94
540.67	14434.49
541.034	14543.19
541.399	14652.34
541.764	14673.81
542.129	14821.6
542.494	14796.74
542.858	14833.58
543.223	14920.13
543.587	14976.4
543.952	15053.01
544.316	15029.73
544.681	15086.68
545.045	15123.74
545.41	15216.85
545.774	15304.75
546.138	15356.05
546.503	15347.46
546.867	15355.37
547.231	15486.44
547.595	15617.29
547.959	15541.36
548.324	15556.27
548.688	15688.92
549.052	15695.7
549.416	15791.07
549.779	15785.42
550.143	15901.8
550.507	16002.36
550.871	16008.24
551.235	16003.49
551.599	16175.46
551.962	16194.9
552.326	16273.09
552.689	16276.48
553.053	16279.42
553.417	16253.88
553.78	16489.13
554.143	16399.41
554.507	16622.68
554.87	16622.23
555.234	16720.08
555.597	16683.25
555.96	16786.07
556.323	16799.18
556.686	16816.8
557.05	17044.14
557.413	16949.23
557.776	17032.39
558.139	17161.43
558.502	17239.84
558.865	17253.63
559.228	17397.81
559.59	17335.43
559.953	17433.51
560.316	17591.02
560.679	17592.38
561.041	17678.48
561.404	17754.63
561.767	17864.91
562.129	17832.82
562.492	17981.74
562.854	17967.06
563.217	17984.68
563.579	18099.71
563.941	18149.65
564.304	18219.48
564.666	18318.23
565.028	18411.56
565.39	18471.68
565.753	18601.84
566.115	18660.82
566.477	18730.65
566.839	18784.66
567.201	18878.9
567.563	18903.53
567.925	19050.64
568.287	19144.43
568.648	19087.03
569.01	19221.94
569.372	19378.77
569.734	19251.77
570.095	19468.94
570.457	19571.08
570.819	19619.22
571.18	19576.28
571.542	19676.62
571.903	19770.17
572.265	19900.11
572.626	19916.38
572.987	19985.08
573.349	20160.22
573.71	20276.15
574.071	20302.81
574.432	20414.68
574.794	20551.39
575.155	20635.91
575.516	20559.98
575.877	20810.37
576.238	20804.5
576.599	21006.3
576.96	21108.89
577.32	21168.33
577.681	21320.19
578.042	21475.21
578.403	21547.98
578.763	21617.81
579.124	21672.72
579.485	22018.02
579.845	22218.47
580.206	22150.9
580.566	22288.75
580.927	22433.83
581.287	22722.64
581.648	22768.06
582.008	22952.01
582.368	23039.24
582.728	23271.1
583.089	23407.59
583.449	23613.91
583.809	23742.95
584.169	23901.59
584.529	24123.73
584.889	24442.37
585.249	24536.6
585.609	24672.42
585.969	25010.49
586.329	24986.76
586.688	25442.11
587.048	25451.83
587.408	25719.85
587.768	25887.53
588.127	26086.84
588.487	26324.58
588.846	26722.98
589.206	26702.87
589.565	26765.47
589.925	27228.28
590.284	27358
590.643	27629.85
591.003	27828.27
591.362	28190.97
591.721	28331.3
592.08	28584.86
592.44	29040.89
592.799	29116.14
593.158	29185.07
593.517	29407.88
593.876	29799.74
594.235	29919.06
594.593	30168.54
594.952	30441.76
595.311	30507.52
595.67	30905.02
596.029	31244.22
596.387	31289.42
596.746	31705.45
597.104	31614.38
597.463	31856.41
597.822	32231.77
598.18	32244.19
598.538	32520.8
598.897	32829.04
599.255	32844.63
599.613	33407.78
599.972	33329.59
600.33	33640.77
600.688	33655.23
601.046	34081.21
601.404	34323.01
601.762	34395.1
602.12	34613.62
602.478	34861.75
602.836	35098.36
603.194	34955.76
603.552	35225.81
603.91	35348.75
604.268	35752.12
604.625	35751.67
604.983	35968.62
605.341	35974.72
605.698	36265.78
606.056	36468.72
606.413	36589.62
606.771	36762.04
607.128	36975.37
607.485	36934.24
607.843	37122.26
608.2	37570.16
608.557	37677.27
608.914	37541
609.272	38031.16
609.629	38162.01
609.986	38390.7
610.343	38248.33
610.7	38629.79
611.057	38613.97
611.414	38696
611.771	38980.97
612.127	39128.76
612.484	39182.77
612.841	39454.4
613.198	39410.11
613.554	39489.65
613.911	39749.99
614.267	39840.83
614.624	40014.61
614.98	40114.5
615.337	40112.01
615.693	40298.45
616.05	40412.34
616.406	40652.79
616.762	40612.79
617.118	40764.87
617.475	40781.82
617.831	40847.58
618.187	41113.57
618.543	41100.68
618.899	41431.52
619.255	41296.16
619.611	41372.77
619.967	41648.02
620.323	41623.61
620.678	41578.64
621.034	41603.5
621.39	41590.62
621.746	41688.24
622.101	42245.51
622.457	41917.16
622.812	42088
623.168	42166.87
623.523	42165.97
623.879	42283.48
624.234	42062.69
624.589	42446.86
624.945	42441.67
625.3	42531.38
625.655	42560.76
626.01	42564.83
626.365	42742.45
626.72	42591.27
627.075	42606.18
627.43	42514.88
627.785	42605.28
628.14	42820.64
628.495	42662.9
628.85	42817.48
629.205	42600.31
629.559	42852.73
629.914	42718.5
630.269	42826.97
630.623	42760.53
630.978	42703.81
631.332	42968.43
631.687	43024.48
632.041	42845.95
632.396	42983.35
632.75	42782.45
633.104	42771.6
633.459	42723.69
633.813	42793.97
634.167	42790.58
634.521	42926.85
634.875	42942.22
635.229	42827.42
635.583	42800.53
635.937	42821.09
636.291	42679.17
636.645	42698.61
636.999	42725.27
637.352	42806.85
637.706	42602.57
638.06	42788.55
638.413	42591.27
638.767	42493.42
639.121	42752.17
639.474	42320.99
639.828	42504.72
640.181	42479.63
640.534	42533.64
640.888	42445.06
641.241	42390.82
641.594	42349.69
641.947	42457.49
642.301	42302.69
642.654	42536.13
643.007	42432.4
643.36	42301.33
643.713	42362.12
644.066	42459.75
644.419	42233.99
644.771	41934.56
645.124	41652.76
645.477	41614.34
645.83	41347.01
646.182	41307.23
646.535	41066.56
646.888	41318.31
647.24	41111.53
647.593	41334.35
647.945	41275.14
648.298	40997.41
648.65	40947.92
649.002	40858.21
649.355	40950.63
649.707	41004.19
650.059	41180.68
650.411	41528.47
650.763	41695.25
651.115	41896.6
651.467	41824.73
651.819	41876.48
652.171	41738.41
652.523	41742.93
652.875	41690.73
653.227	41464.07
653.578	41779.09
653.93	41754.45
654.282	41665.64
654.633	41420.9
654.985	41689.6
655.337	41517.62
655.688	41588.13
656.039	41671.29
656.391	41407.57
656.742	41362.15
657.094	41462.03
657.445	41680.33
657.796	41434.91
658.147	41471.97
658.498	41453.67
658.849	41560.33
659.2	41486.89
659.551	41406.21
659.902	41568.92
660.253	41550.84
660.604	41539.09
660.955	41261.13
661.306	41388.13
661.656	41338.42
662.007	41399.89
662.358	41332.77
662.708	41286.67
663.059	41162.38
663.409	41075.83
663.76	41271.75
664.11	41326.44
664.461	41407.12
664.811	41422.94
665.161	41183.62
665.511	41208.25
665.862	41144.07
666.212	41282.15
666.562	41169.16
666.912	41163.96
667.262	41012.55
667.612	41272.43
667.962	41212.55
668.312	41124.64
668.662	41289.15
669.011	41220.46
669.361	41138.65
669.711	41088.03
670.06	41186.78
670.41	41004.19
670.76	40968.48
671.109	41070.63
671.459	41036.51
671.808	40943.4
672.157	41196.05
672.507	40880.8
672.856	40978.65
673.205	41012.1
673.554	41046.45
673.904	40944.76
674.253	41231.98
674.602	41033.34
674.951	40455.5
675.3	40264.77
675.649	40768.72
675.998	40958.77
676.346	40930.75
676.695	40884.42
677.044	40688.49
677.393	40630.19
677.741	40768.72
678.09	40683.29
678.438	40599.68
678.787	40703.86
679.135	40627.25
679.484	40450.98
679.832	40554.03
680.181	40411.66
680.529	40464.77
680.877	40424.54
681.225	40322.17
681.573	40486.46
681.922	40361.5
682.27	40182.29
682.618	40042.41
682.966	40199.47
683.314	40065.01
683.661	39999.02
684.009	39873.82
684.357	39933.71
684.705	39720.38
685.053	39750.21
685.4	39774.62
685.748	39571.91
686.095	39527.17
686.443	39440.39
686.79	39499.82
687.138	39611.01
687.485	39409.2
687.832	39316.78
688.18	39301.64
688.527	38925.15
688.874	39032.94
689.221	39001.76
689.568	38971.7
689.915	38832.5
690.262	38861.87
690.609	38748.43
690.956	38688.77
691.303	38639.73
691.65	38524.26
691.997	38415.78
692.344	38220.99
692.69	38295.11
693.037	38433.64
693.383	37978.73
693.73	38145.06
694.077	37808.79
694.423	37896.02
694.769	37635.24
695.116	37668.91
695.462	37504.4
695.808	37586.43
696.155	37457.84
696.501	37338.52
696.847	37298.52
697.193	37064.18
697.539	37152.99
697.885	36930.17
698.231	36805.66
698.577	36973.79
698.923	36818.54
699.269	36583.74
699.614	36530.41
699.96	36376.97
700.306	36351.43
700.651	36245.45
700.997	36035.06
701.342	36076.64
701.688	35976.53
702.033	35974.49
702.379	35849.3
702.724	35715.29
703.069	35789.86
703.415	35420.83
703.76	35411.34
704.105	35496.76
704.45	35339.03
704.795	35071.92
705.14	35082.99
705.485	35100.39
705.83	34952.15
706.175	34890
706.52	34817.01
706.865	34684.13
707.209	34680.97
707.554	34546.73
707.899	34673.74
708.243	34462.44
708.588	34394.19
708.932	34177.48
709.277	34154.88
709.621	34149.91
709.966	33991.27
710.31	34097.93
710.654	33671.05
710.998	33888.22
711.342	33666.53
711.687	33676.93
712.031	33544.73
712.375	33492.3
712.719	33581.56
713.063	33516.25
713.407	33585.85
713.75	33312.87
714.094	33348.57
714.438	33114.45
714.782	33157.62
715.125	33076.49
715.469	33125.3
715.812	32918.53
716.156	32818.64
716.499	32741.58
716.843	32860.68
717.186	32680.79
717.53	32743.39
717.873	32741.58
718.216	32621.59
718.559	32491.65
718.902	32356.28
719.246	32397.18
719.589	32288.71
719.932	32209.39
720.275	32233.57
720.617	32182.05
720.96	32101.6
721.303	32040.81
721.646	32111.54
721.989	31858.89
722.331	32003.75
722.674	31768.5
723.016	31886.46
723.359	31753.59
723.701	31907.03
724.044	31721.5
724.386	31459.36
724.729	31773.92
725.071	31556.08
725.413	31566.7
725.755	31467.04
726.097	31389.3
726.439	31137.78
726.782	31144.11
727.124	31312.02
727.465	31074.28
727.807	31101.4
728.149	30968.97
728.491	31033.38
728.833	31058.24
729.175	31014.17
729.516	31022.76
729.858	30681.07
730.199	30791.35
730.541	30771.92
730.882	30769.43
731.224	30848.07
731.565	30563.56
731.906	30603.33
732.248	30552.94
732.589	30484.47
732.93	30415.09
733.271	30265.72
733.612	30501.19
733.953	30378.71
734.294	30138.94
734.635	30176.68
734.976	30225.26
735.317	30178.26
735.658	30150.46
735.999	29975.78
736.339	29888.55
736.68	29989.56
737.021	29928.78
737.361	29770.59
737.702	29971.03
738.042	29880.19
738.383	29743.92
738.723	29826.18
739.063	29613.53
739.404	29738.95
739.744	29508.22
740.084	29486.07
740.424	29611.95
740.764	29557.71
741.104	29590.48
741.444	29391.39
741.784	29343.03
742.124	29344.16
742.464	29255.8
742.804	29232.52
743.143	29256.93
743.483	29229.36
743.823	28924.28
744.162	28883.15
744.502	29111.85
744.841	28879.09
745.181	28881.8
745.52	28811.97
745.86	28873.66
746.199	28781.69
746.538	28828.47
746.877	28829.37
747.216	28844.96
747.556	28661.69
747.895	28640.9
748.234	28486.1
748.573	28467.34
748.911	28433.9
749.25	28487.68
749.589	28287.46
749.928	28484.07
750.267	28384.41
750.605	28254.47
750.944	28198.2
751.283	28138.31
751.621	28119.33
751.96	28000.46
752.298	28043.4
752.636	27930.86
752.975	27870.07
753.313	27790.75
753.651	27895.83
753.989	27778.32
754.327	27751.88
754.666	27416.98
755.004	27595.5
755.342	27731.09
755.679	27489.29
756.017	27482.06
756.355	27437.77
756.693	27264.89
757.031	27373.59
