Data from hue_160_FLMS001491_00007.txt Node
Date: Tue Feb 07 16:50:40 GMT 2017
User: dcchb
Spectrometer: FLMS00149
Trigger mode: 0
Integration Time (sec): 2.000000E-2
Scans to average: 10
Electric dark correction enabled: true
Nonlinearity correction enabled: false
Boxcar width: 0
XAxis mode: Wavelengths
Number of Pixels in Spectrum: 2048
>>>>>Begin Spectral Data<<<<<
341.393	-21.88
341.776	-21.88
342.16	-21.88
342.543	-43.35
342.927	-70.01
343.31	-50.58
343.693	-70.01
344.077	-62.33
344.46	-56.91
344.843	-36.34
345.226	-57.36
345.61	-41.76
345.993	-23.69
346.376	-13.74
346.759	12.92
347.142	40.72
347.525	37.33
347.908	50.89
348.291	63.54
348.674	104.22
349.057	103.09
349.44	130.66
349.823	115.97
350.206	145.35
350.588	201.39
350.971	217.66
351.354	228.06
351.737	249.08
352.119	241.84
352.502	270.32
352.884	265.35
353.267	280.94
353.65	280.71
354.032	295.85
354.414	300.15
354.797	304.89
355.179	324.1
355.562	360.03
355.944	330.88
356.326	343.54
356.709	322.52
357.091	330.88
357.473	355.06
357.855	331.11
358.238	340.37
358.62	338.34
359.002	357.32
359.384	351.67
359.766	321.84
360.148	356.87
360.53	355.06
360.912	321.16
361.294	362.07
361.676	330.66
362.057	340.37
362.439	331.56
362.821	343.31
363.203	311.22
363.584	336.53
363.966	336.53
364.348	312.58
364.729	310.54
365.111	312.8
365.493	313.25
365.874	317.55
366.256	318.23
366.637	317.77
367.019	305.57
367.4	304.67
367.781	338.11
368.163	314.38
368.544	307.83
368.925	316.64
369.306	344.67
369.688	325.68
370.069	308.73
370.45	318
370.831	306.25
371.212	311.9
371.593	298.11
371.974	302.41
372.355	319.58
372.736	331.33
373.117	314.84
373.498	328.4
373.879	288.17
374.26	312.12
374.641	301.96
375.021	334.04
375.402	333.82
375.783	311.9
376.163	322.75
376.544	332.91
376.925	325.46
377.305	321.16
377.686	300.6
378.066	322.07
378.447	326.59
378.827	324.1
379.208	343.54
379.588	330.43
379.968	321.39
380.349	336.98
380.729	315.97
381.109	342.41
381.489	326.59
381.87	336.98
382.25	331.11
382.63	340.82
383.01	328.85
383.39	360.94
383.77	341.73
384.15	350.77
384.53	340.82
384.91	349.41
385.29	343.54
385.67	337.89
386.049	346.93
386.429	361.84
386.809	335.4
387.189	371.11
387.568	361.39
387.948	351.45
388.328	352.12
388.707	347.83
389.087	348.51
389.466	356.42
389.846	355.74
390.225	357.77
390.605	370.2
390.984	360.48
391.363	367.04
391.743	367.49
392.122	394.61
392.501	361.84
392.881	379.02
393.26	367.04
393.639	377.43
394.018	374.04
394.397	379.92
394.776	349.64
395.155	392.57
395.534	368.17
395.913	374.27
396.292	379.47
396.671	381.05
397.05	403.65
397.429	409.75
397.808	404.78
398.186	377.21
398.565	387.6
398.944	362.74
399.323	372.69
399.701	395.74
400.08	387.83
400.458	395.74
400.837	401.16
401.215	411.11
401.594	417.66
401.972	383.54
402.351	398.22
402.729	413.36
403.107	410.65
403.486	414.04
403.864	399.58
404.242	408.85
404.62	423.08
404.999	415.62
405.377	409.07
405.755	412.69
406.133	426.92
406.511	432.8
406.889	441.16
407.267	416.75
407.645	448.39
408.023	426.7
408.401	430.09
408.779	441.61
409.156	446.58
409.534	435.51
409.912	446.36
410.29	458.79
410.667	465.79
411.045	454.49
411.422	451.56
411.8	461.5
412.178	470.31
412.555	478.67
412.933	482.74
413.31	496.98
413.687	481.16
414.065	457.43
414.442	494.94
414.819	503.76
415.197	477.32
415.574	493.36
415.951	484.78
416.328	506.24
416.705	510.09
417.082	505.79
417.46	506.24
417.837	514.38
418.214	519.12
418.591	520.25
418.967	509.41
419.344	526.58
419.721	522.06
420.098	527.71
420.475	522.97
420.852	538.79
421.228	525.68
421.605	554.15
421.982	572.91
422.358	547.37
422.735	567.49
423.111	581.27
423.488	574.49
423.864	577.43
424.241	602.51
424.617	582.63
424.994	580.82
425.37	583.76
425.746	591.21
426.123	608.16
426.499	598.22
426.875	607.48
427.251	616.07
427.627	625.34
428.003	621.04
428.379	633.02
428.756	619.69
429.132	630.08
429.507	667.37
429.883	647.71
430.259	645.68
430.635	643.64
431.011	667.37
431.387	668.27
431.763	695.17
432.138	689.74
432.514	718.22
432.89	682.51
433.265	709.4
433.641	676.86
434.016	699.68
434.392	703.53
434.767	715.05
435.143	741.27
435.518	756.86
435.894	740.81
436.269	753.47
436.644	790.3
437.02	765.45
437.395	779.68
437.77	769.74
438.145	774.26
438.52	807.03
438.895	795.73
439.271	795.73
439.646	788.27
440.021	829.85
440.395	819.68
440.77	830.53
441.145	862.39
441.52	854.03
441.895	844.54
442.27	852.9
442.645	852
443.019	853.58
443.394	874.6
443.769	869.62
444.143	888.15
444.518	898.55
444.892	884.99
445.267	901.94
445.641	897.19
446.016	889.28
446.39	928.61
446.764	903.75
447.139	920.47
447.513	954.37
447.887	963.41
448.262	967.93
448.636	953.69
449.01	942.62
449.384	972.22
449.758	983.52
450.132	993.91
450.506	993.46
450.88	972.45
451.254	1006.12
451.628	1018.32
452.002	1019.22
452.376	1042.95
452.75	1067.58
453.123	1060.35
453.497	1061.94
453.871	1077.08
454.244	1077.3
454.618	1112.33
454.992	1105.78
455.365	1115.95
455.739	1146.23
456.112	1109.62
456.486	1150.29
456.859	1155.49
457.232	1179.22
457.606	1162.27
457.979	1218.54
458.352	1232.78
458.725	1225.32
459.099	1256.28
459.472	1275.49
459.845	1279.1
460.218	1309.61
460.591	1300.57
460.964	1319.78
461.337	1349.16
461.71	1380.35
462.083	1399.33
462.456	1395.94
462.829	1400.01
463.201	1425.77
463.574	1436.16
463.947	1470.74
464.32	1477.74
464.692	1505.99
465.065	1539.66
465.438	1553.45
465.81	1560.45
466.183	1615.59
466.555	1618.76
466.928	1617.85
467.3	1653.11
467.672	1692.43
468.045	1707.57
468.417	1737.4
468.789	1763.39
469.161	1775.36
469.534	1813.55
469.906	1861.91
470.278	1901.01
470.65	1930.16
471.022	1948.24
471.394	2021.46
471.766	2042.02
472.138	2082.02
472.51	2101.23
472.882	2149.82
473.253	2175.58
473.625	2207.67
473.997	2286.76
474.369	2298.74
474.74	2362.24
475.112	2431.62
475.484	2459.64
475.855	2540.09
476.227	2572.4
476.598	2596.36
476.97	2693.3
477.341	2787.77
477.713	2854.88
478.084	2878.61
478.455	2972.17
478.827	3010.58
479.198	3143.91
479.569	3198.38
479.94	3315.44
480.311	3382.55
480.682	3464.13
481.053	3590.68
481.424	3658.7
481.795	3687.86
482.166	3844.91
482.537	3889.43
482.908	4035.19
483.279	4092.82
483.65	4198.35
484.021	4316.54
484.391	4440.83
484.762	4501.84
485.133	4576.19
485.503	4732.35
485.874	4852.8
486.244	4939.57
486.615	5062.51
486.985	5181.6
487.356	5344.53
487.726	5426.11
488.097	5557.18
488.467	5644.19
488.837	5820.45
489.207	5924.41
489.578	6105.64
489.948	6151.29
490.318	6295.24
490.688	6418.63
491.058	6594.9
491.428	6730.03
491.798	6863.82
492.168	7012.06
492.538	7130.25
492.908	7210.93
493.278	7406.18
493.648	7443.91
494.017	7585.15
494.387	7703.79
494.757	7863.11
495.126	8028.98
495.496	8089.32
495.866	8187.62
496.235	8365.92
496.605	8500.16
496.974	8485.47
497.344	8652.7
497.713	8774.95
498.082	8850.88
498.452	8994.83
498.821	9030.99
499.19	9083.42
499.559	9249.06
499.928	9360.7
500.298	9476.4
500.667	9586.91
501.036	9649.96
501.405	9743.97
501.774	9841.59
502.143	9927.92
502.512	9986.45
502.88	10091.3
503.249	10071.19
503.618	10273.67
503.987	10341.01
504.356	10387.79
504.724	10449.03
505.093	10526.32
505.462	10637.73
505.83	10668.69
506.199	10690.61
506.567	10830.04
506.936	10867.78
507.304	11031.39
507.672	11016.93
508.041	11138.96
508.409	11155.23
508.777	11265.06
509.145	11312.74
509.514	11336.24
509.882	11428.22
510.25	11467.31
510.618	11552.51
510.986	11553.41
511.354	11678.38
511.722	11744.14
512.09	11809.22
512.458	11801.09
512.826	11961.76
513.193	11893.51
513.561	11945.94
513.929	12060.29
514.297	12113.4
514.664	12147.75
515.032	12101.65
515.4	12204.47
515.767	12200.17
516.135	12301.19
516.502	12134.86
516.869	12425.03
517.237	12399.04
517.604	12301.41
517.972	12458.92
518.339	12431.81
518.706	12426.61
519.073	12462.09
519.44	12555.64
519.808	12640.61
520.175	12517.23
520.542	12705.47
520.909	12700.05
521.276	12658.47
521.643	12757.45
522.009	12811
522.376	12907.05
522.743	12887.16
523.11	12952.24
523.477	12986.14
523.843	13027.5
524.21	13186.36
524.577	13155.4
524.943	13079.7
525.31	13107.27
525.676	13114.95
526.043	13200.6
526.409	13143.88
526.776	13306.36
527.142	13245.34
527.508	13287.83
527.874	13327.38
528.241	13361.05
528.607	13212.58
528.973	13296.19
529.339	13290.31
529.705	13361.05
530.071	13407.83
530.437	13383.65
530.803	13427.03
531.169	13395.62
531.535	13305.46
531.901	13331.9
532.267	13313.59
532.632	13336.41
532.998	13318.34
533.364	13280.6
533.73	13310.2
534.095	13326.47
534.461	13400.37
534.826	13310.2
535.192	13257.55
535.557	13359.47
535.923	13218
536.288	13261.61
536.653	13242.86
537.019	13084.44
537.384	13092.81
537.749	13069.3
538.114	13034.73
538.479	13035.41
538.845	13033.82
539.21	12938.46
539.575	12979.59
539.94	12947.27
540.305	13002.86
540.67	12821.63
541.034	12857.56
541.399	12863.43
541.764	12808.29
542.129	12740.5
542.494	12741.85
542.858	12717
543.223	12697.79
543.587	12730.78
543.952	12602.65
544.316	12648.75
544.681	12529.43
545.045	12575.3
545.41	12520.62
545.774	12514.97
546.138	12411.92
546.503	12382.99
546.867	12349.77
547.231	12376.67
547.595	12342.99
547.959	12380.06
548.324	12230.46
548.688	12179.84
549.052	12173.51
549.416	12078.14
549.779	12200.17
550.143	12076.11
550.507	12054.41
550.871	11995.66
551.235	11994.08
551.599	11995.43
551.962	11968.99
552.326	11941.2
552.689	11966.06
553.053	11856.68
553.417	11867.98
553.78	11951.82
554.143	11871.14
554.507	11852.61
554.87	11936.68
555.234	11817.58
555.597	11770.81
555.96	11708.21
556.323	11793.86
556.686	11680.64
557.05	11669.34
557.413	11752.5
557.776	11667.08
558.139	11752.73
558.502	11699.4
558.865	11621.66
559.228	11737.36
559.59	11747.3
559.953	11628.66
560.316	11732.62
560.679	11703.69
561.041	11747.76
561.404	11714.54
561.767	11679.51
562.129	11625.95
562.492	11755.67
562.854	11691.71
563.217	11660.53
563.579	11687.42
563.941	11718.38
564.304	11681.77
564.666	11719.28
565.028	11615.1
565.39	11689
565.753	11724.48
566.115	11725.16
566.477	11722.9
566.839	11842.22
567.201	11727.64
567.563	11756.57
567.925	11852.16
568.287	11740.98
568.648	11820.97
569.01	11891.03
569.372	11914.76
569.734	11817.81
570.095	11883.35
570.457	11906.17
570.819	11945.49
571.18	11847.19
571.542	11967.64
571.903	11917.47
572.265	11921.54
572.626	11840.41
572.987	11923.12
573.349	11931.03
573.71	11949.33
574.071	11898.26
574.432	11971.7
574.794	12042.44
575.155	12069.1
575.516	11966.06
575.877	12023.23
576.238	12014.42
576.599	12087.18
576.96	11943.23
577.32	11971.48
577.681	12032.72
578.042	12059.84
578.403	11987.98
578.763	12097.58
579.124	11998.37
579.485	12063.45
579.845	12130.8
580.206	12030.69
580.566	12095.32
580.927	12033.85
581.287	12114.53
581.648	12011.03
582.008	12142.1
582.368	12058.48
582.728	12060.29
583.089	12060.74
583.449	11990.91
583.809	12063.23
584.169	12004.7
584.529	12012.38
584.889	12060.74
585.249	12010.57
585.609	11929.9
585.969	11972.16
586.329	11887.87
586.688	11954.3
587.048	11926.51
587.408	11899.84
587.768	11957.02
588.127	11915.89
588.487	11860.75
588.846	12019.39
589.206	11874.76
589.565	11854.87
589.925	11863.01
590.284	11853.74
590.643	11809
591.003	11902.55
591.362	11827.3
591.721	11840.41
592.08	11823.01
592.44	11845.83
592.799	11881.09
593.158	11823.01
593.517	11805.61
593.876	11782.33
594.235	11811.94
594.593	11788.66
594.952	11846.06
595.311	11750.92
595.67	11759.28
596.029	11882.89
596.387	11865.27
596.746	11815.32
597.104	11743.91
597.463	11733.07
597.822	11781.43
598.18	11727.87
598.538	11704.37
598.897	11738.72
599.255	11671.83
599.613	11791.6
599.972	11711.82
600.33	11767.87
600.688	11727.19
601.046	11719.51
601.404	11766.96
601.762	11760.86
602.12	11796.12
602.478	11694.88
602.836	11814.42
603.194	11697.36
603.552	11764.25
603.91	11708.44
604.268	11809
604.625	11640.87
604.983	11775.78
605.341	11682.67
605.698	11790.01
606.056	11774.42
606.413	11709.79
606.771	11731.49
607.128	11780.98
607.485	11711.82
607.843	11704.37
608.2	11716.57
608.557	11744.59
608.914	11728.1
609.272	11794.99
609.629	11761.32
609.986	11805.16
610.343	11758.6
610.7	11860.3
611.057	11792.5
611.414	11870.24
611.771	11815.1
612.127	11841.54
612.484	11872.72
612.841	11980.74
613.198	11865.27
613.554	11911.59
613.911	11984.36
614.267	11917.92
614.624	11900.97
614.98	11918.15
615.337	11963.34
615.693	11957.69
616.05	11978.71
616.406	11967.41
616.762	11951.14
617.118	11961.08
617.475	11921.08
617.831	11966.96
618.187	12042.89
618.543	12036.34
618.899	12082.44
619.255	12055.77
619.611	11975.32
619.967	12145.94
620.323	12088.09
620.678	12102.55
621.034	11994.98
621.39	12078.82
621.746	12041.76
622.101	12185.26
622.457	12040.63
622.812	12085.83
623.168	12184.35
623.523	12042.89
623.879	12148.88
624.234	11997.02
624.589	12081.31
624.945	12083.79
625.3	12071.36
625.655	12063
626.01	12032.27
626.365	12061.19
626.72	12026.62
627.075	12038.37
627.43	12092.83
627.785	12011.25
628.14	12027.52
628.495	12093.96
628.85	12031.82
629.205	11989.11
629.559	12053.74
629.914	11949.11
630.269	12028.88
630.623	11952.95
630.978	11963.12
631.332	11870.92
631.687	11936.23
632.041	11952.04
632.396	11919.28
632.75	11923.8
633.104	11945.27
633.459	11839.51
633.813	11865.95
634.167	11894.19
634.521	11858.49
634.875	11915.89
635.229	11822.56
635.583	11802.22
635.937	11856.45
636.291	11811.94
636.645	11744.59
636.999	11796.34
637.352	11700.53
637.706	11699.62
638.06	11707.31
638.413	11634.09
638.767	11636.8
639.121	11695.33
639.474	11601.55
639.828	11562
640.181	11619.17
640.534	11649.68
640.888	11557.7
641.241	11560.64
641.594	11583.92
641.947	11572.62
642.301	11583.92
642.654	11581.43
643.007	11529
643.36	11570.59
643.713	11497.37
644.066	11576.91
644.419	11472.51
644.771	11435.22
645.124	11281.78
645.477	11307.99
645.83	11256.7
646.182	11158.17
646.535	11201.1
646.888	11202.69
647.24	11032.07
647.593	11246.07
647.945	11251.05
648.298	11152.52
648.65	11119.98
649.002	11095.12
649.355	11141.67
649.707	11146.87
650.059	11236.13
650.411	11276.36
650.763	11359.97
651.115	11449.91
651.467	11378.73
651.819	11330.82
652.171	11380.08
652.523	11336.92
652.875	11395.45
653.227	11300.54
653.578	11391.83
653.93	11430.02
654.282	11313.87
654.633	11352.74
654.985	11315.45
655.337	11352.29
655.688	11378.27
656.039	11427.76
656.391	11272.06
656.742	11359.29
657.094	11401.78
657.445	11369.91
657.796	11401.32
658.147	11424.83
658.498	11397.03
658.849	11392.74
659.2	11346.41
659.551	11346.41
659.902	11351.38
660.253	11337.37
660.604	11400.42
660.955	11359.74
661.306	11383.92
661.656	11492.85
662.007	11386.64
662.358	11428.22
662.708	11373.98
663.059	11399.52
663.409	11299.86
663.76	11382.57
664.11	11443.13
664.461	11484.49
664.811	11456.69
665.161	11433.64
665.511	11358.39
665.862	11445.62
666.212	11467.31
666.562	11448.33
666.912	11420.08
667.262	11314.1
667.612	11414.21
667.962	11413.53
668.312	11459.4
668.662	11501.43
669.011	11480.42
669.361	11389.8
669.711	11350.03
670.06	11404.49
670.41	11366.07
670.76	11359.07
671.109	11434.32
671.459	11380.08
671.808	11344.15
672.157	11379.4
672.507	11347.09
672.856	11237.26
673.205	11366.98
673.554	11319.74
673.904	11331.04
674.253	11356.58
674.602	11367.65
674.951	11148.68
675.3	11056.7
675.649	11303.02
675.998	11264.6
676.346	11214.21
676.695	11330.82
677.044	11214.21
677.393	11229.58
677.741	11220.54
678.09	11108.68
678.438	11193.42
678.787	11179.41
679.135	11112.07
679.484	11162.69
679.832	11077.94
680.181	10983.71
680.529	11078.4
680.877	10992.97
681.225	11037.72
681.573	11148.9
681.922	11026.19
682.27	11006.31
682.618	11006.98
682.966	10933.31
683.314	10985.52
683.661	10932.41
684.009	10870.04
684.357	10894.9
684.705	10895.8
685.053	10897.38
685.4	10835.46
685.748	10880.89
686.095	10791.62
686.443	10776.71
686.79	10753.43
687.138	10748.23
687.485	10772.87
687.832	10762.25
688.18	10691.96
688.527	10554.34
688.874	10541.01
689.221	10576.49
689.568	10465.08
689.915	10538.75
690.262	10513.66
690.609	10496.72
690.956	10357.74
691.303	10345.53
691.65	10329.71
691.997	10237.29
692.344	10286.33
692.69	10275.25
693.037	10215.14
693.383	10158.87
693.73	10190.06
694.077	10169.72
694.423	10067.57
694.769	10102.38
695.116	9991.42
695.462	10006.33
695.808	9900.57
696.155	9969.72
696.501	9862.61
696.847	9853.57
697.193	9801.59
697.539	9906.67
697.885	9756.62
698.231	9736.74
698.577	9686.34
698.923	9687.92
699.269	9686.79
699.614	9574.25
699.96	9565.44
700.306	9548.49
700.651	9527.02
700.997	9502.62
701.342	9444.99
701.688	9366.35
702.033	9440.25
702.379	9280.7
702.724	9325.67
703.069	9313.92
703.415	9184.21
703.76	9179.91
704.105	9187.6
704.45	9190.76
704.795	9098.56
705.14	9064.44
705.485	9024.66
705.83	8982.63
706.175	9041.84
706.52	8964.33
706.865	8899.47
707.209	8949.86
707.554	8913.71
707.899	8951.22
708.243	8859.24
708.588	8809.75
708.932	8751.45
709.277	8780.15
709.621	8795.29
709.966	8638.69
710.31	8675.52
710.654	8647.72
710.998	8734.95
711.342	8715.97
711.687	8626.93
712.031	8584
712.375	8565.24
712.719	8593.04
713.063	8602.98
713.407	8595.3
713.75	8514.17
714.094	8581.29
714.438	8493.38
714.782	8489.54
715.125	8489.31
715.469	8484.57
715.812	8426.26
716.156	8394.4
716.499	8383.1
716.843	8422.87
717.186	8334.74
717.53	8402.31
717.873	8384.23
718.216	8339.94
718.559	8297.68
718.902	8254.51
719.246	8211.35
719.589	8244.8
719.932	8241.41
720.275	8248.41
720.617	8169.32
720.96	8156.44
721.303	8156.44
721.646	8225.81
721.989	8132.48
722.331	8167.29
722.674	8134.29
723.016	8123.9
723.359	8143.56
723.701	8100.17
724.044	8113.95
724.386	8067.4
724.729	8122.77
725.071	8076.44
725.413	8055.65
725.755	8102.2
726.097	8107.17
726.439	8007.06
726.782	7984.24
727.124	8102.43
727.465	8029.21
727.807	8075.76
728.149	8050.45
728.491	8031.47
728.833	8066.04
729.175	8065.37
729.516	8049.1
729.858	8021.07
730.199	8038.93
730.541	8050
730.882	7980.62
731.224	8065.59
731.565	7990.79
731.906	7998.7
732.248	8071.24
732.589	7991.7
732.93	7980.4
733.271	7983.79
733.612	8025.59
733.953	8042.09
734.294	7981.75
734.635	7960.74
734.976	7971.36
735.317	7927.74
735.658	7894.98
735.999	7956.44
736.339	8028.53
736.68	8016.55
737.021	8007.06
737.361	7970.23
737.702	8094.52
738.042	7939.72
738.383	8038.02
738.723	8035.54
739.063	7983.11
739.404	8031.47
739.744	8047.06
740.084	7999.38
740.424	8172.26
740.764	8028.08
741.104	8106.5
741.444	8112.15
741.784	8002.77
742.124	8087.29
742.464	8102.65
742.804	8144.69
743.143	8145.59
743.483	8144.91
743.823	8144.46
744.162	8256.1
744.502	8304
744.841	8163.44
745.181	8314.63
745.52	8307.62
745.86	8374.96
746.199	8457.45
746.538	8466.26
746.877	8541.51
747.216	8573.6
747.556	8615.86
747.895	8611.12
748.234	8628.52
748.573	8754.16
748.911	8714.39
749.25	8806.14
749.589	8868.74
749.928	8913.25
750.267	9038.9
750.605	9064.21
750.944	9134.04
751.283	9201.38
751.621	9383.98
751.96	9330.87
752.298	9463.3
752.636	9543.52
752.975	9611.99
753.313	9677.53
753.651	9849.27
753.989	9882.72
754.327	10048.82
754.666	10077.07
755.004	10270.51
755.342	10285.87
755.679	10488.58
756.017	10628.01
756.355	10708.24
756.693	10818.29
757.031	11092.86
757.368	11130.6
757.706	11317.71
758.044	11453.07
758.381	11588.21
758.719	11741.43
759.056	11944.36
759.394	12002.66
