Data from hue_120_FLMS001491_00028.txt Node
Date: Tue Feb 07 16:59:09 GMT 2017
User: dcchb
Spectrometer: FLMS00149
Trigger mode: 0
Integration Time (sec): 2.000000E-2
Scans to average: 10
Electric dark correction enabled: true
Nonlinearity correction enabled: false
Boxcar width: 0
XAxis mode: Wavelengths
Number of Pixels in Spectrum: 2048
>>>>>Begin Spectral Data<<<<<
341.393	-10.3
341.776	-10.3
342.16	-10.3
342.543	-52.33
342.927	-58.2
343.31	-46.23
343.693	-70.41
344.077	-63.18
344.46	-62.95
344.843	-43.52
345.226	-59.56
345.61	-24.76
345.993	-27.02
346.376	-7.13
346.759	5.3
347.142	14.56
347.525	51.17
347.908	44.84
348.291	64.73
348.674	97.5
349.057	126.65
349.44	123.26
349.823	138.4
350.206	173.2
350.588	201
350.971	201.68
351.354	227.44
351.737	242.35
352.119	248.23
352.502	304.27
352.884	283.03
353.267	291.84
353.65	273.99
354.032	292.29
354.414	299.07
354.797	309.7
355.179	320.77
355.562	316.93
355.944	310.15
356.326	331.16
356.709	339.07
357.091	312.63
357.473	350.82
357.855	331.16
358.238	336.59
358.62	341.33
359.002	339.07
359.384	346.76
359.766	318.28
360.148	341.11
360.53	331.84
360.912	349.47
361.294	330.94
361.676	310.83
362.057	329.58
362.439	343.82
362.821	326.42
363.203	327.32
363.584	322.35
363.966	325.29
364.348	326.42
364.729	322.35
365.111	318.28
365.493	322.12
365.874	315.8
366.256	309.92
366.637	335.01
367.019	335.46
367.4	342.01
367.781	296.81
368.163	311.05
368.544	309.92
368.925	298.85
369.306	306.98
369.688	331.62
370.069	307.21
370.45	320.99
370.831	322.12
371.212	286.42
371.593	328.68
371.974	319.86
372.355	321.67
372.736	328.23
373.117	306.53
373.498	321.67
373.879	322.12
374.26	319.86
374.641	305.85
375.021	317.6
375.402	318.51
375.783	333.2
376.163	327.1
376.544	343.14
376.925	344.5
377.305	333.42
377.686	336.36
378.066	342.69
378.447	328.45
378.827	315.12
379.208	323.71
379.588	324.61
379.968	324.61
380.349	324.61
380.729	339.98
381.109	357.15
381.489	337.94
381.87	343.59
382.25	341.56
382.63	349.24
383.01	348.56
383.39	332.29
383.77	354.89
384.15	335.23
384.53	357.15
384.91	344.72
385.29	342.24
385.67	357.15
386.049	347.66
386.429	356.25
386.809	345.85
387.189	370.26
387.568	351.28
387.948	367.77
388.328	355.34
388.707	364.84
389.087	364.84
389.466	360.77
389.846	370.48
390.225	356.25
390.605	384.5
390.984	378.39
391.363	375.23
391.743	369.58
392.122	342.46
392.501	383.59
392.881	373.87
393.26	389.02
393.639	359.64
394.018	380.2
394.397	367.32
394.776	376.59
395.155	372.07
395.534	384.72
395.913	378.39
396.292	377.26
396.671	386.08
397.05	405.96
397.429	402.12
397.808	401.9
398.186	384.04
398.565	393.31
398.944	384.5
399.323	402.57
399.701	420.88
400.08	400.54
400.458	410.71
400.837	399.41
401.215	406.64
401.594	391.5
401.972	414.55
402.351	399.64
402.729	420.43
403.107	411.61
403.486	424.49
403.864	413.87
404.242	409.13
404.62	440.99
404.999	426.3
405.377	422.69
405.755	433.53
406.133	426.3
406.511	437.83
406.889	448.67
407.267	455
407.645	440.31
408.023	416.36
408.401	452.74
408.779	477.83
409.156	440.09
409.534	456.36
409.912	478.05
410.29	450.93
410.667	484.38
411.045	478.73
411.422	462.23
411.8	480.09
412.178	484.38
412.555	493.87
412.933	494.78
413.31	491.16
413.687	481.44
414.065	500.65
414.442	516.24
414.819	496.13
415.197	490.26
415.574	491.61
415.951	525.96
416.328	516.47
416.705	519.86
417.082	507.2
417.46	517.83
417.837	519.41
418.214	511.95
418.591	547.43
418.967	525.28
419.344	522.35
419.721	559.18
420.098	556.69
420.475	523.25
420.852	546.07
421.228	539.97
421.605	561.89
421.982	553.53
422.358	546.07
422.735	546.3
423.111	575.22
423.488	561.44
423.864	578.39
424.241	604.83
424.617	567.32
424.994	613.19
425.37	585.17
425.746	592.17
426.123	602.57
426.499	615
426.875	623.59
427.251	629.23
427.627	636.47
428.003	643.25
428.379	658.39
428.756	647.31
429.132	644.15
429.507	635.56
429.883	653.87
430.259	667.88
430.635	660.65
431.011	665.17
431.387	678.05
431.763	685.28
432.138	709.68
432.514	699.52
432.89	689.35
433.265	711.94
433.641	736.58
434.016	734.54
434.392	715.79
434.767	722.79
435.143	713.07
435.518	730.93
435.894	721.21
436.269	767.76
436.644	782.23
437.02	782.45
437.395	774.32
437.77	777.25
438.145	779.97
438.52	792.62
438.895	782.23
439.271	773.86
439.646	808.44
440.021	828.33
440.395	820.19
440.77	826.52
441.145	842.11
441.52	850.25
441.895	847.99
442.27	855.67
442.645	853.64
443.019	850.92
443.394	873.97
443.769	876.23
444.143	852.73
444.518	880.98
444.892	856.35
445.267	882.11
445.641	868.1
446.016	910.36
446.39	919.62
446.764	902
447.139	900.87
447.513	933.18
447.887	920.3
448.262	905.84
448.636	960.3
449.01	920.3
449.384	951.26
449.758	948.55
450.132	951.26
450.506	965.5
450.88	952.62
451.254	983.35
451.628	985.61
452.002	1015.21
452.376	986.29
452.75	1007.3
453.123	1016.12
453.497	1030.58
453.871	1042.56
454.244	1047.98
454.618	1069.45
454.992	1079.84
455.365	1096.12
455.739	1109.67
456.112	1116.23
456.486	1126.4
456.859	1145.83
457.232	1139.05
457.606	1154.64
457.979	1168.43
458.352	1176.34
458.725	1219.73
459.099	1199.62
459.472	1218.15
459.845	1257.69
460.218	1255.43
460.591	1266.73
460.964	1280.52
461.337	1301.31
461.71	1345.15
462.083	1339.72
462.456	1336.79
462.829	1354.19
463.201	1405.03
463.574	1404.58
463.947	1419.27
464.32	1457.46
464.692	1476.22
465.065	1471.25
465.438	1533.84
465.81	1522.09
466.183	1530.45
466.555	1565.93
466.928	1591.02
467.3	1596.89
467.672	1643.67
468.045	1682.77
468.417	1663.11
468.789	1692.48
469.161	1713.73
469.534	1777.45
469.906	1796.89
470.278	1841.41
470.65	1827.17
471.022	1873.5
471.394	1925.7
471.766	1969.31
472.138	1963.89
472.51	2066.49
472.882	2083.89
473.253	2113.49
473.625	2141.96
473.997	2161.62
474.369	2233.71
474.74	2233.26
475.112	2335.18
475.484	2372.47
475.855	2453.82
476.227	2480.94
476.598	2572.91
476.97	2626.92
477.341	2700.82
477.713	2727.71
478.084	2817.65
478.455	2903.3
478.827	2958.67
479.198	3071.88
479.569	3117.08
479.94	3202.95
480.311	3249.28
480.682	3391.42
481.053	3514.36
481.424	3584.19
481.795	3691.3
482.166	3731.98
482.537	3878.41
482.908	3971.97
483.279	4055.13
483.65	4185.3
484.021	4313.66
484.391	4369.93
484.762	4537.61
485.133	4617.83
485.503	4759.52
485.874	4870.25
486.244	4973.08
486.615	5104.6
486.985	5248.77
487.356	5396.34
487.726	5527.64
488.097	5748.87
488.467	5738.03
488.837	5974.18
489.207	6109.77
489.578	6252.14
489.948	6373.94
490.318	6539.36
490.688	6590.66
491.058	6786.36
491.428	6977.54
491.798	7077.43
492.168	7361.26
492.538	7432.45
492.908	7486.23
493.278	7665.43
493.648	7805.54
494.017	7973.67
494.387	8114.24
494.757	8159.66
495.126	8393.32
495.496	8415.92
495.866	8560.33
496.235	8735.46
496.605	8948.11
496.974	9039.41
497.344	9135.9
497.713	9200.99
498.082	9444.6
498.452	9577.93
498.821	9572.28
499.19	9748.32
499.559	9834.19
499.928	9938.82
500.298	10060.85
500.667	10244.12
501.036	10277.57
501.405	10444.57
501.774	10473.27
502.143	10625.58
502.512	10695.41
502.88	10822.19
503.249	10862.41
503.618	10961.39
503.987	11116.42
504.356	11162.74
504.724	11258.79
505.093	11339.01
505.462	11393.25
505.83	11507.82
506.199	11638.89
506.567	11810.86
506.936	11858.54
507.304	11943.74
507.672	11975.38
508.041	12060.8
508.409	12123.85
508.777	12350.06
509.145	12294.24
509.514	12271.87
509.882	12423.28
510.25	12533.55
510.618	12628.92
510.986	12591.86
511.354	12731.52
511.722	12817.16
512.09	12925.41
512.458	12835.69
512.826	13028
513.193	13041.79
513.561	12992.3
513.929	13079.08
514.297	13245.63
514.664	13347.54
515.032	13296.02
515.4	13352.74
515.767	13390.48
516.135	13480.65
516.502	13378.96
516.869	13542.79
517.237	13609.01
517.604	13606.75
517.972	13731.26
518.339	13675.9
518.706	13674.32
519.073	13802.22
519.44	13854.2
519.808	13853.52
520.175	13932.84
520.542	13960.18
520.909	14006.74
521.276	14044.7
521.643	14064.14
522.009	14168.77
522.376	14147.98
522.743	14260.51
523.11	14261.42
523.477	14347.29
523.843	14435.43
524.21	14382.77
524.577	14564.24
524.943	14601.75
525.31	14558.36
525.676	14609.43
526.043	14720.62
526.409	14646.95
526.776	14787.73
527.142	14694.4
527.508	14774.17
527.874	14802.2
528.241	14855.3
528.607	14814.85
528.973	15008.07
529.339	14821.63
529.705	14956.54
530.071	14976.2
530.437	14982.53
530.803	14948.63
531.169	14937.56
531.535	14918.58
531.901	15044.22
532.267	14894.85
532.632	14948.86
532.998	15004.9
533.364	14973.49
533.73	14973.26
534.095	14979.14
534.461	14921.29
534.826	14957.67
535.192	14912.7
535.557	14983.43
535.923	14945.24
536.288	14995.41
536.653	14877.9
537.019	14846.49
537.384	14808.07
537.749	14852.36
538.114	14872.7
538.479	14683.1
538.845	14754.29
539.21	14663.44
539.575	14689.66
539.94	14768.3
540.305	14706.38
540.67	14642.43
541.034	14581.41
541.399	14667.28
541.764	14566.5
542.129	14525.37
542.494	14495.76
542.858	14451.47
543.223	14367.18
543.587	14552.26
543.952	14367.4
544.316	14324.69
544.681	14310.46
545.045	14270.23
545.41	14239.05
545.774	14262.1
546.138	14237.46
546.503	14222.32
546.867	14074.31
547.231	14105.94
547.595	14178.03
547.959	14150.24
548.324	14033.63
548.688	13982.33
549.052	13959.28
549.416	13987.3
549.779	13908.43
550.143	13909.34
550.507	13976.91
550.871	13966.06
551.235	13846.06
551.599	13897.59
551.962	13762.9
552.326	13813.52
552.689	13767.87
553.053	13710.92
553.417	13663.69
553.78	13813.07
554.143	13665.95
554.507	13698.72
554.87	13673.19
555.234	13764.26
555.597	13503.47
555.96	13638.61
556.323	13611.49
556.686	13634.99
557.05	13615.79
557.413	13559.74
557.776	13596.35
558.139	13615.33
558.502	13564.04
558.865	13551.61
559.228	13631.38
559.59	13517.26
559.953	13522.68
560.316	13604.26
560.679	13538.73
561.041	13561.32
561.404	13602.23
561.767	13618.72
562.129	13525.39
562.492	13665.95
562.854	13649.23
563.217	13479.29
563.579	13599.74
563.941	13605.84
564.304	13590.7
564.666	13628.67
565.028	13615.33
565.39	13608.55
565.753	13694.88
566.115	13712.73
566.477	13722.9
566.839	13736.69
567.201	13758.61
567.563	13803.8
567.925	13800.41
568.287	13806.29
568.648	13752.28
569.01	13810.58
569.372	13937.13
569.734	13849.68
570.095	13911.37
570.457	13878.6
570.819	13911.82
571.18	13949.11
571.542	13983.23
571.903	13969.9
572.265	13956.57
572.626	13925.61
572.987	13969.45
573.349	13983.23
573.71	14004.93
574.071	14060.07
574.432	14029.56
574.794	14102.55
575.155	14070.92
575.516	13975.78
575.877	14035.89
576.238	14051.03
576.599	14059.84
576.96	14072.27
577.32	14050.58
577.681	14176.68
578.042	14148.43
578.403	14155.43
578.763	14103
579.124	14161.76
579.485	14103
579.845	14155.43
580.206	14114.3
580.566	14089.45
580.927	14114.53
581.287	14143.91
581.648	14141.87
582.008	14156.34
582.368	14121.99
582.728	14228.43
583.089	14099.62
583.449	14118.6
583.809	14142.33
584.169	14104.13
584.529	14058.94
584.889	14128.77
585.249	13968.55
585.609	13969.68
585.969	14115.66
586.329	14026.85
586.688	14025.94
587.048	14055.1
587.408	14032.27
587.768	13891.71
588.127	13891.26
588.487	13921.54
588.846	14004.48
589.206	13905.95
589.565	13982.1
589.925	13989.11
590.284	13947.08
590.643	13936.23
591.003	13982.33
591.362	13941.65
591.721	13894.2
592.08	13939.62
592.44	13975.78
592.799	13900.3
593.158	13876.34
593.517	13822.33
593.876	13851.49
594.235	13744.82
594.593	13791.15
594.952	13898.49
595.311	13821.66
595.67	13860.98
596.029	13880.19
596.387	13910.24
596.746	13832.73
597.104	13797.02
597.463	13771.94
597.822	13907.98
598.18	13729.91
598.538	13801.09
598.897	13905.27
599.255	13763.8
599.613	13909.79
599.972	13868.43
600.33	13873.41
600.688	13830.02
601.046	13829.79
601.404	13859.85
601.762	13784.6
602.12	13839.73
602.478	13878.15
602.836	13874.08
603.194	13763.8
603.552	13777.14
603.91	13684.94
604.268	13750.25
604.625	13700.3
604.983	13810.36
605.341	13768.32
605.698	13734.65
606.056	13831.37
606.413	13908.21
606.771	13866.85
607.128	13877.7
607.485	13862.11
607.843	13877.02
608.2	13829.57
608.557	13886.06
608.914	13871.6
609.272	14018.71
609.629	13938.49
609.986	13997.02
610.343	13918.6
610.7	13943.69
611.057	13922.44
611.414	13892.39
611.771	13906.4
612.127	14008.77
612.484	13966.74
612.841	14003.57
613.198	14031.82
613.554	14092.84
613.911	14076.79
614.267	14087.19
614.624	14059.16
614.98	14036.11
615.337	14168.77
615.693	14158.6
616.05	14131.93
616.406	14186.84
616.762	14146.62
617.118	14162.66
617.475	14146.62
617.831	14114.76
618.187	14150.91
618.543	14230.01
618.899	14262.32
619.255	14166.51
619.611	14146.85
619.967	14262.32
620.323	14285.6
620.678	14150.24
621.034	14202.66
621.39	14230.69
621.746	14161.53
622.101	14265.26
622.457	14242.21
622.812	14254.19
623.168	14298.25
623.523	14257.35
623.879	14361.3
624.234	14249.22
624.589	14278.37
624.945	14279.5
625.3	14248.31
625.655	14295.09
626.01	14242.44
626.365	14295.54
626.72	14210.12
627.075	14198.82
627.43	14229.78
627.785	14237.92
628.14	14206.5
628.495	14204.7
628.85	14186.39
629.205	14120.63
629.559	14279.95
629.914	14087.19
630.269	14204.25
630.623	14094.19
630.978	14114.98
631.332	14141.42
631.687	14142.55
632.041	14146.85
632.396	14094.42
632.75	14065.27
633.104	14070.69
633.459	14059.84
633.813	14051.25
634.167	13995.44
634.521	13995.21
634.875	14099.39
635.229	13956.12
635.583	13934.87
635.937	13890.81
636.291	13901.88
636.645	13831.15
636.999	13885.84
637.352	13824.14
637.706	13702.11
638.06	13913.86
638.413	13787.76
638.767	13763.58
639.121	13844.25
639.474	13681.1
639.828	13716.12
640.181	13733.98
640.534	13713.18
640.888	13693.52
641.241	13637.03
641.594	13654.43
641.947	13806.52
642.301	13698.72
642.654	13751.83
643.007	13715.9
643.36	13634.32
643.713	13695.78
644.066	13676.58
644.419	13578.27
644.771	13446.07
645.124	13367.88
645.477	13373.98
645.83	13374.21
646.182	13287.21
646.535	13173.54
646.888	13244.95
647.24	13134.67
647.593	13183.93
647.945	13150.94
648.298	13136.48
648.65	13111.62
649.002	13034.11
649.355	13093.09
649.707	13131.05
650.059	13271.39
650.411	13391.16
650.763	13438.62
651.115	13432.74
651.467	13442.01
651.819	13438.39
652.171	13452.4
652.523	13399.75
652.875	13453.3
653.227	13423.93
653.578	13543.7
653.93	13502.79
654.282	13317.49
654.633	13333.53
654.985	13341.44
655.337	13443.36
655.688	13426.19
656.039	13498.5
656.391	13329.01
656.742	13324.27
657.094	13252.18
657.445	13399.52
657.796	13393.65
658.147	13377.6
658.498	13330.14
658.849	13441.1
659.2	13449.91
659.551	13322.46
659.902	13460.76
660.253	13449.46
660.604	13493.08
660.955	13356.58
661.306	13460.76
661.656	13445.85
662.007	13479.74
662.358	13505.73
662.708	13485.85
663.059	13414.66
663.409	13328.11
663.76	13467.54
664.11	13451.95
664.461	13451.27
664.811	13474.55
665.161	13511.16
665.511	13518.61
665.862	13510.03
666.212	13491.04
666.562	13544.15
666.912	13558.16
667.262	13517.03
667.612	13504.6
667.962	13540.99
668.312	13433.64
668.662	13507.77
669.011	13512.96
669.361	13428.67
669.711	13504.6
670.06	13453.53
670.41	13431.84
670.76	13445.17
671.109	13505.73
671.459	13406.53
671.808	13422.34
672.157	13350.48
672.507	13409.24
672.856	13368.33
673.205	13420.76
673.554	13412.4
673.904	13370.82
674.253	13413.31
674.602	13341.44
674.951	13154.78
675.3	13128.57
675.649	13287.43
675.998	13349.58
676.346	13281.11
676.695	13359.75
677.044	13213.31
677.393	13239.52
677.741	13319.3
678.09	13225.97
678.438	13275.46
678.787	13231.62
679.135	13212.86
679.484	13137.15
679.832	13187.32
680.181	13115.69
680.529	13127.66
680.877	13102.81
681.225	13093.09
681.573	13016.93
681.922	13083.82
682.27	12952.98
682.618	12980.55
682.966	12966.09
683.314	12996.14
683.661	12945.75
684.009	12867.78
684.357	12851.29
684.705	12825.75
685.053	12796.6
685.4	12697.39
685.748	12767.22
686.095	12695.13
686.443	12680.44
686.79	12712.98
687.138	12644.74
687.485	12707.11
687.832	12609.03
688.18	12597.73
688.527	12435.48
688.874	12482.93
689.221	12430.96
689.568	12468.47
689.915	12394.35
690.262	12384.18
690.609	12327.23
690.956	12212.43
691.303	12171.53
691.65	12137.41
691.997	12227.35
692.344	12091.76
692.69	12100.8
693.037	12009.95
693.383	11908.26
693.73	11958.43
694.077	11824.65
694.423	11910.29
694.769	11872.1
695.116	11815.38
695.462	11814.93
695.808	11683.41
696.155	11805.44
696.501	11642.28
696.847	11675.27
697.193	11593.47
697.539	11597.08
697.885	11522.28
698.231	11463.07
698.577	11449.06
698.923	11436.86
699.269	11310.54
699.614	11299.69
699.96	11259.24
700.306	11266.7
700.651	11199.8
700.997	11127.94
701.342	11059.7
701.688	11080.49
702.033	11040.49
702.379	11027.61
702.724	11054.95
703.069	10955.74
703.415	10845.69
703.76	10926.37
704.105	10827.38
704.45	10738.35
704.795	10691.8
705.14	10666.94
705.485	10612.02
705.83	10598.92
706.175	10549.65
706.52	10602.31
706.865	10577.22
707.209	10531.57
707.554	10580.61
707.899	10557.56
708.243	10413.84
708.588	10409.99
708.932	10339.26
709.277	10348.3
709.621	10356.21
709.966	10282.31
710.31	10268.98
710.654	10180.4
710.998	10200.28
711.342	10206.61
711.687	10136.78
712.031	10129.78
712.375	10179.72
712.719	10152.6
713.063	10086.39
713.407	10098.59
713.75	9988.76
714.094	10086.39
714.438	10017.91
714.782	9986.28
715.125	9984.92
715.469	9970.68
715.812	9916.45
716.156	9803.91
716.499	9865.6
716.843	9926.62
717.186	9818.15
717.53	9901.76
717.873	9808.88
718.216	9788.32
718.559	9784.93
718.902	9680.75
719.246	9765.94
719.589	9658.6
719.932	9630.81
720.275	9641.88
720.617	9716
720.96	9639.85
721.303	9692.27
721.646	9597.13
721.989	9644.37
722.331	9600.52
722.674	9582.45
723.016	9653.86
723.359	9630.35
723.701	9610.02
724.044	9488.89
724.386	9583.8
724.729	9634.87
725.071	9597.13
725.413	9605.95
725.755	9521.66
726.097	9551.71
726.439	9453.64
726.782	9490.24
727.124	9567.98
727.465	9434.65
727.807	9444.6
728.149	9433.98
728.491	9476.46
728.833	9495.22
729.175	9419.06
729.516	9438.04
729.858	9493.18
730.199	9466.29
730.541	9411.83
730.882	9455.67
731.224	9424.48
731.565	9388.78
731.906	9386.07
732.248	9486.4
732.589	9385.84
732.93	9366.18
733.271	9378.61
733.612	9357.82
733.953	9416.8
734.294	9393.98
734.635	9375.22
734.976	9337.25
735.317	9426.74
735.658	9377.25
735.999	9339.74
736.339	9337.71
736.68	9379.74
737.021	9372.96
737.361	9350.59
737.702	9370.93
738.042	9382.9
738.383	9444.37
738.723	9455.44
739.063	9396.46
739.404	9491.83
739.744	9450.7
740.084	9429.23
740.424	9527.53
740.764	9423.35
741.104	9471.04
741.444	9414.54
741.784	9446.63
742.124	9497.48
742.464	9503.13
742.804	9529.11
743.143	9549
743.483	9577.93
743.823	9530.7
744.162	9591.94
744.502	9642.11
744.841	9636.23
745.181	9686.4
745.52	9690.69
745.86	9807.07
746.199	9820.86
746.538	9831.7
746.877	9870.57
747.216	9945.83
747.556	9960.74
747.895	10032.83
748.234	10089.1
748.573	10154.63
748.911	10144.01
749.25	10248.19
749.589	10251.81
749.928	10386.72
750.267	10427.62
750.605	10487.51
750.944	10533.38
751.283	10585.81
751.621	10689.54
751.96	10781.74
752.298	10880.49
752.636	10976.08
752.975	11048.62
753.313	11159.58
753.651	11228.5
753.989	11304.66
754.327	11530.87
754.666	11599.12
755.004	11721.15
755.342	11803.63
755.679	12051.31
756.017	12086.11
756.355	12151.64
756.693	12376.72
757.031	12624.4
757.368	12628.47
757.706	12782.59
758.044	12895.8
758.381	13174.67
