Data from hue_280_FLMS001491_00029.txt Node
Date: Tue Feb 07 15:55:04 GMT 2017
User: dcchb
Spectrometer: FLMS00149
Trigger mode: 0
Integration Time (sec): 2.000000E-2
Scans to average: 10
Electric dark correction enabled: true
Nonlinearity correction enabled: false
Boxcar width: 0
XAxis mode: Wavelengths
Number of Pixels in Spectrum: 2048
>>>>>Begin Spectral Data<<<<<
341.393	-18.59
341.776	-18.59
342.16	-18.59
342.543	-47.06
342.927	-49.55
343.31	-66.04
343.693	-66.72
344.077	-73.73
344.46	-46.16
344.843	-42.77
345.226	-45.03
345.61	-34.18
345.993	-0.51
346.376	-8.64
346.759	-2.77
347.142	8.3
347.525	55.99
347.908	50.56
348.291	78.59
348.674	83.56
349.057	109.55
349.44	125.59
349.823	159.94
350.206	168.3
350.588	188.64
350.971	183.89
351.354	210.56
351.737	222.54
352.119	247.39
352.502	256.89
352.884	268.86
353.267	276.55
353.65	292.14
354.032	292.59
354.414	302.53
354.797	308.86
355.179	305.7
355.562	306.15
355.944	317.68
356.326	359.26
356.709	322.42
357.091	335.75
357.473	340.95
357.855	349.31
358.238	343.44
358.62	338.92
359.002	343.21
359.384	346.6
359.766	300.27
360.148	311.35
360.53	338.24
360.912	327.84
361.294	327.39
361.676	316.55
362.057	333.49
362.439	318.35
362.821	325.13
363.203	318.58
363.584	325.36
363.966	317.68
364.348	335.98
364.729	345.92
365.111	325.81
365.493	325.81
365.874	315.64
366.256	302.08
366.637	318.13
367.019	284.46
367.4	302.08
367.781	290.11
368.163	288.52
368.544	309.77
368.925	313.83
369.306	309.09
369.688	302.99
370.069	298.69
370.45	312.93
370.831	313.16
371.212	300.95
371.593	318.13
371.974	327.84
372.355	308.41
372.736	310.67
373.117	338.69
373.498	305.47
373.879	310.22
374.26	322.19
374.641	312.93
375.021	301.86
375.402	315.42
375.783	315.42
376.163	328.07
376.544	332.59
376.925	324.45
377.305	337.79
377.686	322.42
378.066	321.29
378.447	321.52
378.827	331.91
379.208	324.23
379.588	319.48
379.968	319.26
380.349	329.2
380.729	336.88
381.109	324.23
381.489	320.84
381.87	343.66
382.25	363.78
382.63	336.43
383.01	333.27
383.39	332.82
383.77	327.62
384.15	340.95
384.53	316.77
384.91	318.13
385.29	320.84
385.67	315.64
386.049	375.75
386.429	355.64
386.809	354.28
387.189	366.94
387.568	343.21
387.948	355.87
388.328	349.76
388.707	365.58
389.087	347.28
389.466	360.61
389.846	347.28
390.225	371.46
390.605	363.55
390.984	367.17
391.363	400.38
391.743	374.85
392.122	366.26
392.501	352.93
392.881	379.82
393.26	382.31
393.639	367.17
394.018	383.44
394.397	391.57
394.776	379.14
395.155	383.89
395.534	393.83
395.913	369.88
396.292	373.04
396.671	388.18
397.05	396.09
397.429	398.13
397.808	402.19
398.186	401.97
398.565	396.09
398.944	417.79
399.323	409.88
399.701	416.2
400.08	402.19
400.458	416.2
400.837	413.94
401.215	418.46
401.594	405.13
401.972	434.06
402.351	437.9
402.729	416.43
403.107	415.98
403.486	421.18
403.864	441.06
404.242	452.14
404.62	446.03
404.999	445.81
405.377	447.39
405.755	456.65
406.133	448.29
406.511	457.33
406.889	446.26
407.267	485.13
407.645	495.98
408.023	485.13
408.401	459.37
408.779	491.23
409.156	503.89
409.534	493.94
409.912	501.4
410.29	505.92
410.667	520.16
411.045	516.99
411.422	510.21
411.8	529.65
412.178	559.7
412.555	527.84
412.933	550.89
413.31	569.19
413.687	569.65
414.065	594.05
414.442	567.84
414.819	603.77
415.197	596.99
415.574	612.58
415.951	594.05
416.328	586.14
416.705	621.4
417.082	608.52
417.46	626.14
417.837	651.9
418.214	654.16
418.591	683.09
418.967	673.82
419.344	680.83
419.721	695.29
420.098	675.18
420.475	677.67
420.852	692.81
421.228	713.15
421.605	710.89
421.982	716.99
422.358	735.97
422.735	753.37
423.111	729.19
423.488	768.06
423.864	777.32
424.241	785.69
424.617	774.61
424.994	771.22
425.37	789.53
425.746	806.48
426.123	808.74
426.499	832.92
426.875	828.4
427.251	862.07
427.627	848.28
428.003	873.59
428.379	922.86
428.756	892.12
429.132	909.07
429.507	912.91
429.883	905
430.259	947.49
430.635	958.79
431.011	945
431.387	968.96
431.763	1011.89
432.138	968.96
432.514	1009.18
432.89	1023.87
433.265	1019.8
433.641	1018
434.016	1059.58
434.392	1081.05
434.767	1087.37
435.143	1100.25
435.518	1110.42
435.894	1139.8
436.269	1123.08
436.644	1168.05
437.02	1180.93
437.395	1194.71
437.77	1196.3
438.145	1196.97
438.52	1252.34
438.895	1258.89
439.271	1234.94
439.646	1260.25
440.021	1264.77
440.395	1284.43
440.77	1278.1
441.145	1287.82
441.52	1337.54
441.895	1320.81
442.27	1347.25
442.645	1344.31
443.019	1361.04
443.394	1369.85
443.769	1384.31
444.143	1357.2
444.518	1394.48
444.892	1373.24
445.267	1389.29
445.641	1395.39
446.016	1436.97
446.39	1462.73
446.764	1437.87
447.139	1423.86
447.513	1482.84
447.887	1466.8
448.262	1455.27
448.636	1481.71
449.01	1483.97
449.384	1483.29
449.758	1506.12
450.132	1513.8
450.506	1502.5
450.88	1510.86
451.254	1514.03
451.628	1554.7
452.002	1555.38
452.376	1578.43
452.75	1577.53
453.123	1566.68
453.497	1623.4
453.871	1606.23
454.244	1638.77
454.618	1639.9
454.992	1674.48
455.365	1648.26
455.739	1696.4
456.112	1720.12
456.486	1729.39
456.859	1756.51
457.232	1759.45
457.606	1744.53
457.979	1770.29
458.352	1826.79
458.725	1858.2
459.099	1830.18
459.472	1855.49
459.845	1865.43
460.218	1842.38
460.591	1864.53
460.964	1894.36
461.337	1945.2
461.71	1937.29
462.083	1979.33
462.456	1950.85
462.829	1975.71
463.201	1997.63
463.574	2044.18
463.947	2050.06
464.32	2069.49
464.692	2065.65
465.065	2079.44
465.438	2097.52
465.81	2112.2
466.183	2129.83
466.555	2189.72
466.928	2205.76
467.3	2209.83
467.672	2222.48
468.045	2261.58
468.417	2251.64
468.789	2253.9
469.161	2285.08
469.534	2333.67
469.906	2361.46
470.278	2344.29
470.65	2416.38
471.022	2478.97
471.394	2426.32
471.766	2487.79
472.138	2529.82
472.51	2582.02
472.882	2576.37
473.253	2589.25
473.625	2645.3
473.997	2657.5
474.369	2666.77
474.74	2732.08
475.112	2746.99
475.484	2780.89
475.855	2796.48
476.227	2838.96
476.598	2906.31
476.97	2927.1
477.341	2928.23
477.713	2967.78
478.084	3039.41
478.455	3080.09
478.827	3088.68
479.198	3144.27
479.569	3158.96
479.94	3195.79
480.311	3252.97
480.682	3281.44
481.053	3368.44
481.424	3391.72
481.795	3403.24
482.166	3436.46
482.537	3453.19
482.908	3561.88
483.279	3537.93
483.65	3602.79
484.021	3671.03
484.391	3737.47
484.762	3762.78
485.133	3742.22
485.503	3756.45
485.874	3852.5
486.244	3847.75
486.615	3891.37
486.985	3915.09
487.356	4039.16
487.726	4053.4
488.097	4102.43
488.467	4074.64
488.837	4160.29
489.207	4187.86
489.578	4238.93
489.948	4271.7
490.318	4304.24
490.688	4345.14
491.058	4399.83
491.428	4401.86
491.798	4459.94
492.168	4570.9
492.538	4542.42
492.908	4627.17
493.278	4635.08
493.648	4665.58
494.017	4685.7
494.387	4695.64
494.757	4730.44
495.126	4769.31
495.496	4810.44
495.866	4795.98
496.235	4817.22
496.605	4886.82
496.974	4900.83
497.344	4959.36
497.713	4948.29
498.082	4983.09
498.452	4996.65
498.821	5051.56
499.19	5051.79
499.559	5087.27
499.928	5061.05
500.298	5091.11
500.667	5139.24
501.036	5138.34
501.405	5203.42
501.774	5162.52
502.143	5258.79
502.512	5281.16
502.88	5280.03
503.249	5278.45
503.618	5292.91
503.987	5393.7
504.356	5364.32
504.724	5347.15
505.093	5359.35
505.462	5436.41
505.83	5404.55
506.199	5429.41
506.567	5512.34
506.936	5509.18
507.304	5489.97
507.672	5595.05
508.041	5579.46
508.409	5580.81
508.777	5583.07
509.145	5621.04
509.514	5587.82
509.882	5644.77
510.25	5668.27
510.618	5706.91
510.986	5696.52
511.354	5742.39
511.722	5760.24
512.09	5780.81
512.458	5842.5
512.826	5781.49
513.193	5851.09
513.561	5843.63
513.929	5814.03
514.297	5893.57
514.664	5894.48
515.032	5863.52
515.4	5964.98
515.767	5968.15
516.135	6004.08
516.502	5948.71
516.869	5980.13
517.237	6008.83
517.604	5939
517.972	6025.77
518.339	6088.6
518.706	6130.63
519.073	6080.01
519.44	6081.59
519.808	6083.4
520.175	6139.22
520.542	6211.08
520.909	6160.69
521.276	6198.88
521.643	6246.33
522.009	6238.88
522.376	6326.56
522.743	6294.24
523.11	6348.03
523.477	6365.43
523.843	6376.27
524.21	6487.46
524.577	6426.44
524.943	6448.81
525.31	6468.7
525.676	6565.42
526.043	6542.6
526.409	6566.32
526.776	6607.23
527.142	6621.69
527.508	6715.02
527.874	6676.6
528.241	6723.83
528.607	6739.43
528.973	6821.01
529.339	6780.33
529.705	6839.99
530.071	6841.35
530.437	6834.79
530.803	6915.47
531.169	6943.72
531.535	6906.43
531.901	6945.07
532.267	6946.43
532.632	6999.99
532.998	7011.51
533.364	6965.86
533.73	6951.4
534.095	7026.88
534.461	7024.84
534.826	7074.79
535.192	7078.18
535.557	7134.67
535.923	7136.25
536.288	7121.56
536.653	7149.13
537.019	7136.25
537.384	7205.63
537.749	7211.73
538.114	7225.52
538.479	7248.34
538.845	7184.39
539.21	7256.93
539.575	7328.34
539.94	7246.08
540.305	7314.1
540.67	7289.7
541.034	7337.6
541.399	7353.42
541.764	7378.05
542.129	7346.19
542.494	7384.83
542.858	7458.28
543.223	7413.76
543.587	7489.46
543.952	7429.8
544.316	7433.87
544.681	7391.84
545.045	7463.25
545.41	7520.65
545.774	7485.62
546.138	7551.16
546.503	7522.23
546.867	7611.27
547.231	7632.06
547.595	7643.58
547.959	7631.61
548.324	7598.61
548.688	7624.38
549.052	7642.45
549.416	7614.21
549.779	7641.55
550.143	7678.39
550.507	7705.28
550.871	7763.58
551.235	7736.01
551.599	7720.19
551.962	7722.68
552.326	7800.19
552.689	7832.96
553.053	7750.7
553.417	7820.75
553.78	7852.17
554.143	7798.83
554.507	7867.08
554.87	7896.23
555.234	7888.55
555.597	7861.21
555.96	7934.2
556.323	7912.5
556.686	7948.89
557.05	7987.98
557.413	7963.35
557.776	7957.7
558.139	8025.72
558.502	8023.46
558.865	8048.55
559.228	8145.49
559.59	8127.19
559.953	8095.32
560.316	8155.66
560.679	8187.07
561.041	8178.26
561.404	8236.79
561.767	8281.53
562.129	8248.54
562.492	8338.03
562.854	8319.5
563.217	8305.94
563.579	8328.76
563.941	8348.2
564.304	8417.8
564.666	8482.88
565.028	8492.83
565.39	8452.83
565.753	8588.87
566.115	8528.31
566.477	8576.44
566.839	8590.45
567.201	8712.93
567.563	8652.6
567.925	8761.52
568.287	8700.51
568.648	8706.83
569.01	8806.27
569.372	8854.17
569.734	8833.16
570.095	8894.85
570.457	8842.65
570.819	8955.19
571.18	8901.86
571.542	8978.01
571.903	8936.88
572.265	9010.1
572.626	9032.93
572.987	9080.83
573.349	9083.77
573.71	9159.7
574.071	9108.18
574.432	9238.34
574.794	9284.9
575.155	9280.83
575.516	9271.34
575.877	9332.81
576.238	9380.26
576.599	9438.34
576.96	9443.31
577.32	9521.5
577.681	9532.57
578.042	9638.11
578.403	9590.43
578.763	9608.28
579.124	9655.06
579.485	9697.99
579.845	9759.46
580.206	9860.25
580.566	9786.58
580.927	9859.35
581.287	9975.27
581.648	9902.28
582.008	10072.67
582.368	10031.32
582.728	10083.75
583.089	10095.05
583.449	10176.4
583.809	10270.86
584.169	10316.96
584.529	10370.07
584.889	10406.68
585.249	10441.48
585.609	10436.51
585.969	10570.06
586.329	10517.41
586.688	10701.81
587.048	10753.33
587.408	10783.39
587.768	10826.1
588.127	10866.1
588.487	10918.53
588.846	11056.38
589.206	11096.37
589.565	11100.22
589.925	11191.51
590.284	11273.32
590.643	11317.39
591.003	11326.43
591.362	11436.48
591.721	11507.89
592.08	11551.28
592.44	11601.67
592.799	11775.23
593.158	11774.32
593.517	11782.23
593.876	11828.11
594.235	11880.76
594.593	11961.66
594.952	12045.95
595.311	12051.38
595.67	12129.79
596.029	12243.46
596.387	12310.13
596.746	12306.74
597.104	12379.51
597.463	12371.14
597.822	12504.02
598.18	12537.69
598.538	12575.66
598.897	12722.09
599.255	12664.02
599.613	12862.66
599.972	12835.99
600.33	12887.06
600.688	12779.04
601.046	12993.73
601.404	13082.76
601.762	13068.98
602.12	13177.68
602.478	13148.98
602.836	13253.83
603.194	13152.82
603.552	13290.44
603.91	13311.68
604.268	13360.27
604.625	13358.01
604.983	13467.61
605.341	13355.98
605.698	13512.58
606.056	13586.93
606.413	13575.86
606.771	13643.65
607.128	13636.87
607.485	13645.23
607.843	13596.42
608.2	13811.78
608.557	13873.03
608.914	13853.59
609.272	13841.84
609.629	13948.73
609.986	14078.22
610.343	13991.67
610.7	14071.89
611.057	14027.6
611.414	14121.61
611.771	14162.73
612.127	14213.36
612.484	14179.23
612.841	14305.1
613.198	14216.29
613.554	14316.4
613.911	14307.36
614.267	14442.73
614.624	14396.85
614.98	14421.94
615.337	14434.59
615.693	14445.44
616.05	14473.24
616.406	14597.53
616.762	14476.4
617.118	14473.46
617.475	14523.18
617.831	14616.51
618.187	14636.17
618.543	14655.15
618.899	14746.22
619.255	14651.54
619.611	14653.12
619.967	14717.75
620.323	14760.91
620.678	14719.1
621.034	14777.18
621.39	14764.08
621.746	14651.31
622.101	14857.86
622.457	14763.4
622.812	14797.52
623.168	14905.77
623.523	14782.15
623.879	14847.24
624.234	14857.18
624.589	14786.67
624.945	14831.87
625.3	14865.77
625.655	14904.86
626.01	14902.15
626.365	14955.93
626.72	14968.59
627.075	14894.02
627.43	14884.75
627.785	14823.06
628.14	14927.01
628.495	14961.81
628.85	14960.23
629.205	14894.02
629.559	14861.93
629.914	14906.44
630.269	14873.9
630.623	14826.45
630.978	14844.3
631.332	14843.17
631.687	14951.87
632.041	14855.37
632.396	14913.9
632.75	14791.87
633.104	14932.88
633.459	14746.9
633.813	14747.8
634.167	14787.58
634.521	14732.21
634.875	14744.87
635.229	14717.07
635.583	14667.58
635.937	14661.7
636.291	14690.4
636.645	14725.21
636.999	14594.36
637.352	14669.84
637.706	14610.18
638.06	14649.73
638.413	14658.77
638.767	14538.09
639.121	14567.24
639.474	14481.6
639.828	14559.79
640.181	14569.28
640.534	14514.82
640.888	14543.97
641.241	14510.52
641.594	14515.95
641.947	14531.76
642.301	14555.72
642.654	14568.83
643.007	14488.15
643.36	14508.04
643.713	14438.89
644.066	14532.89
644.419	14478.43
644.771	14381.94
645.124	14297.19
645.477	14230.76
645.83	14139.01
646.182	14095.17
646.535	14031.44
646.888	14065.34
647.24	13984.21
647.593	14017.65
647.945	14085.67
648.298	13963.19
648.65	14031.21
649.002	13950.76
649.355	14001.61
649.707	13985.56
650.059	14052.91
650.411	14245.9
650.763	14259.68
651.115	14353.69
651.467	14386.68
651.819	14378.32
652.171	14288.61
652.523	14299.23
652.875	14340.13
653.227	14161.83
653.578	14369.96
653.93	14332.67
654.282	14207.48
654.633	14185.33
654.985	14245.22
655.337	14302.17
655.688	14294.71
656.039	14399.79
656.391	14267.14
656.742	14283.18
657.094	14259.46
657.445	14336.29
657.796	14340.81
658.147	14322.05
658.498	14344.2
658.849	14317.99
659.2	14356.4
659.551	14385.78
659.902	14327.7
660.253	14403.86
660.604	14313.92
660.955	14340.58
661.306	14370.87
661.656	14316.63
662.007	14322.73
662.358	14321.15
662.708	14493.35
663.059	14361.83
663.409	14349.4
663.76	14485.44
664.11	14470.75
664.461	14392.56
664.811	14343.3
665.161	14455.61
665.511	14370.41
665.862	14400.69
666.212	14431.88
666.562	14533.57
666.912	14475.95
667.262	14343.52
667.612	14382.16
667.962	14406.8
668.312	14345.78
668.662	14425.1
669.011	14426.68
669.361	14354.37
669.711	14379.45
670.06	14352.11
670.41	14392.79
670.76	14326.12
671.109	14324.31
671.459	14451.31
671.808	14286.57
672.157	14371.77
672.507	14277.31
672.856	14223.07
673.205	14286.57
673.554	14331.32
673.904	14282.73
674.253	14305.1
674.602	14333.8
674.951	14083.87
675.3	14014.49
675.649	14258.55
675.998	14219.23
676.346	14155.96
676.695	14243.18
677.044	14123.41
677.393	14197.99
677.741	14158.22
678.09	14144.66
678.438	14096.3
678.787	14140.36
679.135	14091.55
679.484	14137.2
679.832	14104.43
680.181	13903.31
680.529	14111.44
680.877	14023.3
681.225	14003.87
681.573	14005.9
681.922	13926.81
682.27	13940.14
682.618	13968.39
682.966	13906.47
683.314	13858.79
683.661	13949.18
684.009	13783.08
684.357	13703.09
684.705	13757.32
685.053	13724.78
685.4	13695.4
685.748	13626.25
686.095	13595.07
686.443	13574.95
686.79	13503.09
687.138	13577.67
687.485	13526.59
687.832	13442.53
688.18	13419.25
688.527	13422.19
688.874	13355.3
689.221	13317.33
689.568	13340.38
689.915	13283.21
690.262	13190.56
690.609	13213.61
690.956	13159.82
691.303	13153.72
691.65	13024.23
691.997	13056.55
692.344	12958.47
692.69	12904.01
693.037	12982.2
693.383	12855.65
693.73	12869.21
694.077	12719.84
694.423	12712.15
694.769	12722.09
695.116	12656.79
695.462	12642.32
695.808	12593.28
696.155	12684.36
696.501	12475.1
696.847	12519.61
697.193	12458.82
697.539	12445.49
697.885	12352.84
698.231	12310.81
698.577	12325.95
698.923	12257.02
699.269	12210.24
699.614	12175.22
699.96	12097.25
700.306	12117.59
700.651	11997.14
700.997	11933.42
701.342	11961.21
701.688	11931.61
702.033	11840.76
702.379	11856.58
702.724	11758.05
703.069	11706.53
703.415	11628.56
703.76	11660.65
704.105	11603.25
704.45	11596.93
704.795	11499.3
705.14	11457.04
705.485	11505.63
705.83	11422.24
706.175	11457.5
706.52	11429.25
706.865	11310.15
707.209	11255.92
707.554	11254.56
707.899	11327.1
708.243	11226.31
708.588	11217.95
708.932	11050.05
709.277	11150.38
709.621	11069.93
709.966	11021.8
710.31	11077.62
710.654	10967.79
710.998	10917.85
711.342	10881.24
711.687	10896.61
712.031	10781.58
712.375	10815.03
712.719	10802.6
713.063	10815.93
713.407	10832.88
713.75	10752.66
714.094	10829.49
714.438	10766.21
714.782	10722.37
715.125	10643.51
715.469	10649.83
715.812	10624.07
716.156	10613.9
716.499	10617.52
716.843	10579.1
717.186	10538.2
717.53	10630.4
717.873	10594.02
718.216	10516.28
718.559	10487.8
718.902	10481.25
719.246	10398.54
719.589	10453.68
719.932	10378.2
720.275	10436.28
720.617	10440.35
720.96	10407.13
721.303	10436.96
721.646	10383.4
721.989	10351.99
722.331	10370.74
722.674	10305.44
723.016	10351.99
723.359	10370.52
723.701	10303.63
724.044	10255.27
724.386	10194.7
724.729	10280.58
725.071	10241.26
725.413	10177.3
725.755	10185.21
726.097	10149.51
726.439	10107.93
726.782	10216.85
727.124	10198.77
727.465	10138.43
727.807	10109.28
728.149	10126
728.491	10093.69
728.833	10111.09
729.175	10117.19
729.516	10168.26
729.858	10086.68
730.199	10168.49
730.541	10063.86
730.882	10072.22
731.224	10108.15
731.565	10053.92
731.906	10062.05
732.248	10075.16
732.589	10129.85
732.93	10061.37
733.271	10072.45
733.612	10077.87
733.953	10074.03
734.294	10058.44
734.635	10034.03
734.976	10112.9
735.317	10071.54
735.658	10117.64
735.999	10094.59
736.339	10092.33
736.68	10130.52
737.021	10118.55
737.361	10015.5
737.702	10090.75
738.042	10067.02
738.383	10051.66
738.723	10201.48
739.063	10122.16
739.404	10093.01
739.744	10088.72
740.084	10060.24
740.424	10172.11
740.764	10079.68
741.104	10213.91
741.444	10150.19
741.784	10145.67
742.124	10218.43
742.464	10176.4
742.804	10166
743.143	10178.21
743.483	10254.82
743.823	10300.24
744.162	10343.4
744.502	10419.1
744.841	10350.86
745.181	10385.66
745.52	10362.61
745.86	10417.3
746.199	10521.25
746.538	10516.73
746.877	10519.21
747.216	10601.47
747.556	10632.88
747.895	10636.5
748.234	10767.57
748.573	10794.24
748.911	10868.13
749.25	10886.89
749.589	10916.27
749.928	11041.01
750.267	11161.68
750.605	11203.26
750.944	11240.55
751.283	11281.91
751.621	11327.78
751.96	11471.96
752.298	11523.71
752.636	11660.88
752.975	11792.63
753.313	11714.89
753.651	12008.22
753.989	11981.1
754.327	12163.47
754.666	12201.88
755.004	12330.92
755.342	12440.07
755.679	12572.49
756.017	12648.65
756.355	12845.93
756.693	12876.89
757.031	13100.62
757.368	13093.16
757.706	13307.16
758.044	13403.43
758.381	13480.94
758.719	13599.13
759.056	13908.05
759.394	13953.47
