Data from hue_320_FLMS001491_15.txt Node
Date: Mon Feb 06 15:46:47 GMT 2017
User: dcchb
Spectrometer: FLMS00149
Trigger mode: 0
Integration Time (sec): 2.000000E-2
Scans to average: 10
Electric dark correction enabled: true
Nonlinearity correction enabled: false
Boxcar width: 0
XAxis mode: Wavelengths
Number of Pixels in Spectrum: 2048
>>>>>Begin Spectral Data<<<<<
341.393	-12.81
341.776	-12.81
342.16	-12.81
342.543	-62.98
342.927	-60.94
343.31	-64.11
343.693	-64.56
344.077	-57.55
344.46	-43.54
344.843	-49.19
345.226	-39.25
345.61	-25.47
345.993	-18.01
346.376	-14.84
346.759	-10.1
347.142	44.59
347.525	29.9
347.908	73.06
348.291	68.77
348.674	66.28
349.057	104.02
349.44	129.56
349.823	147.86
350.206	151.25
350.588	211.82
350.971	196.9
351.354	203
351.737	218.82
352.119	259.05
352.502	256.34
352.884	278.03
353.267	265.6
353.65	271.7
354.032	289.1
354.414	311.25
354.797	301.31
355.179	294.98
355.562	323.23
355.944	315.77
356.326	320.74
356.709	324.13
357.091	347.63
357.473	357.12
357.855	334.98
358.238	328.2
358.62	323.23
359.002	312.6
359.384	327.75
359.766	344.92
360.148	345.82
360.53	339.5
360.912	338.82
361.294	341.08
361.676	322.77
362.057	322.55
362.439	330.01
362.821	337.01
363.203	340.4
363.584	327.97
363.966	331.81
364.348	336.11
364.729	295.43
365.111	341.98
365.493	324.13
365.874	332.27
366.256	332.94
366.637	329.78
367.019	305.83
367.4	306.05
367.781	318.03
368.163	328.88
368.544	306.5
368.925	299.05
369.306	315.54
369.688	315.99
370.069	316.22
370.45	307.18
370.831	315.09
371.212	307.86
371.593	322.77
371.974	310.12
372.355	306.96
372.736	339.5
373.117	318.48
373.498	310.57
373.879	317.8
374.26	309.22
374.641	317.58
375.021	306.05
375.402	309.67
375.783	339.04
376.163	332.94
376.544	314.41
376.925	328.88
377.305	314.41
377.686	314.64
378.066	338.82
378.447	335.2
378.827	345.82
379.208	333.85
379.588	343.56
379.968	321.42
380.349	327.97
380.729	336.56
381.109	341.53
381.489	355.77
381.87	332.94
382.25	332.04
382.63	331.81
383.01	333.62
383.39	333.4
383.77	332.94
384.15	331.36
384.53	353.06
384.91	346.28
385.29	344.02
385.67	355.09
386.049	321.87
386.429	367.29
386.809	353.28
387.189	370
387.568	353.28
387.948	357.12
388.328	353.28
388.707	358.25
389.087	382.43
389.466	377.46
389.846	354.86
390.225	362.77
390.605	371.81
390.984	376.33
391.363	375.65
391.743	369.1
392.122	378.82
392.501	351.47
392.881	377.46
393.26	386.5
393.639	382.21
394.018	378.37
394.397	379.95
394.776	386.5
395.155	375.43
395.534	355.77
395.913	379.5
396.292	380.17
396.671	395.77
397.05	385.82
397.429	406.61
397.808	403.68
398.186	406.84
398.565	393.73
398.944	398.7
399.323	394.18
399.701	391.92
400.08	407.07
400.458	409.55
400.837	397.8
401.215	407.29
401.594	409.78
401.972	410.23
402.351	397.57
402.729	413.17
403.107	409.55
403.486	439.38
403.864	428.08
404.242	428.08
404.62	437.57
404.999	409.55
405.377	422.88
405.755	430.79
406.133	428.53
406.511	441.19
406.889	456.56
407.267	449.55
407.645	445.03
408.023	454.97
408.401	443
408.779	472.6
409.156	488.42
409.534	482.77
409.912	482.77
410.29	484.13
410.667	490.91
411.045	484.58
411.422	483.22
411.8	509.44
412.178	510.57
412.555	512.83
412.933	508.31
413.31	510.11
413.687	552.37
414.065	522.32
414.442	554.41
414.819	549.66
415.197	565.71
415.574	568.64
415.951	573.16
416.328	563.22
416.705	584.91
417.082	572.48
417.46	585.14
417.837	577.91
418.214	594.86
418.591	616.55
418.967	619.94
419.344	623.11
419.721	625.82
420.098	640.28
420.475	641.41
420.852	662.65
421.228	673.5
421.605	674.18
421.982	654.06
422.358	669.21
422.735	682.31
423.111	676.44
423.488	696.78
423.864	683.89
424.241	697.23
424.617	701.07
424.994	698.13
425.37	720.05
425.746	737.68
426.123	730.45
426.499	743.1
426.875	764.34
427.251	773.61
427.627	783.78
428.003	788.3
428.379	796.21
428.756	810.44
429.132	800.05
429.507	822.65
429.883	811.8
430.259	835.53
430.635	809.99
431.011	826.94
431.387	827.62
431.763	879.82
432.138	868.75
432.514	858.13
432.89	869.65
433.265	906.26
433.641	900.84
434.016	917.33
434.392	922.53
434.767	949.42
435.143	935.87
435.518	955.53
435.894	946.26
436.269	988.29
436.644	968.86
437.02	977.45
437.395	979.25
437.77	1013.38
438.145	1000.95
438.52	1037.33
438.895	1040.27
439.271	1048.63
439.646	1065.81
440.021	1051.34
440.395	1045.01
440.77	1046.82
441.145	1082.08
441.52	1083.66
441.895	1096.99
442.27	1098.35
442.645	1131.57
443.019	1113.71
443.394	1118.91
443.769	1092.7
444.143	1138.8
444.518	1122.98
444.892	1128.63
445.267	1145.58
445.641	1132.02
446.016	1136.76
446.39	1139.25
446.764	1156.65
447.139	1128.18
447.513	1179.7
447.887	1136.09
448.262	1134.05
448.636	1164.11
449.01	1193.49
449.384	1167.27
449.758	1169.76
450.132	1188.51
450.506	1216.99
450.88	1218.8
451.254	1212.92
451.628	1201.39
452.002	1214.73
452.376	1219.47
452.75	1245.91
453.123	1253.82
453.497	1259.47
453.871	1237.33
454.244	1272.13
454.618	1278.46
454.992	1301.28
455.365	1321.84
455.739	1332.92
456.112	1327.04
456.486	1307.38
456.859	1342.41
457.232	1358.45
457.606	1351.9
457.979	1355.06
458.352	1408.17
458.725	1440.26
459.099	1406.59
459.472	1414.95
459.845	1444.55
460.218	1439.81
460.591	1426.93
460.964	1454.95
461.337	1487.94
461.71	1472.12
462.083	1480.48
462.456	1535.4
462.829	1499.47
463.201	1526.36
463.574	1537.88
463.947	1538.11
464.32	1558.22
464.692	1545.11
465.065	1602.06
465.438	1620.37
465.81	1628.5
466.183	1643.64
466.555	1657.65
466.928	1670.08
467.3	1686.58
467.672	1666.69
468.045	1703.53
468.417	1721.61
468.789	1716.64
469.161	1713.7
469.534	1769.52
469.906	1753.47
470.278	1795.73
470.65	1813.58
471.022	1835.95
471.394	1851.32
471.766	1840.93
472.138	1887.03
472.51	1915.95
472.882	1948.27
473.253	1968.38
473.625	1959.34
473.997	1963.41
474.369	2033.69
474.74	2014.93
475.112	2009.74
475.484	2091.99
475.855	2087.02
476.227	2119.56
476.598	2142.84
476.97	2170.41
477.341	2202.05
477.713	2184.19
478.084	2234.59
478.455	2315.94
478.827	2304.19
479.198	2334.47
479.569	2378.54
479.94	2384.64
480.311	2401.14
480.682	2432.78
481.053	2476.84
481.424	2486.11
481.795	2489.72
482.166	2570.4
482.537	2593.9
482.908	2596.39
483.279	2656.72
483.65	2659.66
484.021	2735.82
484.391	2718.42
484.762	2715.03
485.133	2785.99
485.503	2781.47
485.874	2865.53
486.244	2844.06
486.615	2898.75
486.985	2939.65
487.356	2918.19
487.726	2962.7
488.097	2988.24
488.467	3031.4
488.837	3067.33
489.207	3116.15
489.578	3158.63
489.948	3150.5
490.318	3185.3
490.688	3235.24
491.058	3262.13
491.428	3272.53
491.798	3314.33
492.168	3354.11
492.538	3382.58
492.908	3366.31
493.278	3432.97
493.648	3410.6
494.017	3471.39
494.387	3505.97
494.757	3476.59
495.126	3531.05
495.496	3536.02
495.866	3591.84
496.235	3601.33
496.605	3608.11
496.974	3642.91
497.344	3675.23
497.713	3667.77
498.082	3723.14
498.452	3741.67
498.821	3795.23
499.19	3733.53
499.559	3807.2
499.928	3770.14
500.298	3817.82
500.667	3833.19
501.036	3829.35
501.405	3855.79
501.774	3860.99
502.143	3893.75
502.512	3929.01
502.88	3947.31
503.249	3991.15
503.618	3938.05
503.987	3945.05
504.356	3980.08
504.724	3975.11
505.093	4016.46
505.462	4022.56
505.83	3999.74
506.199	4070.92
506.567	4136.23
506.936	4091.04
507.304	4137.59
507.672	4138.94
508.041	4139.17
508.409	4171.26
508.777	4189.79
509.145	4197.25
509.514	4190.47
509.882	4209.68
510.25	4273.86
510.618	4260.98
510.986	4231.6
511.354	4259.39
511.722	4338.71
512.09	4312.5
512.458	4315.89
512.826	4303.01
513.193	4348.66
513.561	4339.17
513.929	4382.78
514.297	4392.27
514.664	4408.99
515.032	4397.02
515.4	4401.76
515.767	4431.37
516.135	4441.54
516.502	4452.83
516.869	4502.1
517.237	4571.7
517.604	4489.9
517.972	4492.83
518.339	4518.82
518.706	4539.39
519.073	4527.86
519.44	4576.9
519.808	4599.05
520.175	4533.96
520.542	4579.16
520.909	4620.29
521.276	4631.14
521.643	4665.26
522.009	4703.68
522.376	4672.04
522.743	4776.89
523.11	4780.51
523.477	4772.15
523.843	4799.49
524.21	4789.55
524.577	4837.68
524.943	4898.02
525.31	4848.08
525.676	4956.55
526.043	4947.74
526.409	4997.68
526.776	5035.87
527.142	5035.87
527.508	4986.15
527.874	5062.76
528.241	5056.21
528.607	5133.72
528.973	5162.19
529.339	5101.18
529.705	5179.14
530.071	5210.78
530.437	5239.71
530.803	5276.09
531.169	5276.54
531.535	5271.8
531.901	5259.37
532.267	5325.35
532.632	5357.44
532.998	5373.71
533.364	5327.39
533.73	5418.46
534.095	5413.49
534.461	5468.18
534.826	5450.32
535.192	5512.92
535.557	5524.9
535.923	5545.24
536.288	5616.42
536.653	5571.45
537.019	5571.68
537.384	5642.86
537.749	5682.63
538.114	5694.38
538.479	5660.49
538.845	5688.51
539.21	5720.15
539.575	5728.96
539.94	5790.43
540.305	5830.65
540.67	5837.21
541.034	5858.22
541.399	5815.51
541.764	5912.91
542.129	5936.41
542.494	5928.5
542.858	5971.89
543.223	6015.51
543.587	5976.86
543.952	6062.06
544.316	6023.19
544.681	6083.3
545.045	6097.09
545.41	6138.67
545.774	6129.85
546.138	6172.11
546.503	6212.11
546.867	6238.78
547.231	6267.7
547.595	6268.83
547.959	6288.72
548.324	6318.1
548.688	6327.14
549.052	6339.56
549.416	6383.63
549.779	6396.74
550.143	6409.17
550.507	6419.11
550.871	6519.22
551.235	6425.89
551.599	6545.66
551.962	6503.85
552.326	6556.96
552.689	6607.81
553.053	6548.15
553.417	6568.94
553.78	6668.14
554.143	6603.51
554.507	6656.62
554.87	6664.98
555.234	6774.58
555.597	6724.41
555.96	6723.06
556.323	6767.8
556.686	6739.55
557.05	6789.04
557.413	6774.36
557.776	6829.5
558.139	6909.49
558.502	6881.25
558.865	6949.27
559.228	6904.07
559.59	6968.25
559.953	6948.36
560.316	7089.38
560.679	7017.74
561.041	7038.76
561.404	7090.51
561.767	7068.36
562.129	7095.93
562.492	7179.32
562.854	7125.53
563.217	7174.57
563.579	7172.99
563.941	7229.26
564.304	7195.59
564.666	7327.34
565.028	7304.51
565.39	7253.21
565.753	7342.02
566.115	7443.49
566.477	7421.34
566.839	7413.44
567.201	7463.15
567.563	7491.85
567.925	7580.66
568.287	7493.88
568.648	7584.96
569.01	7579.31
569.372	7658.63
569.734	7648.01
570.095	7730.49
570.457	7695.24
570.819	7699.3
571.18	7756.93
571.542	7850.94
571.903	7852.07
572.265	7864.27
572.626	8013.87
572.987	7960.99
573.349	8037.83
573.71	8080.31
574.071	8063.14
574.432	8176.35
574.794	8286.18
575.155	8294.09
575.516	8317.82
575.877	8382
576.238	8500.86
576.599	8548.32
576.96	8601.65
577.32	8701.31
577.681	8677.81
578.042	8778.14
578.403	8886.84
578.763	9000.51
579.124	9050.68
579.485	9221.07
579.845	9345.59
580.206	9417.68
580.566	9445.7
580.927	9609.08
581.287	9758.23
581.648	9844.11
582.008	10077.32
582.368	10188.28
582.728	10373.13
583.089	10452
583.449	10576.29
583.809	10738.55
584.169	10967.01
584.529	11110.06
584.889	11373.56
585.249	11576.26
585.609	11687.9
585.969	11915.24
586.329	12136.25
586.688	12422.57
587.048	12554.09
587.408	12804.71
587.768	13047.41
588.127	13299.38
588.487	13539.83
588.846	13829.09
589.206	13992.47
589.565	14263.2
589.925	14577.09
590.284	14700.7
590.643	15124.64
591.003	15392.43
591.362	15652.99
591.721	15907.45
592.08	16226.54
592.44	16483.93
592.799	16868.1
593.158	17061.99
593.517	17396.22
593.876	17620.85
594.235	17982.2
594.593	18284.34
594.952	18597.1
595.311	18818.78
595.67	19150.3
596.029	19669.84
596.387	19916.84
596.746	20133.33
597.104	20373.77
597.463	20694.22
597.822	21051.95
598.18	21211.04
598.538	21501.2
598.897	22008.31
599.255	22152.93
599.613	22670.43
599.972	22795.86
600.33	23183.19
600.688	23377.08
601.046	23770.29
601.404	24135.48
601.762	24291.41
602.12	24736.37
602.478	24871.51
602.836	25259.29
603.194	25369.57
603.552	25649.79
603.91	25902.67
604.268	26223.56
604.625	26427.17
604.983	26883.43
605.341	26969.08
605.698	27276.64
606.056	27567.26
606.413	27872.78
606.771	28066.9
607.128	28442.94
607.485	28520.22
607.843	28721.12
608.2	29103.94
608.557	29423.03
608.914	29477.04
609.272	29859.85
609.629	30046.06
609.986	30286.28
610.343	30415.99
610.7	30917.22
611.057	31099.14
611.414	31182.75
611.771	31397.21
612.127	31710.88
612.484	31813.25
612.841	32117.42
613.198	32101.37
613.554	32265.44
613.911	32632.21
614.267	32909.94
614.624	32936.61
614.98	33103.83
615.337	33363.26
615.693	33536.36
616.05	33672.41
616.406	33967.09
616.762	33974.32
617.118	34071.49
617.475	34244.14
617.831	34522.1
618.187	34654.07
618.543	34689.78
618.899	35108.3
619.255	35065.82
619.611	35237.34
619.967	35523.2
620.323	35667.61
620.678	35615.41
621.034	35587.61
621.39	35768.17
621.746	35907.15
622.101	36397.53
622.457	36110.99
622.812	36357.08
623.168	36437.76
623.523	36525.44
623.879	36774.47
624.234	36600.46
624.589	36898.31
624.945	36953.45
625.3	36953
625.655	37102.15
626.01	37270.73
626.365	37338.52
626.72	37287.45
627.075	37268.92
627.43	37366.32
627.785	37345.76
628.14	37444.51
628.495	37597.27
628.85	37560.21
629.205	37529.93
629.559	37843.6
629.914	37761.56
630.269	37872.07
630.623	37633.88
630.978	37808.57
631.332	37981.67
631.687	37984.16
632.041	37978.06
632.396	38019.64
632.75	37944.61
633.104	38100.09
633.459	37913.88
633.813	37931.95
634.167	38037.26
634.521	37952.75
634.875	38170.59
635.229	38163.59
635.583	37982.57
635.937	38085.4
636.291	37991.61
636.645	38039.3
636.999	38028.22
637.352	38082.91
637.706	38055.12
638.06	38293.08
638.413	38084.72
638.767	38013.76
639.121	38178.5
639.474	37894.44
639.828	38022.8
640.181	38101.44
640.534	38070.93
640.888	38049.47
641.241	37890.37
641.594	38006.53
641.947	38062.12
642.301	37920.2
642.654	38011.95
643.007	38040.2
643.36	37878.62
643.713	37979.64
644.066	37980.09
644.419	37880.2
644.771	37683.6
645.124	37356.6
645.477	37363.38
645.83	37080.45
646.182	37081.36
646.535	37032.77
646.888	37063.05
647.24	36839.1
647.593	37094.91
647.945	36876.84
648.298	36793.23
648.65	36881.13
649.002	36699.9
649.355	36859.67
649.707	36799.78
650.059	36969.72
650.411	37423.49
650.763	37291.29
651.115	37725.41
651.467	37647.89
651.819	37488.58
652.171	37489.25
652.523	37479.09
652.875	37451.74
653.227	37346.43
653.578	37507.78
653.93	37616.93
654.282	37405.19
654.633	37279.99
654.985	37399.09
655.337	37303.5
655.688	37477.73
656.039	37558.41
656.391	37169.49
656.742	37251.07
657.094	37277.06
657.445	37427.11
657.796	37344.4
658.147	37250.16
658.498	37425.98
658.849	37324.06
659.2	37219.88
659.551	37184.18
659.902	37370.84
660.253	37360.44
660.604	37345.53
660.955	37174.01
661.306	37311.18
661.656	37324.29
662.007	37159.09
662.358	37031.64
662.708	37208.81
663.059	37245.42
663.409	37002.04
663.76	37208.58
664.11	37157.06
664.461	37327
664.811	37345.53
665.161	37298.3
665.511	37101.02
665.862	37086.1
666.212	37180.11
666.562	37281.12
666.912	37183.05
667.262	37160.9
667.612	37108.7
667.962	37163.16
668.312	37113.45
668.662	37218.53
669.011	37248.58
669.361	37052.88
669.711	37101.69
670.06	36964.52
670.41	36908.93
670.76	36863.51
671.109	36985.31
671.459	37104.18
671.808	36900.8
672.157	36937.18
672.507	36835.49
672.856	36847.01
673.205	36900.57
673.554	36974.69
673.904	36805.43
674.253	37180.11
674.602	36932.43
674.951	36486.34
675.3	36187.14
675.649	36972.43
675.998	36778.09
676.346	36815.6
676.695	36895.15
677.044	36721.59
677.393	36702.83
677.741	36856.95
678.09	36661.71
678.438	36533.12
678.787	36562.95
679.135	36586.91
679.484	36372
679.832	36556.85
680.181	36376.52
680.529	36501.94
680.877	36289.96
681.225	36348.27
681.573	36600.46
681.922	35952.12
682.27	36258.55
682.618	36142.17
682.966	36154.83
683.314	36170.42
683.661	36121.61
684.009	35996.86
684.357	35834.83
684.705	35795.97
685.053	35782.63
685.4	35786.25
685.748	35712.13
686.095	35531.79
686.443	35409.76
686.79	35523.66
687.138	35505.13
687.485	35496.99
687.832	35387.61
688.18	35479.82
688.527	35238.47
688.874	35237.11
689.221	35249.54
689.568	35075.76
689.915	34888.64
690.262	34941.75
690.609	34884.58
690.956	34714.86
691.303	34641.87
691.65	34581.31
691.997	34649.56
692.344	34367.98
692.69	34391.26
693.037	34384.25
693.383	34126.18
693.73	34314.42
694.077	34151.72
694.423	34007.99
694.769	33964.15
695.116	33871.5
695.462	33747.21
695.808	33605.74
696.155	33749.01
696.501	33494.11
696.847	33522.35
697.193	33316.93
697.539	33409.59
697.885	33235.58
698.231	33127.11
698.577	33075.81
698.923	32995.36
699.269	32788.14
699.614	32722.37
699.96	32697.29
700.306	32761.7
700.651	32684.63
700.997	32400.8
701.342	32447.81
701.688	32405.09
702.033	32311.99
702.379	32361.93
702.724	32191.09
703.069	32243.52
703.415	31858.44
703.76	31890.08
704.105	31888.27
704.45	31845.56
704.795	31656.41
705.14	31587.26
705.485	31578.9
705.83	31502.75
706.175	31557.66
706.52	31394.5
706.865	31323.31
707.209	31180.95
707.554	31167.61
707.899	31229.98
708.243	30989.99
708.588	31038.12
708.932	30749.09
709.277	30669.09
709.621	30770.33
709.966	30561.75
710.31	30642.43
710.654	30392.94
710.998	30374.64
711.342	30381.42
711.687	30277.47
712.031	30294.87
712.375	29950.24
712.719	30196.11
713.063	30065.49
713.407	30010.81
713.75	29978.94
714.094	30082.22
714.438	29798.38
714.782	29909.34
715.125	29744.15
715.469	29811.72
715.812	29663.47
716.156	29473.19
716.499	29491.05
716.843	29450.82
717.186	29245.86
717.53	29468.67
717.873	29374.89
718.216	29242.92
718.559	29263.26
718.902	28966.99
719.246	29079.98
719.589	29058.74
719.932	28899.42
720.275	28921.57
720.617	28832.31
720.96	28850.61
721.303	28738.75
721.646	28847
721.989	28590.28
722.331	28819.88
722.674	28686.1
723.016	28594.12
723.359	28529.72
723.701	28461.7
724.044	28309.83
724.386	28245.2
724.729	28371.08
725.071	28257.86
725.413	28370.17
725.755	28241.14
726.097	28210.4
726.439	27972.67
726.782	27997.07
727.124	28102.38
727.465	27942.39
727.807	27982.16
728.149	27879.79
728.491	27847.25
728.833	27885.89
729.175	27793.24
729.516	27691.77
729.858	27648.16
730.199	27688.61
730.541	27599.8
730.882	27538.1
731.224	27685.67
731.565	27404.77
731.906	27472.79
732.248	27396.41
732.589	27339.69
732.93	27153.25
733.271	27240.48
733.612	27336.53
733.953	27198.45
734.294	27126.81
734.635	27049.08
734.976	27100.6
735.317	26968.63
735.658	26990.1
735.999	26930.44
736.339	26852.02
736.68	26958.46
737.021	26821.74
737.361	26849.31
737.702	26883.88
738.042	26677.79
738.383	26690.89
738.723	26794.85
739.063	26621.29
739.404	26624.91
739.744	26463.33
740.084	26535.19
740.424	26431.69
740.764	26532.93
741.104	26544.23
741.444	26399.15
741.784	26282.32
742.124	26317.8
742.464	26275.54
742.804	26225.14
743.143	26086.62
743.483	26051.81
743.823	26098.14
744.162	26020.86
744.502	26059.05
744.841	25934.98
745.181	26070.57
745.52	25836.68
745.86	25929.78
746.199	26064.7
746.538	25832.39
746.877	25856.79
747.216	25761.65
747.556	25650.02
747.895	25747.19
748.234	25521.43
748.573	25561.66
748.911	25555.33
749.25	25528.89
749.589	25486.63
749.928	25356.24
750.267	25461.1
750.605	25381.1
750.944	25305.39
751.283	25257.03
751.621	25289.35
751.96	25027.89
752.298	24945.63
752.636	25116.02
752.975	25032.41
753.313	24878.51
753.651	24904.05
753.989	24748.8
754.327	24760.55
754.666	24593.32
755.004	24600.55
755.342	24774.11
755.679	24481.69
756.017	24464.51
756.355	24478.97
756.693	24497.05
757.031	24435.36
757.368	24313.1
757.706	24247.34
758.044	24202.37
758.381	24110.62
758.719	24042.38
759.056	24094.58
759.394	24018.65
759.731	23760.58
