Data from hue_190_FLMS001491_00077.txt Node
Date: Tue Feb 07 16:45:45 GMT 2017
User: dcchb
Spectrometer: FLMS00149
Trigger mode: 0
Integration Time (sec): 2.000000E-2
Scans to average: 10
Electric dark correction enabled: true
Nonlinearity correction enabled: false
Boxcar width: 0
XAxis mode: Wavelengths
Number of Pixels in Spectrum: 2048
>>>>>Begin Spectral Data<<<<<
341.393	-15
341.776	-15
342.16	-15
342.543	-43.25
342.927	-67.65
343.31	-73.08
343.693	-86.18
344.077	-88.44
344.46	-69.01
344.843	-46.19
345.226	-52.29
345.61	-31.95
345.993	-18.16
346.376	-5.51
346.759	6.69
347.142	45.34
347.525	52.12
347.908	74.26
348.291	55.28
348.674	107.26
349.057	129.86
349.44	116.3
349.823	127.82
350.206	155.84
350.588	185.9
350.971	195.39
351.354	254.82
351.737	255.5
352.119	247.14
352.502	267.03
352.884	287.82
353.267	285.33
353.65	299.12
354.032	308.16
354.414	310.87
354.797	314.26
355.179	322.84
355.562	315.16
355.944	339.12
356.326	317.87
356.709	340.25
357.091	328.04
357.473	333.92
357.855	317.2
358.238	324.2
358.62	335.95
359.002	337.08
359.384	347.7
359.766	344.76
360.148	334.82
360.53	313.81
360.912	354.71
361.294	325.56
361.676	326.46
362.057	313.13
362.439	318.1
362.821	310.64
363.203	324.2
363.584	308.83
363.966	306.12
364.348	313.58
364.729	314.94
365.111	314.71
365.493	306.57
365.874	312.45
366.256	314.48
366.637	292.56
367.019	306.57
367.4	308.16
367.781	300.02
368.163	297.99
368.544	313.13
368.925	300.02
369.306	301.38
369.688	318.78
370.069	302.28
370.45	294.6
370.831	303.41
371.212	305.9
371.593	299.34
371.974	306.12
372.355	320.36
372.736	326.01
373.117	283.52
373.498	301.38
373.879	293.01
374.26	304.31
374.641	307.93
375.021	289.63
375.402	304.99
375.783	295.05
376.163	324.65
376.544	328.04
376.925	320.81
377.305	319.91
377.686	295.27
378.066	315.16
378.447	334.37
378.827	317.65
379.208	334.82
379.588	329.85
379.968	313.81
380.349	319.45
380.729	314.48
381.109	314.94
381.489	339.34
381.87	332.11
382.25	346.57
382.63	325.33
383.01	330.98
383.39	332.79
383.77	352.22
384.15	345.44
384.53	337.76
384.91	344.31
385.29	334.37
385.67	336.86
386.049	334.14
386.429	338.21
386.809	336.18
387.189	333.69
387.568	343.64
387.948	341.15
388.328	335.05
388.707	354.26
389.087	350.64
389.466	354.48
389.846	364.2
390.225	357.87
390.605	357.87
390.984	353.35
391.363	326.91
391.743	354.93
392.122	365.78
392.501	370.53
392.881	389.96
393.26	374.37
393.639	373.46
394.018	370.53
394.397	386.57
394.776	379.34
395.155	396.97
395.534	389.96
395.913	361.94
396.292	380.47
396.671	378.21
397.05	373.92
397.429	376.4
397.808	373.24
398.186	392.22
398.565	395.39
398.944	376.63
399.323	389.06
399.701	377.08
400.08	386.12
400.458	419.57
400.837	397.87
401.215	387.02
401.594	408.49
401.972	423.18
402.351	425.67
402.729	433.8
403.107	407.14
403.486	417.76
403.864	415.05
404.242	410.53
404.62	424.08
404.999	430.64
405.377	412.33
405.755	435.61
406.133	450.07
406.511	445.33
406.889	455.5
407.267	450.75
407.645	470.41
408.023	469.28
408.401	471.32
408.779	471.54
409.156	485.33
409.534	468.15
409.912	496.85
410.29	507.47
410.667	492.33
411.045	495.27
411.422	504.99
411.8	517.19
412.178	547.92
412.555	543.86
412.933	561.71
413.31	548.38
413.687	568.49
414.065	576.85
414.442	558.54
414.819	576.17
415.197	594.25
415.574	608.94
415.951	591.31
416.328	626.57
416.705	624.76
417.082	622.95
417.46	613.91
417.837	646.68
418.214	649.84
418.591	650.75
418.967	648.71
419.344	680.8
419.721	680.35
420.098	712.21
420.475	696.17
420.852	712.21
421.228	752.66
421.605	746.11
421.982	727.81
422.358	774.36
422.735	776.17
423.111	771.42
423.488	776.17
423.864	813.23
424.241	792.89
424.617	810.97
424.994	844.19
425.37	841.93
425.746	892.1
426.123	872.43
426.499	877.41
426.875	922.15
427.251	899.1
427.627	910.85
428.003	955.6
428.379	959.66
428.756	979.32
429.132	969.16
429.507	1009.83
429.883	968.7
430.259	1013.45
430.635	1010.51
431.011	1021.13
431.387	1068.14
431.763	1051.64
432.138	1083.73
432.514	1107.46
432.89	1116.27
433.265	1132.77
433.641	1139.09
434.016	1156.72
434.392	1190.62
434.767	1210.96
435.143	1252.99
435.518	1245.08
435.894	1264.97
436.269	1275.36
436.644	1289.37
437.02	1316.26
437.395	1334.12
437.77	1361.24
438.145	1371.86
438.52	1431.29
438.895	1421.57
439.271	1442.14
439.646	1483.27
440.021	1507.67
440.395	1553.09
440.77	1505.41
441.145	1566.43
441.52	1547.67
441.895	1548.35
442.27	1607.33
442.645	1620.21
443.019	1661.79
443.394	1629.7
443.769	1671.96
444.143	1697.27
444.518	1710.38
444.892	1730.94
445.267	1735.69
445.641	1737.72
446.016	1748.57
446.39	1787.89
446.764	1804.16
447.139	1781.34
447.513	1819.75
447.887	1813.65
448.262	1839.64
448.636	1824.73
449.01	1909.02
449.384	1898.17
449.758	1891.84
450.132	1940.66
450.506	1935.46
450.88	1966.19
451.254	1974.1
451.628	2011.84
452.002	2023.14
452.376	2044.83
452.75	2045.74
453.123	2080.09
453.497	2116.47
453.871	2109.92
454.244	2176.58
454.618	2196.69
454.992	2212.29
455.365	2219.29
455.739	2266.3
456.112	2311.27
456.486	2289.12
456.859	2353.3
457.232	2412.51
457.606	2368.44
457.979	2425.39
458.352	2433.3
458.725	2486.4
459.099	2503.58
459.472	2547.64
459.845	2530.92
460.218	2596.01
460.591	2607.98
460.964	2593.29
461.337	2731.59
461.71	2739.5
462.083	2738.83
462.456	2772.05
462.829	2794.64
463.201	2820.41
463.574	2840.74
463.947	2879.39
464.32	2947.63
464.692	2973.17
465.065	3047.74
465.438	3043
465.81	3106.95
466.183	3150.79
466.555	3180.4
466.928	3221.07
467.3	3270.34
467.672	3288.87
468.045	3393.95
468.417	3386.72
468.789	3388.98
469.161	3458.81
469.534	3517.56
469.906	3580.39
470.278	3600.27
470.65	3661.51
471.022	3754.39
471.394	3792.58
471.766	3814.96
472.138	3908.74
472.51	3953.48
472.882	3988.51
473.253	4061.96
473.625	4149.41
473.997	4188.73
474.369	4214.95
474.74	4294.49
475.112	4411.78
475.484	4395.96
475.855	4552.11
476.227	4579.46
476.598	4734.48
476.97	4729.51
477.341	4847.47
477.713	4920.24
478.084	4983.51
478.455	5073.68
478.827	5123.62
479.198	5287.01
479.569	5355.48
479.94	5459.43
480.311	5510.05
480.682	5619.2
481.053	5760.22
481.424	5814.9
481.795	5901.91
482.166	5966.31
482.537	6085.86
482.908	6225.29
483.279	6240.43
483.65	6386.41
484.021	6531.27
484.391	6599.06
484.762	6575.11
485.133	6712.73
485.503	6782.11
485.874	6927.19
486.244	7028.43
486.615	7148.88
486.985	7227.3
487.356	7357.69
487.726	7428.19
488.097	7517.46
488.467	7618.92
488.837	7712.03
489.207	7817.79
489.578	7991.34
489.948	8001.74
490.318	8128.06
490.688	8181.17
491.058	8248.96
491.428	8428.85
491.798	8474.27
492.168	8616.64
492.538	8581.16
492.908	8714.49
493.278	8879.91
493.648	8838.55
494.017	8959.23
494.387	9096.85
494.757	9048.04
495.126	9222.27
495.496	9248.26
495.866	9274.25
496.235	9318.09
496.605	9351.99
496.974	9477.18
497.344	9547.46
497.713	9531.87
498.082	9613.22
498.452	9697.97
498.821	9722.6
499.19	9762.37
499.559	9813.67
499.928	9838.53
500.298	9926.21
500.667	9949.48
501.036	9917.62
501.405	10039.65
501.774	10033.32
502.143	10171.17
502.512	10156.48
502.88	10242.58
503.249	10172.76
503.618	10212.98
503.987	10224.05
504.356	10336.37
504.724	10311.28
505.093	10299.31
505.462	10359.64
505.83	10410.04
506.199	10494.55
506.567	10597.15
506.936	10525.74
507.304	10592.18
507.672	10671.27
508.041	10624.04
508.409	10725.73
508.777	10802.12
509.145	10825.85
509.514	10785.62
509.882	10799.86
510.25	10723.25
510.618	10764.6
510.986	10800.54
511.354	10839.63
511.722	10903.13
512.09	10985.84
512.458	10849.8
512.826	10899.74
513.193	11013.18
513.561	10972.06
513.929	11014.54
514.297	11130.92
514.664	11026.29
515.032	11067.19
515.4	11186.06
515.767	11087.99
516.135	11035.33
516.502	11012.73
516.869	11161.43
517.237	11029.46
517.604	11057.93
517.972	11130.02
518.339	11107.42
518.706	11128.44
519.073	11085.05
519.44	11156.46
519.808	11158.72
520.175	11172.5
520.542	11190.36
520.909	11235.55
521.276	11151.94
521.643	11298.38
522.009	11182.45
522.376	11207.08
522.743	11241.65
523.11	11249.56
523.477	11300.41
523.843	11326.4
524.21	11378.37
524.577	11285.27
524.943	11337.7
525.31	11392.16
525.676	11356.45
526.043	11376.57
526.409	11385.15
526.776	11496.56
527.142	11350.35
527.508	11353.97
527.874	11376.34
528.241	11391.48
528.607	11283.23
528.973	11363.23
529.339	11291.6
529.705	11267.42
530.071	11264.03
530.437	11286.85
530.803	11221.54
531.169	11306.51
531.535	11174.08
531.901	11103.58
532.267	11103.35
532.632	11155.1
532.998	11050.47
533.364	11123.46
533.73	10986.97
534.095	11054.09
534.461	11047.08
534.826	10953.75
535.192	10914.43
535.557	10924.83
535.923	10866.07
536.288	10777.03
536.653	10796.69
537.019	10777.03
537.384	10699.75
537.749	10649.13
538.114	10589.69
538.479	10539.98
538.845	10513.31
539.21	10408.23
539.575	10362.81
539.94	10377.95
540.305	10386.31
540.67	10292.07
541.034	10283.26
541.399	10235.35
541.764	10216.14
542.129	10157.84
542.494	10091.4
542.858	10102.02
543.223	10035.81
543.587	10009.37
543.952	9904.74
544.316	9871.29
544.681	9766.21
545.045	9786.78
545.41	9799.43
545.774	9695.25
546.138	9646.89
546.503	9580.45
546.867	9564.64
547.231	9523.05
547.595	9523.28
547.959	9475.15
548.324	9399.22
548.688	9291.65
549.052	9315.15
549.416	9260.24
549.779	9152.22
550.143	9171.43
550.507	9152.44
550.871	9127.13
551.235	9003.52
551.599	9021.37
551.962	8972.11
552.326	8919.91
552.689	8942.05
553.053	8857.08
553.417	8771.66
553.78	8873.81
554.143	8729.4
554.507	8764.2
554.87	8646.02
555.234	8700.7
555.597	8578.9
555.96	8568.73
556.323	8555.62
556.686	8551.78
557.05	8524.44
557.413	8530.09
557.776	8498
558.139	8533.48
558.502	8378.68
558.865	8376.87
559.228	8386.36
559.59	8293.03
559.953	8326.48
560.316	8332.8
560.679	8248.96
561.041	8259.81
561.404	8301.17
561.767	8331.45
562.129	8258.91
562.492	8296.87
562.854	8195.41
563.217	8232.24
563.579	8233.82
563.941	8240.15
564.304	8290.77
564.666	8234.28
565.028	8208.06
565.39	8207.38
565.753	8194.95
566.115	8176.88
566.477	8196.31
566.839	8189.08
567.201	8229.98
567.563	8201.96
567.925	8232.69
568.287	8146.37
568.648	8169.87
569.01	8182.07
569.372	8141.62
569.734	8150.89
570.095	8155.63
570.457	8172.58
570.819	8135.29
571.18	8134.39
571.542	8228.63
571.903	8226.14
572.265	8152.7
572.626	8138.01
572.987	8135.29
573.349	8147.72
573.71	8165.58
574.071	8138.01
574.432	8152.24
574.794	8148.85
575.155	8255.29
575.516	8131
575.877	8185.24
576.238	8165.58
576.599	8188.17
576.96	8109.98
577.32	8129.64
577.681	8147.05
578.042	8154.96
578.403	8116.99
578.763	8088.97
579.124	8089.19
579.485	8135.75
579.845	8062.08
580.206	8169.87
580.566	8077.22
580.927	8064.34
581.287	8151.11
581.648	8059.36
582.008	8119.93
582.368	8065.69
582.728	8117.67
583.089	8042.42
583.449	8079.7
583.809	8037.44
584.169	8090.32
584.529	7951.57
584.889	8050.1
585.249	8024.79
585.609	7886.71
585.969	8011.23
586.329	7959.48
586.688	7965.58
587.048	7927.62
587.408	7942.53
587.768	8000.83
588.127	7919.48
588.487	7890.1
588.846	7912.02
589.206	7904.11
589.565	7882.42
589.925	7933.27
590.284	7898.46
590.643	7921.06
591.003	7890.56
591.362	7923.77
591.721	7889.2
592.08	7851.46
592.44	7835.87
592.799	7910.22
593.158	7819.37
593.517	7812.37
593.876	7860.05
594.235	7798.81
594.593	7746.38
594.952	7836.55
595.311	7805.13
595.67	7789.99
596.029	7777.34
596.387	7801.74
596.746	7802.42
597.104	7785.93
597.463	7742.08
597.822	7747.06
598.18	7708.87
598.538	7717.9
598.897	7749.99
599.255	7704.12
599.613	7832.7
599.972	7694.4
600.33	7717.45
600.688	7689.88
601.046	7717.23
601.404	7765.59
601.762	7769.2
602.12	7752.71
602.478	7809.43
602.836	7714.97
603.194	7814.4
603.552	7662.31
603.91	7635.87
604.268	7728.75
604.625	7683.56
604.983	7684.23
605.341	7667.96
605.698	7710.22
606.056	7747.28
606.413	7682.2
606.771	7755.87
607.128	7724.68
607.485	7645.82
607.843	7663.44
608.2	7718.81
608.557	7760.16
608.914	7625.25
609.272	7745.47
609.629	7719.26
609.986	7767.17
610.343	7672.48
610.7	7795.42
611.057	7732.37
611.414	7781.63
611.771	7762.87
612.127	7713.38
612.484	7766.04
612.841	7758.81
613.198	7732.82
613.554	7726.72
613.911	7752.71
614.267	7825.02
614.624	7746.6
614.98	7793.61
615.337	7867.05
615.693	7777.56
616.05	7772.37
616.406	7775.08
616.762	7829.54
617.118	7772.37
617.475	7730.56
617.831	7793.61
618.187	7786.6
618.543	7829.54
618.899	7854.62
619.255	7830.44
619.611	7855.98
619.967	7877.67
620.323	7907.73
620.678	7821.63
621.034	7824.34
621.39	7811.24
621.746	7798.81
622.101	7879.48
622.457	7869.54
622.812	7866.15
623.168	7825.25
623.523	7842.65
623.879	7904.79
624.234	7813.72
624.589	7843.78
624.945	7878.58
625.3	7865.25
625.655	7833.61
626.01	7833.16
626.365	7774.63
626.72	7765.59
627.075	7849.2
627.43	7820.5
627.785	7748.86
628.14	7888.52
628.495	7799.94
628.85	7786.38
629.205	7800.16
629.559	7778.02
629.914	7786.38
630.269	7725.36
630.623	7773.72
630.978	7730.79
631.332	7715.19
631.687	7751.35
632.041	7726.49
632.396	7773.04
632.75	7719.03
633.104	7705.93
633.459	7656.89
633.813	7646.95
634.167	7654.18
634.521	7608.53
634.875	7728.75
635.229	7662.31
635.583	7596.1
635.937	7692.37
636.291	7637
636.645	7548.64
636.999	7566.5
637.352	7588.19
637.706	7568.98
638.06	7558.81
638.413	7580.05
638.767	7494.41
639.121	7524.01
639.474	7522.66
639.828	7570.11
640.181	7525.59
640.534	7477.91
640.888	7514.07
641.241	7483.11
641.594	7472.49
641.947	7510.9
642.301	7455.54
642.654	7510.68
643.007	7441.53
643.36	7462.54
643.713	7437.23
644.066	7465.93
644.419	7381.42
644.771	7362.21
645.124	7353.39
645.477	7305.94
645.83	7276.11
646.182	7272.49
646.535	7237.69
646.888	7224.13
647.24	7240.85
647.593	7246.05
647.945	7169.22
648.298	7127.86
648.65	7179.39
649.002	7198.37
649.355	7201.53
649.707	7098.49
650.059	7219.16
650.411	7222.1
650.763	7256.45
651.115	7363.56
651.467	7306.62
651.819	7355.2
652.171	7345.48
652.523	7333.06
652.875	7319.95
653.227	7338.48
653.578	7359.04
653.93	7306.39
654.282	7328.08
654.633	7367.41
654.985	7383.68
655.337	7336.9
655.688	7331.02
656.039	7403.56
656.391	7302.55
656.742	7324.24
657.094	7351.59
657.445	7335.77
657.796	7355.65
658.147	7311.14
658.498	7377.57
658.849	7326.95
659.2	7356.56
659.551	7346.39
659.902	7354.75
660.253	7380.29
660.604	7413.05
660.955	7368.54
661.306	7387.97
661.656	7384.58
662.007	7366.5
662.358	7305.71
662.708	7385.94
663.059	7384.35
663.409	7342.32
663.76	7439.27
664.11	7373.28
664.461	7405.82
664.811	7413.51
665.161	7399.72
665.511	7396.1
665.862	7404.24
666.212	7456.22
666.562	7486.05
666.912	7392.04
667.262	7384.58
667.612	7354.98
667.962	7379.38
668.312	7437.23
668.662	7458.93
669.011	7413.05
669.361	7330.34
669.711	7425.48
670.06	7398.59
670.41	7335.32
670.76	7299.84
671.109	7376.9
671.459	7389.55
671.808	7394.3
672.157	7341.42
672.507	7279.27
672.856	7321.53
673.205	7406.5
673.554	7325.6
673.904	7370.12
674.253	7366.5
674.602	7364.69
674.951	7283.57
675.3	7198.37
675.649	7361.53
675.998	7304.36
676.346	7319.5
676.695	7280.85
677.044	7305.26
677.393	7357.01
677.741	7334.41
678.09	7255.32
678.438	7150.01
678.787	7221.42
679.135	7313.17
679.484	7234.98
679.832	7217.58
680.181	7168.54
680.529	7246.73
680.877	7175.77
681.225	7168.77
681.573	7189.56
681.922	7114.98
682.27	7110.01
682.618	7086.96
682.966	7132.84
683.314	7113.4
683.661	7056.9
684.009	7074.53
684.357	6985.27
684.705	7024.36
685.053	7033.85
685.4	7026.4
685.748	7020.97
686.095	6909.11
686.443	6922.67
686.79	6937.59
687.138	6896.46
687.485	6960.41
687.832	6857.59
688.18	6838.15
688.527	6866.4
688.874	6827.53
689.221	6776.01
689.568	6776.01
689.915	6759.51
690.262	6791.6
690.609	6714.99
690.956	6701.43
691.303	6720.87
691.65	6718.83
691.997	6655.33
692.344	6618.95
692.69	6602.68
693.037	6603.13
693.383	6623.7
693.73	6528.11
694.077	6472.29
694.423	6452.85
694.769	6458.5
695.116	6424.83
695.462	6433.19
695.808	6374.44
696.155	6432.29
696.501	6331.27
696.847	6342.57
697.193	6355
697.539	6267.1
697.885	6223.71
698.231	6258.73
698.577	6266.19
698.923	6218.28
699.269	6145.97
699.614	6115.01
699.96	6140.54
700.306	6135.8
700.651	6099.42
700.997	6071.85
701.342	6058.51
701.688	6031.62
702.033	6030.94
702.379	5997.95
702.724	5956.37
703.069	6004.05
703.415	5908.91
703.76	5945.3
704.105	5908.69
704.45	5914.56
704.795	5821.68
705.14	5814
705.485	5777.39
705.83	5785.98
706.175	5859.2
706.52	5783.27
706.865	5710.73
707.209	5746.88
707.554	5697.84
707.899	5766.77
708.243	5670.05
708.588	5640.9
708.932	5661.69
709.277	5614.23
709.621	5641.57
709.966	5618.75
710.31	5589.6
710.654	5563.84
710.998	5523.84
711.342	5571.97
711.687	5546.89
712.031	5533.56
712.375	5516.38
712.719	5490.62
713.063	5460.79
713.407	5513.44
713.75	5466.89
714.094	5449.72
714.438	5451.75
714.782	5500.11
715.125	5452.43
715.469	5400.45
715.812	5409.94
716.156	5381.92
716.499	5407.91
716.843	5355.03
717.186	5375.82
717.53	5364.29
717.873	5416.5
718.216	5352.54
718.559	5334.46
718.902	5302.83
719.246	5339.66
719.589	5321.58
719.932	5323.62
720.275	5282.71
720.617	5324.97
720.96	5276.39
721.303	5283.62
721.646	5266.44
721.989	5282.71
722.331	5243.39
722.674	5276.61
723.016	5236.61
723.359	5263.73
723.701	5273.9
724.044	5244.75
724.386	5232.55
724.729	5239.33
725.071	5246.1
725.413	5212.43
725.755	5216.73
726.097	5219.67
726.439	5174.24
726.782	5189.16
727.124	5247.46
727.465	5160.46
727.807	5164.07
728.149	5214.47
728.491	5162.49
728.833	5203.39
729.175	5131.76
729.516	5232.32
729.858	5240.46
730.199	5147.12
730.541	5169.95
730.882	5197.52
731.224	5191.19
731.565	5211.08
731.906	5185.77
732.248	5198.2
732.589	5128.82
732.93	5142.6
733.271	5217.41
733.612	5172.89
733.953	5185.09
734.294	5199.33
734.635	5195.03
734.976	5171.98
735.317	5171.08
735.658	5202.94
735.999	5181.93
736.339	5164.07
736.68	5266.22
737.021	5213.56
737.361	5178.99
737.702	5222.38
738.042	5259.89
738.383	5243.62
738.723	5202.26
739.063	5220.12
739.404	5296.5
739.744	5244.3
740.084	5240
740.424	5283.62
740.764	5260.12
741.104	5317.97
741.444	5311.41
741.784	5285.2
742.124	5364.29
742.464	5353.45
742.804	5381.69
743.143	5414.24
743.483	5410.85
743.823	5432.31
744.162	5458.75
744.502	5467.34
744.841	5448.81
745.181	5534.23
745.52	5520
745.86	5563.16
746.199	5601.35
746.538	5638.64
746.877	5708.69
747.216	5694.23
747.556	5728.58
747.895	5788.92
748.234	5802.25
748.573	5839.54
748.911	5893.32
749.25	5955.24
749.589	5999.98
749.928	6101
750.267	6188
750.605	6156.82
750.944	6280.88
751.283	6328.34
751.621	6426.64
751.96	6460.76
752.298	6565.39
752.636	6683.13
752.975	6776.91
753.313	6794.31
753.651	6925.61
753.989	7072.05
754.327	7096.68
754.666	7209.44
755.004	7362.43
755.342	7512.71
755.679	7592.94
756.017	7726.04
756.355	7875.87
756.693	7934.4
757.031	8142.98
757.368	8230.43
757.706	8344.55
758.044	8509.07
758.381	8700.25
758.719	8851.43
759.056	8973.24
759.394	9149.05
759.731	9250.97
760.068	9368.48
760.405	9518.08
760.743	9719.66
761.08	9990.39
761.417	10067.9
761.754	10258.63
762.091	10393.77
762.428	10471.73
762.765	10679.63
763.102	10938.61
763.438	11023.58
763.775	11184.48
764.112	11335.44
764.449	11646.84
764.785	11711.47
765.122	11874.63
765.458	11985.14
765.795	12172.02
766.131	12447.27
766.467	12484.11
766.804	12681.16
