Data from hue_140_FLMS001491_00052.txt Node
Date: Tue Feb 07 16:56:06 GMT 2017
User: dcchb
Spectrometer: FLMS00149
Trigger mode: 0
Integration Time (sec): 2.000000E-2
Scans to average: 10
Electric dark correction enabled: true
Nonlinearity correction enabled: false
Boxcar width: 0
XAxis mode: Wavelengths
Number of Pixels in Spectrum: 2048
>>>>>Begin Spectral Data<<<<<
341.393	-6.47
341.776	-6.47
342.16	-6.47
342.543	-59.8
342.927	-72.91
343.31	-84.43
343.693	-65.22
344.077	-61.16
344.46	-58.67
344.843	-75.39
345.226	-44.21
345.61	-31.55
345.993	-21.38
346.376	-4.89
346.759	12.51
347.142	26.98
347.525	28.56
347.908	66.98
348.291	99.97
348.674	88.22
349.057	123.7
349.44	105.39
349.823	138.16
350.206	142.45
350.588	191.04
350.971	210.93
351.354	222
351.737	239.4
352.119	243.47
352.502	246.18
352.884	276.01
353.267	273.07
353.65	284.82
354.032	281.43
354.414	300.64
354.797	318.95
355.179	310.13
355.562	316.23
355.944	331.15
356.326	328.66
356.709	334.99
357.091	346.06
357.473	326.4
357.855	340.19
358.238	349
358.62	331.83
359.002	348.55
359.384	338.38
359.766	332.05
360.148	338.38
360.53	348.78
360.912	329.57
361.294	317.14
361.676	339.06
362.057	343.58
362.439	308.55
362.821	331.6
363.203	338.61
363.584	309.23
363.966	314.2
364.348	324.82
364.729	293.64
365.111	322.34
365.493	309.46
365.874	317.59
366.256	339.96
366.637	334.54
367.019	329.79
367.4	297.48
367.781	322.34
368.163	291.15
368.544	313.75
368.925	296.35
369.306	334.09
369.688	313.07
370.069	334.99
370.45	327.99
370.831	309.91
371.212	317.82
371.593	323.01
371.974	316.91
372.355	306.52
372.736	334.54
373.117	312.84
373.498	339.28
373.879	318.04
374.26	314.88
374.641	310.36
375.021	315.1
375.402	332.05
375.783	329.34
376.163	332.51
376.544	326.86
376.925	311.26
377.305	338.15
377.686	307.65
378.066	335.9
378.447	330.47
378.827	342.22
379.208	328.89
379.588	326.63
379.968	339.28
380.349	337.7
380.729	339.74
381.109	334.09
381.489	334.31
381.87	332.28
382.25	339.51
382.63	340.41
383.01	339.28
383.39	339.96
383.77	334.77
384.15	354.2
384.53	325.95
384.91	361.66
385.29	370.92
385.67	352.62
386.049	349.45
386.429	326.4
386.809	364.59
387.189	365.27
387.568	351.71
387.948	373.86
388.328	357.14
388.707	362.11
389.087	380.87
389.466	358.04
389.846	360.75
390.225	369.34
390.605	369.57
390.984	354.88
391.363	368.44
391.743	379.51
392.122	349.91
392.501	397.59
392.881	367.31
393.26	371.15
393.639	382.67
394.018	393.07
394.397	407.53
394.776	377.48
395.155	389.68
395.534	371.83
395.913	373.18
396.292	388.78
396.671	400.3
397.05	419.28
397.429	391.94
397.808	394.88
398.186	414.31
398.565	391.03
398.944	416.8
399.323	395.78
399.701	415.67
400.08	392.16
400.458	414.76
400.837	421.32
401.215	377.25
401.594	412.05
401.972	421.54
402.351	421.09
402.729	423.12
403.107	435.78
403.486	427.19
403.864	420.19
404.242	454.31
404.62	415.22
404.999	428.32
405.377	449.11
405.755	446.4
406.133	436.01
406.511	453.63
406.889	425.16
407.267	463.8
407.645	448.21
408.023	457.02
408.401	449.79
408.779	455.44
409.156	452.05
409.534	456.8
409.912	486.17
410.29	479.62
410.667	451.37
411.045	484.14
411.422	482.78
411.8	471.94
412.178	495.44
412.555	492.5
412.933	487.76
413.31	495.21
413.687	479.17
414.065	510.58
414.442	511.48
414.819	516
415.197	517.81
415.574	509
415.951	516.91
416.328	527.53
416.705	532.27
417.082	529.11
417.46	526.4
417.837	518.94
418.214	542.22
418.591	562.1
418.967	546.29
419.344	521.65
419.721	564.36
420.098	539.28
420.475	543.57
420.852	561.43
421.228	558.94
421.605	587.19
421.982	556.91
422.358	590.35
422.735	600.07
423.111	581.76
423.488	578.83
423.864	583.57
424.241	556.68
424.617	591.71
424.994	583.12
425.37	608.66
425.746	599.39
426.123	610.69
426.499	634.42
426.875	612.27
427.251	658.15
427.627	636.9
428.003	638.49
428.379	628.77
428.756	664.02
429.132	650.01
429.507	645.49
429.883	654.98
430.259	658.37
430.635	674.87
431.011	664.47
431.387	699.05
431.763	715.55
432.138	696.56
432.514	695.66
432.89	703.34
433.265	704.02
433.641	714.87
434.016	723.46
434.392	752.38
434.767	722.1
435.143	751.25
435.518	732.95
435.894	736.79
436.269	765.94
436.644	767.3
437.02	754.64
437.395	760.29
437.77	798.03
438.145	800.74
438.52	805.94
438.895	806.62
439.271	822.44
439.646	820.18
440.021	828.31
440.395	830.57
440.77	860.63
441.145	859.95
441.52	854.75
441.895	836.22
442.27	848.88
442.645	872.6
443.019	874.41
443.394	877.35
443.769	886.62
444.143	872.38
444.518	899.95
444.892	877.58
445.267	882.77
445.641	910.8
446.016	904.24
446.39	885.26
446.764	914.19
447.139	936.78
447.513	920.51
447.887	913.96
448.262	914.64
448.636	939.04
449.01	953.73
449.384	958.48
449.758	959.16
450.132	952.15
450.506	1002.54
450.88	1007.52
451.254	970
451.628	983.79
452.002	1014.07
452.376	1030.57
452.75	1038.93
453.123	1036.22
453.497	1063.79
453.871	1066.5
454.244	1066.5
454.618	1095.2
454.992	1088.42
455.365	1108.08
455.739	1103.56
456.112	1138.59
456.486	1145.59
456.859	1162.31
457.232	1156.89
457.606	1184.01
457.979	1190.11
458.352	1217.23
458.725	1218.13
459.099	1220.17
459.472	1262.42
459.845	1266.94
460.218	1278.24
460.591	1284.8
460.964	1303.78
461.337	1326.38
461.71	1360.95
462.083	1362.53
462.456	1393.72
462.829	1364.57
463.201	1369.09
463.574	1402.31
463.947	1454.06
464.32	1448.41
464.692	1464.23
465.065	1489.54
465.438	1515.98
465.81	1546.94
466.183	1572.02
466.555	1613.15
466.928	1608.18
467.3	1619.48
467.672	1631.45
468.045	1682.53
468.417	1686.82
468.789	1741.06
469.161	1726.14
469.534	1783.99
469.906	1814.27
470.278	1832.13
470.65	1863.31
471.022	1899.02
471.394	1934.05
471.766	1995.29
472.138	1998.45
472.51	2063.76
472.882	2103.76
473.253	2088.62
473.625	2160.48
473.997	2218.11
474.369	2268.5
474.74	2274.6
475.112	2340.81
475.484	2412
475.855	2479.12
476.227	2511.21
476.598	2591.43
476.97	2615.61
477.341	2724.98
477.713	2776.28
478.084	2841.82
478.455	2894.92
478.827	3003.85
479.198	3063.96
479.569	3113.22
479.94	3215.59
480.311	3282.94
480.682	3384.63
481.053	3486.32
481.424	3597.28
481.795	3671.63
482.166	3763.83
482.537	3842.47
482.908	3981.9
483.279	4043.37
483.65	4136.02
484.021	4285.17
484.391	4424.6
484.762	4466.18
485.133	4550.25
485.503	4682.67
485.874	4851.26
486.244	4898.94
486.615	5123.79
486.985	5231.13
487.356	5363.56
487.726	5455.08
488.097	5621.63
488.467	5679.03
488.837	5867.95
489.207	5995.18
489.578	6168.96
489.948	6286.25
490.318	6413.25
490.688	6529.18
491.058	6716.74
491.428	6879.45
491.798	6925.55
492.168	7097.98
492.538	7231.08
492.908	7361.25
493.278	7499.1
493.648	7653.44
494.017	7840.1
494.387	7934.79
494.757	8045.75
495.126	8209.13
495.496	8312.86
495.866	8452.52
496.235	8563.7
496.605	8711.49
496.974	8791.72
497.344	8932.73
497.713	9039.17
498.082	9216.57
498.452	9314.87
498.821	9410.23
499.19	9511.25
499.559	9620.17
499.928	9732.03
500.298	9845.25
500.667	9953.95
501.036	10051.57
501.405	10183.77
501.774	10236.2
502.143	10290.89
502.512	10420.83
502.88	10540.15
503.249	10618.56
503.618	10653.82
503.987	10801.83
504.356	10832.34
504.724	10915.73
505.093	11017.65
505.462	11036.63
505.83	11217.64
506.199	11264.2
506.567	11392.33
506.936	11437.3
507.304	11574.24
507.672	11548.26
508.041	11731.53
508.409	11762.26
508.777	11864.63
509.145	11984.63
509.514	12001.8
509.882	12100.11
510.25	12082.93
510.618	12197.73
510.986	12271.85
511.354	12334
511.722	12397.5
512.09	12512.07
512.458	12529.7
512.826	12632.07
513.193	12582.8
513.561	12625.97
513.929	12739.86
514.297	12815.12
514.664	12906.64
515.032	12838.39
515.4	12982.57
515.767	12995.68
516.135	13042.68
516.502	12980.76
516.869	13177.82
517.237	13076.58
517.604	13094.66
517.972	13277.7
518.339	13255.33
518.706	13288.77
519.073	13339.17
519.44	13364.25
519.808	13426.85
520.175	13430.24
520.542	13579.61
520.909	13590.46
521.276	13524.25
521.643	13588.65
522.009	13731.25
522.376	13666.84
522.743	13735.54
523.11	13815.54
523.477	13837.46
523.843	13882.88
524.21	13962.43
524.577	13970.56
524.943	14033.84
525.31	14154.51
525.676	14219.6
526.043	14244
526.409	14262.31
526.776	14275.87
527.142	14237.68
527.508	14301.86
527.874	14396.54
528.241	14406.03
528.607	14330.56
528.973	14432.02
529.339	14388.18
529.705	14456.88
530.071	14465.24
530.437	14444
530.803	14508.86
531.169	14506.37
531.535	14440.38
531.901	14549.53
532.267	14485.81
532.632	14546.59
532.998	14496.65
533.364	14472.7
533.73	14433.38
534.095	14547.72
534.461	14475.64
534.826	14508.63
535.192	14462.76
535.557	14568.74
535.923	14401.74
536.288	14427.73
536.653	14420.04
537.019	14321.97
537.384	14401.06
537.749	14495.52
538.114	14427.73
538.479	14363.1
538.845	14370.1
539.21	14226.83
539.575	14238.13
539.94	14278.35
540.305	14379.82
540.67	14182.08
541.034	14258.92
541.399	14279.71
541.764	14214.85
542.129	14119.71
542.494	14158.81
542.858	14105.93
543.223	14101.63
543.587	14106.61
543.952	14000.17
544.316	14011.92
544.681	13966.05
545.045	13990.23
545.41	14047.85
545.774	13865.71
546.138	13951.58
546.503	13874.3
546.867	13775.99
547.231	13859.16
547.595	13782.32
547.959	13698.93
548.324	13609.22
548.688	13751.36
549.052	13691.25
549.416	13698.26
549.779	13666.17
550.143	13534.42
550.507	13639.05
550.871	13596.34
551.235	13549.78
551.599	13537.36
551.962	13500.52
552.326	13527.86
552.689	13497.36
553.053	13398.83
553.417	13313.63
553.78	13515.44
554.143	13383.69
554.507	13404.25
554.87	13388.21
555.234	13458.26
555.597	13379.17
555.96	13329
556.323	13337.81
556.686	13283.35
557.05	13316.12
557.413	13260.98
557.776	13237.25
558.139	13275.44
558.502	13287.64
558.865	13288.77
559.228	13246.52
559.59	13312.96
559.953	13299.85
560.316	13399.51
560.679	13331.26
561.041	13364.48
561.404	13413.29
561.767	13393.4
562.129	13314.54
562.492	13432.05
562.854	13372.39
563.217	13397.02
563.579	13390.92
563.941	13451.71
564.304	13470.92
564.666	13463.01
565.028	13443.8
565.39	13474.76
565.753	13550.24
566.115	13522.22
566.477	13590.01
566.839	13527.19
567.201	13600.41
567.563	13660.52
567.925	13614.64
568.287	13628.65
568.648	13735.32
569.01	13680.4
569.372	13721.76
569.734	13622.78
570.095	13709.1
570.457	13729.89
570.819	13695.09
571.18	13737.12
571.542	13845.37
571.903	13815.77
572.265	13790.91
572.626	13843.79
572.987	13766.5
573.349	13895.76
573.71	13933.05
574.071	13880.85
574.432	13963.79
574.794	13993.62
575.155	14027.96
575.516	13866.16
575.877	13925.14
576.238	14006.04
576.599	13931.92
576.96	13955.88
577.32	13979.6
577.681	13966.5
578.042	14058.92
578.403	13999.49
578.763	14020.28
579.124	14016.21
579.485	13969.43
579.845	13986.84
580.206	13964.24
580.566	13988.87
580.927	14004.46
581.287	14135.98
581.648	13976.21
582.008	14078.58
582.368	13995.65
582.728	14020.28
583.089	14030.9
583.449	13992.71
583.809	13999.72
584.169	13987.51
584.529	13862.77
584.889	13995.87
585.249	13939.61
585.609	13879.04
585.969	14110.67
586.329	13925.37
586.688	13950.68
587.048	13928.31
587.408	13856.9
587.768	13888.76
588.127	13887.86
588.487	13815.99
588.846	13962.43
589.206	13878.36
589.565	13883.34
589.925	13931.24
590.284	13823.9
590.643	13834.3
591.003	13808.54
591.362	13826.16
591.721	13822.09
592.08	13793.39
592.44	13825.71
592.799	13859.16
593.158	13809.21
593.517	13756.79
593.876	13825.94
594.235	13883.56
594.593	13794.07
594.952	13829.33
595.311	13808.99
595.67	13839.95
596.029	13798.14
596.387	13808.99
596.746	13844.01
597.104	13806.5
597.463	13786.16
597.822	13778.03
598.18	13797.69
598.538	13744.36
598.897	13768.76
599.255	13786.61
599.613	13902.32
599.972	13724.47
600.33	13853.96
600.688	13717.01
601.046	13812.38
601.404	13809.89
601.762	13725.83
602.12	13784.58
602.478	13843.79
602.836	13798.59
603.194	13732.38
603.552	13818.93
603.91	13711.14
604.268	13833.62
604.625	13772.15
604.983	13813.96
605.341	13677.01
605.698	13797.01
606.056	13785.03
606.413	13819.83
606.771	13838.36
607.128	13780.51
607.485	13841.98
607.843	13775.77
608.2	13924.46
608.557	13935.31
608.914	13760.63
609.272	13855.54
609.629	13873.17
609.986	13938.25
610.343	13866.16
610.7	14016.67
611.057	13941.41
611.414	13921.3
611.771	13989.32
612.127	13992.71
612.484	14005.14
612.841	14046.72
613.198	14037.68
613.554	13978.25
613.911	14015.76
614.267	14145.93
614.624	14035.42
614.98	14083.1
615.337	14160.39
615.693	14193.61
616.05	14141.63
616.406	14189.54
616.762	14169.66
617.118	14048.53
617.475	14100.96
617.831	14140.96
618.187	14166.04
618.543	14238.81
618.899	14172.14
619.255	14180.28
619.611	14206.26
619.967	14224.34
620.323	14204.46
620.678	14234.51
621.034	14131.24
621.39	14167.85
621.746	14144.8
622.101	14267.28
622.457	14217.11
622.812	14270.22
623.168	14223.21
623.523	14247.17
623.879	14308.86
624.234	14116.78
624.589	14239.48
624.945	14325.81
625.3	14348.86
625.655	14235.64
626.01	14253.95
626.365	14224.12
626.72	14199.26
627.075	14195.87
627.43	14188.41
627.785	14222.08
628.14	14247.39
628.495	14289.43
628.85	14243.1
629.205	14208.75
629.559	14216.66
629.914	14118.81
630.269	14241.29
630.623	14216.66
630.978	14160.62
631.332	14044.01
631.687	14226.6
632.041	14078.81
632.396	14164.01
632.75	14102.76
633.104	14132.59
633.459	14023.22
633.813	14080.39
634.167	14004.01
634.521	13990.23
634.875	14037.68
635.229	13949.32
635.583	13804.47
635.937	13938.93
636.291	13843.34
636.645	13921.07
636.999	13760.17
637.352	13903.22
637.706	13797.01
638.06	13872.49
638.413	13766.73
638.767	13837.46
639.121	13804.02
639.474	13684.92
639.828	13779.84
640.181	13738.03
640.534	13792.04
640.888	13695.77
641.241	13662.1
641.594	13707.29
641.947	13675.66
642.301	13649.67
642.654	13680.18
643.007	13629.78
643.36	13662.32
643.713	13648.99
644.066	13675.66
644.419	13563.8
644.771	13507.53
645.124	13396.79
645.477	13364.71
645.83	13273.41
646.182	13326.97
646.535	13234.99
646.888	13190.7
647.24	13099.63
647.593	13136.01
647.945	13153.41
648.298	13085.62
648.65	13047.65
649.002	13072.96
649.355	13088.1
649.707	13077.71
650.059	13178.95
650.411	13406.06
650.763	13375.55
651.115	13490.13
651.467	13448.54
651.819	13533.29
652.171	13509.11
652.523	13366.29
652.875	13420.97
653.227	13374.2
653.578	13490.58
653.93	13459.62
654.282	13395.66
654.633	13439.05
654.985	13388.89
655.337	13387.53
655.688	13427.53
656.039	13419.62
656.391	13383.24
656.742	13355.44
657.094	13428.43
657.445	13489.45
657.796	13493.52
658.147	13490.35
658.498	13365.38
658.849	13407.19
659.2	13381.65
659.551	13315.21
659.902	13373.52
660.253	13451.26
660.604	13408.09
660.955	13390.47
661.306	13433.63
661.656	13355.67
662.007	13371.94
662.358	13429.56
662.708	13391.37
663.059	13354.08
663.409	13354.31
663.76	13444.48
664.11	13460.07
664.461	13437.02
664.811	13442.9
665.161	13402.9
665.511	13409.9
665.862	13402.9
666.212	13426.62
666.562	13415.55
666.912	13459.17
667.262	13465.27
667.612	13435.66
667.962	13452.61
668.312	13493.97
668.662	13492.16
669.011	13483.8
669.361	13359.06
669.711	13436.34
670.06	13330.58
670.41	13383.91
670.76	13355.21
671.109	13385.95
671.459	13421.65
671.808	13389.11
672.157	13398.83
672.507	13282.9
672.856	13308.21
673.205	13222.56
673.554	13300.53
673.904	13194.77
674.253	13244.48
674.602	13256.23
674.951	13082.68
675.3	13060.53
675.649	13186.63
675.998	13239.06
676.346	13258.27
676.695	13270.47
677.044	13112.51
677.393	13246.74
677.741	13220.3
678.09	13151.15
678.438	13158.61
678.787	13152.28
679.135	13133.3
679.484	13015.11
679.832	13115.22
680.181	12951.38
680.529	12986.18
680.877	12959.97
681.225	12997.94
681.573	13074.77
681.922	13016.69
682.27	12855.11
682.618	12905.73
682.966	12828.9
683.314	12891.72
683.661	12805.4
684.009	12787.55
684.357	12844.04
684.705	12794.55
685.053	12740.09
685.4	12655.35
685.748	12620.77
686.095	12617.38
686.443	12605.4
686.79	12549.36
687.138	12615.35
687.485	12493.09
687.832	12504.16
688.18	12587.1
688.527	12399.31
688.874	12330.38
689.221	12400.44
689.568	12380.32
689.915	12320.89
690.262	12317.28
690.609	12295.81
690.956	12237.73
691.303	12215.13
691.65	12139.88
691.997	12101.46
692.344	12038.86
692.69	12061.46
693.037	12043.16
693.383	11918.87
693.73	11978.53
694.077	11891.3
694.423	11852.65
694.769	11801.36
695.116	11779.66
695.462	11710.74
695.808	11698.31
696.155	11720.91
696.501	11593.9
696.847	11567.92
697.193	11481.14
697.539	11580.57
697.885	11510.06
698.231	11425.1
698.577	11439.56
698.923	11391.2
699.269	11289.51
699.614	11309.62
699.96	11257.42
700.306	11260.35
700.651	11130.41
700.997	11130.19
701.342	11080.02
701.688	11084.31
702.033	11036.18
702.379	11065.78
702.724	10929.29
703.069	11023.75
703.415	10923.41
703.76	10882.28
704.105	10849.97
704.45	10854.49
704.795	10772.68
705.14	10697.66
705.485	10693.81
705.83	10701.95
706.175	10647.71
706.52	10669.41
706.865	10525.68
707.209	10545.8
707.554	10579.92
707.899	10579.24
708.243	10477.1
708.588	10431.9
708.932	10372.47
709.277	10369.3
709.621	10398.23
709.966	10318.46
710.31	10308.29
710.654	10234.39
710.998	10223.77
711.342	10186.71
711.687	10158.46
712.031	10112.81
712.375	10091.57
712.719	10124.79
713.063	10082.53
713.407	10099.25
713.75	10038.24
714.094	10077.33
714.438	9969.77
714.782	10034.62
715.125	9948.07
715.469	9981.29
715.812	9906.04
716.156	9916.66
716.499	9839.83
716.843	9918.47
717.186	9835.76
717.53	9880.5
717.873	9924.12
718.216	9813.16
718.559	9784.23
718.902	9746.95
719.246	9760.51
719.589	9745.37
719.932	9607.97
720.275	9702.88
720.617	9666.5
720.96	9683.67
721.303	9653.62
721.646	9640.06
721.989	9659.49
722.331	9687.29
722.674	9593.73
723.016	9616.1
723.359	9606.16
723.701	9678.02
724.044	9554.41
724.386	9476.45
724.729	9504.24
725.071	9539.95
725.413	9569.1
725.755	9446.84
726.097	9519.61
726.439	9459.05
726.782	9482.77
727.124	9497.91
727.465	9533.85
727.807	9428.54
728.149	9442.55
728.491	9483.68
728.833	9430.57
729.175	9395.54
729.516	9391.93
729.858	9464.69
730.199	9479.16
730.541	9488.87
730.882	9389.67
731.224	9451.14
731.565	9340.4
731.906	9346.96
732.248	9387.86
732.589	9395.77
732.93	9390.8
733.271	9354.19
733.612	9387.18
733.953	9401.42
734.294	9389.67
734.635	9361.87
734.976	9396.45
735.317	9296.34
735.658	9325.49
735.999	9389.89
736.339	9355.32
736.68	9367.3
737.021	9365.49
737.361	9378.82
737.702	9462.21
738.042	9357.58
738.383	9356.45
738.723	9499.72
739.063	9400.97
739.404	9456.11
739.744	9461.3
740.084	9432.61
740.424	9426.5
740.764	9386.5
741.104	9469.89
741.444	9386.96
741.784	9484.58
742.124	9509.67
742.464	9443.68
742.804	9417.69
743.143	9490
743.483	9565.03
743.823	9520.29
744.162	9553.73
744.502	9636.67
744.841	9564.35
745.181	9635.76
745.52	9642.77
745.86	9708.76
746.199	9738.81
746.538	9785.36
746.877	9817.23
747.216	9885.7
747.556	9873.95
747.895	9922.99
748.234	9898.58
748.573	9951.46
748.911	10029.2
749.25	10073.72
749.589	10136.54
749.928	10274.16
750.267	10275.29
750.605	10325.24
750.944	10381.28
751.283	10445.69
751.621	10563.65
751.96	10602.74
752.298	10635.74
752.636	10734.27
752.975	10882.06
753.313	10946.24
753.651	11063.07
753.989	11159.11
754.327	11258.32
754.666	11243.86
755.004	11416.96
755.342	11559.78
755.679	11757.52
756.017	11811.75
756.355	11891.07
756.693	11981.69
757.031	12195.02
757.368	12325.86
757.706	12502.58
758.044	12468.01
