Data from hue_10_FLMS001491_62.txt Node
Date: Mon Feb 06 15:32:19 GMT 2017
User: dcchb
Spectrometer: FLMS00149
Trigger mode: 0
Integration Time (sec): 2.000000E-2
Scans to average: 10
Electric dark correction enabled: true
Nonlinearity correction enabled: false
Boxcar width: 0
XAxis mode: Wavelengths
Number of Pixels in Spectrum: 2048
>>>>>Begin Spectral Data<<<<<
341.393	-31.24
341.776	-31.24
342.16	-31.24
342.543	-68.53
342.927	-58.13
343.31	-66.5
343.693	-92.94
344.077	-63.33
344.46	-56.1
344.843	-38.93
345.226	-50.45
345.61	-37.57
345.993	-13.84
346.376	-1.64
346.759	10.11
347.142	15.31
347.525	40.17
347.908	69.32
348.291	85.59
348.674	89.21
349.057	111.58
349.44	102.31
349.823	147.96
350.206	174.4
350.588	199.71
350.971	208.07
351.354	214.18
351.737	239.26
352.119	266.6
352.502	288.98
352.884	272.48
353.267	282.2
353.65	292.59
354.032	276.55
354.414	322.42
354.797	315.42
355.179	310.22
355.562	314.74
355.944	317.9
356.326	325.36
356.709	319.71
357.091	328.75
357.473	322.87
357.855	344.34
358.238	347.05
358.62	341.63
359.002	341.4
359.384	339.37
359.766	342.99
360.148	351.35
360.53	326.94
360.912	345.92
361.294	358.58
361.676	327.84
362.057	326.71
362.439	342.53
362.821	336.21
363.203	340.5
363.584	313.38
363.966	346.15
364.348	340.95
364.729	310.67
365.111	322.19
365.493	318.58
365.874	292.59
366.256	327.84
366.637	314.29
367.019	288.98
367.4	324.23
367.781	314.96
368.163	328.07
368.544	308.18
368.925	323.32
369.306	310.67
369.688	296.88
370.069	305.02
370.45	299.82
370.831	312.03
371.212	317
371.593	308.86
371.974	302.99
372.355	304.57
372.736	317.68
373.117	305.92
373.498	296.43
373.879	307.96
374.26	295.53
374.641	299.37
375.021	319.26
375.402	319.48
375.783	313.16
376.163	292.14
376.544	334.17
376.925	310.22
377.305	304.34
377.686	310.22
378.066	312.7
378.447	338.24
378.827	342.53
379.208	341.4
379.588	329.2
379.968	347.5
380.349	323.1
380.729	324.23
381.109	347.73
381.489	342.31
381.87	339.37
382.25	351.35
382.63	324.45
383.01	309.77
383.39	343.89
383.77	370.56
384.15	336.43
384.53	338.47
384.91	345.92
385.29	355.41
385.67	350.22
386.049	342.53
386.429	358.13
386.809	355.64
387.189	345.02
387.568	339.14
387.948	339.37
388.328	350.22
388.707	358.58
389.087	348.41
389.466	337.79
389.846	339.14
390.225	344.57
390.605	346.6
390.984	359.03
391.363	346.38
391.743	352.25
392.122	359.26
392.501	376.43
392.881	368.75
393.26	358.13
393.639	355.19
394.018	356.09
394.397	372.14
394.776	370.1
395.155	361.97
395.534	351.8
395.913	370.1
396.292	371.01
396.671	368.07
397.05	375.07
397.429	354.28
397.808	377.11
398.186	346.15
398.565	372.14
398.944	360.84
399.323	370.1
399.701	382.76
400.08	371.69
400.458	359.93
400.837	383.89
401.215	361.74
401.594	381.63
401.972	398.13
402.351	387.28
402.729	380.95
403.107	386.37
403.486	375.07
403.864	378.24
404.242	394.96
404.62	396.77
404.999	396.32
405.377	395.87
405.755	411.23
406.133	383.66
406.511	377.33
406.889	414.17
407.267	401.29
407.645	424.79
408.023	426.82
408.401	422.53
408.779	404.23
409.156	413.27
409.534	405.81
409.912	406.26
410.29	422.31
410.667	411.01
411.045	427.28
411.422	446.94
411.8	440.16
412.178	433.83
412.555	421.63
412.933	436.99
413.31	435.19
413.687	439.71
414.065	434.73
414.442	444.68
414.819	454.17
415.197	434.51
415.574	450.55
415.951	458.69
416.328	453.72
416.705	459.59
417.082	482.42
417.46	466.82
417.837	469.54
418.214	455.75
418.591	474.96
418.967	456.65
419.344	471.57
419.721	455.3
420.098	500.04
420.475	513.6
420.852	462.76
421.228	492.59
421.605	482.64
421.982	495.75
422.358	509.76
422.735	506.6
423.111	502.53
423.488	483.77
423.864	493.49
424.241	507.95
424.617	498.24
424.994	497.56
425.37	508.63
425.746	521.06
426.123	505.24
426.499	535.97
426.875	519.7
427.251	511.34
427.627	538.69
428.003	557.44
428.379	549.08
428.756	533.71
429.132	539.36
429.507	554.28
429.883	556.99
430.259	579.36
430.635	583.43
431.011	582.98
431.387	561.28
431.763	594.05
432.138	585.69
432.514	587.95
432.89	549.08
433.265	587.05
433.641	600.38
434.016	610.32
434.392	625.46
434.767	635.63
435.143	615.52
435.518	616.2
435.894	632.24
436.269	632.47
436.644	637.89
437.02	610.1
437.395	645.8
437.77	642.86
438.145	669.98
438.52	662.75
438.895	651
439.271	673.15
439.646	643.54
440.021	673.6
440.395	681.96
440.77	662.98
441.145	684.9
441.52	682.41
441.895	668.17
442.27	684.45
442.645	699.59
443.019	678.8
443.394	685.8
443.769	683.99
444.143	687.61
444.518	707.5
444.892	704.56
445.267	709.53
445.641	697.1
446.016	705.01
446.39	716.99
446.764	732.81
447.139	735.29
447.513	725.8
447.887	712.47
448.262	724.9
448.636	734.16
449.01	738.46
449.384	767.38
449.758	749.75
450.132	746.82
450.506	757.89
450.88	770.54
451.254	771.22
451.628	788.62
452.002	800.6
452.376	759.02
452.75	764.22
453.123	763.99
453.497	795.18
453.871	806.7
454.244	823.88
454.618	826.36
454.992	821.16
455.365	816.19
455.739	838.11
456.112	838.34
456.486	853.25
456.859	860.71
457.232	847.15
457.606	864.1
457.979	879.24
458.352	856.64
458.725	866.81
459.099	889.86
459.472	923.31
459.845	935.51
460.218	938
460.591	942.29
460.964	934.61
461.337	940.03
461.71	969.86
462.083	960.82
462.456	965.57
462.829	987.94
463.201	974.38
463.574	999.24
463.947	994.72
464.32	1013.25
464.692	1036.75
465.065	1049.86
465.438	1055.06
465.81	1061.16
466.183	1081.5
466.555	1093.7
466.928	1095.06
467.3	1096.64
467.672	1097.54
468.045	1133.47
468.417	1175.28
468.789	1162.4
469.161	1147.03
469.534	1167.14
469.906	1227.03
470.278	1232.91
470.65	1170.31
471.022	1236.07
471.394	1274.49
471.766	1279.23
472.138	1284.88
472.51	1285.33
472.882	1321.94
473.253	1313.36
473.625	1355.16
473.997	1362.17
474.369	1390.19
474.74	1420.25
475.112	1421.38
475.484	1459.11
475.855	1470.41
476.227	1504.99
476.598	1523.52
476.97	1533.24
477.341	1579.56
477.713	1581.37
478.084	1609.84
478.455	1631.09
478.827	1693.01
479.198	1700.24
479.569	1729.16
479.94	1785.21
480.311	1800.12
480.682	1852.1
481.053	1874.47
481.424	1928.48
481.795	1932.77
482.166	1980.46
482.537	2009.38
482.908	2014.81
483.279	2073.56
483.65	2126.22
484.021	2139.1
484.391	2124.63
484.762	2177.74
485.133	2241.69
485.503	2252.09
485.874	2289.15
486.244	2322.37
486.615	2401.69
486.985	2445.98
487.356	2469.94
487.726	2473.55
488.097	2534.57
488.467	2568.92
488.837	2629.93
489.207	2615.24
489.578	2673.77
489.948	2720.55
490.318	2743.6
490.688	2789.47
491.058	2848.46
491.428	2856.37
491.798	2922.58
492.168	2943.59
492.538	2973.88
492.908	2983.37
493.278	3060.2
493.648	3058.85
494.017	3097.49
494.387	3132.74
494.757	3162.8
495.126	3220.2
495.496	3251.16
495.866	3272.63
496.235	3306.07
496.605	3324.6
496.974	3333.64
497.344	3430.14
497.713	3380.19
498.082	3417.03
498.452	3466.07
498.821	3512.17
499.19	3439.85
499.559	3528.66
499.928	3568.89
500.298	3553.52
500.667	3603.46
501.036	3648.44
501.405	3603.01
501.774	3685.72
502.143	3697.25
502.512	3713.52
502.88	3746.29
503.249	3724.82
503.618	3775.21
503.987	3825.38
504.356	3813.63
504.724	3795.32
505.093	3861.99
505.462	3847.75
505.83	3933.4
506.199	3929.56
506.567	3951.7
506.936	3940.18
507.304	3981.53
507.672	3993.74
508.041	4066.96
508.409	4076.9
508.777	4081.87
509.145	4100.17
509.514	4064.24
509.882	4139.04
510.25	4133.62
510.618	4145.6
510.986	4166.61
511.354	4171.59
511.722	4226.95
512.09	4211.81
512.458	4230.57
512.826	4286.61
513.193	4277.8
513.561	4287.51
513.929	4348.98
514.297	4318.7
514.664	4344.69
515.032	4356.44
515.4	4410.67
515.767	4396.21
516.135	4435.76
516.502	4387.17
516.869	4454.97
517.237	4481.86
517.604	4510.56
517.972	4515.31
518.339	4544.46
518.706	4497.45
519.073	4555.3
519.44	4572.93
519.808	4623.55
520.175	4599.6
520.542	4618.35
520.909	4673.72
521.276	4630.33
521.643	4684.57
522.009	4704.9
522.376	4686.6
522.743	4746.71
523.11	4762.98
523.477	4778.8
523.843	4868.06
524.21	4871.91
524.577	4854.96
524.943	4929.08
525.31	4934.95
525.676	4960.27
526.043	4990.77
526.409	5017.89
526.776	5014.95
527.142	5032.35
527.508	5024.9
527.874	5117.1
528.241	5159.13
528.607	5119.58
528.973	5187.6
529.339	5184.44
529.705	5267.83
530.071	5255.4
530.437	5266.92
530.803	5329.75
531.169	5325.23
531.535	5358.45
531.901	5348.73
532.267	5381.5
532.632	5438.67
532.998	5432.12
533.364	5487.93
533.73	5515.73
534.095	5518.67
534.461	5515.05
534.826	5556.86
535.192	5555.5
535.557	5619.46
535.923	5627.82
536.288	5651.09
536.653	5701.26
537.019	5688.83
537.384	5762.5
537.749	5743.07
538.114	5717.31
538.479	5736.97
538.845	5783.75
539.21	5769.96
539.575	5846.34
539.94	5846.12
540.305	5899.22
540.67	5911.88
541.034	5895.16
541.399	5920.92
541.764	5950.75
542.129	5928.15
542.494	6025.55
542.858	6033.23
543.223	6072.78
543.587	6073.46
543.952	6063.06
544.316	6130.18
544.681	6086.11
545.045	6213.57
545.41	6155.04
545.774	6187.58
546.138	6231.19
546.503	6247.69
546.867	6203.62
547.231	6308.25
547.595	6308.48
547.959	6336.05
548.324	6353.67
548.688	6359.55
549.052	6403.62
549.416	6463.5
549.779	6448.14
550.143	6442.71
550.507	6467.8
550.871	6523.84
551.235	6460.34
551.599	6598.64
551.962	6588.7
552.326	6568.36
552.689	6652.42
553.053	6624.4
553.417	6648.36
553.78	6682.93
554.143	6703.5
554.507	6710.28
554.87	6748.01
555.234	6780.56
555.597	6778.3
555.96	6809.71
556.323	6787.79
556.686	6875.24
557.05	6842.48
557.413	6878.86
557.776	6953.43
558.139	6967.22
558.502	6945.07
558.865	6941.46
559.228	7026.2
559.59	7018.29
559.953	7067.55
560.316	7123.37
560.679	7095.8
561.041	7223.71
561.404	7222.35
561.767	7169.7
562.129	7227.78
562.492	7283.82
562.854	7248.57
563.217	7284.5
563.579	7294.44
563.941	7341.9
564.304	7317.27
564.666	7379.41
565.028	7308.9
565.39	7441.33
565.753	7489.46
566.115	7494.44
566.477	7524.94
566.839	7532.17
567.201	7590.93
567.563	7636.8
567.925	7561.33
568.287	7651.72
568.648	7664.6
569.01	7716.58
569.372	7732.62
569.734	7772.17
570.095	7778.27
570.457	7819.85
570.819	7852.62
571.18	7932.62
571.542	7991.37
571.903	8012.61
572.265	8079.51
572.626	8132.16
572.987	8062.56
573.349	8141.42
573.71	8186.62
574.071	8251.25
574.432	8303
574.794	8334.87
575.155	8414.41
575.516	8394.98
575.877	8446.05
576.238	8544.13
576.599	8592.49
576.96	8554.52
577.32	8698.47
577.681	8773.95
578.042	8771.46
578.403	8828.19
578.763	8998.58
579.124	9030.89
579.485	9134.84
579.845	9273.37
580.206	9311.79
580.566	9358.57
580.927	9523.99
581.287	9663.42
581.648	9749.52
582.008	9898.21
582.368	10004.88
582.728	10089.17
583.089	10233.8
583.449	10416.17
583.809	10492.77
584.169	10640.12
584.529	10856.61
584.889	10935.7
585.249	11096.83
585.609	11312.87
585.969	11477.16
586.329	11676.92
586.688	11908.33
587.048	12007.76
587.408	12255.67
587.768	12388.32
588.127	12624.02
588.487	12758.03
588.846	13090.45
589.206	13199.14
589.565	13453.15
589.925	13763.2
590.284	13884.1
590.643	14165.67
591.003	14427.81
591.362	14703.29
591.721	14903.51
592.08	15209.04
592.44	15517.95
592.799	15656.48
593.158	15981.67
593.517	16262.34
593.876	16535.1
594.235	16757.69
594.593	17086.73
594.952	17329.21
595.311	17645.81
595.67	17977.32
596.029	18316.07
596.387	18597.19
596.746	18806
597.104	19026.11
597.463	19275.37
597.822	19714.45
598.18	19827.9
598.538	20138.4
598.897	20553.3
599.255	20554.21
599.613	21177.47
599.972	21257.46
600.33	21590.56
600.688	21841.63
601.046	22183.09
601.404	22469.86
601.762	22724.77
602.12	22985.55
602.478	23345.77
602.836	23541.92
603.194	23762.03
603.552	24034.34
603.91	24259.87
604.268	24567.89
604.625	24686.98
604.983	25137.81
605.341	25213.97
605.698	25502.1
606.056	25918.81
606.413	26102.08
606.771	26336.43
607.128	26670.43
607.485	26740.03
607.843	26952.46
608.2	27296.4
608.557	27625.21
608.914	27729.38
609.272	28006.66
609.629	28295.7
609.986	28511.96
610.343	28543.83
610.7	28889.58
611.057	29030.14
611.414	29203.92
611.771	29338.61
612.127	29714.42
612.484	29876.67
612.841	30107.4
613.198	30154.4
613.554	30394.4
613.911	30637.33
614.267	30833.48
614.624	30932.46
614.98	31225.34
615.337	31375.62
615.693	31507.36
616.05	31610.41
616.406	31879.11
616.762	31988.71
617.118	32243.84
617.475	32228.02
617.831	32383.05
618.187	32614
618.543	32771.96
618.899	33129.24
619.255	33156.81
619.611	33218.28
619.967	33476.58
620.323	33606.52
620.678	33611.72
621.034	33749.34
621.39	33661.21
621.746	33892.16
622.101	34353.16
622.457	34141.64
622.812	34234.52
623.168	34434.97
623.523	34451.92
623.879	34695.08
624.234	34494.4
624.589	34714.51
624.945	34795.64
625.3	34916.09
625.655	35005.8
626.01	34976.65
626.365	35300.94
626.72	35145.23
627.075	35241.5
627.43	35287.83
627.785	35330.77
628.14	35424.1
628.495	35562.17
628.85	35577.54
629.205	35475.17
629.559	35756.07
629.914	35704.32
630.269	35769.4
630.623	35628.61
630.978	35586.8
631.332	35738.44
631.687	35952.9
632.041	35719
632.396	35953.35
632.75	35817.08
633.104	35926.23
633.459	35836.06
633.813	35841.94
634.167	35874.93
634.521	35942.73
634.875	35967.81
635.229	35937.53
635.583	35943.18
635.937	35987.25
636.291	35917.64
636.645	35922.61
636.999	35865.67
637.352	36141.37
637.706	35765.1
638.06	36122.38
638.413	35925.33
638.767	35911.32
639.121	36053.46
639.474	35847.81
639.828	35856.85
640.181	35989.28
640.534	35927.81
640.888	35921.03
641.241	35822.5
641.594	35910.86
641.947	36048.94
642.301	35778.44
642.654	35930.52
643.007	35918.32
643.36	35974.14
643.713	35860.24
644.066	35996.29
644.419	35812.11
644.771	35514.04
645.124	35273.59
645.477	35235.85
645.83	35026.82
646.182	34948.18
646.535	34847.16
646.888	34935.75
647.24	34712.93
647.593	34961.51
647.945	34769.2
648.298	34685.13
648.65	34580.73
649.002	34563.55
649.355	34697.56
649.707	34713.16
650.059	34864.34
650.411	35233.59
650.763	35344.55
651.115	35595.84
651.467	35512
651.819	35616.86
652.171	35436.53
652.523	35581.38
652.875	35440.37
653.227	35176.42
653.578	35536.64
653.93	35448.05
654.282	35256.42
654.633	35262.52
654.985	35455.96
655.337	35394.27
655.688	35350.2
656.039	35421.16
656.391	35050.1
656.742	35272.69
657.094	35239.47
657.445	35416.41
657.796	35278.34
658.147	35168.28
658.498	35211.67
658.849	35231.79
659.2	35266.81
659.551	35162.63
659.902	35262.07
660.253	35121.96
660.604	35212.35
660.955	35024.79
661.306	35202.63
661.656	35088.74
662.007	35206.7
662.358	35090.77
662.708	35143.65
663.059	35154.73
663.409	34981.62
663.76	35119.47
664.11	35225.91
664.461	35215.51
664.811	35181.84
665.161	35248.96
665.511	35047.38
665.862	35118.79
666.212	35178.23
666.562	35176.87
666.912	35069.76
667.262	34994.96
667.612	35027.27
667.962	34985.46
668.312	35053.94
668.662	35226.59
669.011	35099.36
669.361	34912.25
669.711	35006.71
670.06	34972.81
670.41	34880.16
670.76	34916.09
671.109	35037.89
671.459	34963.32
671.808	34926.71
672.157	35046.93
672.507	34771.91
672.856	34734.4
673.205	34681.52
673.554	34827.28
673.904	34785.24
674.253	34902.75
674.602	34898.69
674.951	34326.95
675.3	34125.6
675.649	34724.68
675.998	34735.53
676.346	34718.58
676.695	34749.31
677.044	34511.8
677.393	34665.47
677.741	34726.26
678.09	34614.17
678.438	34536.21
678.787	34578.92
679.135	34596.1
679.484	34311.13
679.832	34474.52
680.181	34239.72
680.529	34320.62
680.877	34258.7
681.225	34220.29
681.573	34353.16
681.922	34114.53
682.27	34080.4
682.618	34119.72
682.966	33971.71
683.314	34105.26
683.661	33964.7
684.009	33746.4
684.357	33829.79
684.705	33747.3
685.053	33877.24
685.4	33674.99
685.748	33574.43
686.095	33676.8
686.443	33517.25
686.79	33298.5
687.138	33529.46
687.485	33379.86
687.832	33273.42
688.18	33389.8
688.527	33207.43
688.874	33262.35
689.221	33134.44
689.568	33039.53
689.915	33052.41
690.262	32956.59
690.609	32709.14
690.956	32673.43
691.303	32633.66
691.65	32557.51
691.997	32530.39
692.344	32399.09
692.69	32400.67
693.037	32537.62
693.383	32193.67
693.73	32214.01
694.077	32156.84
694.423	32007.01
694.769	31968.37
695.116	31846.34
695.462	31745.32
695.808	31836.85
696.155	31800.92
696.501	31574.48
696.847	31508.27
697.193	31240.93
697.539	31545.1
697.885	31154.15
698.231	31019.24
698.577	31139.69
698.923	31034.83
699.269	30929.53
699.614	30754.62
699.96	30725.46
700.306	30665.8
700.651	30641.85
700.997	30425.13
701.342	30499.48
701.688	30478.01
702.033	30289.77
702.379	30259.71
702.724	30256.78
703.069	30285.7
703.415	29924.13
703.76	30052.26
704.105	29879.38
704.45	29882.55
704.795	29804.36
705.14	29622.22
705.485	29609.79
705.83	29513.07
706.175	29490.69
706.52	29412.05
706.865	29467.87
707.209	29353.3
707.554	29145.17
707.899	29344.48
708.243	29143.36
708.588	29052.51
708.932	28838.96
709.277	28820.2
709.621	28817.04
709.966	28651.62
710.31	28778.62
710.654	28479.65
710.998	28524.62
711.342	28627.67
711.687	28455.24
712.031	28386.99
712.375	28240.33
712.719	28291.18
713.063	28338.41
713.407	28284.62
713.75	28222.93
714.094	28270.61
714.438	27993.33
714.782	28042.14
715.125	27869.72
715.469	27923.73
715.812	27707.92
716.156	27652.55
716.499	27575.49
716.843	27715.82
717.186	27620.46
717.53	27667.69
717.873	27628.14
718.216	27434.48
718.559	27371.43
718.902	27269.28
719.246	27310.41
719.589	27164.65
719.932	27150.42
720.275	27122.85
720.617	27071.55
720.96	27012.57
721.303	27016.18
721.646	27006.24
721.989	26818
722.331	26904.55
722.674	26844.89
723.016	26886.47
723.359	26810.76
723.701	26759.69
724.044	26641.73
724.386	26506.14
724.729	26544.78
725.071	26646.93
725.413	26566.02
725.755	26467.72
726.097	26372.81
726.439	26189.54
726.782	26234.51
727.124	26313.6
727.465	26295.3
727.807	26211.23
728.149	26081.07
728.491	26009.2
728.833	26140.27
729.175	25993.16
729.516	25851.24
729.858	25879.49
730.199	25924.69
730.541	25941.63
730.882	25928.53
731.224	25919.94
731.565	25710.68
731.906	25708.65
732.248	25703.45
732.589	25605.37
732.93	25508.2
733.271	25563.34
733.612	25632.94
733.953	25446.51
734.294	25455.55
734.635	25364.25
734.976	25437.01
735.317	25299.84
735.658	25337.36
735.999	25387.75
736.339	25216
736.68	25287.64
737.021	25276.34
737.361	25251.26
737.702	25190.47
738.042	25289.22
738.383	25204.48
738.723	25217.13
739.063	25013.07
739.404	25092.39
739.744	25039.74
740.084	24902.34
740.424	24890.81
740.764	24848.1
741.104	24867.99
741.444	24791.38
741.784	24760.65
742.124	24708.67
742.464	24783.47
742.804	24625.51
743.143	24758.39
743.483	24592.74
743.823	24366.99
744.162	24524.5
744.502	24559.07
744.841	24479.3
745.181	24508.23
745.52	24379.64
745.86	24479.07
746.199	24413.76
746.538	24316.14
746.877	24359.08
747.216	24351.17
747.556	24340.09
747.895	24233.43
748.234	24069.37
748.573	24126.31
748.911	24045.41
749.25	24119.31
749.589	23968.8
749.928	23977.84
750.267	24015.13
750.605	23891.29
750.944	23885.87
751.283	23793.67
751.621	23943.04
751.96	23754.57
752.298	23674.12
752.636	23734.01
752.975	23643.16
753.313	23506.9
753.651	23557.74
753.989	23493.34
754.327	23426.45
754.666	23339.67
755.004	23396.39
755.342	23424.41
755.679	23350.06
756.017	23112.1
756.355	23223.29
756.693	23214.93
757.031	23165.21
757.368	23085.21
757.706	23073.91
758.044	22902.17
758.381	22977.64
758.719	22765.9
759.056	22800.93
759.394	22777.88
759.731	22630.99
760.068	22643.19
760.405	22555.51
760.743	22486.58
761.08	22569.29
761.417	22345.8
761.754	22351.45
