Data from hue_170_FLMS001491_00025.txt Node
Date: Tue Feb 07 16:48:28 GMT 2017
User: dcchb
Spectrometer: FLMS00149
Trigger mode: 0
Integration Time (sec): 2.000000E-2
Scans to average: 10
Electric dark correction enabled: true
Nonlinearity correction enabled: false
Boxcar width: 0
XAxis mode: Wavelengths
Number of Pixels in Spectrum: 2048
>>>>>Begin Spectral Data<<<<<
341.393	1.4
341.776	1.4
342.16	1.4
342.543	-49
342.927	-57.81
343.31	-62.78
343.693	-72.05
344.077	-47.64
344.46	-63.91
344.843	-68.43
345.226	-49.67
345.61	-32.05
345.993	-4.93
346.376	-16.91
346.759	-0.64
347.142	38.23
347.525	43.43
347.908	52.92
348.291	94.28
348.674	91.57
349.057	98.57
349.44	121.85
349.823	145.58
350.206	160.72
350.588	188.96
350.971	208.4
351.354	211.34
351.737	236.42
352.119	253.82
352.502	275.29
352.884	254.5
353.267	294.95
353.65	285.23
354.032	305.57
354.414	322.75
354.797	331.79
355.179	311.45
355.562	330.88
355.944	339.02
356.326	331.33
356.709	322.97
357.091	367.04
357.473	357.32
357.855	356.87
358.238	334.95
358.62	327.27
359.002	344.89
359.384	326.14
359.766	350.99
360.148	356.42
360.53	345.34
360.912	346.7
361.294	322.97
361.676	319.81
362.057	324.33
362.439	340.15
362.821	326.81
363.203	346.47
363.584	341.5
363.966	319.81
364.348	332.46
364.729	317.55
365.111	315.06
365.493	295.85
365.874	325.91
366.256	338.34
366.637	313.03
367.019	324.1
367.4	316.87
367.781	328.17
368.163	296.98
368.544	331.79
368.925	318.68
369.306	337.66
369.688	334.27
370.069	337.21
370.45	320.94
370.831	315.29
371.212	315.06
371.593	299.92
371.974	309.86
372.355	321.84
372.736	322.52
373.117	329.3
373.498	325.91
373.879	332.46
374.26	310.99
374.641	331.33
375.021	323.42
375.402	321.62
375.783	310.09
376.163	332.24
376.544	332.01
376.925	346.02
377.305	308.96
377.686	323.88
378.066	326.81
378.447	341.05
378.827	330.2
379.208	333.82
379.588	317.1
379.968	331.33
380.349	336.53
380.729	336.98
381.109	349.19
381.489	331.11
381.87	326.59
382.25	339.69
382.63	349.86
383.01	318.9
383.39	365
383.77	348.06
384.15	343.76
384.53	341.28
384.91	344.21
385.29	360.71
385.67	353.03
386.049	359.13
386.429	360.26
386.809	359.13
387.189	350.54
387.568	371.11
387.948	342.41
388.328	362.97
388.707	366.81
389.087	387.6
389.466	343.99
389.846	324.78
390.225	376.3
390.605	356.87
390.984	409.98
391.363	350.99
391.743	359.13
392.122	385.79
392.501	373.14
392.881	376.08
393.26	376.53
393.639	391.9
394.018	376.3
394.397	386.25
394.776	381.28
395.155	376.08
395.534	399.81
395.913	382.18
396.292	395.29
396.671	390.54
397.05	372.01
397.429	378.11
397.808	407.94
398.186	409.75
398.565	403.87
398.944	387.83
399.323	383.31
399.701	411.56
400.08	417.88
400.458	391.44
400.837	405.68
401.215	423.99
401.594	408.62
401.972	406.36
402.351	422.63
402.729	391.44
403.107	415.85
403.486	416.3
403.864	416.53
404.242	432.35
404.62	447.94
404.999	421.73
405.377	416.75
405.755	437.32
406.133	456.98
406.511	442.97
406.889	440.48
407.267	450.2
407.645	461.05
408.023	442.29
408.401	449.3
408.779	465.34
409.156	479.8
409.534	444.32
409.912	473.02
410.29	508.96
410.667	496.07
411.045	496.07
411.422	501.95
411.8	519.12
412.178	510.31
412.555	487.71
412.933	498.79
413.31	523.42
413.687	519.35
414.065	524.32
414.442	538.11
414.819	535.4
415.197	552.12
415.574	542.18
415.951	541.72
416.328	558.45
416.705	553.02
417.082	560.48
417.46	569.29
417.837	586.92
418.214	572.46
418.591	582.63
418.967	590.76
419.344	567.49
419.721	586.69
420.098	618.56
420.475	585.79
420.852	609.29
421.228	607.71
421.605	634.38
421.982	624.43
422.358	649.97
422.735	636.41
423.111	661.72
423.488	660.82
423.864	657.88
424.241	676.41
424.617	691.78
424.994	679.57
425.37	705.11
425.746	717.99
426.123	712.57
426.499	704.2
426.875	720.02
427.251	718.22
427.627	745.11
428.003	734.26
428.379	757.99
428.756	752.56
429.132	767.71
429.507	775.39
429.883	777.88
430.259	776.52
430.635	792.79
431.011	782.39
431.387	806.35
431.763	807.48
432.138	814.03
432.514	853.35
432.89	866.01
433.265	865.78
433.641	870.98
434.016	860.81
434.392	902.84
434.767	912.79
435.143	911.66
435.518	909.85
435.894	943.29
436.269	939.68
436.644	937.64
437.02	960.02
437.395	962.95
437.77	956.4
438.145	974.71
438.52	998.43
438.895	1040.02
439.271	1023.52
439.646	1040.69
440.021	1054.93
440.395	1066
440.77	1068.71
441.145	1069.84
441.52	1069.84
441.895	1085.89
442.27	1100.13
442.645	1113.01
443.019	1124.98
443.394	1110.97
443.769	1116.85
444.143	1110.97
444.518	1176.73
444.892	1146.23
445.267	1143.74
445.641	1187.81
446.016	1191.88
446.39	1198.2
446.764	1204.53
447.139	1203.4
447.513	1233.23
447.887	1241.14
448.262	1236.39
448.636	1258.54
449.01	1273.46
449.384	1290.18
449.758	1287.69
450.132	1289.27
450.506	1291.08
450.88	1300.35
451.254	1308.03
451.628	1303.28
452.002	1346.45
452.376	1351.65
452.75	1369.05
453.123	1408.14
453.497	1402.04
453.871	1376.73
454.244	1424.86
454.618	1444.52
454.992	1454.69
455.365	1466.67
455.739	1506.9
456.112	1513.45
456.486	1505.77
456.859	1554.58
457.232	1589.15
457.606	1594.8
457.979	1580.57
458.352	1630.06
458.725	1643.16
459.099	1677.51
459.472	1710.73
459.845	1720
460.218	1722.71
460.591	1726.55
460.964	1732.88
461.337	1782.14
461.71	1850.39
462.083	1844.29
462.456	1857.85
462.829	1863.27
463.201	1897.85
463.574	1913.21
463.947	1966.32
464.32	1978.97
464.692	2015.36
465.065	2010.38
465.438	2051.97
465.81	2086.09
466.183	2126.99
466.555	2175.35
466.928	2175.58
467.3	2225.97
467.672	2258.51
468.045	2294.9
468.417	2297.16
468.789	2337.83
469.161	2406.31
469.534	2424.39
469.906	2441.33
470.278	2567.66
470.65	2541.44
471.022	2600.65
471.394	2667.54
471.766	2679.75
472.138	2729.69
472.51	2839.29
472.882	2872.06
473.253	2906.63
473.625	2929.68
473.997	3031.38
474.369	3029.34
474.74	3093.52
475.112	3188.89
475.484	3227.75
475.855	3316.79
476.227	3371.03
476.598	3467.52
476.97	3521.76
477.341	3610.79
477.713	3725.14
478.084	3727.18
478.455	3879.49
478.827	3939.6
479.198	4074.06
479.569	4067.05
479.94	4194.51
480.311	4209.65
480.682	4420.49
481.053	4511.56
481.424	4620.94
481.795	4692.57
482.166	4756.98
482.537	4878.56
482.908	4999.68
483.279	5062.51
483.65	5211.88
484.021	5400.8
484.391	5479.9
484.762	5518.54
485.133	5669.5
485.503	5739.1
485.874	5916.5
486.244	6037.4
486.615	6157.17
486.985	6213.66
487.356	6399.42
487.726	6442.58
488.097	6619.3
488.467	6714.67
488.837	6912.63
489.207	6944.04
489.578	7149.91
489.948	7243.92
490.318	7344.71
490.688	7396.68
491.058	7642.33
491.428	7755.09
491.798	7867.86
492.168	8027.85
492.538	8127.29
492.908	8231.24
493.278	8410.67
493.648	8454.51
494.017	8542.19
494.387	8707.84
494.757	8748.06
495.126	8933.59
495.496	8974.95
495.866	9027.6
496.235	9176.75
496.605	9249.06
496.974	9323.41
497.344	9451.09
497.713	9514.14
498.082	9638.43
498.452	9721.37
498.821	9782.61
499.19	9780.12
499.559	10019.89
499.928	10005.2
500.298	10130.62
500.667	10214.46
501.036	10207.91
501.405	10355.25
501.774	10429.37
502.143	10483.16
502.512	10528.58
502.88	10605.41
503.249	10652.64
503.618	10700.55
503.987	10722.47
504.356	10826.2
504.724	10979.19
505.093	10891.51
505.462	11049.47
505.83	11140.99
506.199	11158.85
506.567	11274.55
506.936	11248.79
507.304	11429.35
507.672	11329.46
508.041	11468.67
508.409	11501.66
508.777	11617.82
509.145	11579.4
509.514	11629.34
509.882	11707.31
510.25	11655.56
510.618	11720.86
510.986	11774.2
511.354	11884.7
511.722	11938.71
512.09	11993.17
512.458	11994.98
512.826	12048.99
513.193	12087.63
513.561	12125.6
513.929	12232.72
514.297	12251.02
514.664	12332.6
515.032	12239.27
515.4	12405.59
515.767	12373.95
516.135	12373.95
516.502	12371.92
516.869	12553.16
517.237	12488.53
517.604	12496.89
517.972	12569.88
518.339	12641.52
518.706	12560.62
519.073	12538.7
519.44	12651.24
519.808	12725.36
520.175	12708.86
520.542	12819.37
520.909	12823.89
521.276	12757.9
521.643	12878.12
522.009	12905.01
522.376	12929.87
522.743	12945.46
523.11	12974.62
523.477	13066.59
523.843	13054.16
524.21	13111.34
524.577	13253.48
524.943	13249.41
525.31	13180.71
525.676	13326.25
526.043	13169.64
526.409	13324.89
526.776	13356.75
527.142	13366.24
527.508	13348.39
527.874	13425.23
528.241	13369.18
528.607	13362.18
528.973	13505.45
529.339	13400.82
529.705	13522.62
530.071	13497.54
530.437	13438.79
530.803	13403.76
531.169	13443.53
531.535	13444.21
531.901	13383.65
532.267	13449.18
532.632	13440.14
532.998	13394.27
533.364	13384.1
533.73	13333.25
534.095	13475.39
534.461	13368.5
534.826	13451.44
535.192	13439.46
535.557	13492.79
535.923	13407.15
536.288	13309.97
536.653	13440.14
537.019	13191.11
537.384	13226.59
537.749	13271.33
538.114	13142.75
538.479	13105.91
538.845	13135.74
539.21	13144.56
539.575	13128.51
539.94	13097.1
540.305	13115.63
540.67	13009.19
541.034	12941.17
541.399	12988.4
541.764	12886.94
542.129	12922.64
542.494	12871.57
542.858	12829.54
543.223	12800.16
543.587	12838.35
543.952	12655.75
544.316	12666.83
544.681	12639.71
545.045	12667.05
545.41	12759.03
545.774	12690.78
546.138	12575.3
546.503	12517.45
546.867	12472.71
547.231	12593.38
547.595	12505.25
547.959	12444.01
548.324	12373.28
548.688	12245.37
549.052	12347.51
549.416	12298.93
549.779	12248.31
550.143	12210.12
550.507	12224.81
550.871	12156.78
551.235	12088.09
551.599	12189.55
551.962	12094.19
552.326	12193.85
552.689	12078.37
553.053	12092.61
553.417	12045.15
553.78	12104.81
554.143	11937.13
554.507	11917.02
554.87	11954.98
555.234	12029.78
555.597	11923.57
555.96	11848.32
556.323	11862.56
556.686	11837.7
557.05	11913.4
557.413	11896.68
557.776	11749.34
558.139	11926.28
558.502	11721.54
558.865	11680.19
559.228	11832.73
559.59	11772.61
559.953	11737.59
560.316	11891.48
560.679	11754.54
561.041	11864.59
561.404	11783.01
561.767	11837.02
562.129	11786.63
562.492	11915.66
562.854	11755.67
563.217	11784.82
563.579	11812.61
563.941	11813.74
564.304	11843.57
564.666	11860.3
565.028	11779.85
565.39	11808.55
565.753	11827.98
566.115	11850.13
566.477	11916.57
566.839	11867.53
567.201	11903.23
567.563	11867.53
567.925	11886.51
568.287	11941.65
568.648	11942.1
569.01	11945.27
569.372	12051.93
569.734	11946.85
570.095	11986.62
570.457	11972.16
570.819	12015.32
571.18	11940.75
571.542	12052.38
571.903	11979.39
572.265	12079.5
572.626	12085.15
572.987	12032.04
573.349	12111.81
573.71	12089.22
574.071	12053.06
574.432	12108.88
574.794	12184.13
575.155	12116.79
575.516	12048.09
575.877	12192.49
576.238	12126.05
576.599	12124.7
576.96	12196.11
577.32	12164.02
577.681	12142.55
578.042	12186.39
578.403	12154.75
578.763	12109.55
579.124	12155.2
579.485	12173.28
579.845	12075.66
580.206	12088.99
580.566	12126.73
580.927	12142.55
581.287	12133.51
581.648	12121.53
582.008	12173.28
582.368	12108.65
582.728	12129.67
583.089	12182.55
583.449	12189.1
583.809	12051.25
584.169	12167.41
584.529	12077.01
584.889	12203.79
585.249	12030.23
585.609	12017.81
585.969	12085.15
586.329	12044.02
586.688	12003.12
587.048	12163.56
587.408	11978.26
587.768	12050.57
588.127	11982.1
588.487	11918.15
588.846	12033.85
589.206	11964.93
589.565	11962.67
589.925	11977.81
590.284	11908.66
590.643	11899.62
591.003	11925.15
591.362	11970.58
591.721	11933.29
592.08	11942.33
592.44	11974.64
592.799	11864.14
593.158	11871.82
593.517	11882.44
593.876	11916.11
594.235	11940.07
594.593	11867.3
594.952	11865.49
595.311	11858.71
595.67	11889.67
596.029	11907.07
596.387	11846.74
596.746	11909.11
597.104	11835.44
597.463	11885.83
597.822	11901.88
598.18	11827.53
598.538	11799.51
598.897	11837.92
599.255	11834.99
599.613	11892.61
599.972	11844.02
600.33	11763.57
600.688	11798.38
601.046	11797.47
601.404	11900.52
601.762	11915.89
602.12	11893.29
602.478	11940.52
602.836	11894.64
603.194	11831.37
603.552	11814.87
603.91	11774.42
604.268	11803.57
604.625	11792.5
604.983	11808.55
605.341	11689.68
605.698	11855.78
606.056	11858.26
606.413	11741.43
606.771	11820.3
607.128	11849.67
607.485	11749.56
607.843	11847.41
608.2	11824.59
608.557	11873.18
608.914	11844.48
609.272	11925.38
609.629	11844.48
609.986	11953.4
610.343	11890.35
610.7	11976.45
611.057	11950.24
611.414	11892.39
611.771	11973.29
612.127	12012.83
612.484	11914.76
612.841	11953.17
613.198	11952.04
613.554	12015.77
613.911	12048.31
614.267	12104.58
614.624	12009.67
614.98	12021.2
615.337	12122.44
615.693	12077.69
616.05	12042.66
616.406	12114.53
616.762	12093.74
617.118	12080.4
617.475	12039.95
617.831	12061.87
618.187	12057.13
618.543	12143.23
618.899	12178.48
619.255	12077.46
619.611	12180.29
619.967	12154.3
620.323	12193.17
620.678	12098.71
621.034	12148.42
621.39	12105.94
621.746	12090.57
622.101	12212.6
622.457	12168.76
622.812	12125.15
623.168	12168.31
623.523	12183.68
623.879	12179.61
624.234	12080.18
624.589	12103.23
624.945	12173.73
625.3	12167.18
625.655	12114.53
626.01	12219.83
626.365	12155.2
626.72	12198.82
627.075	12078.59
627.43	12149.55
627.785	12034.98
628.14	12145.49
628.495	12093.28
628.85	12111.59
629.205	12037.92
629.559	12162.66
629.914	12124.7
630.269	12110.23
630.623	12048.09
630.978	11990.91
631.332	12088.99
631.687	11981.65
632.041	12025.26
632.396	12031.14
632.75	11953.85
633.104	11962.67
633.459	11943.46
633.813	11947.07
634.167	11883.57
634.521	11909.33
634.875	11910.69
635.229	11912.95
635.583	11809.45
635.937	11786.63
636.291	11880.41
636.645	11800.41
636.999	11824.59
637.352	11866.4
637.706	11730.58
638.06	11834.08
638.413	11727.19
638.767	11750.02
639.121	11736
639.474	11660.07
639.828	11730.58
640.181	11658.27
640.534	11700.98
640.888	11614.65
641.241	11596.8
641.594	11546.63
641.947	11646.52
642.301	11640.87
642.654	11625.5
643.007	11652.84
643.36	11546.18
643.713	11542.34
644.066	11637.93
644.419	11556.12
644.771	11521.32
645.124	11384.83
645.477	11352.96
645.83	11302.12
646.182	11254.21
646.535	11239.29
646.888	11227.09
647.24	11177.6
647.593	11265.51
647.945	11246.53
648.298	11198.84
648.65	11146.42
649.002	11158.39
649.355	11220.99
649.707	11203.36
650.059	11272.06
650.411	11308.22
650.763	11421.89
651.115	11455.56
651.467	11402
651.819	11439.06
652.171	11443.58
652.523	11377.37
652.875	11356.81
653.227	11395
653.578	11410.14
653.93	11399.74
654.282	11395
654.633	11478.38
654.985	11409.91
655.337	11481.1
655.688	11408.33
656.039	11477.48
656.391	11376.92
656.742	11347.77
657.094	11407.88
657.445	11446.3
657.796	11386.41
658.147	11471.15
658.498	11389.57
658.849	11496.01
659.2	11472.74
659.551	11453.98
659.902	11516.58
660.253	11452.85
660.604	11480.64
660.955	11453.75
661.306	11531.94
661.656	11514.99
662.007	11423.7
662.358	11467.99
662.708	11476.35
663.059	11445.62
663.409	11439.06
663.76	11515.22
664.11	11448.33
664.461	11432.28
664.811	11467.54
665.161	11526.07
665.511	11475.9
665.862	11442.68
666.212	11502.56
666.562	11471.38
666.912	11443.81
667.262	11519.29
667.612	11530.59
667.962	11578.27
668.312	11441.32
668.662	11565.61
669.011	11435.9
669.361	11433.64
669.711	11453.75
670.06	11433.87
670.41	11476.35
670.76	11434.32
671.109	11439.52
671.459	11430.48
671.808	11483.36
672.157	11456.24
672.507	11399.52
672.856	11356.81
673.205	11435.67
673.554	11456.24
673.904	11337.82
674.253	11443.13
674.602	11345.28
674.951	11230.71
675.3	11208.11
675.649	11363.81
675.998	11375.56
676.346	11282.01
676.695	11340.54
677.044	11229.8
677.393	11309.58
677.741	11296.02
678.09	11251.72
678.438	11167.43
678.787	11247.66
679.135	11235.91
679.484	11144.16
679.832	11256.47
680.181	11174.89
680.529	11167.88
680.877	11111.16
681.225	11150.94
681.573	11152.52
681.922	11073.2
682.27	11066.87
682.618	11128.11
682.966	11047.66
683.314	11048.57
683.661	11009.47
684.009	10941.68
684.357	10945.29
684.705	10920.89
685.053	10953.65
685.4	10858.06
685.748	10834.11
686.095	10811.96
686.443	10852.86
686.79	10780.55
687.138	10785.75
687.485	10770.83
687.832	10719.99
688.18	10695.81
688.527	10639.76
688.874	10586.66
689.221	10631.4
689.568	10516.15
689.915	10534.23
690.262	10539.2
690.609	10532.19
690.956	10431.86
691.303	10406.55
691.65	10369.49
691.997	10350.96
692.344	10288.36
692.69	10247.46
693.037	10256.72
693.383	10226.89
693.73	10195.93
694.077	10168.36
694.423	10131.3
694.769	10076.84
695.116	10146.22
695.462	10003.62
695.808	10027.12
696.155	9960.68
696.501	9969.27
696.847	9891.76
697.193	9851.53
697.539	9898.77
697.885	9821.03
698.231	9700.58
698.577	9723.63
698.923	9704.65
699.269	9703.97
699.614	9593.69
699.96	9587.59
700.306	9624.42
700.651	9505.33
700.997	9460.81
701.342	9449.06
701.688	9415.39
702.033	9360.25
702.379	9383.3
702.724	9380.36
703.069	9363.41
703.415	9220.82
703.76	9267.14
704.105	9284.54
704.45	9188.05
704.795	9117.54
705.14	9135.85
705.485	9069.18
705.83	9029.18
706.175	9089.52
706.52	9023.53
706.865	8989.64
707.209	9001.84
707.554	8953.25
707.899	8938.34
708.243	8860.83
708.588	8856.76
708.932	8794.61
709.277	8845.69
709.621	8819.25
709.966	8711.68
710.31	8714.84
710.654	8661.74
710.998	8703.09
711.342	8657.89
711.687	8641.62
712.031	8638.91
712.375	8578.12
712.719	8562.3
713.063	8573.6
713.407	8506.94
713.75	8564.34
714.094	8532.93
714.438	8475.75
714.782	8555.07
715.125	8404.79
715.469	8485.24
715.812	8430.33
716.156	8407.5
716.499	8370.67
716.843	8392.14
717.186	8315.08
717.53	8388.07
717.873	8423.78
718.216	8323.89
718.559	8339.94
718.902	8302.42
719.246	8303.1
719.589	8277.56
719.932	8220.84
720.275	8169.77
720.617	8177.91
720.96	8191.01
721.303	8238.47
721.646	8321.86
721.989	8159.6
722.331	8217.23
722.674	8173.39
723.016	8190.79
723.359	8173.16
723.701	8146.49
724.044	8125.93
724.386	8074.41
724.729	8167.96
725.071	8159.38
725.413	8135.2
725.755	8026.5
726.097	8141.3
726.439	8064.46
726.782	8081.41
727.124	8065.14
727.465	8128.19
727.807	8055.65
728.149	8030.57
728.491	7999.15
728.833	8112.6
729.175	8083.45
729.516	8005.71
729.858	8011.36
730.199	8003.9
730.541	7951.25
730.882	8010.68
731.224	8035.54
731.565	7961.87
731.906	7999.83
732.248	7963.67
732.589	7998.25
732.93	7974.97
733.271	7913.73
733.612	7959.83
733.953	7974.52
734.294	7886.84
734.635	7927.97
734.976	8000.51
735.317	7952.15
735.658	7953.28
735.999	8009.32
736.339	7944.01
736.68	7973.84
737.021	8009.32
737.361	7989.21
737.702	8017.23
738.042	8002.54
738.383	8027.85
738.723	8051.58
739.063	8021.98
739.404	8125.25
739.744	8084.12
740.084	8094.74
740.424	8070.11
740.764	8099.72
741.104	8108.53
741.444	8062.88
741.784	8053.62
742.124	8171.13
742.464	8130.45
742.804	8164.35
743.143	8092.26
743.483	8247.51
743.823	8199.83
744.162	8265.59
744.502	8266.27
744.841	8286.15
745.181	8348.07
745.52	8360.27
745.86	8364.57
746.199	8348.07
746.538	8537.9
746.877	8562.98
747.216	8613.38
747.556	8551.91
747.895	8611.12
748.234	8659.7
748.573	8690.89
748.911	8792.81
749.25	8882.29
749.589	8852.24
749.928	8970.65
750.267	9087.49
750.605	9131.55
750.944	9111.44
751.283	9184.89
751.621	9315.05
751.96	9343.53
752.298	9487.48
752.636	9550.07
752.975	9625.78
753.313	9691.54
753.651	9792.55
753.989	9868.94
754.327	9990.51
754.666	10109.38
755.004	10222.37
755.342	10300.79
755.679	10443.16
756.017	10519.54
756.355	10729.93
756.693	10859.42
757.031	10929.7
757.368	11098.96
757.706	11285.85
758.044	11325.62
758.381	11512.51
758.719	11653.52
