Data from hue_120_FLMS001491_00097.txt Node
Date: Tue Feb 07 17:00:17 GMT 2017
User: dcchb
Spectrometer: FLMS00149
Trigger mode: 0
Integration Time (sec): 2.000000E-2
Scans to average: 10
Electric dark correction enabled: true
Nonlinearity correction enabled: false
Boxcar width: 0
XAxis mode: Wavelengths
Number of Pixels in Spectrum: 2048
>>>>>Begin Spectral Data<<<<<
341.393	-10.23
341.776	-10.23
342.16	-10.23
342.543	-83.67
342.927	-44.8
343.31	-68.53
343.693	-61.75
344.077	-56.33
344.46	-40.28
344.843	-77.34
345.226	-32.82
345.61	-37.12
345.993	-15.88
346.376	-15.2
346.759	24.8
347.142	22.54
347.525	51.69
347.908	53.05
348.291	70
348.674	75.42
349.057	107.74
349.44	139.83
349.823	144.57
350.206	173.72
350.588	190.22
350.971	196.1
351.354	215.76
351.737	234.74
352.119	254.85
352.502	251.69
352.884	285.13
353.267	304.57
353.65	275.42
354.032	287.62
354.414	302.53
354.797	317.45
355.179	313.83
355.562	327.84
355.944	335.98
356.326	332.59
356.709	317
357.091	326.26
357.473	343.21
357.855	342.53
358.238	339.6
358.62	332.82
359.002	325.36
359.384	313.38
359.766	335.53
360.148	330.78
360.53	323.32
360.912	332.14
361.294	325.81
361.676	354.51
362.057	327.17
362.439	310.44
362.821	316.32
363.203	330.1
363.584	311.12
363.966	306.15
364.348	311.12
364.729	322.19
365.111	314.74
365.493	324
365.874	320.84
366.256	328.52
366.637	309.54
367.019	334.62
367.4	317.9
367.781	323.32
368.163	330.56
368.544	325.58
368.925	313.38
369.306	317.22
369.688	302.99
370.069	311.12
370.45	324.68
370.831	306.15
371.212	333.04
371.593	310.9
371.974	309.09
372.355	304.57
372.736	303.44
373.117	318.13
373.498	309.77
373.879	328.07
374.26	319.71
374.641	309.54
375.021	318.81
375.402	327.17
375.783	312.7
376.163	325.36
376.544	321.07
376.925	334.17
377.305	318.35
377.686	326.71
378.066	308.86
378.447	336.43
378.827	321.29
379.208	320.61
379.588	328.52
379.968	330.33
380.349	330.33
380.729	318.35
381.109	340.73
381.489	327.84
381.87	352.48
382.25	336.66
382.63	336.66
383.01	347.96
383.39	339.82
383.77	353.38
384.15	348.63
384.53	354.28
384.91	370.1
385.29	340.73
385.67	343.44
386.049	354.28
386.429	356.77
386.809	360.84
387.189	350.44
387.568	354.51
387.948	344.34
388.328	354.06
388.707	360.61
389.087	371.46
389.466	378.92
389.846	376.88
390.225	377.79
390.605	373.94
390.984	367.39
391.363	372.59
391.743	364
392.122	363.55
392.501	383.21
392.881	376.2
393.26	359.48
393.639	373.27
394.018	381.18
394.397	379.37
394.776	351.12
395.155	370.1
395.534	376.88
395.913	377.11
396.292	363.32
396.671	387.05
397.05	394.06
397.429	396.54
397.808	384.34
398.186	373.49
398.565	407.84
398.944	398.35
399.323	390.67
399.701	404.9
400.08	408.29
400.458	387.73
400.837	408.52
401.215	415.98
401.594	412.81
401.972	411.91
402.351	396.54
402.729	392.93
403.107	408.75
403.486	406.71
403.864	419.37
404.242	402.64
404.62	415.07
404.999	436.54
405.377	437.9
405.755	422.08
406.133	410.55
406.511	438.8
406.889	447.16
407.267	424.57
407.645	448.07
408.023	444.68
408.401	447.62
408.779	451.46
409.156	462.08
409.534	423.21
409.912	439.25
410.29	436.09
410.667	465.24
411.045	472.47
411.422	478.8
411.8	466.82
412.178	467.73
412.555	467.28
412.933	457.78
413.31	490.1
413.687	496.88
414.065	484
414.442	470.89
414.819	488.74
415.197	498.91
415.574	487.39
415.951	501.17
416.328	494.39
416.705	491.46
417.082	493.04
417.46	518.35
417.837	508.63
418.214	513.6
418.591	532.36
418.967	529.87
419.344	518.35
419.721	504.79
420.098	514.28
420.475	539.59
420.852	548.18
421.228	549.31
421.605	550.89
421.982	529.65
422.358	562.41
422.735	534.62
423.111	547.5
423.488	569.19
423.864	582.08
424.241	593.83
424.617	583.21
424.994	574.62
425.37	590.89
425.746	598.12
426.123	591.34
426.499	588.85
426.875	586.82
427.251	614.84
427.627	620.04
428.003	627.95
428.379	615.07
428.756	616.65
429.132	623.43
429.507	641.28
429.883	631.57
430.259	624.79
430.635	642.86
431.011	659.59
431.387	655.29
431.763	662.3
432.138	679.02
432.514	662.52
432.89	674.05
433.265	697.33
433.641	691
434.016	721.96
434.392	721.51
434.767	726.25
435.143	723.31
435.518	721.51
435.894	754.05
436.269	709.76
436.644	748.85
437.02	761.51
437.395	750.88
437.77	765.8
438.145	806.93
438.52	792.47
438.895	801.73
439.271	782.97
439.646	789.98
440.021	807.38
440.395	784.78
440.77	819.13
441.145	819.13
441.52	834.72
441.895	828.62
442.27	818.68
442.645	821.16
443.019	824.55
443.394	846.7
443.769	869.75
444.143	841.05
444.518	856.64
444.892	867.72
445.267	857.77
445.641	884.67
446.016	880.37
446.39	880.37
446.764	895.06
447.139	887.15
447.513	891.9
447.887	910.2
448.262	921.5
448.636	917.66
449.01	922.41
449.384	923.54
449.758	905.68
450.132	954.27
450.506	945.68
450.88	942.07
451.254	960.14
451.628	963.31
452.002	984.32
452.376	988.84
452.75	1012.12
453.123	1000.14
453.497	1012.57
453.871	1022.97
454.244	1036.53
454.618	1050.54
454.992	1072.68
455.365	1068.16
455.739	1074.72
456.112	1095.96
456.486	1100.25
456.859	1114.72
457.232	1131.89
457.606	1148.39
457.979	1134.38
458.352	1152.91
458.725	1194.26
459.099	1193.13
459.472	1218.22
459.845	1219.57
460.218	1203.53
460.591	1225.22
460.964	1243.53
461.337	1284.66
461.71	1299.8
462.083	1295.95
462.456	1303.86
462.829	1366.01
463.201	1356.97
463.574	1342.51
463.947	1368.04
464.32	1405.1
464.692	1417.99
465.065	1431.77
465.438	1454.37
465.81	1482.39
466.183	1480.13
466.555	1528.04
466.928	1521.71
467.3	1538.21
467.672	1574.14
468.045	1602.84
468.417	1624.53
468.789	1650.97
469.161	1681.93
469.534	1716.96
469.906	1741.14
470.278	1777.75
470.65	1805.55
471.022	1839.9
471.394	1862.72
471.766	1889.16
472.138	1923.51
472.51	1967.8
472.882	2003.73
473.253	2034.47
473.625	2090.51
473.997	2128.25
474.369	2192.2
474.74	2220.68
475.112	2262.71
475.484	2330.73
475.855	2400.56
476.227	2409.82
476.598	2516.26
476.97	2556.94
477.341	2584.06
477.713	2704.51
478.084	2716.26
478.455	2799.64
478.827	2874.22
479.198	2996.47
479.569	2990.37
479.94	3111.05
480.311	3143.59
480.682	3242.34
481.053	3423.13
481.424	3448.44
481.795	3536.12
482.166	3645.05
482.537	3699.06
482.908	3837.81
483.279	3918.94
483.65	4029.67
484.021	4155.09
484.391	4258.36
484.762	4356.89
485.133	4419.49
485.503	4528.64
485.874	4646.6
486.244	4746.49
486.615	4906.71
486.985	5055.18
487.356	5187.38
487.726	5290.43
488.097	5443.19
488.467	5521.61
488.837	5701.04
489.207	5784.2
489.578	5941.03
489.948	6057.41
490.318	6234.13
490.688	6339.21
491.058	6464.41
491.428	6615.59
491.798	6695.81
492.168	6942.36
492.538	7000.21
492.908	7157.04
493.278	7329.24
493.648	7406.08
494.017	7544.83
494.387	7658.95
494.757	7857.36
495.126	7925.84
495.496	8027.76
495.866	8184.36
496.235	8331.48
496.605	8391.59
496.974	8581.86
497.344	8717.45
497.713	8807.62
498.082	8921.74
498.452	8992.7
498.821	9164.22
499.19	9201.06
499.559	9366.7
499.928	9507.26
500.298	9568.05
500.667	9683.98
501.036	9661.61
501.405	9926.69
501.774	9881.94
502.143	10034.26
502.512	10149.28
502.88	10191.31
503.249	10278.32
503.618	10439.22
503.987	10545.2
504.356	10538.88
504.724	10664.75
505.093	10747.68
505.462	10751.53
505.83	10843.05
506.199	10963.05
506.567	11159.2
506.936	11185.86
507.304	11286.65
507.672	11314.45
508.041	11389.7
508.409	11471.51
508.777	11533.43
509.145	11694.55
509.514	11595.57
509.882	11763.48
510.25	11763.7
510.618	11876.24
510.986	11887.99
511.354	12049.57
511.722	12093.64
512.09	12205.05
512.458	12086.41
512.826	12208.66
513.193	12341.09
513.561	12355.78
513.929	12438.49
514.297	12509.45
514.664	12572.49
515.032	12613.85
515.4	12595.54
515.767	12645.03
516.135	12725.71
516.502	12660.63
516.869	12888.19
517.237	12850.68
517.604	12845.71
517.972	12948.08
518.339	12979.72
518.706	12991.92
519.073	12998.02
519.44	13030.56
519.808	13114.85
520.175	13081.18
520.542	13266.04
520.909	13190.11
521.276	13228.3
521.643	13330.44
522.009	13397.11
522.376	13465.8
522.743	13479.82
523.11	13456.54
523.477	13594.16
523.843	13593.26
524.21	13669.64
524.577	13769.75
524.943	13736.31
525.31	13799.35
525.676	13887.04
526.043	13927.26
526.409	13868.96
526.776	13912.35
527.142	13934.49
527.508	13992.34
527.874	14032.79
528.241	14036.86
528.607	14015.62
528.973	14121.61
529.339	14084.54
529.705	14072.34
530.071	14163.41
530.437	14144.66
530.803	14172.68
531.169	14198.44
531.535	14117.76
531.901	14139.01
532.267	14144.66
532.632	14129.29
532.998	14172.68
533.364	14157.99
533.73	14186.24
534.095	14296.06
534.461	14199.12
534.826	14221.72
535.192	14274.6
535.557	14260.13
535.923	14101.27
536.288	14119.35
536.653	14090.87
537.019	14038.9
537.384	14044.32
537.749	14121.61
538.114	13989.18
538.479	14036.86
538.845	14032.34
539.21	13890.65
539.575	13960.71
539.94	13904.21
540.305	13981.27
540.67	13842.29
541.034	13907.37
541.399	13807.49
541.764	13838.45
542.129	13847.04
542.494	13814.04
542.858	13823.31
543.223	13797.09
543.587	13770.65
543.952	13802.52
544.316	13672.35
544.681	13706.25
545.045	13604.33
545.41	13678
545.774	13614.27
546.138	13571.79
546.503	13554.84
546.867	13487.05
547.231	13583.09
547.595	13467.61
547.959	13446.82
548.324	13370.89
548.688	13455.63
549.052	13351.23
549.416	13291.35
549.779	13336.09
550.143	13293.61
550.507	13289.09
550.871	13275.98
551.235	13216.77
551.599	13301.51
551.962	13192.14
552.326	13185.81
552.689	13150.78
553.053	13179.26
553.417	13049.54
553.78	13244.79
554.143	13039.37
554.507	12999.38
554.87	13025.14
555.234	13140.61
555.597	13032.6
555.96	13031.69
556.323	13090.67
556.686	13024.69
557.05	13017
557.413	13110.79
557.776	12995.76
558.139	13019.26
558.502	12987.4
558.865	12981.07
559.228	12997.34
559.59	13027.85
559.953	13027.4
560.316	13044.12
560.679	13037.34
561.041	13170.67
561.404	13090.67
561.767	13090.45
562.129	13035.08
562.492	13037.11
562.854	13036.66
563.217	13056.1
563.579	13081.18
563.941	13083.89
564.304	13130.9
564.666	13132.25
565.028	13143.55
565.39	13099.71
565.753	13214.29
566.115	13251.35
566.477	13236.43
566.839	13272.36
567.201	13243.44
567.563	13285.47
567.925	13250.22
568.287	13310.78
568.648	13301.06
569.01	13312.81
569.372	13391.91
569.734	13295.87
570.095	13282.53
570.457	13343.32
570.819	13364.79
571.18	13312.14
571.542	13464.9
571.903	13418.35
572.265	13449.08
572.626	13450.66
572.987	13447.95
573.349	13529.31
573.71	13529.53
574.071	13522.3
574.432	13514.62
574.794	13596.87
575.155	13621.28
575.516	13453.6
575.877	13568.17
576.238	13557.33
576.599	13644.33
576.96	13600.94
577.32	13596.87
577.681	13602.3
578.042	13622.86
578.403	13592.81
578.763	13623.99
579.124	13637.55
579.485	13609.76
579.845	13641.17
580.206	13639.58
580.566	13641.17
580.927	13605.01
581.287	13652.92
581.648	13561.62
582.008	13705.35
582.368	13595.52
582.728	13564.56
583.089	13570.89
583.449	13740.37
583.809	13575.63
584.169	13488.85
584.529	13566.37
584.889	13652.92
585.249	13541.73
585.609	13504.45
585.969	13600.49
586.329	13556.42
586.688	13596.2
587.048	13466.26
587.408	13498.8
587.768	13478.69
588.127	13492.02
588.487	13445.92
588.846	13523.88
589.206	13466.71
589.565	13447.05
589.925	13432.58
590.284	13532.47
590.643	13406.14
591.003	13444.56
591.362	13473.49
591.721	13491.57
592.08	13467.16
592.44	13451.12
592.799	13334.96
593.158	13400.04
593.517	13421.74
593.876	13457.89
594.235	13396.65
594.593	13418.12
594.952	13421.74
595.311	13313.49
595.67	13355.75
596.029	13419.48
596.387	13437.56
596.746	13411.34
597.104	13339.03
597.463	13372.25
597.822	13381.51
598.18	13315.75
598.538	13319.37
598.897	13351.46
599.255	13272.81
599.613	13441.62
599.972	13362.53
600.33	13346.94
600.688	13356.88
601.046	13389.42
601.404	13408.63
601.762	13367.5
602.12	13338.35
602.478	13439.82
602.836	13435.75
603.194	13397.78
603.552	13285.24
603.91	13328.63
604.268	13346.94
604.625	13373.38
604.983	13377.9
605.341	13289.09
605.698	13326.37
606.056	13392.59
606.413	13356.2
606.771	13422.42
607.128	13409.99
607.485	13282.31
607.843	13397.56
608.2	13367.5
608.557	13510.55
608.914	13394.39
609.272	13455.41
609.629	13454.96
609.986	13530.21
610.343	13473.26
610.7	13561.85
611.057	13551.23
611.414	13454.73
611.771	13523.43
612.127	13550.32
612.484	13494.05
612.841	13612.47
613.198	13488.63
613.554	13506.71
613.911	13606.37
614.267	13529.53
614.624	13499.25
614.98	13562.52
615.337	13626.25
615.693	13595.74
616.05	13687.49
616.406	13743.54
616.762	13711.45
617.118	13745.57
617.475	13621.51
617.831	13687.27
618.187	13724.33
618.543	13730.66
618.899	13801.16
619.255	13838
619.611	13730.43
619.967	13811.33
620.323	13801.39
620.678	13739.92
621.034	13670.09
621.39	13752.58
621.746	13755.97
622.101	13853.59
622.457	13721.16
622.812	13770.2
623.168	13766.59
623.523	13806.13
623.879	13800.71
624.234	13708.51
624.589	13696.98
624.945	13741.5
625.3	13807.72
625.655	13769.98
626.01	13778.79
626.365	13741.96
626.72	13702.41
627.075	13695.4
627.43	13746.47
627.785	13693.14
628.14	13748.51
628.495	13716.87
628.85	13697.66
629.205	13711
629.559	13803.42
629.914	13662.18
630.269	13666.48
630.623	13656.08
630.978	13662.86
631.332	13604.33
631.687	13729.75
632.041	13602.75
632.396	13645.69
632.75	13632.35
633.104	13752.35
633.459	13586.48
633.813	13596.87
634.167	13583.77
634.521	13638.91
634.875	13593.26
635.229	13531.11
635.583	13469.87
635.937	13515.07
636.291	13450.89
636.645	13413.15
636.999	13291.12
637.352	13450.89
637.706	13275.98
638.06	13435.52
638.413	13344.45
638.767	13368.63
639.121	13252.93
639.474	13288.41
639.828	13275.3
640.181	13244.34
640.534	13299.93
640.888	13269.88
641.241	13185.81
641.594	13221.29
641.947	13290.22
642.301	13199.82
642.654	13159.6
643.007	13260.61
643.36	13200.27
643.713	13143.33
644.066	13258.8
644.419	13169.31
644.771	13094.29
645.124	12988.75
645.477	13001.64
645.83	12953.28
646.182	12860.17
646.535	12779.04
646.888	12744.24
647.24	12660.63
647.593	12792.83
647.945	12773.17
648.298	12716.45
648.65	12647.97
649.002	12692.04
649.355	12663.79
649.707	12750.12
650.059	12815.65
650.411	12943.33
650.763	12921.19
651.115	13013.16
651.467	13020.84
651.819	12989.66
652.171	12918.02
652.523	12951.92
652.875	13017.45
653.227	12971.13
653.578	13034.86
653.93	12968.64
654.282	12922.99
654.633	12892.26
654.985	12905.37
655.337	12915.31
655.688	12990.56
656.039	13035.53
656.391	12901.75
656.742	13008.42
657.094	12949.21
657.445	13018.58
657.796	13026.04
658.147	12959.6
658.498	12951.02
658.849	12985.14
659.2	12973.16
659.551	12960.96
659.902	12987.62
660.253	13041.86
660.604	13016.1
660.955	12980.85
661.306	13040.5
661.656	13052.48
662.007	13011.13
662.358	13021.97
662.708	13004.12
663.059	13041.18
663.409	12936.1
663.76	12977.46
664.11	13047.51
664.461	13025.14
664.811	13065.14
665.161	13095.19
665.511	13001.41
665.862	13108.98
666.212	13043.67
666.562	13078.47
666.912	13057.91
667.262	12983.33
667.612	13070.33
667.962	13034.86
668.312	12961.18
668.662	13087.28
669.011	12982.43
669.361	13014.29
669.711	13003.22
670.06	12968.42
670.41	12881.19
670.76	12875.09
671.109	13007.74
671.459	12963.44
671.808	12956.21
672.157	12997.34
672.507	12868.53
672.856	12881.86
673.205	12894.97
673.554	12928.64
673.904	12898.36
674.253	12986.72
674.602	12919.15
674.951	12764.35
675.3	12655.66
675.649	12912.37
675.998	12836.44
676.346	12881.41
676.695	12864.46
677.044	12734.52
677.393	12836.89
677.741	12752.83
678.09	12804.13
678.438	12773.84
678.787	12766.84
679.135	12745.6
679.484	12673.06
679.832	12750.57
680.181	12586.05
680.529	12613.85
680.877	12573.17
681.225	12675.09
681.573	12661.76
681.922	12519.61
682.27	12465.83
682.618	12562.78
682.966	12488.2
683.314	12484.81
683.661	12419.96
684.009	12386.96
684.357	12352.39
684.705	12361.2
685.053	12418.6
685.4	12276.46
685.748	12191.94
686.095	12218.38
686.443	12233.07
686.79	12190.81
687.138	12155.33
687.485	12153.07
687.832	12227.64
688.18	12203.24
688.527	12069.23
688.874	12072.17
689.221	11955.56
689.568	11986.07
689.915	12031.94
690.262	12001.21
690.609	11823.36
690.956	11887.77
691.303	11815.9
691.65	11838.05
691.997	11888.67
692.344	11730.03
692.69	11681.22
693.037	11700.65
693.383	11590.6
693.73	11608.9
694.077	11517.15
694.423	11448.23
694.769	11484.39
695.116	11433.54
695.462	11435.12
695.808	11286.65
696.155	11339.31
696.501	11342.7
696.847	11311.96
697.193	11147.9
697.539	11223.38
697.885	11033.1
698.231	11085.08
698.577	11075.58
698.923	11067.45
699.269	11004.4
699.614	10925.98
699.96	10870.84
700.306	10965.76
700.651	10870.39
700.997	10781.13
701.342	10786.78
701.688	10829.72
702.033	10610.96
702.379	10688.48
702.724	10659.78
703.069	10610.96
703.415	10558.31
703.76	10441.7
704.105	10508.59
704.45	10481.7
704.795	10386.56
705.14	10333.46
705.485	10337.98
705.83	10301.82
706.175	10270.63
706.52	10230.41
706.865	10229.73
707.209	10202.39
707.554	10157.64
707.899	10203.07
708.243	10100.69
708.588	10044.88
708.932	9994.03
709.277	9999
709.621	9986.57
709.966	9951.32
710.31	9959.68
710.654	9907.25
710.998	9870.64
711.342	9897.08
711.687	9907.93
712.031	9842.85
712.375	9796.52
712.719	9785
713.063	9757.65
713.407	9801.27
713.75	9755.39
714.094	9652.8
714.438	9677.88
714.782	9642.4
715.125	9571.9
715.469	9649.63
715.812	9612.12
716.156	9561.27
716.499	9565.34
716.843	9550.65
717.186	9534.38
717.53	9610.99
717.873	9565.57
718.216	9561.73
718.559	9492.58
718.902	9454.16
719.246	9423.88
719.589	9450.99
719.932	9420.26
720.275	9358.57
720.617	9404.89
720.96	9382.75
721.303	9378.68
721.646	9378.91
721.989	9384.78
722.331	9348.62
722.674	9350.88
723.016	9333.94
723.359	9321.51
723.701	9337.1
724.044	9192.92
724.386	9212.58
724.729	9294.16
725.071	9233.37
725.413	9256.42
725.755	9250.77
726.097	9243.32
726.439	9152.25
726.782	9146.14
727.124	9200.83
727.465	9177.78
727.807	9197.44
728.149	9109.08
728.491	9103.66
728.833	9095.75
729.175	9110.66
729.516	9102.98
729.858	9132.36
730.199	9027.28
730.541	9089.42
730.882	9139.82
731.224	9097.11
731.565	9100.04
731.906	9059.82
732.248	9056.65
732.589	9013.49
732.93	9018.24
733.271	9061.63
733.612	9029.08
733.953	9037.9
734.294	9056.43
734.635	9067.95
734.976	9066.37
735.317	9086.26
735.658	9043.55
735.999	9074.73
736.339	9052.59
736.68	9131.91
737.021	8996.77
737.361	9017.33
737.702	9089.87
738.042	9099.59
738.383	9069.99
738.723	9092.13
739.063	9086.26
739.404	9124.9
739.744	9091.68
740.084	9112.47
740.424	9169.19
740.764	9222.98
741.104	9178.01
741.444	9132.81
741.784	9224.56
742.124	9185.46
742.464	9229.31
742.804	9190.89
743.143	9224.79
743.483	9319.02
743.823	9231.79
744.162	9228.63
744.502	9330.32
744.841	9283.54
745.181	9368.96
745.52	9374.16
745.86	9419.36
746.199	9499.58
746.538	9468.62
746.877	9542.74
747.216	9612.57
747.556	9728.73
747.895	9692.12
748.234	9676.98
748.573	9718.78
748.911	9819.8
749.25	9876.75
749.589	9893.92
749.928	9974.82
750.267	10109.06
750.605	10095.72
750.944	10181.82
751.283	10214.36
751.621	10345.89
751.96	10360.58
752.298	10449.84
752.636	10589.04
752.975	10657.97
753.313	10760.34
753.651	10915.14
753.989	10861.35
754.327	11025.42
754.666	11118.07
755.004	11302.7
755.342	11429.25
755.679	11563.93
756.017	11538.85
756.355	11713.53
756.693	11763.48
757.031	11963.02
757.368	12142.68
757.706	12251.15
758.044	12359.84
758.381	12564.36
