Data from hue_270_FLMS001491_00064.txt Node
Date: Tue Feb 07 15:57:32 GMT 2017
User: dcchb
Spectrometer: FLMS00149
Trigger mode: 0
Integration Time (sec): 2.000000E-2
Scans to average: 10
Electric dark correction enabled: true
Nonlinearity correction enabled: false
Boxcar width: 0
XAxis mode: Wavelengths
Number of Pixels in Spectrum: 2048
>>>>>Begin Spectral Data<<<<<
341.393	-49.72
341.776	-49.72
342.16	-49.72
342.543	-54.69
342.927	-44.97
343.31	-57.85
343.693	-79.77
344.077	-70.96
344.46	-75.93
344.843	-46.55
345.226	-32.54
345.61	-32.32
345.993	-36.16
346.376	-16.27
346.759	21.02
347.142	38.87
347.525	46.1
347.908	60.79
348.291	63.5
348.674	102.82
349.057	115.25
349.44	122.93
349.823	136.72
350.206	143.95
350.588	177.17
350.971	204.29
351.354	227.11
351.737	225.76
352.119	255.59
352.502	247
352.884	273.89
353.267	252.42
353.65	273.89
354.032	314.79
354.414	290.61
354.797	301.01
355.179	309.6
355.562	326.77
355.944	334.45
356.326	319.54
356.709	332.42
357.091	336.49
357.473	329.26
357.855	313.44
358.238	354.79
358.62	323.38
359.002	354.79
359.384	333.32
359.766	340.78
360.148	336.04
360.53	321.57
360.912	340.78
361.294	326.55
361.676	320.9
362.057	353.66
362.439	345.53
362.821	336.94
363.203	305.53
363.584	334.68
363.966	318.18
364.348	306.88
364.729	318.18
365.111	292.65
365.493	301.24
365.874	320.22
366.256	299.65
366.637	305.3
367.019	281.57
367.4	300.33
367.781	309.37
368.163	291.29
368.544	316.15
368.925	310.95
369.306	311.4
369.688	307.79
370.069	309.37
370.45	312.99
370.831	295.59
371.212	288.58
371.593	303.04
371.974	306.88
372.355	294.91
372.736	297.39
373.117	306.21
373.498	307.56
373.879	294.91
374.26	309.37
374.641	311.18
375.021	308.24
375.402	306.21
375.783	305.3
376.163	320.44
376.544	339.2
376.925	324.51
377.305	301.24
377.686	322.93
378.066	308.92
378.447	302.59
378.827	323.83
379.208	339.88
379.588	316.38
379.968	313.66
380.349	296.49
380.729	338.52
381.109	333.78
381.489	344.17
381.87	338.07
382.25	332.87
382.63	334.91
383.01	336.71
383.39	325.19
383.77	333.1
384.15	337.62
384.53	332.19
384.91	345.3
385.29	358.63
385.67	359.09
386.049	358.41
386.429	357.28
386.809	356.15
387.189	362.48
387.568	325.19
387.948	360.89
388.328	345.98
388.707	362.02
389.087	359.76
389.466	330.16
389.846	367.22
390.225	361.57
390.605	362.93
390.984	359.09
391.363	362.02
391.743	382.36
392.122	376.94
392.501	368.8
392.881	365.41
393.26	387.79
393.639	379.43
394.018	397.05
394.397	392.31
394.776	400.44
395.155	379.43
395.534	386.88
395.913	386.88
396.292	408.8
396.671	397.5
397.05	392.53
397.429	403.38
397.808	409.48
398.186	381.23
398.565	401.8
398.944	410.16
399.323	396.83
399.701	413.55
400.08	416.71
400.458	409.71
400.837	423.49
401.215	424.17
401.594	414
401.972	442.25
402.351	421.23
402.729	432.98
403.107	413.77
403.486	453.77
403.864	419.42
404.242	434.34
404.62	433.89
404.999	437.28
405.377	427.79
405.755	435.69
406.133	448.58
406.511	441.12
406.889	446.32
407.267	465.75
407.645	468.01
408.023	472.3
408.401	499.2
408.779	498.74
409.156	493.09
409.534	491.06
409.912	508.69
410.29	533.55
410.667	510.5
411.045	538.29
411.422	532.87
411.8	515.69
412.178	502.13
412.555	533.09
412.933	543.26
413.31	555.24
413.687	565.63
414.065	563.15
414.442	587.1
414.819	592.3
415.197	597.27
415.574	583.04
415.951	598.18
416.328	599.53
416.705	611.96
417.082	603.37
417.46	626.42
417.837	622.81
418.214	638.63
418.591	652.86
418.967	640.44
419.344	642.02
419.721	665.97
420.098	668.23
420.475	653.09
420.852	695.35
421.228	677.04
421.605	696.7
421.982	705.52
422.358	700.55
422.735	720.66
423.111	734.9
423.488	743.71
423.864	771.05
424.241	800.43
424.617	763.37
424.994	791.84
425.37	776.7
425.746	796.14
426.123	810.83
426.499	819.87
426.875	805.18
427.251	828
427.627	877.04
428.003	865.51
428.379	882.46
428.756	870.26
429.132	889.92
429.507	907.77
429.883	922.24
430.259	941.22
430.635	917.49
431.011	937.38
431.387	960.88
431.763	979.18
432.138	959.3
432.514	976.25
432.89	969.24
433.265	1014.21
433.641	1031.61
434.016	1049.24
434.392	1044.49
434.767	1096.24
435.143	1084.72
435.518	1091.5
435.894	1131.04
436.269	1165.85
436.644	1145.96
437.02	1168.33
437.395	1184.15
437.77	1231.15
438.145	1240.65
438.52	1234.54
438.895	1229.12
439.271	1243.58
439.646	1289.23
440.021	1287.88
440.395	1295.11
440.77	1268.22
441.145	1326.07
441.52	1351.15
441.895	1335.33
442.27	1378.49
442.645	1365.84
443.019	1399.29
443.394	1381.88
443.769	1372.17
444.143	1431.37
444.518	1425.27
444.892	1459.17
445.267	1451.49
445.641	1437.48
446.016	1442
446.39	1466.18
446.764	1484.03
447.139	1470.92
447.513	1499.4
447.887	1511.82
448.262	1488.77
448.636	1524.48
449.01	1538.26
449.384	1541.88
449.758	1540.75
450.132	1577.59
450.506	1585.95
450.88	1597.02
451.254	1571.26
451.628	1590.69
452.002	1634.31
452.376	1646.96
452.75	1651.03
453.123	1692.38
453.497	1665.72
453.871	1690.8
454.244	1708.43
454.618	1730.8
454.992	1748.65
455.365	1748.2
455.739	1799.05
456.112	1813.06
456.486	1821.65
456.859	1790.91
457.232	1884.92
457.606	1852.83
457.979	1872.95
458.352	1911.81
458.725	1909.78
459.099	1930.57
459.472	1945.71
459.845	1947.75
460.218	1954.98
460.591	1997.46
460.964	2020.51
461.337	2042.66
461.71	2060.28
462.083	2110.68
462.456	2114.52
462.829	2079.49
463.201	2154.97
463.574	2121.98
463.947	2151.36
464.32	2198.13
464.692	2246.95
465.065	2220.96
465.438	2239.49
465.81	2244.91
466.183	2284.46
466.555	2345.02
466.928	2304.12
467.3	2312.93
467.672	2371.46
468.045	2409.43
468.417	2431.57
468.789	2441.29
469.161	2460.95
469.534	2479.48
469.906	2511.57
470.278	2532.14
470.65	2554.06
471.022	2646.48
471.394	2639.48
471.766	2688.52
472.138	2679.7
472.51	2714.73
472.882	2726.03
473.253	2768.29
473.625	2825.01
473.997	2922.18
474.369	2881.51
474.74	2876.53
475.112	2946.36
475.484	2948.62
475.855	3054.61
476.227	3019.58
476.598	3094.38
476.97	3102.07
477.341	3170.99
477.713	3221.16
478.084	3224.55
478.455	3276.07
478.827	3289.86
479.198	3425.67
479.569	3353.36
479.94	3473.13
480.311	3514.71
480.682	3560.36
481.053	3617.53
481.424	3645.1
481.795	3683.97
482.166	3761.71
482.537	3772.78
482.908	3821.37
483.279	3860.46
483.65	3919.22
484.021	3987.69
484.391	3979.1
484.762	3990.18
485.133	4006.67
485.503	4076.28
485.874	4148.37
486.244	4173.45
486.615	4217.06
486.985	4305.88
487.356	4375.48
487.726	4351.98
488.097	4481.46
488.467	4462.26
488.837	4514.23
489.207	4517.17
489.578	4670.84
489.948	4671.74
490.318	4710.84
490.688	4718.75
491.058	4765.98
491.428	4833.55
491.798	4858.63
492.168	4927.33
492.538	4935.24
492.908	5002.81
493.278	5061.11
493.648	5059.75
494.017	5076.93
494.387	5174.1
494.757	5162.12
495.126	5193.31
495.496	5202.12
495.866	5258.39
496.235	5292.29
496.605	5332.29
496.974	5303.82
497.344	5384.27
497.713	5392.63
498.082	5383.59
498.452	5460.42
498.821	5466.52
499.19	5498.84
499.559	5527.76
499.928	5558.95
500.298	5553.3
500.667	5603.92
501.036	5560.98
501.405	5601.66
501.774	5610.47
502.143	5640.53
502.512	5706.97
502.88	5760.07
503.249	5755.55
503.618	5744.93
503.987	5766.63
504.356	5742.67
504.724	5805.95
505.093	5746.97
505.462	5813.41
505.83	5806.18
506.199	5868.09
506.567	5960.75
506.936	5910.58
507.304	5971.37
507.672	5974.98
508.041	6010.46
508.409	6041.2
508.777	6036.68
509.145	6082.78
509.514	6078.94
509.882	6094.98
510.25	6082.1
510.618	6094.75
510.986	6093.85
511.354	6193.06
511.722	6236.22
512.09	6248.2
512.458	6198.48
512.826	6221.31
513.193	6289.78
513.561	6239.16
513.929	6289.33
514.297	6312.6
514.664	6360.96
515.032	6354.64
515.4	6344.01
515.767	6392.37
516.135	6387.63
516.502	6351.25
516.869	6454.29
517.237	6443.22
517.604	6368.87
517.972	6481.64
518.339	6457.46
518.706	6444.58
519.073	6508.53
519.44	6502.2
519.808	6569.77
520.175	6566.83
520.542	6541.3
520.909	6612.26
521.276	6606.38
521.643	6626.72
522.009	6632.37
522.376	6622.88
522.743	6649.54
523.11	6689.32
523.477	6717.34
523.843	6764.34
524.21	6828.3
524.577	6830.55
524.943	6873.49
525.31	6864.45
525.676	6898.8
526.043	6878.24
526.409	6910.78
526.776	6952.81
527.142	6934.73
527.508	6974.28
527.874	7021.28
528.241	7034.39
528.607	7036.88
528.973	7084.11
529.339	7036.43
529.705	7097.21
530.071	7121.39
530.437	7120.04
530.803	7201.84
531.169	7219.25
531.535	7161.39
531.901	7192.58
532.267	7219.47
532.632	7265.12
532.998	7241.17
533.364	7205.69
533.73	7250.88
534.095	7316.19
534.461	7374.95
534.826	7303.08
535.192	7384.21
535.557	7360.03
535.923	7273.71
536.288	7383.08
536.653	7409.3
537.019	7355.74
537.384	7357.32
537.749	7374.95
538.114	7364.55
538.479	7400.48
538.845	7394.38
539.21	7449.07
539.575	7420.14
539.94	7421.05
540.305	7426.92
540.67	7426.92
541.034	7467.6
541.399	7445
541.764	7494.72
542.129	7475.06
542.494	7531.78
542.858	7476.64
543.223	7545.34
543.587	7554.15
543.952	7537.43
544.316	7528.16
544.681	7525.23
545.045	7508.28
545.41	7563.64
545.774	7583.98
546.138	7554.38
546.503	7632.57
546.867	7573.13
547.231	7648.61
547.595	7640.7
547.959	7584.89
548.324	7662.62
548.688	7672.11
549.052	7612.46
549.416	7648.16
549.779	7683.87
550.143	7587.37
550.507	7727.71
550.871	7737.65
551.235	7693.13
551.599	7747.37
551.962	7768.61
552.326	7765.67
552.689	7757.99
553.053	7765.45
553.417	7734.71
553.78	7801.83
554.143	7824.88
554.507	7776.74
554.87	7783.75
555.234	7913.69
555.597	7780.13
555.96	7845.67
556.323	7856.52
556.686	7892.9
557.05	7928.83
557.413	7919.79
557.776	7939.23
558.139	8013.57
558.502	7989.39
558.865	7994.82
559.228	8027.81
559.59	8072.33
559.953	8102.16
560.316	8089.5
560.679	8112.1
561.041	8169.73
561.404	8193.46
561.767	8204.53
562.129	8221.03
562.492	8281.36
562.854	8264.19
563.217	8309.61
563.579	8316.39
563.941	8298.09
564.304	8347.13
564.666	8465.99
565.028	8369.5
565.39	8438.2
565.753	8489.95
566.115	8549.15
566.477	8556.16
566.839	8581.92
567.201	8618.76
567.563	8625.08
567.925	8670.28
568.287	8695.59
568.648	8710.28
569.01	8715.03
569.372	8812.42
569.734	8741.69
570.095	8809.03
570.457	8813.55
570.819	8897.85
571.18	8817.4
571.542	8922.03
571.903	8920.9
572.265	8921.8
572.626	8995.47
572.987	9002.25
573.349	9009.71
573.71	9067.33
574.071	9124.96
574.432	9137.39
574.794	9155.69
575.155	9152.3
575.516	9205.86
575.877	9237.05
576.238	9268.91
576.599	9290.38
576.96	9357.95
577.32	9276.82
577.681	9361.79
578.042	9436.59
578.403	9493.31
578.763	9458.06
579.124	9468
579.485	9545.06
579.845	9555.45
580.206	9564.49
580.566	9589.13
580.927	9628.22
581.287	9649.24
581.648	9646.75
582.008	9672.29
582.368	9693.98
582.728	9836.8
583.089	9773.08
583.449	9794.32
583.809	9823.92
584.169	9862.34
584.529	9880.42
584.889	9959.29
585.249	9900.98
585.609	9940.08
585.969	10052.17
586.329	10005.61
586.688	9987.08
587.048	10018.49
587.408	9994.99
587.768	10102.11
588.127	10107.53
588.487	10109.79
588.846	10176
589.206	10102.11
589.565	10192.95
589.925	10237.7
590.284	10210.35
590.643	10328.54
591.003	10418.26
591.362	10392.5
591.721	10295.1
592.08	10357.47
592.44	10432.04
592.799	10453.28
593.158	10422.1
593.517	10371.7
593.876	10460.06
594.235	10518.37
594.593	10566.95
594.952	10555.88
595.311	10522.89
595.67	10574.86
596.029	10624.81
596.387	10697.12
596.746	10742.54
597.104	10614.86
597.463	10680.85
597.822	10743.45
598.18	10658.02
598.538	10698.93
598.897	10820.28
599.255	10683.56
599.613	10848.53
599.972	10774.63
600.33	10879.04
600.688	10849.88
601.046	10831.35
601.404	10906.15
601.762	10848.53
602.12	10893.72
602.478	10952.03
602.836	11013.95
603.194	10912.26
603.552	10913.39
603.91	10888.98
604.268	10939.6
604.625	10970.56
604.983	10971.46
605.341	10933.95
605.698	11065.47
606.056	11024.12
606.413	11013.04
606.771	11021.63
607.128	11067.51
607.485	11029.77
607.843	11041.97
608.2	10986.6
608.557	11153.61
608.914	11112.25
609.272	11098.01
609.629	11120.61
609.986	11242.64
610.343	11107.28
610.7	11228.18
611.057	11216.88
611.414	11233.83
611.771	11191.34
612.127	11279.03
612.484	11211.23
612.841	11305.69
613.198	11245.13
613.554	11325.8
613.911	11356.76
614.267	11275.64
614.624	11391.34
614.98	11337.55
615.337	11368.74
615.693	11332.13
616.05	11358.35
616.406	11399.47
616.762	11402.86
617.118	11421.85
617.475	11474.5
617.831	11458
618.187	11535.74
618.543	11455.07
618.899	11507.04
619.255	11441.51
619.611	11512.24
619.967	11540.71
620.323	11543.65
620.678	11408.51
621.034	11498
621.39	11522.18
621.746	11462.3
622.101	11547.04
622.457	11478.12
622.812	11471.56
623.168	11522.86
623.523	11455.97
623.879	11563.99
624.234	11487.61
624.589	11511.79
624.945	11500.94
625.3	11548.17
625.655	11449.64
626.01	11487.61
626.365	11520.15
626.72	11456.65
627.075	11500.04
627.43	11503.2
627.785	11428.63
628.14	11496.65
628.495	11570.09
628.85	11517.66
629.205	11405.12
629.559	11516.08
629.914	11468.85
630.269	11490.09
630.623	11473.82
630.978	11422.3
631.332	11477.66
631.687	11448.96
632.041	11394.5
632.396	11474.27
632.75	11351.79
633.104	11399.02
633.459	11355.41
633.813	11354.5
634.167	11330.78
634.521	11313.37
634.875	11337.33
635.229	11283.09
635.583	11218.69
635.937	11343.2
636.291	11295.07
636.645	11300.49
636.999	11275.86
637.352	11229.76
637.706	11157.22
638.06	11192.47
638.413	11122.65
638.767	11174.85
639.121	11119.93
639.474	11119.71
639.828	11071.12
640.181	11107.73
640.534	11137.33
640.888	11071.35
641.241	11011.24
641.594	11083.55
641.947	11140.05
642.301	11138.24
642.654	11135.53
643.007	11035.42
643.36	11046.26
643.713	11090.33
644.066	11047.17
644.419	11043.33
644.771	10977.79
645.124	10853.27
645.477	10874.29
645.83	10797.23
646.182	10714.29
646.535	10665.93
646.888	10683.33
647.24	10648.08
647.593	10740.28
647.945	10603.11
648.298	10639.27
648.65	10570.34
649.002	10575.32
649.355	10625.26
649.707	10585.48
650.059	10702.09
650.411	10816.89
650.763	10775.08
651.115	10874.52
651.467	10933.95
651.819	10926.72
652.171	10882.65
652.523	10917.68
652.875	10874.29
653.227	10781.19
653.578	10912.03
653.93	10888.08
654.282	10815.99
654.633	10822.31
654.985	10857.79
655.337	10748.87
655.688	10821.64
656.039	10858.7
656.391	10764.46
656.742	10763.78
657.094	10810.56
657.445	10869.54
657.796	10808.08
658.147	10909.54
658.498	10803.11
658.849	10830.68
659.2	10871.13
659.551	10811.24
659.902	10846.72
660.253	10875.19
660.604	10891.47
660.955	10801.75
661.306	10901.63
661.656	10757.91
662.007	10797.46
662.358	10869.54
662.708	10913.16
663.059	10879.49
663.409	10775.99
663.76	10833.16
664.11	10801.75
664.461	10825.48
664.811	10867.28
665.161	10801.75
665.511	10820.51
665.862	10832.26
666.212	10829.09
666.562	10851.69
666.912	10740.06
667.262	10767.17
667.612	10833.84
667.962	10864.8
668.312	10775.54
668.662	10905.7
669.011	10896.66
669.361	10808.08
669.711	10812.6
670.06	10709.32
670.41	10808.08
670.76	10706.84
671.109	10813.73
671.459	10814.18
671.808	10785.71
672.157	10739.83
672.507	10753.39
672.856	10623
673.205	10724.24
673.554	10753.84
673.904	10705.93
674.253	10799.72
674.602	10753.16
674.951	10593.17
675.3	10500.74
675.649	10706.16
675.998	10632.71
676.346	10643.34
676.695	10740.28
677.044	10667.74
677.393	10614.86
677.741	10584.81
678.09	10592.26
678.438	10575.99
678.787	10557.91
679.135	10623.68
679.484	10488.09
679.832	10586.61
680.181	10488.54
680.529	10527.18
680.877	10430.23
681.225	10474.75
681.573	10566.28
681.922	10399.27
682.27	10426.17
682.618	10371.93
682.966	10327.19
683.314	10368.54
683.661	10371.48
684.009	10282.89
684.357	10301.88
684.705	10229.56
685.053	10239.73
685.4	10274.98
685.748	10155.67
686.095	10260.52
686.443	10193.4
686.79	10131.49
687.138	10122.45
687.485	10130.13
687.832	10077.93
688.18	10101.2
688.527	10032.28
688.874	10009.91
689.221	10046.06
689.568	9947.08
689.915	9957.93
690.262	9911.15
690.609	9857.14
690.956	9818.27
691.303	9837.93
691.65	9799.06
691.997	9786.18
692.344	9754.32
692.69	9692.63
693.037	9723.81
693.383	9645.62
693.73	9662.57
694.077	9551.61
694.423	9602.23
694.769	9537.15
695.116	9523.82
695.462	9489.24
695.808	9484.95
696.155	9526.76
696.501	9373.09
696.847	9411.73
697.193	9269.13
697.539	9356.59
697.885	9270.04
698.231	9239.08
698.577	9188.01
698.923	9257.61
699.269	9197.72
699.614	9127.44
699.96	9084.96
700.306	9099.2
700.651	9014
700.997	9008.35
701.342	8977.62
701.688	8976.49
702.033	8882.48
702.379	8911.63
702.724	8870.5
703.069	8933.1
703.415	8760.67
703.76	8844.29
704.105	8794.35
704.45	8810.16
704.795	8730.17
705.14	8689.72
705.485	8658.08
705.83	8618.3
706.175	8607.23
706.52	8588.47
706.865	8543.28
707.209	8520
707.554	8532.21
707.899	8523.17
708.243	8480.68
708.588	8448.82
708.932	8466.22
709.277	8393.9
709.621	8376.95
709.966	8350.97
710.31	8341.25
710.654	8277.3
710.998	8299.89
711.342	8261.03
711.687	8233
712.031	8265.77
712.375	8190.75
712.719	8174.47
713.063	8251.76
713.407	8266.22
713.75	8184.42
714.094	8138.09
714.438	8103.29
714.782	8142.16
715.125	8071.88
715.469	8077.75
715.812	8108.26
716.156	8013.12
716.499	8007.47
716.843	8032.78
717.186	7991.2
717.53	8051.31
717.873	8019
718.216	8001.37
718.559	7942.39
718.902	7882.96
719.246	7925.22
719.589	7882.96
719.932	7863.07
720.275	7893.35
720.617	7904.42
720.96	7868.27
721.303	7867.36
721.646	7871.21
721.989	7853.13
722.331	7888.83
722.674	7768.61
723.016	7816.07
723.359	7778.33
723.701	7785.56
724.044	7788.5
724.386	7768.38
724.729	7790.76
725.071	7721.83
725.413	7797.08
725.755	7779.46
726.097	7724.09
726.439	7673.02
726.782	7720.7
727.124	7751.43
727.465	7712.79
727.807	7687.71
728.149	7659.23
728.491	7673.24
728.833	7700.81
729.175	7650.65
729.516	7701.27
729.858	7681.38
730.199	7673.92
730.541	7629.63
730.882	7614.94
731.224	7685.9
731.565	7646.35
731.906	7644.54
732.248	7666.92
732.589	7642.96
732.93	7584.21
733.271	7559.12
733.612	7605.22
733.953	7614.49
734.294	7604.77
734.635	7624.43
734.976	7572.23
735.317	7633.25
735.658	7544.21
735.999	7611.33
736.339	7531.1
736.68	7617.88
737.021	7586.69
737.361	7621.95
737.702	7615.39
738.042	7633.02
738.383	7588.95
738.723	7680.48
739.063	7630.99
739.404	7597.31
739.744	7658.1
740.084	7632.12
740.424	7647.93
740.764	7633.02
741.104	7687.26
741.444	7678.44
741.784	7685.67
742.124	7738.78
742.464	7707.59
742.804	7672.11
743.143	7674.15
743.483	7709.4
743.823	7746.24
744.162	7743.53
744.502	7743.75
744.841	7786.01
745.181	7819.23
745.52	7824.2
745.86	7899.45
746.199	7897.65
746.538	7908.72
746.877	7950.3
747.216	8019
747.556	8010.41
747.895	8021.94
748.234	8056.51
748.573	8119.11
748.911	8109.39
749.25	8258.09
749.589	8240.69
749.928	8328.14
750.267	8364.98
750.605	8405.2
750.944	8490.17
751.283	8458.99
751.621	8637.74
751.96	8576.95
752.298	8768.13
752.636	8802.71
752.975	8899.65
753.313	8964.74
753.651	9105.98
753.989	9092.64
754.327	9185.97
754.666	9296.25
755.004	9470.03
755.342	9500.09
755.679	9649.92
756.017	9736.47
756.355	9901.89
756.693	9950.47
757.031	10092.39
757.368	10255.1
757.706	10316.79
758.044	10441.76
758.381	10578.03
758.719	10704.35
759.056	10887.17
759.394	11004.46
759.731	11126.94
760.068	11213.26
760.405	11377.33
760.743	11533.71
761.08	11705.91
761.417	11808.5
761.754	11997.2
762.091	12104.54
762.428	12264.08
762.765	12450.75
763.102	12698.65
763.438	12764.64
