Data from hue_290_FLMS001491_00068.txt Node
Date: Tue Feb 07 15:53:05 GMT 2017
User: dcchb
Spectrometer: FLMS00149
Trigger mode: 0
Integration Time (sec): 2.000000E-2
Scans to average: 10
Electric dark correction enabled: true
Nonlinearity correction enabled: false
Boxcar width: 0
XAxis mode: Wavelengths
Number of Pixels in Spectrum: 2048
>>>>>Begin Spectral Data<<<<<
341.393	-40.35
341.776	-40.35
342.16	-40.35
342.543	-72.22
342.927	-74.48
343.31	-87.81
343.693	-73.57
344.077	-59.56
344.46	-53.01
344.843	-45.32
345.226	-37.19
345.61	-21.14
345.993	-14.36
346.376	6.2
346.759	18.63
347.142	31.96
347.525	40.1
347.908	41.91
348.291	77.16
348.674	80.32
349.057	95.69
349.44	137.5
349.823	159.42
350.206	155.8
350.588	179.08
350.971	209.81
351.354	224.95
351.737	244.39
352.119	257.95
352.502	246.65
352.884	254.78
353.267	297.94
353.65	296.14
354.032	299.3
354.414	323.71
354.797	311.28
355.179	308.11
355.562	303.82
355.944	326.19
356.326	316.02
356.709	328.9
357.091	335.68
357.473	329.36
357.855	328.23
358.238	327.1
358.62	334.33
359.002	342.91
359.384	359.86
359.766	317.15
360.148	331.84
360.53	340.88
360.912	332.97
361.294	315.8
361.676	338.17
362.057	346.76
362.439	343.59
362.821	335.23
363.203	327.32
363.584	330.94
363.966	298.62
364.348	317.15
364.729	317.83
365.111	318.28
365.493	324.38
365.874	325.51
366.256	315.12
366.637	318.96
367.019	304.95
367.4	329.58
367.781	325.97
368.163	301.79
368.544	307.89
368.925	327.55
369.306	338.4
369.688	325.51
370.069	316.25
370.45	319.64
370.831	320.09
371.212	337.27
371.593	304.95
371.974	332.97
372.355	330.26
372.736	326.87
373.117	318.06
373.498	326.42
373.879	313.08
374.26	302.69
374.641	318.51
375.021	321.67
375.402	323.71
375.783	328
376.163	333.2
376.544	341.56
376.925	335.68
377.305	338.17
377.686	316.7
378.066	317.6
378.447	318.96
378.827	333.2
379.208	329.36
379.588	329.58
379.968	341.78
380.349	348.56
380.729	339.98
381.109	357.6
381.489	364.16
381.87	344.5
382.25	325.51
382.63	356.93
383.01	356.7
383.39	351.95
383.77	358.06
384.15	342.91
384.53	348.11
384.91	358.51
385.29	373.2
385.67	363.71
386.049	359.64
386.429	354.67
386.809	365.74
387.189	370.26
387.568	371.84
387.948	378.85
388.328	359.19
388.707	354.44
389.087	363.25
389.466	350.15
389.846	385.63
390.225	381.78
390.605	372.29
390.984	365.06
391.363	374.1
391.743	390.6
392.122	378.39
392.501	383.82
392.881	386.53
393.26	397.6
393.639	385.85
394.018	378.85
394.397	382.46
394.776	401.67
395.155	396.47
395.534	406.42
395.913	407.55
396.292	402.57
396.671	411.39
397.05	391.05
397.429	415.46
397.808	398.51
398.186	420.2
398.565	409.35
398.944	419.75
399.323	417.26
399.701	424.72
400.08	430.82
400.458	428.11
400.837	441.67
401.215	463.14
401.594	422.23
401.972	451.16
402.351	464.49
402.729	452.06
403.107	445.96
403.486	470.82
403.864	478.5
404.242	484.38
404.62	447.54
404.999	461.78
405.377	457.94
405.755	485.96
406.133	478.28
406.511	509.92
406.889	513.98
407.267	503.81
407.645	497.71
408.023	503.81
408.401	527.09
408.779	516.47
409.156	532.51
409.534	522.12
409.912	526.86
410.29	569.35
410.667	548.11
411.045	554.89
411.422	575.9
411.8	583.81
412.178	570.93
412.555	590.59
412.933	584.49
413.31	603.25
413.687	614.77
414.065	626.3
414.442	618.84
414.819	649.8
415.197	663.36
415.574	650.03
415.951	673.3
416.328	682.57
416.705	677.14
417.082	694.32
417.46	686.63
417.837	704.94
418.214	696.35
418.591	700.19
418.967	712.4
419.344	746.07
419.721	747.65
420.098	737.03
420.475	772.06
420.852	753.53
421.228	794.65
421.605	796.46
421.982	803.24
422.358	822.68
422.735	817.25
423.111	824.94
423.488	868.1
423.864	860.87
424.241	869.91
424.617	855.67
424.994	872.17
425.37	893.18
425.746	907.87
426.123	930.7
426.499	920.3
426.875	931.37
427.251	957.81
427.627	965.72
428.003	962.56
428.379	976.34
428.756	991.26
429.132	997.36
429.507	1011.15
429.883	1015.89
430.259	1023.57
430.635	1065.61
431.011	1090.92
431.387	1077.36
431.763	1091.14
432.138	1103.8
432.514	1125.04
432.89	1116.45
433.265	1150.58
433.641	1165.72
434.016	1174.31
434.392	1181.99
434.767	1203.01
435.143	1244.59
435.518	1262.66
435.894	1260.18
436.269	1245.49
436.644	1257.24
437.02	1271.03
437.395	1335.88
437.77	1325.49
438.145	1346.05
438.52	1358.48
438.895	1367.75
439.271	1356.22
439.646	1410.46
440.021	1420.17
440.395	1427.41
440.77	1413.85
441.145	1437.12
441.52	1436.9
441.895	1438.93
442.27	1459.72
442.645	1443.22
443.019	1473.96
443.394	1508.31
443.769	1478.48
444.143	1511.92
444.518	1537.46
444.892	1480.96
445.267	1532.94
445.641	1508.99
446.016	1558.25
446.39	1559.61
446.764	1573.16
447.139	1582.88
447.513	1605.48
447.887	1576.33
448.262	1575.88
448.636	1581.53
449.01	1616.33
449.384	1610
449.758	1621.53
450.132	1642.09
450.506	1656.78
450.88	1668.98
451.254	1647.97
451.628	1676.44
452.002	1696.1
452.376	1727.74
452.75	1722.54
453.123	1743.78
453.497	1760.5
453.871	1746.27
454.244	1777
454.618	1762.09
454.992	1816.32
455.365	1799.83
455.739	1862.2
456.112	1847.51
456.486	1851.35
456.859	1865.59
457.232	1873.5
457.606	1912.82
457.979	1887.96
458.352	1953.27
458.725	1967.05
459.099	1961.4
459.472	2026.94
459.845	1976.54
460.218	2014.28
460.591	2004.57
460.964	2031.46
461.337	2091.34
461.71	2135.64
462.083	2111.68
462.456	2110.33
462.829	2166.82
463.201	2153.49
463.574	2156.88
463.947	2183.54
464.32	2228.51
464.692	2261.96
465.065	2242.3
465.438	2273.94
465.81	2301.28
466.183	2306.03
466.555	2381.05
466.928	2371.34
467.3	2358.45
467.672	2389.41
468.045	2463.99
468.417	2454.5
468.789	2463.76
469.161	2503.08
469.534	2508.06
469.906	2550.31
470.278	2547.38
470.65	2589.18
471.022	2607.71
471.394	2700.14
471.766	2668.73
472.138	2692.23
472.51	2760.93
472.882	2782.85
473.253	2827.82
473.625	2844.77
473.997	2876.18
474.369	2905.11
474.74	2893.81
475.112	2936.74
475.484	3004.09
475.855	3030.08
476.227	3022.62
476.598	3134.48
476.97	3120.02
477.341	3185.1
477.713	3212.22
478.084	3259.22
478.455	3270.3
478.827	3315.27
479.198	3423.51
479.569	3370.18
479.94	3493.57
480.311	3496.73
480.682	3589.61
481.053	3624.86
481.424	3630.96
481.795	3713.45
482.166	3706.67
482.537	3757.97
482.908	3784.86
483.279	3833.9
483.65	3892.2
484.021	3932.2
484.391	3943.72
484.762	4028.02
485.133	4007.45
485.503	4073.66
485.874	4174.68
486.244	4171.06
486.615	4201.12
486.985	4287.67
487.356	4352.53
487.726	4362.7
488.097	4406.31
488.467	4421.45
488.837	4525.63
489.207	4499.42
489.578	4620.32
489.948	4641.56
490.318	4660.99
490.688	4700.31
491.058	4760.88
491.428	4777.83
491.798	4788.9
492.168	4900.08
492.538	4947.99
492.908	4931.04
493.278	4999.74
493.648	4967.2
494.017	5089.23
494.387	5114.77
494.757	5158.61
495.126	5168.55
495.496	5186.4
495.866	5227.98
496.235	5274.54
496.605	5306.63
496.974	5296.68
497.344	5401.31
497.713	5392.73
498.082	5417.36
498.452	5459.39
498.821	5531.48
499.19	5484.02
499.559	5583.68
499.928	5557.69
500.298	5594.3
500.667	5626.17
501.036	5610.8
501.405	5641.08
501.774	5671.81
502.143	5719.5
502.512	5707.07
502.88	5751.81
503.249	5720.63
503.618	5848.08
503.987	5810.12
504.356	5834.07
504.724	5826.61
505.093	5904.8
505.462	5901.41
505.83	5945.71
506.199	5947.29
506.567	5988.19
506.936	6026.83
507.304	6060.5
507.672	6095.53
508.041	6130.79
508.409	6150.67
508.777	6202.2
509.145	6166.26
509.514	6192.03
509.882	6184.57
510.25	6209.65
510.618	6288.07
510.986	6288.52
511.354	6307.73
511.722	6345.02
512.09	6353.15
512.458	6372.59
512.826	6433.83
513.193	6468.63
513.561	6470.66
513.929	6460.95
514.297	6532.13
514.664	6588.63
515.032	6544.11
515.4	6563.54
515.767	6602.41
516.135	6667.27
516.502	6603.32
516.869	6680.83
517.237	6670.66
517.604	6691.45
517.972	6712.92
518.339	6780.71
518.706	6759.7
519.073	6833.59
519.44	6821.84
519.808	6917.66
520.175	6880.6
520.542	6944.55
520.909	7047.6
521.276	6930.09
521.643	7037.43
522.009	7044.21
522.376	7086.01
522.743	7048.73
523.11	7172.11
523.477	7239.23
523.843	7149.29
524.21	7246.01
524.577	7353.8
524.943	7331.43
525.31	7335.5
525.676	7484.42
526.043	7431.99
526.409	7487.81
526.776	7517.87
527.142	7473.57
527.508	7583.4
527.874	7598.09
528.241	7647.13
528.607	7658.2
528.973	7750.4
529.339	7750.4
529.705	7802.38
530.071	7823.17
530.437	7851.87
530.803	7975.71
531.169	7891.64
531.535	7957.63
531.901	7950.62
532.267	8039.66
532.632	8053.67
532.998	8090.51
533.364	8103.16
533.73	8134.8
534.095	8093.9
534.461	8189.04
534.826	8208.92
535.192	8251.86
535.557	8266.55
535.923	8282.37
536.288	8304.74
536.653	8403.95
537.019	8263.61
537.384	8368.24
537.749	8335.92
538.114	8451.63
538.479	8424.28
538.845	8522.81
539.21	8461.35
539.575	8575.01
539.94	8504.28
540.305	8549.93
540.67	8572.08
541.034	8568.46
541.399	8622.7
541.764	8728
542.129	8728.46
542.494	8720.55
542.858	8755.35
543.223	8760.55
543.587	8820.21
543.952	8776.82
544.316	8848.45
544.681	8897.27
545.045	8864.95
545.41	8867.66
545.774	8917.83
546.138	8926.64
546.503	8960.54
546.867	8960.32
547.231	9036.25
547.595	9091.39
547.959	9109.69
548.324	9089.35
548.688	9133.42
549.052	9164.38
549.416	9213.64
549.779	9178.39
550.143	9197.82
550.507	9266.75
550.871	9308.33
551.235	9242.57
551.599	9266.3
551.962	9292.96
552.326	9335.45
552.689	9389.68
553.053	9383.58
553.417	9397.82
553.78	9420.42
554.143	9412.28
554.507	9545.61
554.87	9513.75
555.234	9525.27
555.597	9521.2
555.96	9598.49
556.323	9605.72
556.686	9564.37
557.05	9638.49
557.413	9657.02
557.776	9667.19
558.139	9770.01
558.502	9727.75
558.865	9781.99
559.228	9845.04
559.59	9812.95
559.953	9850.46
560.316	9950.57
560.679	9945.37
561.041	9897.69
561.404	10065.6
561.767	10075.99
562.129	9992.15
562.492	10174.97
562.854	10132.26
563.217	10126.16
563.579	10226.04
563.941	10228.98
564.304	10230.56
564.666	10278.25
565.028	10351.47
565.39	10308.53
565.753	10474.4
566.115	10397.79
566.477	10445.02
566.839	10496.77
567.201	10542.87
567.563	10526.38
567.925	10560.73
568.287	10633.49
568.648	10679.37
569.01	10787.16
569.372	10750.55
569.734	10786.93
570.095	10829.42
570.457	10918.91
570.819	10972.47
571.18	10940.38
571.542	11046.81
571.903	11016.53
572.265	11068.06
572.626	11001.39
572.987	11151.22
573.349	11172.23
573.71	11265.57
574.071	11290.65
574.432	11294.94
574.794	11414.94
575.155	11453.13
575.516	11439.57
575.877	11503.98
576.238	11578.1
576.599	11649.96
576.96	11642.05
577.32	11702.62
577.681	11772.67
578.042	11822.16
578.403	11986.68
578.763	11941.93
579.124	12083.4
579.485	12117.97
579.845	12239.33
580.206	12234.35
580.566	12384.86
580.927	12459.66
581.287	12482.03
581.648	12497.4
582.008	12727
582.368	12774
582.728	12862.13
583.089	12928.57
583.449	13043.15
583.809	13170.15
584.169	13265.29
584.529	13269.81
584.889	13480.87
585.249	13467.32
585.609	13506.18
585.969	13838.83
586.329	13896.23
586.688	13978.49
587.048	14052.38
587.408	14170.57
587.768	14377.35
588.127	14473.62
588.487	14596.78
588.846	14818.24
589.206	14860.05
589.565	15047.61
589.925	15175.75
590.284	15298.45
590.643	15453.48
591.003	15603.53
591.362	15824.77
591.721	15781.38
592.08	16077.19
592.44	16208.49
592.799	16314.7
593.158	16460.01
593.517	16551.3
593.876	16785.87
594.235	16865.87
594.593	16979.31
594.952	17180.66
595.311	17273.54
595.67	17443.71
596.029	17687.09
596.387	17852.51
596.746	18036.69
597.104	18030.13
597.463	18169.56
597.822	18395.32
598.18	18398.49
598.538	18444.13
598.897	18782.88
599.255	18765.71
599.613	19173.83
599.972	19127.51
600.33	19306.03
600.688	19368.4
601.046	19566.36
601.404	19658.79
601.762	19753.7
602.12	19885.9
602.478	20045
602.836	20165.9
603.194	20102.85
603.552	20336.74
603.91	20361.6
604.268	20562.04
604.625	20595.94
604.983	20733.34
605.341	20648.14
605.698	20835.71
606.056	21109.83
606.413	21087.45
606.771	21236.6
607.128	21287.67
607.485	21333.78
607.843	21435.02
608.2	21680.43
608.557	21758.17
608.914	21804.5
609.272	21965.62
609.629	22050.59
609.986	22076.58
610.343	22202.9
610.7	22239.29
611.057	22301.66
611.414	22458.72
611.771	22526.74
612.127	22581.43
612.484	22596.11
612.841	22698.26
613.198	22735.32
613.554	22864.13
613.911	23001.75
614.267	23020.74
614.624	23038.82
614.98	23216.66
615.337	23294.18
615.693	23316.77
616.05	23348.41
616.406	23435.64
616.762	23460.72
617.118	23459.14
617.475	23558.12
617.831	23594.73
618.187	23702.3
618.543	23697.1
618.899	24003.31
619.255	23885.35
619.611	23843.77
619.967	23974.38
620.323	24077.88
620.678	24028.85
621.034	24122.85
621.39	24048.05
621.746	24010.32
622.101	24283.3
622.457	24180.25
622.812	24202.85
623.168	24379.8
623.523	24387.48
623.879	24446.01
624.234	24307.03
624.589	24362.4
624.945	24475.16
625.3	24490.53
625.655	24451.89
626.01	24528.04
626.365	24580.7
626.72	24591.77
627.075	24424.99
627.43	24518.78
627.785	24621.6
628.14	24660.47
628.495	24659.79
628.85	24554.03
629.205	24586.35
629.559	24732.78
629.914	24579.57
630.269	24586.12
630.623	24580.92
630.978	24634.93
631.332	24724.42
631.687	24698.43
632.041	24669.05
632.396	24683.29
632.75	24526.01
633.104	24654.14
633.459	24577.76
633.813	24506.8
634.167	24502.05
634.521	24537.31
634.875	24679.45
635.229	24587.25
635.583	24543.86
635.937	24470.19
636.291	24556.97
636.645	24496.63
636.999	24481.94
637.352	24531.88
637.706	24361.04
638.06	24502.05
638.413	24436.74
638.767	24366.01
639.121	24427.25
639.474	24402.4
639.828	24280.14
640.181	24334.6
640.534	24426.58
640.888	24156.07
641.241	24239.46
641.594	24218.67
641.947	24271.1
642.301	24309.52
642.654	24206.69
643.007	24290.53
643.36	24254.83
643.713	24238.33
644.066	24273.13
644.419	24215.51
644.771	24006.02
645.124	23912.24
645.477	23761.51
645.83	23719.7
646.182	23506.37
646.535	23468.18
646.888	23586.82
647.24	23404.46
647.593	23548.18
647.945	23490.33
648.298	23401.52
648.65	23406.94
649.002	23231.58
649.355	23563.55
649.707	23503.21
650.059	23445.13
650.411	23869.3
650.763	23831.11
651.115	24090.54
651.467	24002.41
651.819	23976.42
652.171	23987.94
652.523	23919.24
652.875	23958.79
653.227	23875.63
653.578	24145.45
653.93	23896.65
654.282	23940.49
654.633	23922.86
654.985	23947.04
655.337	23880.83
655.688	24005.34
656.039	24060.03
656.391	23916.31
656.742	23991.78
657.094	23954.27
657.445	24070.65
657.796	24080.37
658.147	23974.16
658.498	24008.51
658.849	23970.32
659.2	23969.64
659.551	23881.05
659.902	24101.39
660.253	23987.04
660.604	24059.81
660.955	23989.52
661.306	24037.43
661.656	23985
662.007	24035.17
662.358	24168.95
662.708	24014.83
663.059	23948.62
663.409	23952.01
663.76	24161.5
664.11	24093.48
664.461	23966.7
664.811	23974.38
665.161	24215.51
665.511	24037.66
665.862	24033.14
666.212	24098.45
666.562	24175.28
666.912	24054.83
667.262	24023.2
667.612	24012.8
667.962	24074.95
668.312	24005.34
668.662	24192.46
669.011	24048.28
669.361	23973.25
669.711	24015.96
670.06	23935.06
670.41	23903.88
670.76	23926.7
671.109	23978.9
671.459	23895.06
671.808	23914.95
672.157	23908.62
672.507	23817.55
672.856	23686.93
673.205	23813.48
673.554	23900.26
673.904	23814.39
674.253	24012.12
674.602	23771
674.951	23496.43
675.3	23460.27
675.649	23823.65
675.998	23823.65
676.346	23803.77
676.695	23801.28
677.044	23666.14
677.393	23641.96
677.741	23667.27
678.09	23688.97
678.438	23499.59
678.787	23551.34
679.135	23633.83
679.484	23390.9
679.832	23541.63
680.181	23390.67
680.529	23439.93
680.877	23360.39
681.225	23452.82
681.573	23475.41
681.922	23330.56
682.27	23193.84
682.618	23225.7
682.966	23197.46
683.314	23124.91
683.661	23197.91
684.009	23002.66
684.357	22972.15
684.705	22986.61
685.053	22922.66
685.4	22985.26
685.748	22887.18
686.095	22837.69
686.443	22799.05
686.79	22780.74
687.138	22667.98
687.485	22753.85
687.832	22488.32
688.18	22665.27
688.527	22471.6
688.874	22474.99
689.221	22338.49
689.568	22232.96
689.915	22281.32
690.262	22305.5
690.609	22180.31
690.956	22104.83
691.303	22022.12
691.65	21982.57
691.997	21923.82
692.344	21872.52
692.69	21937.38
693.037	21840.2
693.383	21586.2
693.73	21645.86
694.077	21631.39
694.423	21491.06
694.769	21458.97
695.116	21251.74
695.462	21456.48
695.808	21271.63
696.155	21303.95
696.501	21081.58
696.847	21123.84
697.193	20962.94
697.539	21037.29
697.885	20854.01
698.231	20760.23
698.577	20691.98
698.923	20694.92
699.269	20542.84
699.614	20510.29
699.96	20401.6
700.306	20360.02
700.651	20284.99
700.997	20239.57
701.342	20242.5
701.688	20244.76
702.033	20174.48
702.379	20053.36
702.724	20027.82
703.069	20025.34
703.415	19719.81
703.76	19681.84
704.105	19711.22
704.45	19542.86
704.795	19513.26
705.14	19630.09
705.485	19485.91
705.83	19414.28
706.175	19486.82
706.52	19301.51
706.865	19261.74
707.209	19223.77
707.554	19201.63
707.899	19210.89
708.243	19071.24
708.588	19067.62
708.932	18918.7
709.277	18851.81
709.621	18858.13
709.966	18697.01
710.31	18864.46
710.654	18725.26
710.998	18583.79
711.342	18674.86
711.687	18558.03
712.031	18464.7
712.375	18476.68
712.719	18488.2
713.063	18552.15
713.407	18528.2
713.75	18351.03
714.094	18330.24
714.438	18230.58
714.782	18334.76
715.125	18149.45
715.469	18209.79
715.812	18102.22
716.156	18060.19
716.499	17999.17
716.843	18029
717.186	17879.4
717.53	17971.15
717.873	17980.42
718.216	17964.6
718.559	17837.82
718.902	17677.83
719.246	17769.35
719.589	17762.8
719.932	17667.43
720.275	17769.58
720.617	17767.77
720.96	17605.74
721.303	17680.99
721.646	17661.33
721.989	17622.23
722.331	17589.47
722.674	17624.72
723.016	17553.31
723.359	17557.15
723.701	17472.18
724.044	17368
724.386	17319.64
724.729	17368
725.071	17352.18
725.413	17327.1
725.755	17287.78
726.097	17284.39
726.439	17119.65
726.782	17220.66
727.124	17263.15
727.465	17200.32
727.807	17214.56
728.149	17100.44
728.491	17221.79
728.833	17191.74
729.175	17105.19
729.516	17024.74
729.858	17016.6
730.199	17152.42
730.541	17104.28
730.882	17065.86
731.224	17165.75
731.565	17039.88
731.906	17045.98
732.248	17112.42
732.589	17057.5
732.93	16937.51
733.271	16998.52
733.612	17053.89
733.953	16954.46
734.294	16929.82
734.635	16905.64
734.976	17075.36
735.317	16884.63
735.658	16878.07
735.999	16971.86
736.339	16928.92
736.68	16961.91
737.021	16924.17
737.361	16860.22
737.702	16983.61
738.042	16917.85
738.383	16933.21
738.723	16923.04
739.063	16905.42
739.404	16972.99
739.744	16877.62
740.084	16932.76
740.424	16926.89
740.764	16906.55
741.104	17005.98
741.444	17006.21
741.784	16835.14
742.124	17024.06
742.464	17070.38
742.804	17038.52
743.143	17032.19
743.483	17040.33
743.823	16959.43
744.162	17023.38
744.502	17050.05
744.841	17065.19
745.181	17154.22
745.52	17143.83
745.86	17149.03
746.199	17162.81
746.538	17202.81
746.877	17392.86
747.216	17374.11
747.556	17385.4
747.895	17475.12
748.234	17434.44
748.573	17613.42
748.911	17492.07
749.25	17636.47
749.589	17679.41
749.928	17766.64
750.267	17901.78
750.605	17828.56
750.944	18024.94
751.283	18024.26
751.621	18159.17
751.96	18132.05
752.298	18242.56
752.636	18343.57
752.975	18431.7
753.313	18426.73
753.651	18604.13
753.989	18678.03
754.327	18792.37
754.666	18781.98
755.004	18922.77
755.342	19076.43
755.679	19147.17
756.017	19090.22
756.355	19431.45
756.693	19407.72
757.031	19517.55
757.368	19627.15
757.706	19692.91
758.044	19837.09
758.381	19985.11
758.719	20003.41
