Data from hue_330_FLMS001491_83.txt Node
Date: Mon Feb 06 15:46:02 GMT 2017
User: dcchb
Spectrometer: FLMS00149
Trigger mode: 0
Integration Time (sec): 2.000000E-2
Scans to average: 10
Electric dark correction enabled: true
Nonlinearity correction enabled: false
Boxcar width: 0
XAxis mode: Wavelengths
Number of Pixels in Spectrum: 2048
>>>>>Begin Spectral Data<<<<<
341.393	-11.64
341.776	-11.64
342.16	-11.64
342.543	-44.18
342.927	-65.42
343.31	-73.11
343.693	-73.56
344.077	-76.5
344.46	-65.42
344.843	-59.32
345.226	-50.51
345.61	-38.98
345.993	-9.38
346.376	-9.83
346.759	27.46
347.142	43.95
347.525	45.99
347.908	63.16
348.291	84.63
348.674	95.93
349.057	95.48
349.44	131.41
349.823	151.75
350.206	173.67
350.588	203.95
350.971	222.71
351.354	230.62
351.737	235.14
352.119	258.86
352.502	253.21
352.884	275.59
353.267	288.02
353.65	291.63
354.032	281.69
354.414	298.86
354.797	304.51
355.179	322.59
355.562	308.58
355.944	317.84
356.326	344.28
356.709	321.69
357.091	345.41
357.473	319.2
357.855	341.8
358.238	352.65
358.62	340.22
359.002	350.39
359.384	346.09
359.766	350.16
360.148	349.71
360.53	331.18
360.912	340.67
361.294	326.43
361.676	329.14
362.057	352.87
362.439	341.8
362.821	337.05
363.203	328.69
363.584	345.41
363.966	314.68
364.348	334.12
364.729	318.97
365.111	321.69
365.493	315.81
365.874	305.64
366.256	324.62
366.637	305.87
367.019	288.92
367.4	311.29
367.781	308.35
368.163	322.14
368.544	317.39
368.925	319.88
369.306	328.47
369.688	303.38
370.069	316.49
370.45	307.22
370.831	323.49
371.212	312.42
371.593	307
371.974	311.29
372.355	304.74
372.736	324.4
373.117	310.61
373.498	307.9
373.879	328.24
374.26	317.84
374.641	311.52
375.021	296.38
375.402	324.4
375.783	322.36
376.163	311.52
376.544	335.02
376.925	316.49
377.305	322.82
377.686	298.18
378.066	336.15
378.447	328.24
378.827	352.42
379.208	353.1
379.588	341.12
379.968	333.21
380.349	341.57
380.729	336.6
381.109	316.04
381.489	321.46
381.87	351.06
382.25	343.15
382.63	332.99
383.01	328.01
383.39	347.67
383.77	332.31
384.15	339.31
384.53	361.23
384.91	351.74
385.29	359.65
385.67	371.4
386.049	358.07
386.429	366.21
386.809	363.27
387.189	339.77
387.568	352.65
387.948	353.1
388.328	353.1
388.707	339.99
389.087	356.49
389.466	373.21
389.846	380.22
390.225	395.36
390.605	353.78
390.984	370.27
391.363	390.84
391.743	356.04
392.122	370.27
392.501	347
392.881	384.96
393.26	372.31
393.639	380.89
394.018	388.8
394.397	370.95
394.776	394.23
395.155	365.98
395.534	384.74
395.913	400.33
396.292	393.32
396.671	394.68
397.05	398.97
397.429	414.57
397.808	387.45
398.186	410.27
398.565	381.35
398.944	415.7
399.323	369.59
399.701	384.06
400.08	411.63
400.458	403.04
400.837	418.41
401.215	407.56
401.594	405.07
401.972	428.35
402.351	409.59
402.729	408.92
403.107	424.51
403.486	425.41
403.864	432.64
404.242	433.55
404.62	435.81
404.999	439.2
405.377	444.17
405.755	444.62
406.133	435.13
406.511	455.92
406.889	434.45
407.267	438.52
407.645	459.54
408.023	468.12
408.401	449.59
408.779	466.77
409.156	466.77
409.534	472.64
409.912	485.98
410.29	485.3
410.667	492.76
411.045	482.81
411.422	485.52
411.8	504.28
412.178	508.57
412.555	513.32
412.933	506.99
413.31	529.36
413.687	524.39
414.065	546.54
414.442	536.37
414.819	540.44
415.197	537.05
415.574	568.69
415.951	577.05
416.328	561.91
416.705	576.37
417.082	584.28
417.46	554.45
417.837	558.52
418.214	597.61
418.591	594.67
418.967	617.5
419.344	587.89
419.721	615.24
420.098	633.32
420.475	626.31
420.852	635.58
421.228	658.85
421.605	670.15
421.982	661.34
422.358	678.51
422.735	678.97
423.111	653.2
423.488	685.52
423.864	689.36
424.241	701.79
424.617	711.73
424.994	695.01
425.37	700.43
425.746	707.89
426.123	738.17
426.499	731.85
426.875	729.81
427.251	738.62
427.627	776.59
428.003	780.21
428.379	784.5
428.756	774.1
429.132	772.75
429.507	779.75
429.883	801.67
430.259	800.32
430.635	802.8
431.011	821.33
431.387	822.46
431.763	839.86
432.138	879.41
432.514	871.95
432.89	885.74
433.265	871.5
433.641	864.95
434.016	873.76
434.392	891.84
434.767	897.26
435.143	924.38
435.518	911.95
435.894	934.55
436.269	965.06
436.644	970.48
437.02	982.69
437.395	978.62
437.77	975
438.145	1009.58
438.52	986.53
438.895	1016.36
439.271	1024.72
439.646	1008.67
440.021	1016.81
440.395	1046.41
440.77	1057.71
441.145	1037.37
441.52	1049.12
441.895	1069.46
442.27	1065.4
442.645	1073.31
443.019	1101.55
443.394	1066.98
443.769	1108.78
444.143	1095.68
444.518	1108.11
444.892	1083.02
445.267	1130.03
445.641	1159.63
446.016	1116.69
446.39	1107.88
446.764	1133.64
447.139	1135.45
447.513	1166.18
447.887	1155.11
448.262	1142.91
448.636	1139.74
449.01	1160.31
449.384	1181.55
449.758	1175.9
450.132	1212.96
450.506	1183.13
450.88	1191.49
451.254	1202.57
451.628	1216.35
452.002	1242.11
452.376	1224.71
452.75	1241.44
453.123	1230.59
453.497	1245.05
453.871	1255
454.244	1279.63
454.618	1277.14
454.992	1299.97
455.365	1295.45
455.739	1325.05
456.112	1329.34
456.486	1355.56
456.859	1337.93
457.232	1330.7
457.606	1354.2
457.979	1372.05
458.352	1400.3
458.725	1414.31
459.099	1400.75
459.472	1432.17
459.845	1416.12
460.218	1443.92
460.591	1445.72
460.964	1432.39
461.337	1484.37
461.71	1502.67
462.083	1505.38
462.456	1492.96
462.829	1517.59
463.201	1530.47
463.574	1546.51
463.947	1542.9
464.32	1601.65
464.692	1577.7
465.065	1633.97
465.438	1630.13
465.81	1650.01
466.183	1655.21
466.555	1696.11
466.928	1674.42
467.3	1684.14
467.672	1709.9
468.045	1711.48
468.417	1710.8
468.789	1725.94
469.161	1777.92
469.534	1783.12
469.906	1822.66
470.278	1815.66
470.65	1857.47
471.022	1866.5
471.394	1883.91
471.766	1918.71
472.138	1934.3
472.51	1953.51
472.882	1995.77
473.253	2002.77
473.625	2031.92
473.997	2031.47
474.369	2064.92
474.74	2076.67
475.112	2117.8
475.484	2149.44
475.855	2202.99
476.227	2186.04
476.598	2216.78
476.97	2270.79
477.341	2281.86
477.713	2325.7
478.084	2320.28
478.455	2369.32
478.827	2397.34
479.198	2446.83
479.569	2469.43
479.94	2494.06
480.311	2530.89
480.682	2576.99
481.053	2583.55
481.424	2644.11
481.795	2681.17
482.166	2712.13
482.537	2725.01
482.908	2769.98
483.279	2769.53
483.65	2821.06
484.021	2852.47
484.391	2869.87
484.762	2936.31
485.133	2924.56
485.503	2963.42
485.874	3048.39
486.244	3069.41
486.615	3113.7
486.985	3142.63
487.356	3158.22
487.726	3192.8
488.097	3243.64
488.467	3250.87
488.837	3339.01
489.207	3352.12
489.578	3450.42
489.948	3449.51
490.318	3458.1
490.688	3477.76
491.058	3524.09
491.428	3576.29
491.798	3590.98
492.168	3690.86
492.538	3654.48
492.908	3673.91
493.278	3736.96
493.648	3742.61
494.017	3785.55
494.387	3823.29
494.757	3830.97
495.126	3914.13
495.496	3858.54
495.866	3903.06
496.235	3936.28
496.605	3989.39
496.974	3957.52
497.344	4025.09
497.713	4042.49
498.082	4071.87
498.452	4085.43
498.821	4113.9
499.19	4110.51
499.559	4164.98
499.928	4187.57
500.298	4206.33
500.667	4186.9
501.036	4206.1
501.405	4263.28
501.774	4229.38
502.143	4257.4
502.512	4323.84
502.88	4378.75
503.249	4367.91
503.618	4357.29
503.987	4397.74
504.356	4418.3
504.724	4401.81
505.093	4436.15
505.462	4432.54
505.83	4475.93
506.199	4484.74
506.567	4526.1
506.936	4546.21
507.304	4571.74
507.672	4590.5
508.041	4576.49
508.409	4569.71
508.777	4661.23
509.145	4717.05
509.514	4674.11
509.882	4698.07
510.25	4705.07
510.618	4722.47
510.986	4751.63
511.354	4763.38
511.722	4764.06
512.09	4851.74
512.458	4802.25
512.826	4838.86
513.193	4853.09
513.561	4848.8
513.929	4906.42
514.297	4918.4
514.664	4949.81
515.032	4922.92
515.4	4937.84
515.767	4985.74
516.135	5036.59
516.502	4972.19
516.869	5062.13
517.237	5052.41
517.604	5035.23
517.972	5098.28
518.339	5092.86
518.706	5108
519.073	5129.02
519.44	5136.02
519.808	5225.06
520.175	5186.42
520.542	5221.44
520.909	5249.24
521.276	5229.58
521.643	5296.47
522.009	5338.28
522.376	5313.87
522.743	5331.5
523.11	5376.69
523.477	5427.09
523.843	5415.56
524.21	5461.21
524.577	5525.17
524.943	5531.49
525.31	5490.36
525.676	5582.34
526.043	5560.87
526.409	5626.18
526.776	5687.87
527.142	5697.36
527.508	5696.69
527.874	5764.26
528.241	5739.85
528.607	5733.07
528.973	5783.01
529.339	5800.19
529.705	5886.74
530.071	5929.67
530.437	5969.67
530.803	5959.28
531.169	6035.43
531.535	5989.11
531.901	6013.74
532.267	6041.31
532.632	6057.13
532.998	6129.22
533.364	6108.88
533.73	6206.96
534.095	6251.93
534.461	6262.55
534.826	6243.56
535.192	6265.03
535.557	6350.91
535.923	6303.45
536.288	6360.85
536.653	6368.76
537.019	6352.04
537.384	6423.9
537.749	6489.66
538.114	6460.06
538.479	6477.91
538.845	6548.19
539.21	6491.02
539.575	6558.36
539.94	6597
540.305	6631.58
540.67	6601.97
541.034	6644.91
541.399	6623.22
541.764	6697.34
542.129	6746.15
542.494	6755.87
542.858	6800.61
543.223	6785.7
543.587	6826.6
543.952	6781.86
544.316	6927.61
544.681	6892.59
545.045	6933.72
545.41	7010.1
545.774	6984.79
546.138	7010.32
546.503	7042.19
546.867	7074.73
547.231	7123.54
547.595	7163.54
547.959	7126.93
548.324	7179.36
548.688	7113.15
549.052	7201.51
549.416	7252.35
549.779	7272.01
550.143	7286.93
550.507	7302.52
550.871	7385.23
551.235	7400.14
551.599	7439.47
551.962	7363.08
552.326	7433.36
552.689	7441.95
553.053	7439.24
553.417	7516.75
553.78	7628.61
554.143	7568.28
554.507	7600.14
554.87	7581.16
555.234	7660.93
555.597	7603.08
555.96	7627.03
556.323	7717.42
556.686	7636.07
557.05	7777.31
557.413	7748.61
557.776	7769.4
558.139	7825.22
558.502	7857.31
558.865	7833.58
559.228	7943.41
559.59	7959.9
559.953	7959.9
560.316	8025.66
560.679	8036.06
561.041	8041.94
561.404	8071.77
561.767	8122.61
562.129	8139.11
562.492	8233.57
562.854	8166
563.217	8167.81
563.579	8229.95
563.941	8256.62
564.304	8314.7
564.666	8312.89
565.028	8315.37
565.39	8367.58
565.753	8339.55
566.115	8419.1
566.477	8407.12
566.839	8457.52
567.201	8494.8
567.563	8509.95
567.925	8550.4
568.287	8660.9
568.648	8619.55
569.01	8634.46
569.372	8721.47
569.734	8724.86
570.095	8776.61
570.457	8794.68
570.819	8867.9
571.18	8876.26
571.542	8914.45
571.903	8947.22
572.265	9024.28
572.626	9070.61
572.987	9130.04
573.349	9195.58
573.71	9209.14
574.071	9235.12
574.432	9264.95
574.794	9377.27
575.155	9374.33
575.516	9379.75
575.877	9518.05
576.238	9554.21
576.599	9617.04
576.96	9671.95
577.32	9767.31
577.681	9890.7
578.042	9996.69
578.403	10073.29
578.763	10138.6
579.124	10194.65
579.485	10341.76
579.845	10494.75
580.206	10438.71
580.566	10664.69
580.927	10746.05
581.287	10855.19
581.648	10935.42
582.008	11156.88
582.368	11228.29
582.728	11438.23
583.089	11558.45
583.449	11724.32
583.809	11890.87
584.169	11967.03
584.529	12177.65
584.889	12496.06
585.249	12531.31
585.609	12703.06
585.969	12963.39
586.329	13140.78
586.688	13396.37
587.048	13501.45
587.408	13879.75
587.768	14090.82
588.127	14217.37
588.487	14461.65
588.846	14742.1
589.206	14966.5
589.565	15173.27
589.925	15497.33
590.284	15728.51
590.643	15988.85
591.003	16333.24
591.362	16582.73
591.721	16732.33
592.08	17058.87
592.44	17410.5
592.799	17660.44
593.158	17927.78
593.517	18171.84
593.876	18452.74
594.235	18713.75
594.593	19053.4
594.952	19343.33
595.311	19546.04
595.67	19884.34
596.029	20233.48
596.387	20438.9
596.746	20757.76
597.104	21000.24
597.463	21344.18
597.822	21681.58
598.18	21828.92
598.538	22226.87
598.897	22612.85
599.255	22630.25
599.613	23258.94
599.972	23434.98
600.33	23708.87
600.688	23900.95
601.046	24277.89
601.404	24570.31
601.762	24697.99
602.12	25165.33
602.478	25485.09
602.836	25756.27
603.194	25895.48
603.552	26005.76
603.91	26342.02
604.268	26703.59
604.625	26856.36
604.983	27190.81
605.341	27322.11
605.698	27763.68
606.056	28032.37
606.413	28288.86
606.771	28540.38
607.128	28737.66
607.485	28783.08
607.843	29092
608.2	29465.1
608.557	29672.1
608.914	29792.1
609.272	30137.85
609.629	30474.79
609.986	30658.29
610.343	30621
610.7	31019.86
611.057	31076.81
611.414	31339.63
611.771	31532.17
612.127	31873.4
612.484	31977.35
612.841	32276.1
613.198	32267.29
613.554	32585.47
613.911	32791.79
614.267	33022.3
614.624	33030.66
614.98	33294.15
615.337	33579.34
615.693	33731.66
616.05	33716.29
616.406	34003.96
616.762	34006.22
617.118	34159.21
617.475	34325.76
617.831	34614.34
618.187	34689.6
618.543	34804.85
618.899	35166.42
619.255	35257.27
619.611	35172.07
619.967	35489.35
620.323	35663.58
620.678	35688.44
621.034	35685.5
621.39	35729.34
621.746	35898.6
622.101	36341.76
622.457	36078.94
622.812	36289.33
623.168	36492.71
623.523	36411.13
623.879	36717.11
624.234	36578.59
624.589	36805.47
624.945	36890.67
625.3	37047.5
625.655	37048.18
626.01	37070.78
626.365	37244.56
626.72	37125.92
627.075	37182.64
627.43	37278.68
627.785	37392.12
628.14	37494.49
628.495	37600.03
628.85	37470.54
629.205	37526.81
629.559	37756.63
629.914	37551.89
630.269	37710.31
630.623	37606.36
630.978	37692.46
631.332	37854.26
631.687	37871.21
632.041	37879.12
632.396	37991.43
632.75	37897.65
633.104	37883.86
633.459	37878.67
633.813	38019
634.167	38028.72
634.521	37957.76
634.875	37961.6
635.229	37891.55
635.583	37834.82
635.937	37940.13
636.291	38024.65
636.645	38016.74
636.999	37896.52
637.352	38117.08
637.706	37922.05
638.06	37969.06
638.413	37964.31
638.767	37906.23
639.121	37992.33
639.474	37795.5
639.828	37801.83
640.181	37906.01
640.534	37967.02
640.888	37851.32
641.241	37782.62
641.594	37843.64
641.947	37859.46
642.301	37696.07
642.654	37998.89
643.007	37809.74
643.36	37962.73
643.713	37732.45
644.066	37968.83
644.419	37618.11
644.771	37477.09
645.124	37200.94
645.477	37190.1
645.83	36920.72
646.182	36841.86
646.535	36753.27
646.888	36756.66
647.24	36605.7
647.593	36786.72
647.945	36828.3
648.298	36544.69
648.65	36603.44
649.002	36374.98
649.355	36571.58
649.707	36479.83
650.059	36759.82
650.411	37052.7
650.763	37279.81
651.115	37482.74
651.467	37518.67
651.819	37518.45
652.171	37443.2
652.523	37271.22
652.875	37275.74
653.227	37191.23
653.578	37467.38
653.93	37237.1
654.282	37288.17
654.633	37202.52
654.985	37186.48
655.337	37268.06
655.688	37208.63
656.039	37313.71
656.391	37106.48
656.742	37056.54
657.094	37156.65
657.445	37325.23
657.796	37225.35
658.147	37165.24
658.498	37179.93
658.849	37174.73
659.2	36996.88
659.551	37012.25
659.902	37227.16
660.253	37028.74
660.604	37181.28
660.955	36993.94
661.306	37075.52
661.656	37051.34
662.007	37000.72
662.358	37022.19
662.708	37099.93
663.059	37082.98
663.409	36807.28
663.76	37120.04
664.11	37169.31
664.461	37161.17
664.811	37009.31
665.161	37021.74
665.511	36921.63
665.862	36993.26
666.212	37065.81
666.562	37213.37
666.912	37094.28
667.262	36932.7
667.612	36927.28
667.962	37031.91
668.312	36905.58
668.662	37019.93
669.011	37082.53
669.361	36847.51
669.711	36898.8
670.06	36844.12
670.41	36759.82
670.76	36810.67
671.109	36901.29
671.459	36896.32
671.808	36828.75
672.157	36924.11
672.507	36700.84
672.856	36712.82
673.205	36699.04
673.554	36852.48
673.904	36699.26
674.253	36819.03
674.602	36723.67
674.951	36237.35
675.3	36093.85
675.649	36686.38
675.998	36615.87
676.346	36745.59
676.695	36858.58
677.044	36277.13
677.393	36478.93
677.741	36597.12
678.09	36513.28
678.438	36442.32
678.787	36490.9
679.135	36443.22
679.484	36335.65
679.832	36371.59
680.181	36249.56
680.529	36263.57
680.877	36302.21
681.225	36154.19
681.573	36344.69
681.922	36071.03
682.27	36012.05
682.618	36139.95
682.966	35925.95
683.314	35994.65
683.661	35952.16
684.009	35664.94
684.357	35577.71
684.705	35679.63
685.053	35712.39
685.4	35547.2
685.748	35512.85
686.095	35377.94
686.443	35192.18
686.79	35298.39
687.138	35191.73
687.485	35292.52
687.832	35184.27
688.18	35222.24
688.527	34998.97
688.874	34929.14
689.221	34882.36
689.568	35006.2
689.915	34801.46
690.262	34829.25
690.609	34749.71
690.956	34556.04
691.303	34605.76
691.65	34487.34
691.997	34327.8
692.344	34271.53
692.69	34214.58
693.037	34294.8
693.383	34013
693.73	34058.2
694.077	33847.81
694.423	33891.2
694.769	33844.87
695.116	33791.99
695.462	33676.52
695.808	33504.32
696.155	33736.18
696.501	33299.58
696.847	33397.88
697.193	33218
697.539	33313.14
697.885	33038.79
698.231	32994.5
698.577	32954.5
698.923	32915.86
699.269	32714.28
699.614	32577.56
699.96	32638.35
700.306	32594.06
700.651	32323.1
700.997	32199.27
701.342	32348.87
701.688	32160.4
702.033	32103.22
702.379	31983.68
702.724	31985.71
703.069	32004.02
703.415	31629.11
703.76	31771.93
704.105	31731.48
704.45	31564.93
704.795	31456.01
705.14	31300.76
705.485	31259.86
705.83	31250.36
706.175	31380.08
706.52	31305.28
706.865	31052.18
707.209	31090.14
707.554	30865.06
707.899	31063.93
708.243	30868.23
708.588	30835.91
708.932	30617.61
709.277	30515.69
709.621	30565.19
709.966	30395.02
710.31	30477.96
710.654	30205.87
710.998	30225.76
711.342	30217.4
711.687	30220.11
712.031	30121.58
712.375	30009.49
712.719	29945.77
713.063	29865.77
713.407	30047.46
713.75	29804.53
714.094	29852.44
714.438	29640.01
714.782	29660.8
715.125	29522.73
715.469	29594.59
715.812	29419.23
716.156	29227.37
716.499	29285.67
716.843	29298.1
717.186	29176.97
717.53	29310.08
717.873	29300.13
718.216	29221.72
718.559	29013.59
718.902	28816.53
719.246	28979.69
719.589	28927.71
719.932	28824.44
720.275	28761.62
720.617	28587.61
720.96	28701.51
721.303	28574.28
721.646	28724.33
721.989	28299.48
722.331	28501.28
722.674	28507.39
723.016	28473.49
723.359	28416.54
723.701	28454.51
724.044	28189.65
724.386	28185.81
724.729	28246.15
725.071	28191.69
725.413	28145.81
725.755	27973.84
726.097	27951.69
726.439	27812.04
726.782	27889.55
727.124	27961.19
727.465	27708.31
727.807	27687.07
728.149	27720.51
728.491	27688.65
728.833	27655.43
729.175	27558.71
729.516	27546.96
729.858	27507.64
730.199	27577.47
730.541	27442.78
730.882	27526.62
731.224	27471.71
731.565	27276.01
731.906	27312.39
732.248	27331.6
732.589	27187.19
732.93	26989.23
733.271	27077.82
733.612	27102
733.953	27062
734.294	26950.82
734.635	26893.64
734.976	27078.72
735.317	26882.8
735.658	26793.53
735.999	26846.41
736.339	26739.07
736.68	26796.47
737.021	26760.99
737.361	26610.26
737.702	26652.97
738.042	26638.51
738.383	26579.08
738.723	26634.67
739.063	26485.97
739.404	26416.82
739.744	26325.97
740.084	26328.01
740.424	26471.51
740.764	26370.95
741.104	26332.53
741.444	26204.85
741.784	26236.94
742.124	26275.81
742.464	26277.16
742.804	26118.3
743.143	26045.98
743.483	25986.55
743.823	25793.56
744.162	25834.01
744.502	26072.42
744.841	25784.97
745.181	25989.49
745.52	25827
745.86	25799.89
746.199	25818.64
746.538	25781.58
746.877	25764.63
747.216	25738.87
747.556	25685.31
747.895	25687.8
748.234	25421.82
748.573	25474.02
748.911	25421.14
749.25	25388.37
749.589	25373.01
749.928	25336.17
750.267	25377.98
750.605	25309.28
750.944	25097.53
751.283	25022.28
751.621	25210.07
751.96	24912.23
752.298	24946.58
752.636	24965.11
752.975	24834.04
753.313	24815.05
753.651	24823.64
753.989	24799.91
754.327	24674.04
754.666	24594.27
755.004	24542.97
755.342	24563.31
755.679	24483.09
756.017	24331.68
756.355	24416.87
756.693	24354.05
757.031	24315.41
757.368	24266.37
757.706	24108.18
758.044	24043.1
758.381	24201.28
758.719	24029.99
759.056	24009.88
759.394	23906.6
759.731	23777.11
760.068	23764.69
