Data from hue_30_FLMS001491_50.txt Node
Date: Mon Feb 06 15:05:23 GMT 2017
User: dcchb
Spectrometer: FLMS00149
Trigger mode: 0
Integration Time (sec): 2.000000E-2
Scans to average: 10
Electric dark correction enabled: true
Nonlinearity correction enabled: false
Boxcar width: 0
XAxis mode: Wavelengths
Number of Pixels in Spectrum: 2048
>>>>>Begin Spectral Data<<<<<
341.393	-22.43
341.776	-22.43
342.16	-22.43
342.543	-50.68
342.927	-79.83
343.31	-73.27
343.693	-58.81
344.077	-70.11
344.46	-66.04
344.843	-60.39
345.226	-33.73
345.61	-24.01
345.993	-34.18
346.376	18.93
346.759	14.86
347.142	12.82
347.525	52.6
347.908	62.09
348.291	83.78
348.674	70
349.057	105.48
349.44	103.9
349.823	134.18
350.206	164.46
350.588	202.2
350.971	209.43
351.354	196.55
351.737	232.48
352.119	245.81
352.502	256.43
352.884	274.74
353.267	288.52
353.65	287.17
354.032	311.35
354.414	305.47
354.797	306.6
355.179	336.21
355.562	328.97
355.944	315.19
356.326	318.35
356.709	333.49
357.091	331.91
357.473	315.87
357.855	330.1
358.238	348.41
358.62	347.28
359.002	327.84
359.384	343.21
359.766	343.89
360.148	349.76
360.53	346.38
360.912	306.15
361.294	328.75
361.676	351.8
362.057	336.66
362.439	356.09
362.821	325.58
363.203	341.63
363.584	343.89
363.966	306.38
364.348	309.09
364.729	336.88
365.111	305.92
365.493	321.74
365.874	338.24
366.256	295.3
366.637	307.96
367.019	321.07
367.4	303.66
367.781	307.51
368.163	333.27
368.544	324.68
368.925	316.77
369.306	310.22
369.688	312.93
370.069	325.36
370.45	311.12
370.831	299.82
371.212	300.05
371.593	301.4
371.974	326.26
372.355	310.67
372.736	315.42
373.117	312.48
373.498	306.83
373.879	328.97
374.26	327.17
374.641	322.87
375.021	341.86
375.402	319.48
375.783	301.63
376.163	323.55
376.544	341.63
376.925	319.71
377.305	314.29
377.686	297.79
378.066	326.26
378.447	330.78
378.827	313.16
379.208	329.43
379.588	330.78
379.968	331.91
380.349	333.72
380.729	320.61
381.109	335.75
381.489	321.52
381.87	338.24
382.25	328.07
382.63	340.5
383.01	351.8
383.39	342.76
383.77	333.04
384.15	345.7
384.53	370.78
384.91	358.35
385.29	334.85
385.67	346.83
386.049	357.9
386.429	341.86
386.809	351.35
387.189	347.5
387.568	327.17
387.948	338.92
388.328	346.83
388.707	356.32
389.087	352.25
389.466	346.38
389.846	366.04
390.225	375.07
390.605	366.49
390.984	350.67
391.363	346.15
391.743	370.33
392.122	366.71
392.501	359.48
392.881	356.54
393.26	377.33
393.639	385.02
394.018	365.58
394.397	375.07
394.776	355.87
395.155	375.98
395.534	373.72
395.913	386.15
396.292	387.5
396.671	373.94
397.05	398.8
397.429	378.01
397.808	399.03
398.186	391.57
398.565	373.04
398.944	381.18
399.323	392.25
399.701	380.95
400.08	405.58
400.458	392.48
400.837	411.46
401.215	371.23
401.594	360.39
401.972	399.71
402.351	404.45
402.729	404.45
403.107	413.72
403.486	404
403.864	388.63
404.242	404.45
404.62	392.93
404.999	412.81
405.377	391.35
405.755	390.89
406.133	398.8
406.511	410.33
406.889	428.86
407.267	408.29
407.645	416.43
408.023	411.91
408.401	424.79
408.779	420.05
409.156	433.6
409.534	420.72
409.912	422.53
410.29	454.62
410.667	437.22
411.045	437.67
411.422	430.21
411.8	447.39
412.178	454.62
412.555	440.38
412.933	450.33
413.31	454.85
413.687	478.57
414.065	458.46
414.442	458.24
414.819	460.5
415.197	486.26
415.574	481.74
415.951	500.95
416.328	485.58
416.705	478.35
417.082	482.19
417.46	488.07
417.837	492.13
418.214	507.27
418.591	485.58
418.967	474.28
419.344	487.39
419.721	508.4
420.098	493.72
420.475	484.22
420.852	511.34
421.228	486.94
421.605	505.01
421.982	528.52
422.358	531
422.735	530.78
423.111	510.66
423.488	535.3
423.864	502.08
424.241	540.27
424.617	536.65
424.994	544.34
425.37	533.94
425.746	552.92
426.123	578.23
426.499	535.75
426.875	542.08
427.251	550.66
427.627	549.53
428.003	561.96
428.379	598.8
428.756	573.04
429.132	583.21
429.507	566.26
429.883	595.63
430.259	587.05
430.635	590.44
431.011	594.73
431.387	588.63
431.763	625.69
432.138	613.49
432.514	617.55
432.89	629.53
433.265	623.88
433.641	627.27
434.016	634.96
434.392	639.02
434.767	653.49
435.143	663.43
435.518	658.46
435.894	664.56
436.269	637.21
436.644	653.71
437.02	662.52
437.395	688.74
437.77	675.63
438.145	685.12
438.52	693.94
438.895	709.3
439.271	704.11
439.646	723.77
440.021	720.83
440.395	719.7
440.77	718.12
441.145	720.15
441.52	727.61
441.895	733.26
442.27	755.18
442.645	742.3
443.019	750.66
443.394	754.73
443.769	750.21
444.143	729.19
444.518	752.01
444.892	735.07
445.267	763.54
445.641	773.26
446.016	790.21
446.39	775.52
446.764	768.96
447.139	760.83
447.513	753.37
447.887	768.28
448.262	803.76
448.636	812.8
449.01	803.31
449.384	815.06
449.758	808.28
450.132	828.62
450.506	820.94
450.88	815.06
451.254	817.32
451.628	817.55
452.002	849.86
452.376	857.1
452.75	828.85
453.123	873.37
453.497	859.58
453.871	883.08
454.244	899.81
454.618	879.69
454.992	895.97
455.365	888.06
455.739	915.63
456.112	916.3
456.486	930.09
456.859	930.31
457.232	947.94
457.606	958.11
457.979	959.47
458.352	987.04
458.725	987.49
459.099	1003.76
459.472	1034.04
459.845	1012.12
460.218	1011.44
460.591	1032.23
460.964	1032.23
461.337	1036.75
461.71	1074.49
462.083	1067.03
462.456	1068.16
462.829	1104.77
463.201	1113.36
463.574	1112.23
463.947	1109.29
464.32	1152.46
464.692	1147.03
465.065	1173.47
465.438	1199.46
465.81	1170.99
466.183	1194.71
466.555	1208.27
466.928	1254.15
467.3	1231.55
467.672	1250.08
468.045	1278.78
468.417	1297.54
468.789	1286.24
469.161	1315.84
469.534	1369.85
469.906	1389.06
470.278	1390.64
470.65	1404.43
471.022	1441.71
471.394	1425.22
471.766	1448.72
472.138	1482.39
472.51	1525.55
472.882	1558.32
473.253	1523.52
473.625	1575.95
473.997	1627.47
474.369	1594.48
474.74	1624.53
475.112	1687.58
475.484	1736.62
475.855	1748.82
476.227	1776.85
476.598	1793.79
476.97	1834.92
477.341	1870.63
477.713	1879.67
478.084	1906.56
478.455	1985.2
478.827	2010.06
479.198	2051.64
479.569	2098.65
479.94	2136.84
480.311	2144.97
480.682	2226.33
481.053	2301.58
481.424	2323.95
481.795	2321.46
482.166	2365.98
482.537	2406.21
482.908	2529.82
483.279	2544.51
483.65	2576.82
484.021	2645.3
484.391	2719.65
484.762	2723.26
485.133	2806.42
485.503	2840.77
485.874	2899.3
486.244	2946.08
486.615	3033.76
486.985	3038.28
487.356	3117.6
487.726	3142.01
488.097	3283.7
488.467	3278.28
488.837	3380.87
489.207	3410.25
489.578	3452.51
489.948	3519.17
490.318	3566.18
490.688	3603.92
491.058	3705.16
491.428	3739.96
491.798	3810.24
492.168	3896.56
492.538	3936.34
492.908	3958.26
493.278	4080.97
493.648	4053.62
494.017	4138.82
494.387	4189.21
494.757	4195.99
495.126	4285.25
495.496	4331.81
495.866	4327.74
496.235	4433.27
496.605	4483.22
496.974	4516.66
497.344	4583.78
497.713	4630.56
498.082	4661.97
498.452	4722.53
498.821	4757.33
499.19	4812.7
499.559	4847.95
499.928	4877.33
500.298	4903.09
500.667	4960.94
501.036	5016.53
501.405	5033.48
501.774	5082.07
502.143	5088.4
502.512	5164.33
502.88	5236.87
503.249	5259.92
503.618	5300.82
503.987	5250.65
504.356	5344.66
504.724	5423.53
505.093	5424.43
505.462	5398.22
505.83	5473.7
506.199	5475.73
506.567	5566.35
506.936	5621.26
507.304	5641.6
507.672	5674.6
508.041	5758.21
508.409	5717.76
508.777	5786.01
509.145	5823.97
509.514	5842.73
509.882	5903.52
510.25	5954.14
510.618	5962.5
510.986	5984.19
511.354	6034.36
511.722	6059.45
512.09	6089.5
512.458	6094.02
512.826	6196.62
513.193	6225.54
513.561	6188.93
513.929	6274.58
514.297	6300.57
514.664	6318.42
515.032	6353.45
515.4	6367.23
515.767	6372.43
516.135	6474.8
516.502	6385.09
516.869	6572.65
517.237	6491.75
517.604	6587.11
517.972	6588.7
518.339	6581.01
518.706	6595.02
519.073	6679.32
519.44	6621.46
519.808	6718.18
520.175	6788.01
520.542	6776.71
520.909	6829.82
521.276	6793.44
521.643	6879.76
522.009	6937.39
522.376	6981
522.743	6985.3
523.11	7056.26
523.477	7138.06
523.843	7136.71
524.21	7236.59
524.577	7184.61
524.943	7274.33
525.31	7269.13
525.676	7368.79
526.043	7346.42
526.409	7390.26
526.776	7506.41
527.142	7502.35
527.508	7486.07
527.874	7599.07
528.241	7614.88
528.607	7701.21
528.973	7658.5
529.339	7751.6
529.705	7818.95
530.071	7851.49
530.437	7864.14
530.803	7909.57
531.169	7995.21
531.535	7972.84
531.901	7983.46
532.267	8032.27
532.632	8057.13
532.998	8070.47
533.364	8174.19
533.73	8121.54
534.095	8221.87
534.461	8293.96
534.826	8293.28
535.192	8354.98
535.557	8349.55
535.923	8348.65
536.288	8439.04
536.653	8529.89
537.019	8408.54
537.384	8483.56
537.749	8531.02
538.114	8542.09
538.479	8580.06
538.845	8684.69
539.21	8658.25
539.575	8714.52
539.94	8728.08
540.305	8753.61
540.67	8802.2
541.034	8889.88
541.399	8843.1
541.764	8918.35
542.129	8956.54
542.494	8980.5
542.858	8999.93
543.223	9037.67
543.587	9110.21
543.952	9083.77
544.316	9157.67
544.681	9142.3
545.045	9232.92
545.41	9254.62
545.774	9261.39
546.138	9342.75
546.503	9309.3
546.867	9394.95
547.231	9394.95
547.595	9483.76
547.959	9528.73
548.324	9507.94
548.688	9578.9
549.052	9604.21
549.416	9621.39
549.779	9625
550.143	9675.4
550.507	9695.51
550.871	9826.8
551.235	9731.44
551.599	9844.66
551.962	9780.25
552.326	9913.13
552.689	10007.82
553.053	9943.64
553.417	9908.61
553.78	10030.19
554.143	9992
554.507	10020.02
554.87	10155.38
555.234	10217.3
555.597	10083.29
555.96	10144.76
556.323	10201.71
556.686	10243.52
557.05	10244.65
557.413	10365.32
557.776	10384.76
558.139	10359.22
558.502	10484.19
558.865	10449.16
559.228	10593.56
559.59	10521.7
559.953	10526.22
560.316	10702.49
560.679	10664.52
561.041	10702.71
561.404	10767.57
561.767	10791.75
562.129	10787.46
562.492	10933.22
562.854	10833.56
563.217	10882.6
563.579	10885.98
563.941	10958.98
564.304	11033.1
564.666	11107.67
565.028	11107
565.39	11145.41
565.753	11221.57
566.115	11176.82
566.477	11252.53
566.839	11252.75
567.201	11304.73
567.563	11385.86
567.925	11471.96
568.287	11516.93
568.648	11428.8
569.01	11571.39
569.372	11599.64
569.734	11548.34
570.095	11701.1
570.457	11726.87
570.819	11751.27
571.18	11802.35
571.542	11904.04
571.903	11894.09
572.265	11925.05
572.626	11989.91
572.987	12094.31
573.349	12112.85
573.71	12135.67
574.071	12304.93
574.432	12422.22
574.794	12491.82
575.155	12504.47
575.516	12491.37
575.877	12659.95
576.238	12685.94
576.599	12794.64
576.96	12900.4
577.32	12862.88
577.681	13092.71
578.042	13102.88
578.403	13110.79
578.763	13177.45
579.124	13426.48
579.485	13508.29
579.845	13581.51
580.206	13728.62
580.566	13849.07
580.927	13956.64
581.287	14115.5
581.648	14241.6
582.008	14413.12
582.368	14562.95
582.728	14691.99
583.089	14877.97
583.449	14934.24
583.809	15079.77
584.169	15314.12
584.529	15492.87
584.889	15801.56
585.249	15879.53
585.609	15977.6
585.969	16265.28
586.329	16318.84
586.688	16604.48
587.048	16870.91
587.408	16952.94
587.768	17203.56
588.127	17479.94
588.487	17678.57
588.846	17982.3
589.206	18040.15
589.565	18369.86
589.925	18745.21
590.284	18789.05
590.643	19140.46
591.003	19390.85
591.362	19622.25
591.721	19828.57
592.08	20000.32
592.44	20320.77
592.799	20617.71
593.158	20798.94
593.517	21007.07
593.876	21284.36
594.235	21522.09
594.593	21873.27
594.952	22035.52
595.311	22118.68
595.67	22565.45
596.029	22811.77
596.387	23109.62
596.746	23368.82
597.104	23406.11
597.463	23776.72
597.822	24063.04
598.18	24270.49
598.538	24395.23
598.897	24923.81
599.255	24754.77
599.613	25353.18
599.972	25568.76
600.33	25660.06
600.688	25861.41
601.046	26161.06
601.404	26482.19
601.762	26663.65
602.12	27059.12
602.478	27079.68
602.836	27396.29
603.194	27525.55
603.552	27853.45
603.91	27893.22
604.268	28187
604.625	28302.7
604.983	28714.67
605.341	28609.36
605.698	29000.31
606.056	29313.75
606.413	29327.76
606.771	29618.37
607.128	29896.78
607.485	30026.95
607.843	30076.89
608.2	30418.13
608.557	30593.72
608.914	30701.28
609.272	30875.06
609.629	31155.28
609.986	31322.06
610.343	31473.92
610.7	31793.91
611.057	31829.16
611.414	31815.6
611.771	32201.36
612.127	32212.2
612.484	32374.69
612.841	32684.51
613.198	32741.91
613.554	32793.88
613.911	32980.55
614.267	33282.46
614.624	33210.14
614.98	33443.13
615.337	33693.97
615.693	33764.25
616.05	33766.97
616.406	34167.63
616.762	34052.61
617.118	34231.81
617.475	34327.85
617.831	34462.99
618.187	34587.96
618.543	34679.26
618.899	35015.97
619.255	34974.84
619.611	35084.44
619.967	35227.72
620.323	35407.37
620.678	35372.12
621.034	35321.95
621.39	35429.29
621.746	35490.99
622.101	35910.86
622.457	35764.88
622.812	35816.63
623.168	36008.26
623.523	36088.94
623.879	36100.92
624.234	35980.01
624.589	36320.34
624.945	36368.48
625.3	36433.11
625.655	36384.98
626.01	36414.81
626.365	36590.85
626.72	36454.8
627.075	36580.68
627.43	36766.66
627.785	36546.1
628.14	36580.22
628.495	36774.8
628.85	36808.24
629.205	36662.26
629.559	36984.73
629.914	36795.81
630.269	36965.07
630.623	36809.15
630.978	36751.75
631.332	36956.26
631.687	36926.43
632.041	36971.85
632.396	37087.33
632.75	36987.9
633.104	36982.25
633.459	36863.61
633.813	36812.31
634.167	37064.73
634.521	37036.94
634.875	37074.22
635.229	36987.9
635.583	36899.31
635.937	36776.38
636.291	36921.91
636.645	36968.46
636.999	36820.44
637.352	36989.93
637.706	36791.52
638.06	36916.94
638.413	36789.26
638.767	36865.64
639.121	37013.43
639.474	36693.44
639.828	36848.69
640.181	36763.27
640.534	36744.74
640.888	36766.89
641.241	36682.37
641.594	36689.83
641.947	36828.58
642.301	36742.25
642.654	36879.65
643.007	36715.81
643.36	36765.76
643.713	36563.5
644.066	36804.4
644.419	36385.88
644.771	36307.01
645.124	35940.92
645.477	35971.2
645.83	35860.92
646.182	35622.06
646.535	35671.77
646.888	35586.58
647.24	35369.41
647.593	35621.38
647.945	35570.76
648.298	35469.97
648.65	35340.94
649.002	35279.47
649.355	35398.56
649.707	35427.49
650.059	35659.34
650.411	36030.18
650.763	36008.71
651.115	36331.19
651.467	36277.18
651.819	36256.17
652.171	36214.36
652.523	36170.52
652.875	36217.52
653.227	36027.7
653.578	36437.4
653.93	36157.86
654.282	36108.6
654.633	36089.84
654.985	35985.89
655.337	36041.71
655.688	36138.2
656.039	36081.03
656.391	35801.71
656.742	36062.95
657.094	35901.82
657.445	36000.13
657.796	36012.78
658.147	35910.64
658.498	35932.56
658.849	35940.47
659.2	35846.01
659.551	35866.35
659.902	35946.34
660.253	35931.65
660.604	35858.21
660.955	35780.25
661.306	35750.64
661.656	35789.74
662.007	35829.51
662.358	35886.46
662.708	35884.88
663.059	35799.68
663.409	35655.5
663.76	35849.17
664.11	35743.64
664.461	35869.51
664.811	35789.06
665.161	35804.65
665.511	35721.94
665.862	35714.94
666.212	35896.17
666.562	35762.62
666.912	35798.32
667.262	35688.72
667.612	35611.21
667.962	35774.14
668.312	35731.89
668.662	35882.62
669.011	35668.38
669.361	35649.85
669.711	35669.51
670.06	35744.77
670.41	35620.02
670.76	35500.48
671.109	35654.15
671.459	35646.46
671.808	35625.67
672.157	35724.88
672.507	35528.05
672.856	35495.96
673.205	35512.91
673.554	35592.23
673.904	35477.65
674.253	35641.04
674.602	35509.74
674.951	34916.09
675.3	34902.98
675.649	35470.88
675.998	35240.37
676.346	35439.24
676.695	35432.23
677.044	35182.97
677.393	35248.06
677.741	35436.3
678.09	35283.08
678.438	35154.27
678.787	35255.29
679.135	35310.88
679.484	34982.07
679.832	35128.29
680.181	34850.1
680.529	35000.61
680.877	34866.37
681.225	34910.21
681.573	35035.18
681.922	34853.04
682.27	34688.07
682.618	34773.04
682.966	34704.57
683.314	34620.95
683.661	34597.23
684.009	34578.24
684.357	34411.02
684.705	34366.95
685.053	34426.16
685.4	34261.19
685.748	34331.47
686.095	34303
686.443	34154.75
686.79	34018.71
687.138	34097.13
687.485	34120.63
687.832	33895.78
688.18	33996.34
688.527	33833.86
688.874	33803.35
689.221	33675.67
689.568	33694.2
689.915	33536.01
690.262	33497.37
690.609	33430.25
690.956	33314.1
691.303	33365.39
691.65	33198.39
691.997	33176.7
692.344	33050.15
692.69	33075.91
693.037	33056.02
693.383	32708.91
693.73	32855.35
694.077	32626.2
694.423	32656.71
694.769	32684.51
695.116	32411.07
695.462	32510.73
695.808	32275.71
696.155	32305.31
696.501	32159.32
696.847	32117.74
697.193	31942.15
697.539	32029.61
697.885	31836.62
698.231	31634.37
698.577	31755.04
698.923	31729.28
699.269	31582.84
699.614	31290.42
699.96	31383.3
700.306	31411.09
700.651	31272.34
700.997	31049.97
701.342	31071.22
701.688	31070.31
702.033	30855.4
702.379	30918.45
702.724	30813.6
703.069	30795.52
703.415	30511.46
703.76	30484.11
704.105	30577.9
704.45	30427.39
704.795	30229.43
705.14	30228.75
705.485	30125.25
705.83	30185.82
706.175	30057.68
706.52	29984.47
706.865	29863.57
707.209	29834.19
707.554	29780.63
707.899	29775.88
708.243	29699.05
708.588	29621.09
708.932	29432.84
709.277	29302.68
709.621	29405.05
709.966	29141.78
710.31	29315.33
710.654	29071.04
710.998	29087.77
711.342	29140.42
711.687	29008.67
712.031	28833.54
712.375	28765.51
712.719	28819.3
713.063	28761.9
713.407	28765.97
713.75	28618.63
714.094	28664.73
714.438	28485.97
714.782	28493.43
715.125	28323.27
715.469	28481
715.812	28314.23
716.156	28086.44
716.499	28200.33
716.843	28152.42
717.186	27984.74
717.53	28083.72
717.873	28121.69
718.216	28010.51
718.559	27981.81
718.902	27851.41
719.246	27740.68
719.589	27685.32
719.932	27704.75
720.275	27671.98
720.617	27546.11
720.96	27499.79
721.303	27571.2
721.646	27570.29
721.989	27321.94
722.331	27306.34
722.674	27361.71
723.016	27354.7
723.359	27297.08
723.701	27274.71
724.044	27224.99
724.386	27000.36
724.729	27183.86
725.071	27057.76
725.413	27001.27
725.755	26985
726.097	26888.5
726.439	26750.88
726.782	26723.76
727.124	26801.95
727.465	26704.1
727.807	26673.14
728.149	26551.56
728.491	26520.15
728.833	26638.34
729.175	26491.22
729.516	26455.07
729.858	26507.27
730.199	26427.95
730.541	26325.35
730.882	26406.71
731.224	26436.08
731.565	26205.81
731.906	26285.58
732.248	26303.43
732.589	26184.57
732.93	26106.38
733.271	26029.54
733.612	26088.52
733.953	26096.88
734.294	25936.89
734.635	25927.62
734.976	25914.97
735.317	25876.33
735.658	25850.11
735.999	25772.37
736.339	25728.98
736.68	25855.31
737.021	25712.71
737.361	25577.12
737.702	25711.81
738.042	25594.3
738.383	25550.68
738.723	25626.84
739.063	25507.75
739.404	25512.49
739.744	25376.68
740.084	25300.07
740.424	25393.85
740.764	25285.61
741.104	25373.51
741.444	25123.8
741.784	25131.49
742.124	25242.22
742.464	25150.69
742.804	25261.65
743.143	25096.91
743.483	25100.98
743.823	24963.81
744.162	24869.12
744.502	25004.48
744.841	24819.18
745.181	24962.23
745.52	24811.04
745.86	24752.96
746.199	24843.13
746.538	24774.66
746.877	24752.51
747.216	24746.64
747.556	24609.24
747.895	24734.43
748.234	24659.86
748.573	24496.7
748.911	24541.45
749.25	24571.05
749.589	24450.15
749.928	24420.77
750.267	24652.4
750.605	24380.55
750.944	24280.89
751.283	24260.1
751.621	24314.78
751.96	24140.1
752.298	24248.8
752.636	24239.76
752.975	24148.91
753.313	24008.58
753.651	24116.15
753.989	23895.13
754.327	23976.26
754.666	23830.5
755.004	23919.77
755.342	23842.48
755.679	23809.03
756.017	23706.89
756.355	23761.13
756.693	23581.47
757.031	23704.63
757.368	23524.3
757.706	23527.01
758.044	23383.28
758.381	23429.61
758.719	23291.99
759.056	23266.45
759.394	23339.67
