Data from hue_34_FLMS001491_00075.txt Node
Date: Tue Feb 07 17:26:07 GMT 2017
User: dcchb
Spectrometer: FLMS00149
Trigger mode: 0
Integration Time (sec): 2.000000E-2
Scans to average: 10
Electric dark correction enabled: true
Nonlinearity correction enabled: false
Boxcar width: 0
XAxis mode: Wavelengths
Number of Pixels in Spectrum: 2048
>>>>>Begin Spectral Data<<<<<
341.393	1.43
341.776	1.43
342.16	1.43
342.543	-50.32
342.927	-90.1
343.31	-88.29
343.693	-62.75
344.077	-67.5
344.46	-65.01
344.843	-57.1
345.226	-29.31
345.61	-30.21
345.993	-6.03
346.376	-12.58
346.759	12.27
347.142	35.78
347.525	35.1
347.908	49.56
348.291	67.19
348.674	84.59
349.057	134.3
349.44	139.73
349.823	159.61
350.206	158.26
350.588	203.46
350.971	205.04
351.354	250.23
351.737	254.53
352.119	263.34
352.502	287.07
352.884	293.17
353.267	271.48
353.65	290.01
354.032	304.7
354.414	298.37
354.797	322.77
355.179	326.84
355.562	323.45
355.944	338.37
356.326	329.78
356.709	343.79
357.091	356.9
357.473	356.45
357.855	348.31
358.238	334.53
358.62	340.4
359.002	350.8
359.384	354.19
359.766	359.16
360.148	353.96
360.53	354.86
360.912	374.52
361.294	356.9
361.676	334.07
362.057	362.32
362.439	341.98
362.821	314.41
363.203	352.38
363.584	337.69
363.966	341.98
364.348	318.48
364.729	318.03
365.111	324.13
365.493	338.14
365.874	327.29
366.256	314.64
366.637	337.01
367.019	327.07
367.4	327.97
367.781	300.85
368.163	330.68
368.544	315.54
368.925	329.78
369.306	326.84
369.688	334.3
370.069	332.72
370.45	318.25
370.831	310.57
371.212	334.75
371.593	331.36
371.974	311.7
372.355	317.35
372.736	334.53
373.117	322.1
373.498	319.84
373.879	325.71
374.26	327.07
374.641	327.75
375.021	324.36
375.402	334.3
375.783	355.54
376.163	332.27
376.544	338.14
376.925	340.63
377.305	339.5
377.686	337.91
378.066	343.34
378.447	319.38
378.827	339.5
379.208	351.93
379.588	346.95
379.968	350.34
380.349	343.79
380.729	344.24
381.109	362.55
381.489	341.3
381.87	358.25
382.25	349.67
382.63	370.68
383.01	347.86
383.39	346.73
383.77	343.56
384.15	352.83
384.53	365.03
384.91	377.69
385.29	376.56
385.67	353.51
386.049	360.97
386.429	351.25
386.809	354.64
387.189	366.84
387.568	335.88
387.948	357.58
388.328	387.41
388.707	355.32
389.087	360.29
389.466	353.96
389.846	369.1
390.225	379.27
390.605	384.02
390.984	373.39
391.363	382.43
391.743	378.59
392.122	389.66
392.501	390.57
392.881	387.63
393.26	384.47
393.639	384.92
394.018	388.08
394.397	381.53
394.776	405.03
395.155	408.87
395.534	392.38
395.913	394.18
396.292	398.03
396.671	386.28
397.05	415.43
397.429	397.35
397.808	399.16
398.186	389.44
398.565	418.14
398.944	402.55
399.323	387.63
399.701	408.2
400.08	414.07
400.458	408.65
400.837	415.43
401.215	423.56
401.594	431.02
401.972	422.43
402.351	425.37
402.729	433.28
403.107	418.82
403.486	408.65
403.864	428.99
404.242	426.73
404.62	430.79
404.999	435.54
405.377	455.2
405.755	456.78
406.133	422.88
406.511	421.53
406.889	430.34
407.267	441.87
407.645	462.43
408.023	433.96
408.401	443.67
408.779	422.43
409.156	479.61
409.534	448.87
409.912	457.23
410.29	442.32
410.667	473.28
411.045	480.51
411.422	472.83
411.8	482.32
412.178	464.92
412.555	477.12
412.933	483.67
413.31	494.75
413.687	503.11
414.065	513.73
414.442	488.65
414.819	503.33
415.197	502.88
415.574	516.67
415.951	515.99
416.328	513.05
416.705	502.66
417.082	538.59
417.46	530.68
417.837	510.11
418.214	523.9
418.591	526.38
418.967	526.16
419.344	556.67
419.721	526.38
420.098	538.81
420.475	504.24
420.852	538.14
421.228	541.53
421.605	548.76
421.982	562.09
422.358	569.77
422.735	574.29
423.111	559.83
423.488	575.87
423.864	558.25
424.241	581.3
424.617	572.48
424.994	569.1
425.37	562.77
425.746	606.16
426.123	600.51
426.499	595.54
426.875	610.45
427.251	597.34
427.627	592.37
428.003	605.25
428.379	630.56
428.756	610.68
429.132	634.63
429.507	635.53
429.883	648.87
430.259	648.64
430.635	630.34
431.011	633.5
431.387	637.34
431.763	648.87
432.138	661.52
432.514	685.02
432.89	686.38
433.265	697.45
433.641	711.92
434.016	671.01
434.392	689.54
434.767	692.26
435.143	712.14
435.518	706.04
435.894	716.89
436.269	737
436.644	756.89
437.02	740.62
437.395	738.58
437.77	756.21
438.145	757.79
438.52	767.06
438.895	760.5
439.271	750.79
439.646	761.63
440.021	784.23
440.395	784.68
440.77	780.39
441.145	807.73
441.52	775.42
441.895	788.98
442.27	798.69
442.645	797.11
443.019	831.46
443.394	814.51
443.769	844.12
444.143	824.23
444.518	828.07
444.892	838.69
445.267	821.97
445.641	837.79
446.016	827.39
446.39	845.25
446.764	857.45
447.139	838.24
447.513	857.22
447.887	847.96
448.262	865.36
448.636	869.2
449.01	884.34
449.384	880.05
449.758	883.89
450.132	886.37
450.506	897.67
450.88	901.74
451.254	935.19
451.628	930.22
452.002	956.88
452.376	938.35
452.75	958.24
453.123	952.36
453.497	974.06
453.871	949.88
454.244	975.86
454.618	986.49
454.992	994.62
455.365	1009.76
455.739	1031.23
456.112	1008.41
456.486	1035.98
456.859	1048.4
457.232	1039.37
457.606	1058.8
457.979	1052.47
458.352	1080.49
458.725	1118.69
459.099	1120.27
459.472	1133.6
459.845	1139.48
460.218	1126.37
460.591	1160.72
460.964	1174.73
461.337	1161.62
461.71	1184.22
462.083	1202.07
462.456	1197.33
462.829	1196.2
463.201	1240.72
463.574	1246.59
463.947	1257.44
464.32	1270.77
464.692	1287.27
465.065	1298.12
465.438	1326.82
465.81	1339.02
466.183	1376.31
466.555	1402.97
466.928	1384.67
467.3	1422.86
467.672	1432.58
468.045	1451.78
468.417	1464.21
468.789	1482.97
469.161	1498.34
469.534	1530.88
469.906	1537.66
470.278	1571.78
470.65	1590.99
471.022	1640.48
471.394	1679.8
471.766	1667.37
472.138	1693.36
472.51	1723.64
472.882	1796.18
473.253	1791.66
473.625	1854.94
473.997	1884.54
474.369	1900.59
474.74	1917.99
475.112	1992.33
475.484	1992.79
475.855	2054.03
476.227	2090.19
476.598	2156.62
476.97	2201.37
477.341	2251.31
477.713	2318.88
478.084	2315.94
478.455	2396.17
478.827	2427.58
479.198	2527.69
479.569	2500.8
479.94	2624.63
480.311	2653.11
480.682	2745.76
481.053	2817.62
481.424	2843.61
481.795	2945.3
482.166	3000.44
482.537	3060.78
482.908	3130.61
483.279	3193.88
483.65	3334.22
484.021	3430.49
484.391	3477.72
484.762	3548.23
485.133	3585.97
485.503	3687.43
485.874	3775.79
486.244	3864.6
486.615	3970.36
486.985	4046.74
487.356	4176.46
487.726	4203.12
488.097	4325.83
488.467	4412.84
488.837	4504.36
489.207	4625.94
489.578	4667.74
489.948	4820.51
490.318	4897.34
490.688	4931.24
491.058	5017.79
491.428	5169.65
491.798	5280.84
492.168	5411.68
492.538	5424.11
492.908	5546.82
493.278	5634.72
493.648	5705.68
494.017	5820.71
494.387	5872.23
494.757	6021.61
495.126	6057.54
495.496	6123.75
495.866	6191.55
496.235	6287.14
496.605	6354.25
496.974	6454.36
497.344	6539.56
497.713	6660.69
498.082	6673.57
498.452	6815.03
498.821	6885.77
499.19	6916.72
499.559	7024.74
499.928	7085.31
500.298	7160.33
500.667	7271.74
501.036	7305.42
501.405	7415.69
501.774	7434
502.143	7546.99
502.512	7617.72
502.88	7650.04
503.249	7711.96
503.618	7815.23
503.987	7827.21
504.356	7880.99
504.724	7983.14
505.093	8046.19
505.462	8134.77
505.83	8110.14
506.199	8289.57
506.567	8303.36
506.936	8332.05
507.304	8470.36
507.672	8500.64
508.041	8529.34
508.409	8670.58
508.777	8733.63
509.145	8823.79
509.514	8812.04
509.882	8893.85
510.25	8942.89
510.618	8958.03
510.986	9011.81
511.354	9110.34
511.722	9182.2
512.09	9206.61
512.458	9280.28
512.826	9355.98
513.193	9390.78
513.561	9381.74
513.929	9559.14
514.297	9581.06
514.664	9638.24
515.032	9644.11
515.4	9711.91
515.767	9851.79
516.135	9835.07
516.502	9785.58
516.869	9943.54
517.237	10009.07
517.604	10022.41
517.972	10086.81
518.339	10194.38
518.706	10167.49
519.073	10207.71
519.44	10275.73
519.808	10373.13
520.175	10377.2
520.542	10473.92
520.909	10521.6
521.276	10571.77
521.643	10681.6
522.009	10739
522.376	10847.69
522.743	10842.95
523.11	10878.43
523.477	11049.95
523.843	11098.31
524.21	11127.69
524.577	11208.36
524.943	11292.43
525.31	11373.33
525.676	11443.39
526.043	11550.05
526.409	11577.62
526.776	11628.69
527.142	11718.86
527.508	11770.16
527.874	11888.12
528.241	11906.65
528.607	11980.55
528.973	11996.82
529.339	12000.89
529.705	12176.7
530.071	12326.07
530.437	12310.48
530.803	12383.93
531.169	12418.5
531.535	12432.96
531.901	12477.93
532.267	12520.65
532.632	12641.77
532.998	12663.47
533.364	12811.71
533.73	12799.73
534.095	12933.06
534.461	12980.97
534.826	12998.6
535.192	13132.61
535.557	13175.32
535.923	13148.2
536.288	13283.56
536.653	13293.05
537.019	13194.53
537.384	13327.86
537.749	13447.85
538.114	13419.15
538.479	13428.42
538.845	13593.61
539.21	13557.91
539.575	13596.55
539.94	13686.94
540.305	13771.46
540.67	13746.6
541.034	13801.52
541.399	13878.58
541.764	13966.03
542.129	13956.54
542.494	14076.76
542.858	14148.4
543.223	14186.59
543.587	14153.82
543.952	14291.67
544.316	14324.21
544.681	14320.82
545.045	14493.47
545.41	14506.81
545.774	14480.37
546.138	14597.2
546.503	14630.42
546.867	14599.69
547.231	14806.91
547.595	14884.2
547.959	14809.85
548.324	14909.74
548.688	14995.83
549.052	15017.75
549.416	15052.78
549.779	15017.3
550.143	15068.6
550.507	15213.91
550.871	15236.96
551.235	15267.92
551.599	15338.2
551.962	15422.04
552.326	15435.37
552.689	15542.94
553.053	15434.92
553.417	15568.47
553.78	15749.71
554.143	15673.1
554.507	15805.08
554.87	15825.64
555.234	15933.21
555.597	15856.15
555.96	15965.75
556.323	16045.52
556.686	16014.56
557.05	16173.2
557.413	16214.56
557.776	16191.06
558.139	16316.25
558.502	16342.92
558.865	16393.76
559.228	16485.96
559.59	16588.11
559.953	16588.79
560.316	16700.42
560.679	16768.44
561.041	16864.03
561.404	16921.43
561.767	16961.21
562.129	16947.87
562.492	17101.32
562.854	17195.55
563.217	17096.34
563.579	17060.86
563.941	17235.78
564.304	17350.35
564.666	17438.48
565.028	17501.98
565.39	17537.24
565.753	17609.33
566.115	17751.24
566.477	17760.96
566.839	17741.3
567.201	17919.83
567.563	17977.68
567.925	18122.31
568.287	18082.08
568.648	18122.08
569.01	18132.48
569.372	18277.56
569.734	18269.65
570.095	18445.91
570.457	18484.56
570.819	18573.37
571.18	18554.39
571.542	18703.08
571.903	18767.94
572.265	18860.14
572.626	18953.47
572.987	19013.36
573.349	19099.46
573.71	19237.08
574.071	19237.76
574.432	19369.5
574.794	19484.76
575.155	19599.1
575.516	19544.64
575.877	19784.86
576.238	19829.15
576.599	19899.89
576.96	19977.62
577.32	20135.36
577.681	20254.68
578.042	20396.14
578.403	20461
578.763	20676.59
579.124	20792.74
579.485	21023.47
579.845	21180.76
580.206	21297.82
580.566	21429.11
580.927	21614.87
581.287	21811.25
581.648	21740.29
582.008	22205.36
582.368	22265.02
582.728	22394.06
583.089	22614.39
583.449	22721.96
583.809	22978.45
584.169	23199.46
584.529	23340.02
584.889	23714.02
585.249	23798.54
585.609	24052.77
585.969	24254.8
586.329	24509.03
586.688	24623.83
587.048	24883.26
587.408	25012.07
587.768	25312.63
588.127	25566.18
588.487	25745.16
588.846	26229.66
589.206	26165.26
589.565	26435.76
589.925	26822.19
590.284	27039.36
590.643	27349.63
591.003	27584.88
591.362	27854.71
591.721	28099.67
592.08	28290.63
592.44	28686.55
592.799	28930.61
593.158	29161.56
593.517	29376.93
593.876	29605.85
594.235	29856.01
594.593	30050.58
594.952	30345.26
595.311	30474.3
595.67	30778.92
596.029	31314.95
596.387	31528.73
596.746	31667.49
597.104	31989.51
597.463	32020.92
597.822	32462.04
598.18	32548.37
598.538	32869.26
598.897	33288.91
599.255	33212.3
599.613	33838.5
599.972	33875.11
600.33	33947.43
600.688	34176.12
601.046	34452.95
601.404	34798.03
601.762	35029.66
602.12	35238.69
602.478	35420.83
602.836	35730.2
603.194	35598.68
603.552	35920.26
603.91	36057.2
604.268	36377.42
604.625	36630.97
604.983	36897.41
605.341	36829.38
605.698	37108.25
606.056	37336.72
606.413	37468.46
606.771	37636.37
607.128	37959.75
607.485	37930.6
607.843	38229.12
608.2	38527.65
608.557	38702.33
608.914	38755.44
609.272	39003.79
609.629	39164.92
609.986	39437
610.343	39304.35
610.7	39782.98
611.057	39832.47
611.414	39922.64
611.771	40075.18
612.127	40118.79
612.484	40347.71
612.841	40723.07
613.198	40607.36
613.554	40804.42
613.911	41222.94
614.267	41075.6
614.624	41162.15
614.98	41456.83
615.337	41582.03
615.693	41631.74
616.05	41590.62
616.406	41975.24
616.762	41961.68
617.118	41961.23
617.475	42100.43
617.831	42375.91
618.187	42229.47
618.543	42563.25
618.899	42850.92
619.255	42879.4
619.611	42695.22
619.967	42986.74
620.323	43218.6
620.678	43036.45
621.034	42990.58
621.39	43068.54
621.746	43130.24
622.101	43706.49
622.457	43474.86
622.812	43524.58
623.168	43745.59
623.523	43743.55
623.879	43936.54
624.234	43642.76
624.589	43952.36
624.945	44110.1
625.3	44183.77
625.655	44118.01
626.01	44171.34
626.365	44229.87
626.72	44226.25
627.075	44327.94
627.43	44275.52
627.785	44146.48
628.14	44396.87
628.495	44420.15
628.85	44440.26
629.205	44224.9
629.559	44571.33
629.914	44440.94
630.269	44454.49
630.623	44420.82
630.978	44334.95
631.332	44466.47
631.687	44614.26
632.041	44454.72
632.396	44609.97
632.75	44508.73
633.104	44562.06
633.459	44442.07
633.813	44434.38
634.167	44479.35
634.521	44515.74
634.875	44593.93
635.229	44591.89
635.583	44301.5
635.937	44535.17
636.291	44403.87
636.645	44576.53
636.999	44485
637.352	44423.08
637.706	44353.03
638.06	44474.38
638.413	44370.88
638.767	44368.4
639.121	44471.44
639.474	44235.74
639.828	44243.43
640.181	44430.77
640.534	44387.83
640.888	44186.71
641.241	44116.65
641.594	44154.16
641.947	44403.87
642.301	44224.44
642.654	44153.49
643.007	44176.08
643.36	44165.69
643.713	44093.37
644.066	44284.1
644.419	43934.06
644.771	43801.4
645.124	43421.08
645.477	43283.23
645.83	42966.4
646.182	42937.92
646.535	42843.24
646.888	42916.68
647.24	42726.63
647.593	42960.97
647.945	42807.98
648.298	42677.59
648.65	42673.07
649.002	42597.37
649.355	42672.85
649.707	42690.7
650.059	42904.93
650.411	43359.16
650.763	43322.77
651.115	43766.15
651.467	43647.28
651.819	43600.28
652.171	43414.75
652.523	43509.44
652.875	43363.68
653.227	43460.17
653.578	43644.8
653.93	43442.54
654.282	43286.84
654.633	43350.34
654.985	43421.98
655.337	43384.92
655.688	43327.97
656.039	43653.84
656.391	43276.22
656.742	43340.4
657.094	43331.13
657.445	43474.18
657.796	43241.65
658.147	43290.46
658.498	43221.31
658.849	43365.03
659.2	43261.08
659.551	43109.45
659.902	43342.43
660.253	43139.28
660.604	43292.27
660.955	43086.17
661.306	43221.31
661.656	43174.3
662.007	43235.32
662.358	43136.34
662.708	43180.18
663.059	43282.55
663.409	42951.48
663.76	43179.05
664.11	43288.2
664.461	43196.45
664.811	43112.61
665.161	43182.21
665.511	42985.38
665.862	43103.12
666.212	43067.64
666.562	43112.16
666.912	43012.72
667.262	43002.1
667.612	42991.93
667.962	43025.61
668.312	42920.75
668.662	43165.04
669.011	43072.16
669.361	42992.39
669.711	42863.12
670.06	42972.05
670.41	42901.99
670.76	42794.2
671.109	43023.12
671.459	42943.35
671.808	42870.13
672.157	42880.3
672.507	42567.54
672.856	42631.94
673.205	42815.67
673.554	42806.18
673.904	42677.59
674.253	42880.53
674.602	42874.42
674.951	42252.97
675.3	41944.73
675.649	42618.39
675.998	42647.54
676.346	42666.52
676.695	42695.45
677.044	42478.28
677.393	42511.5
677.741	42698.83
678.09	42478.95
678.438	42525.28
678.787	42587.88
679.135	42499.97
679.484	42323.03
679.832	42493.42
680.181	42184.5
680.529	42347.43
680.877	42196.02
681.225	42156.25
681.573	42372.29
681.922	42051.62
682.27	42047.33
682.618	41995.12
682.966	41874
683.314	41949.48
683.661	41920.32
684.009	41527.57
684.357	41627.68
684.705	41584.29
685.053	41678.07
685.4	41435.59
685.748	41300.91
686.095	41327.12
686.443	41197.86
686.79	41202.83
687.138	41315.82
687.485	41221.13
687.832	41096.39
688.18	41165.99
688.527	41065.66
688.874	40881.48
689.221	40810.75
689.568	40670.87
689.915	40724.42
690.262	40624.31
690.609	40508.38
690.956	40241.5
691.303	40322.85
691.65	40099.13
691.997	40131.44
692.344	39942.3
692.69	40008.51
693.037	39974.16
693.383	39671.8
693.73	39729.42
694.077	39587.73
694.423	39570.56
694.769	39484.23
695.116	39278.36
695.462	39272.94
695.808	39190.23
696.155	39217.57
696.501	38960.18
696.847	38948.2
697.193	38692.61
697.539	38878.37
697.885	38553.41
698.231	38513.18
698.577	38555.67
698.923	38514.76
699.269	38250.59
699.614	38225.28
699.96	37945.29
700.306	37972.63
700.651	37797.95
700.997	37803.14
701.342	37719.98
701.688	37719.3
702.033	37525.41
702.379	37470.05
702.724	37482.25
703.069	37399.09
703.415	37020.34
703.76	37033.45
704.105	37315.25
704.45	37155.03
704.795	36762.27
705.14	36687.92
705.485	36704.87
705.83	36456.51
706.175	36601.59
706.52	36403.86
706.865	36286.57
707.209	36349.85
707.554	36074.15
707.899	36188.05
708.243	36080.7
708.588	35896.75
708.932	35769.98
709.277	35802.97
709.621	35799.13
709.966	35523.2
710.31	35757.55
710.654	35388.74
710.998	35433.72
711.342	35496.09
711.687	35395.52
712.031	35141.29
712.375	34945.14
712.719	35033.73
713.063	34976.33
713.407	35089.54
713.75	34802.77
714.094	35017.91
714.438	34753.51
714.782	34757.12
715.125	34537.24
715.469	34818.14
715.812	34563.91
716.156	34315.78
716.499	34377.92
716.843	34271.49
717.186	34264.48
717.53	34376.57
717.873	34290.47
718.216	34255.44
718.559	34019.06
718.902	33688
719.246	33863.59
719.589	33769.13
719.932	33588.79
720.275	33659.52
720.617	33651.16
720.96	33509.02
721.303	33557.15
721.646	33470.38
721.989	33282.59
722.331	33537.72
722.674	33241.91
723.016	33411.17
723.359	33177.73
723.701	33342.02
724.044	33093.89
724.386	32961.01
724.729	33148.35
725.071	33041.46
725.413	33008.02
725.755	32966.44
726.097	32792.88
726.439	32624.3
726.782	32675.82
727.124	32808.25
727.465	32653.45
727.807	32504.3
728.149	32480.12
728.491	32358.32
728.833	32478.99
729.175	32275.38
729.516	32313.8
729.858	32305.66
730.199	32283.74
730.541	32054.14
730.882	32184.31
731.224	32231.77
731.565	31897.99
731.906	32024.77
732.248	32051.43
732.589	31764.21
732.93	31704.1
733.271	31715.62
733.612	31879.01
733.953	31789.52
734.294	31675.17
734.635	31536.42
734.976	31690.31
735.317	31435.85
735.658	31374.16
735.999	31505.23
736.339	31366.03
736.68	31529.64
737.021	31252.36
737.361	31207.16
737.702	31236.54
738.042	31169.65
738.383	31158.8
738.723	31152.7
739.063	31096.88
739.404	31154.51
739.744	31008.97
740.084	30911.35
740.424	30832.03
740.764	30951.12
741.104	31025.24
741.444	30727.85
741.784	30706.83
742.124	30801.07
742.464	30730.79
742.804	30580.74
743.143	30570.57
743.483	30475.88
743.823	30323.12
744.162	30425.03
744.502	30415.32
744.841	30275.66
745.181	30360.63
745.52	30332.83
745.86	30357.24
746.199	30231.82
746.538	30261.42
746.877	30230.46
747.216	30294.42
747.556	30120.63
747.895	30133.74
748.234	29945.5
748.573	29824.82
748.911	29839.51
749.25	29917.7
749.589	29724.03
749.928	29728.33
750.267	29743.47
750.605	29540.99
750.944	29450.14
751.283	29521.55
751.621	29456.92
751.96	29442.46
752.298	29260.32
752.636	29315.68
752.975	29091.06
753.313	28996.6
753.651	29154.11
753.989	28946.2
754.327	29083.83
754.666	28933.77
755.004	28963.15
755.342	29003.6
755.679	28857.62
756.017	28607.91
756.355	28788.47
756.693	28590.73
757.031	28682.25
