Data from hue_230_FLMS001491_00060.txt Node
Date: Tue Feb 07 16:37:28 GMT 2017
User: dcchb
Spectrometer: FLMS00149
Trigger mode: 0
Integration Time (sec): 2.000000E-2
Scans to average: 10
Electric dark correction enabled: true
Nonlinearity correction enabled: false
Boxcar width: 0
XAxis mode: Wavelengths
Number of Pixels in Spectrum: 2048
>>>>>Begin Spectral Data<<<<<
341.393	-10.54
341.776	-10.54
342.16	-10.54
342.543	-68.84
342.927	-59.57
343.31	-64.55
343.693	-55.28
344.077	-57.09
344.46	-81.95
344.843	-62.96
345.226	-55.06
345.61	-20.48
345.993	-8.73
346.376	-29.29
346.759	22.91
347.142	34.43
347.525	42.34
347.908	62.91
348.291	76.24
348.674	88.67
349.057	107.88
349.44	128.44
349.823	153.75
350.206	164.37
350.588	175.9
350.971	209.57
351.354	215.9
351.737	229.46
352.119	218.61
352.502	247.76
352.884	243.24
353.267	268.33
353.65	275.33
354.032	301.77
354.414	306.29
354.797	282.79
355.179	306.29
355.562	321.88
355.944	301.09
356.326	324.6
356.709	319.17
357.091	330.92
357.473	316.91
357.855	311.94
358.238	320.3
358.62	322.11
359.002	344.26
359.384	318.27
359.766	289.57
360.148	337.7
360.53	339.74
360.912	316.91
361.294	308.33
361.676	308.1
362.057	325.27
362.439	318.72
362.821	321.66
363.203	303.81
363.584	315.33
363.966	335.9
364.348	310.59
364.729	310.13
365.111	313.97
365.493	311.26
365.874	305.84
366.256	310.36
366.637	303.81
367.019	297.93
367.4	278.95
367.781	296.12
368.163	303.58
368.544	289.79
368.925	296.12
369.306	304.26
369.688	302.68
370.069	286.4
370.45	302.9
370.831	306.74
371.212	296.8
371.593	292.05
371.974	297.48
372.355	306.97
372.736	315.78
373.117	321.43
373.498	302.9
373.879	307.87
374.26	309.68
374.641	283.69
375.021	294.31
375.402	305.16
375.783	308.78
376.163	302.68
376.544	319.62
376.925	322.11
377.305	326.63
377.686	331.83
378.066	310.13
378.447	316.01
378.827	342.9
379.208	321.66
379.588	321.21
379.968	316.23
380.349	304.26
380.729	313.75
381.109	341.77
381.489	323.92
381.87	323.92
382.25	324.14
382.63	328.89
383.01	325.95
383.39	334.77
383.77	346.06
384.15	319.62
384.53	337.7
384.91	341.09
385.29	321.43
385.67	336.57
386.049	358.72
386.429	326.86
386.809	335.44
387.189	357.59
387.568	350.36
387.948	358.49
388.328	333.41
388.707	335.9
389.087	371.6
389.466	353.07
389.846	344.48
390.225	361.21
390.605	350.58
390.984	371.37
391.363	357.14
391.743	370.7
392.122	360.98
392.501	355.1
392.881	368.89
393.26	358.72
393.639	361.88
394.018	377.48
394.397	374.09
394.776	350.13
395.155	372.96
395.534	358.49
395.913	366.4
396.292	386.29
396.671	377.48
397.05	394.42
397.429	375.44
397.808	385.16
398.186	381.32
398.565	389.45
398.944	380.64
399.323	386.52
399.701	379.06
400.08	405.95
400.458	384.48
400.837	393.29
401.215	416.12
401.594	371.83
401.972	382.67
402.351	370.92
402.729	402.11
403.107	413.41
403.486	406.18
403.864	415.89
404.242	421.09
404.62	427.64
404.999	420.19
405.377	420.19
405.755	425.61
406.133	428.77
406.511	449.11
406.889	436.91
407.267	462.67
407.645	441.2
408.023	452.73
408.401	463.58
408.779	467.42
409.156	482.33
409.534	476.91
409.912	465.38
410.29	476
410.667	486.63
411.045	489.79
411.422	515.55
411.8	531.37
412.178	507.64
412.555	525.04
412.933	547.41
413.31	546.51
413.687	553.97
414.065	546.96
414.442	543.12
414.819	553.52
415.197	553.52
415.574	573.4
415.951	578.15
416.328	581.99
416.705	598.26
417.082	607.3
417.46	579.96
417.837	593.52
418.214	608.43
418.591	603.68
418.967	624.25
419.344	619.05
419.721	640.97
420.098	666.96
420.475	683.91
420.852	675.1
421.228	670.35
421.605	707.64
421.982	689.11
422.358	697.24
422.735	722.78
423.111	711.7
423.488	730.91
423.864	764.13
424.241	766.17
424.617	763.68
424.994	778.6
425.37	786.96
425.746	783.34
426.123	833.51
426.499	795.09
426.875	817.24
427.251	827.41
427.627	878.71
428.003	859.27
428.379	828.09
428.756	875.99
429.132	867.86
429.507	888.65
429.883	890.91
430.259	916.44
430.635	919.83
431.011	918.48
431.387	946.73
431.763	969.55
432.138	983.11
432.514	987.63
432.89	956.44
433.265	1000.96
433.641	1029.44
434.016	1044.58
434.392	1056.78
434.767	1071.02
435.143	1101.3
435.518	1084.8
435.894	1109.43
436.269	1125.7
436.644	1162.54
437.02	1156.44
437.395	1172.71
437.77	1211.58
438.145	1224.69
438.52	1231.24
438.895	1228.75
439.271	1272.14
439.646	1288.86
440.021	1292.93
440.395	1288.41
440.77	1291.35
441.145	1300.62
441.52	1369.54
441.895	1355.53
442.27	1389.65
442.645	1368.64
443.019	1412.7
443.394	1403.44
443.769	1439.37
444.143	1418.58
444.518	1438.92
444.892	1463.78
445.267	1463.32
445.641	1483.66
446.016	1483.89
446.39	1514.85
446.764	1501.51
447.139	1505.36
447.513	1540.61
447.887	1540.84
448.262	1535.19
448.636	1555.52
449.01	1581.96
449.384	1571.34
449.758	1582.87
450.132	1610.21
450.506	1624.22
450.88	1659.02
451.254	1648.85
451.628	1674.17
452.002	1708.51
452.376	1660.38
452.75	1693.6
453.123	1732.69
453.497	1753.48
453.871	1743.99
454.244	1782.18
454.618	1796.87
454.992	1824.67
455.365	1821.51
455.739	1856.08
456.112	1823.09
456.486	1852.01
456.859	1903.09
457.232	1927.94
457.606	1922.52
457.979	1938.11
458.352	1990.99
458.725	2007.94
459.099	2000.03
459.472	2077.32
459.845	2068.73
460.218	2065.12
460.591	2091.78
460.964	2119.58
461.337	2151.89
461.71	2217.2
462.083	2193.47
462.456	2230.08
462.829	2188.28
463.201	2272.57
463.574	2255.62
463.947	2299.01
464.32	2344.88
464.692	2354.83
465.065	2399.34
465.438	2401.15
465.81	2418.78
466.183	2453.35
466.555	2505.78
466.928	2502.39
467.3	2518.21
467.672	2558.44
468.045	2617.42
468.417	2581.94
468.789	2579.68
469.161	2652.67
469.534	2716.62
469.906	2722.73
470.278	2760.69
470.65	2813.8
471.022	2831.87
471.394	2874.36
471.766	2902.61
472.138	2900.57
472.51	2982.83
472.882	3021.47
473.253	3041.59
473.625	3075.26
473.997	3112.77
474.369	3170.62
474.74	3165.2
475.112	3207.46
475.484	3287.68
475.855	3333.33
476.227	3333.78
476.598	3434.34
476.97	3449.71
477.341	3537.84
477.713	3565.87
478.084	3595.92
478.455	3663.94
478.827	3692.42
479.198	3795.24
479.569	3778.06
479.94	3863.49
480.311	3905.29
480.682	4048.57
481.053	4102.8
481.424	4103.71
481.795	4134.21
482.166	4162.01
482.537	4218.73
482.908	4337.82
483.279	4344.38
483.65	4378.5
484.021	4494.2
484.391	4568.55
484.762	4559.96
485.133	4588.44
485.503	4650.36
485.874	4767.19
486.244	4802.22
486.615	4846.29
486.985	4906.85
487.356	4991.37
487.726	5067.97
488.097	5119.5
488.467	5116.79
488.837	5208.54
489.207	5221.19
489.578	5374.18
489.948	5390.23
490.318	5411.69
490.688	5472.03
491.058	5505.93
491.428	5563.78
491.798	5554.29
492.168	5655.76
492.538	5718.13
492.908	5792.02
493.278	5870.21
493.648	5875.41
494.017	5843.09
494.387	5890.78
494.757	5958.8
495.126	6086.93
495.496	6034.73
495.866	6093.94
496.235	6134.61
496.605	6199.7
496.974	6220.26
497.344	6224.33
497.713	6193.82
498.082	6263.2
498.452	6332.57
498.821	6337.55
499.19	6422.74
499.559	6395.85
499.928	6457.09
500.298	6511.55
500.667	6542.74
501.036	6472.46
501.405	6594.26
501.774	6552
502.143	6600.82
502.512	6638.55
502.88	6661.6
503.249	6669.74
503.618	6756.97
503.987	6722.85
504.356	6733.92
504.724	6790.19
505.093	6805.33
505.462	6828.83
505.83	6841.71
506.199	6900.92
506.567	6984.31
506.936	6942.95
507.304	7014.36
507.672	7017.98
508.041	7036.28
508.409	7132.1
508.777	7022.95
509.145	7160.35
509.514	7080.8
509.882	7133.46
510.25	7180.69
510.618	7161.7
510.986	7159.67
511.354	7183.17
511.722	7213.68
512.09	7216.17
512.458	7295.03
512.826	7278.99
513.193	7332.77
513.561	7324.41
513.929	7415.26
514.297	7424.07
514.664	7463.17
515.032	7441.02
515.4	7406.22
515.767	7430.4
516.135	7549.26
516.502	7444.41
516.869	7567.12
517.237	7537.51
517.604	7460.68
517.972	7559.21
518.339	7566.67
518.706	7612.31
519.073	7536.38
519.44	7528.02
519.808	7671.07
520.175	7587
520.542	7665.87
520.909	7628.81
521.276	7687.34
521.643	7681.46
522.009	7729.6
522.376	7813.44
522.743	7764.63
523.11	7756.04
523.477	7816.83
523.843	7878.75
524.21	7895.02
524.577	7859.31
524.943	7896.83
525.31	7895.7
525.676	7996.48
526.043	7967.78
526.409	7961.01
526.776	7990.84
527.142	7980.44
527.508	8019.76
527.874	8066.09
528.241	8009.14
528.607	8045.3
528.973	8074
529.339	8008.24
529.705	8093.88
530.071	8092.3
530.437	8096.37
530.803	8132.98
531.169	8120.1
531.535	8063.15
531.901	8116.93
532.267	8073.09
532.632	8107.67
532.998	8088.69
533.364	8122.81
533.73	8104.28
534.095	8117.16
534.461	8064.96
534.826	8161.23
535.192	8116.71
535.557	8118.06
535.923	8164.84
536.288	8197.84
536.653	8098.4
537.019	8084.39
537.384	8062.92
537.749	8088.01
538.114	8087.56
538.479	8034
538.845	8089.36
539.21	7996.26
539.575	7987.22
539.94	8048.69
540.305	8042.59
540.67	7975.92
541.034	7979.54
541.399	7996.03
541.764	7950.16
542.129	7969.82
542.494	7998.29
542.858	7992.42
543.223	7889.37
543.587	7995.81
543.952	7929.59
544.316	7917.62
544.681	7879.2
545.045	7861.35
545.41	7930.27
545.774	7907
546.138	7827.9
546.503	7892.08
546.867	7804.4
547.231	7851.86
547.595	7803.27
547.959	7792.2
548.324	7766.21
548.688	7723.95
549.052	7769.15
549.416	7770.5
549.779	7735.25
550.143	7699.77
550.507	7777.73
550.871	7749.03
551.235	7667.45
551.599	7706.1
551.962	7653.44
552.326	7673.1
552.689	7692.31
553.053	7678.3
553.417	7662.03
553.78	7697.06
554.143	7608.7
554.507	7657.74
554.87	7672.88
555.234	7729.83
555.597	7623.39
555.96	7678.75
556.323	7627.91
556.686	7673.1
557.05	7681.01
557.413	7663.16
557.776	7717.62
558.139	7639.66
558.502	7627.23
558.865	7639.66
559.228	7718.3
559.59	7682.14
559.953	7662.71
560.316	7727.34
560.679	7706.1
561.041	7720.79
561.404	7733.21
561.767	7749.94
562.129	7676.04
562.492	7754.91
562.854	7697.06
563.217	7777.28
563.579	7743.84
563.941	7808.02
564.304	7791.97
564.666	7786.77
565.028	7756.04
565.39	7864.51
565.753	7835.81
566.115	7889.14
566.477	7907.22
566.839	7899.99
567.201	7897.05
567.563	7864.74
567.925	7922.81
568.287	7937.73
568.648	7970.72
569.01	8023.83
569.372	8038.97
569.734	8005.52
570.095	8048.46
570.457	8030.83
570.819	8014.11
571.18	8018.63
571.542	8107.44
571.903	8039.65
572.265	8114.22
572.626	8085.97
572.987	8104.5
573.349	8177.5
573.71	8161.23
574.071	8140.89
574.432	8210.94
574.794	8267.66
575.155	8179.76
575.516	8196.71
575.877	8261.56
576.238	8291.62
576.599	8281.45
576.96	8299.08
577.32	8241.45
577.681	8357.61
578.042	8302.24
578.403	8365.74
578.763	8338.17
579.124	8343.14
579.485	8423.82
579.845	8509.24
580.206	8400.32
580.566	8442.35
580.927	8431.95
581.287	8485.51
581.648	8479.41
582.008	8557.6
582.368	8529.8
582.728	8552.63
583.089	8564.15
583.449	8538.17
583.809	8581.55
584.169	8572.97
584.529	8578.84
584.889	8678.5
585.249	8606.64
585.609	8535.91
585.969	8641.89
586.329	8683.47
586.688	8717.82
587.048	8571.16
587.408	8717.6
587.768	8650.7
588.127	8653.42
588.487	8636.47
588.846	8786.97
589.206	8691.83
589.565	8698.39
589.925	8717.37
590.284	8752.62
590.643	8700.19
591.003	8824.26
591.362	8788.55
591.721	8831.26
592.08	8741.1
592.44	8867.42
592.799	8854.99
593.158	8839.63
593.517	8793.75
593.876	8837.59
594.235	8792.4
594.593	8816.12
594.952	8834.2
595.311	8753.3
595.67	8878.95
596.029	8839.4
596.387	8937.7
596.746	8870.36
597.104	8889.12
597.463	8876.46
597.822	8919.4
598.18	8870.81
598.538	8880.08
598.897	8957.14
599.255	8874.43
599.613	9013.41
599.972	8937.48
600.33	8957.14
600.688	8925.95
601.046	8973.18
601.404	8963.24
601.762	8937.25
602.12	8985.16
602.478	9011.37
602.836	9006.4
603.194	8967.53
603.552	9011.6
603.91	8977.48
604.268	9032.84
604.625	8955.56
604.983	8973.63
605.341	9005.05
605.698	8966.63
606.056	9063.35
606.413	9021.09
606.771	9060.64
607.128	9126.4
607.485	9053.63
607.843	9106.29
608.2	9142.67
608.557	9070.58
608.914	9060.41
609.272	9067.87
609.629	9078.49
609.986	9125.72
610.343	9139.73
610.7	9108.32
611.057	9114.2
611.414	9189.45
611.771	9123.69
612.127	9183.12
612.484	9179.73
612.841	9275.77
613.198	9181.31
613.554	9182.67
613.911	9217.92
614.267	9193.06
614.624	9170.69
614.98	9242.78
615.337	9300.86
615.693	9157.58
616.05	9199.16
616.406	9321.87
616.762	9314.19
617.118	9258.6
617.475	9270.8
617.831	9369.33
618.187	9244.36
618.543	9262.89
618.899	9354.87
619.255	9321.2
619.611	9350.12
619.967	9333.17
620.323	9346.28
620.678	9347.64
621.034	9307.64
621.39	9299.73
621.746	9267.41
622.101	9381.31
622.457	9325.94
622.812	9380.4
623.168	9375.21
623.523	9358.26
623.879	9445.26
624.234	9314.19
624.589	9391.93
624.945	9265.83
625.3	9329.78
625.655	9321.2
626.01	9330.01
626.365	9353.06
626.72	9422.89
627.075	9326.62
627.43	9320.29
627.785	9319.39
628.14	9338.6
628.495	9290.24
628.85	9330.01
629.205	9265.6
629.559	9398.71
629.914	9270.12
630.269	9257.47
630.623	9261.54
630.978	9263.12
631.332	9347.18
631.687	9276.68
632.041	9259.28
632.396	9285.72
632.75	9191.93
633.104	9197.13
633.459	9227.41
633.813	9211.37
634.167	9237.81
634.521	9221.76
634.875	9258.15
635.229	9196.23
635.583	9119.62
635.937	9095.89
636.291	9161.88
636.645	9083.24
636.999	9123.01
637.352	9139.05
637.706	9085.95
638.06	9130.92
638.413	9062.45
638.767	9004.59
639.121	9118.04
639.474	9040.75
639.828	9027.19
640.181	9003.46
640.534	8991.94
640.888	9013.18
641.241	8999.85
641.594	8948.78
641.947	9028.77
642.301	9000.07
642.654	8975.67
643.007	8994.42
643.36	8984.03
643.713	8956.46
644.066	8952.39
644.419	8890.7
644.771	8862
645.124	8809.8
645.477	8759.85
645.83	8753.3
646.182	8678.27
646.535	8665.85
646.888	8694.55
647.24	8664.49
647.593	8667.65
647.945	8665.17
648.298	8583.14
648.65	8601.67
649.002	8571.38
649.355	8645.28
649.707	8633.08
650.059	8672.85
650.411	8759.63
650.763	8739.06
651.115	8850.47
651.467	8769.12
651.819	8832.62
652.171	8825.62
652.523	8824.03
652.875	8799.85
653.227	8775.9
653.578	8842.79
653.93	8802.34
654.282	8762.11
654.633	8774.32
654.985	8763.24
655.337	8802.34
655.688	8870.13
656.039	8875.56
656.391	8746.3
656.742	8807.54
657.094	8770.02
657.445	8852.73
657.796	8747.88
658.147	8822.68
658.498	8760.98
658.849	8795.56
659.2	8820.42
659.551	8783.81
659.902	8766.63
660.253	8796.69
660.604	8755.56
660.955	8840.76
661.306	8864.03
661.656	8857.7
662.007	8853.64
662.358	8812.06
662.708	8784.94
663.059	8828.55
663.409	8739.52
663.76	8842.79
664.11	8811.83
664.461	8856.8
664.811	8844.15
665.161	8851.38
665.511	8772.51
665.862	8803.02
666.212	8907.2
666.562	8849.12
666.912	8789.68
667.262	8750.59
667.612	8747.65
667.962	8829.23
668.312	8870.36
668.662	8795.11
669.011	8866.97
669.361	8832.17
669.711	8872.62
670.06	8795.56
670.41	8782.9
670.76	8764.6
671.109	8758.72
671.459	8762.11
671.808	8746.75
672.157	8810.7
672.507	8721.44
672.856	8726.63
673.205	8727.54
673.554	8735.45
673.904	8638.5
674.253	8736.58
674.602	8727.54
674.951	8658.39
675.3	8541.78
675.649	8674.66
675.998	8688.44
676.346	8657.26
676.695	8727.99
677.044	8615
677.393	8658.39
677.741	8688.9
678.09	8585.4
678.438	8595.79
678.787	8574.77
679.135	8620.65
679.484	8544.49
679.832	8591.27
680.181	8515.79
680.529	8563.93
680.877	8524.83
681.225	8507.66
681.573	8565.96
681.922	8505.85
682.27	8506.08
682.618	8495
682.966	8442.57
683.314	8428.11
683.661	8413.87
684.009	8382.24
684.357	8374.78
684.705	8296.36
685.053	8351.5
685.4	8305.86
685.748	8243.94
686.095	8284.61
686.443	8293.2
686.79	8216.59
687.138	8239.42
687.485	8216.82
687.832	8197.16
688.18	8213.43
688.527	8111.28
688.874	8155.12
689.221	8106.54
689.568	8064.73
689.915	8118.29
690.262	8062.47
690.609	8025.41
690.956	7985.86
691.303	8008.91
691.65	7947.45
691.997	7981.57
692.344	7938.63
692.69	7939.09
693.037	7933.44
693.383	7837.39
693.73	7881.23
694.077	7823.83
694.423	7848.92
694.769	7730.73
695.116	7755.59
695.462	7710.84
695.808	7687.11
696.155	7715.59
696.501	7668.36
696.847	7619.32
697.193	7599.66
697.539	7592.65
697.885	7445.76
698.231	7481.7
698.577	7485.31
698.923	7489.61
699.269	7415.03
699.614	7342.26
699.96	7340.91
700.306	7342.72
700.651	7301.59
700.997	7261.59
701.342	7300.91
701.688	7277.18
702.033	7218.43
702.379	7239.44
702.724	7220.01
703.069	7163.74
703.415	7131.2
703.76	7106.34
704.105	7077.19
704.45	7075.38
704.795	6999.67
705.14	6977.98
705.485	7054.14
705.83	6946.12
706.175	7039.9
706.52	6940.24
706.865	6979.79
707.209	6860.02
707.554	6903.63
707.899	6887.36
708.243	6816.85
708.588	6855.05
708.932	6783.18
709.277	6762.17
709.621	6783.18
709.966	6755.39
710.31	6747.48
710.654	6703.86
710.998	6722.62
711.342	6684.65
711.687	6701.83
712.031	6635.84
712.375	6647.82
712.719	6639.46
713.063	6631.1
713.407	6594.26
713.75	6581.83
714.094	6585.45
714.438	6568.5
714.782	6537.99
715.125	6528.95
715.469	6512.91
715.812	6469.97
716.156	6432.46
716.499	6466.36
716.843	6475.17
717.186	6437.66
717.53	6429.29
717.873	6432.01
718.216	6432.91
718.559	6378.22
718.902	6386.58
719.246	6413.93
719.589	6367.6
719.932	6347.94
720.275	6309.3
720.617	6357.88
720.96	6343.42
721.303	6353.82
721.646	6318.79
721.989	6299.35
722.331	6355.85
722.674	6335.51
723.016	6274.5
723.359	6307.26
723.701	6267.49
724.044	6240.6
724.386	6240.37
724.729	6276.08
725.071	6238.34
725.413	6273.37
725.755	6279.24
726.097	6236.53
726.439	6205.57
726.782	6190.43
727.124	6281.5
727.465	6239.92
727.807	6232.69
728.149	6219.13
728.491	6209.86
728.833	6241.28
729.175	6173.03
729.516	6187.04
729.858	6158.11
730.199	6230.66
730.541	6229.3
730.882	6234.05
731.224	6223.2
731.565	6224.78
731.906	6194.5
732.248	6162.41
732.589	6166.48
732.93	6182.75
733.271	6104.56
733.612	6164.67
733.953	6202.63
734.294	6172.13
734.635	6151.34
734.976	6164.67
735.317	6161.28
735.658	6147.95
735.999	6170.32
736.339	6180.94
736.68	6238.34
737.021	6186.59
737.361	6175.06
737.702	6215.06
738.042	6188.4
738.383	6201.73
738.723	6233.14
739.063	6184.1
739.404	6225.46
739.744	6250.32
740.084	6222.97
740.424	6207.61
740.764	6233.82
741.104	6244.67
741.444	6290.31
741.784	6201.05
742.124	6311.78
742.464	6265
742.804	6240.15
743.143	6315.4
743.483	6308.62
743.823	6258
744.162	6315.17
744.502	6374.83
744.841	6376.19
745.181	6363.31
745.52	6373.93
745.86	6457.54
746.199	6420.93
746.538	6511.1
746.877	6534.6
747.216	6555.62
747.556	6589.52
747.895	6620.48
748.234	6643.07
748.573	6621.61
748.911	6737.76
749.25	6757.42
749.589	6731.66
749.928	6770.75
750.267	6917.87
750.605	6919.9
750.944	6966.23
751.283	6959.45
751.621	7083.29
751.96	7074.7
752.298	7200.8
752.636	7255.94
752.975	7281.02
753.313	7302.27
753.651	7500.45
753.989	7490.06
754.327	7588.59
754.666	7643.05
755.004	7709.71
755.342	7859.99
755.679	7928.92
756.017	7984.28
756.355	8155.35
756.693	8156.48
757.031	8262.92
757.368	8396.93
757.706	8492.29
758.044	8574.32
758.381	8713.98
758.719	8834.43
759.056	8886.63
759.394	9003.46
759.731	9101.54
760.068	9153.97
760.405	9316.9
760.743	9456.11
761.08	9526.39
761.417	9607.06
761.754	9741.3
762.091	9928.86
762.428	10001.4
762.765	10026.04
763.102	10274.62
763.438	10351.45
763.775	10376.31
764.112	10593.25
764.449	10680.93
764.785	10756.41
765.122	10821.27
765.458	10925.67
765.795	11076.4
766.131	11135.84
766.467	11270.97
766.804	11243.63
767.14	11368.15
767.476	11580.8
767.812	11568.59
768.148	11696.5
768.485	11803.39
768.821	11879.77
769.157	11849.94
769.492	12055.36
769.828	12133.1
