Data from hue_40_FLMS001491_13.txt Node
Date: Mon Feb 06 15:07:30 GMT 2017
User: dcchb
Spectrometer: FLMS00149
Trigger mode: 0
Integration Time (sec): 2.000000E-2
Scans to average: 10
Electric dark correction enabled: true
Nonlinearity correction enabled: false
Boxcar width: 0
XAxis mode: Wavelengths
Number of Pixels in Spectrum: 2048
>>>>>Begin Spectral Data<<<<<
341.393	-0.97
341.776	-0.97
342.16	-0.97
342.543	-56.34
342.927	-87.3
343.31	-74.19
343.693	-72.84
344.077	-77.58
344.46	-64.02
344.843	-50.69
345.226	-36.23
345.61	-22.22
345.993	-31.93
346.376	8.52
346.759	13.71
347.142	32.7
347.525	64.11
347.908	51.45
348.291	76.99
348.674	74.96
349.057	107.27
349.44	130.55
349.823	121.96
350.206	163.09
350.588	212.35
350.971	209.42
351.354	211.45
351.737	250.54
352.119	259.58
352.502	277.21
352.884	270.88
353.267	286.93
353.65	287.61
354.032	315.63
354.414	314.72
354.797	323.99
355.179	344.55
355.562	350.65
355.944	343.42
356.326	346.36
356.709	328.96
357.091	341.62
357.473	333.25
357.855	352.69
358.238	342.52
358.62	353.14
359.002	330.77
359.384	326.93
359.766	328.51
360.148	347.72
360.53	342.07
360.912	336.87
361.294	329.41
361.676	322.86
362.057	338
362.439	334.38
362.821	320.15
363.203	332.8
363.584	331.22
363.966	333.71
364.348	311.33
364.729	319.47
365.111	316.76
365.493	308.17
365.874	317.66
366.256	324.67
366.637	333.93
367.019	323.54
367.4	326.47
367.781	316.53
368.163	295.29
368.544	302.07
368.925	311.11
369.306	295.29
369.688	310.2
370.069	295.74
370.45	287.61
370.831	320.82
371.212	320.82
371.593	326.02
371.974	300.49
372.355	316.31
372.736	310.66
373.117	300.94
373.498	323.31
373.879	308.17
374.26	314.05
374.641	302.52
375.021	325.34
375.402	319.92
375.783	302.29
376.163	301.16
376.544	349.07
376.925	338.9
377.305	341.62
377.686	351.11
378.066	333.48
378.447	328.96
378.827	334.84
379.208	337.32
379.588	324.67
379.968	342.07
380.349	343.42
380.729	338
381.109	347.04
381.489	322.18
381.87	326.47
382.25	340.49
382.63	309.07
383.01	352.91
383.39	340.71
383.77	341.62
384.15	347.26
384.53	329.64
384.91	353.14
385.29	342.52
385.67	337.32
386.049	351.78
386.429	339.81
386.809	341.16
387.189	358.34
387.568	339.13
387.948	326.02
388.328	330.77
388.707	326.47
389.087	337.77
389.466	371.45
389.846	345.68
390.225	373.03
390.605	375.29
390.984	378.68
391.363	321.5
391.743	348.17
392.122	356.53
392.501	335.51
392.881	366.25
393.26	367.6
393.639	374.38
394.018	366.02
394.397	370.54
394.776	370.54
395.155	393.37
395.534	382.07
395.913	375.29
396.292	387.49
396.671	380.03
397.05	388.62
397.429	364.67
397.808	377.77
398.186	401.5
398.565	403.08
398.944	383.42
399.323	384.1
399.701	395.85
400.08	380.94
400.458	384.55
400.837	392.24
401.215	388.62
401.594	404.66
401.972	400.82
402.351	396.08
402.729	404.66
403.107	393.37
403.486	398.79
403.864	407.38
404.242	400.6
404.62	395.4
404.999	407.38
405.377	410.99
405.755	429.52
406.133	398.56
406.511	414.16
406.889	425.23
407.267	439.01
407.645	430.88
408.023	439.69
408.401	427.26
408.779	424.33
409.156	437.88
409.534	420.26
409.912	456.19
410.29	455.06
410.667	453.93
411.045	463.65
411.422	448.05
411.8	462.29
412.178	447.38
412.555	461.39
412.933	449.86
413.31	450.99
413.687	485.79
414.065	479.24
414.442	469.3
414.819	477.2
415.197	482.4
415.574	468.39
415.951	501.16
416.328	480.37
416.705	526.02
417.082	496.41
417.46	488.96
417.837	486.02
418.214	500.93
418.591	496.64
418.967	512.68
419.344	502.74
419.721	519.01
420.098	525.34
420.475	505.68
420.852	510.42
421.228	513.14
421.605	518.33
421.982	535.06
422.358	542.29
422.735	541.61
423.111	550.88
423.488	521.05
423.864	558.11
424.241	544.55
424.617	556.07
424.994	552.46
425.37	559.24
425.746	530.99
426.123	550.65
426.499	559.91
426.875	581.61
427.251	585.22
427.627	554.04
428.003	585
428.379	586.58
428.756	582.29
429.132	585.68
429.507	580.71
429.883	578.45
430.259	627.94
430.635	599.91
431.011	617.09
431.387	609.63
431.763	615.05
432.138	618.9
432.514	642.62
432.89	631.1
433.265	650.99
433.641	647.82
434.016	649.63
434.392	673.81
434.767	670.87
435.143	635.84
435.518	652.34
435.894	682.85
436.269	664.09
436.644	707.71
437.02	682.62
437.395	729.18
437.77	700.93
438.145	720.59
438.52	724.66
438.895	727.82
439.271	712
439.646	726.01
440.021	725.56
440.395	744.77
440.77	726.24
441.145	741.38
441.52	762.4
441.895	756.75
442.27	742.51
442.645	740.93
443.019	752.9
443.394	762.62
443.769	778.44
444.143	749.51
444.518	782.96
444.892	754.94
445.267	799.68
445.641	820.25
446.016	776.41
446.39	768.72
446.764	792.68
447.139	805.56
447.513	794.94
447.887	793.13
448.262	827.48
448.636	842.17
449.01	824.99
449.384	851.43
449.758	849.17
450.132	834.48
450.506	836.74
450.88	846.69
451.254	844.43
451.628	859.34
452.002	878.55
452.376	895.5
452.75	897.53
453.123	885.78
453.497	891.66
453.871	923.07
454.244	907.7
454.618	944.76
454.992	915.61
455.365	949.73
455.739	947.25
456.112	962.62
456.486	945.67
456.859	990.41
457.232	997.19
457.606	997.87
457.979	1007.13
458.352	1005.1
458.725	1027.92
459.099	1021.6
459.472	1057.53
459.845	1075.16
460.218	1064.08
460.591	1071.09
460.964	1087.58
461.337	1108.15
461.71	1105.21
462.083	1133.23
462.456	1130.07
462.829	1150.41
463.201	1185.66
463.574	1170.52
463.947	1179.79
464.32	1205.77
464.692	1200.35
465.065	1206.45
465.438	1251.2
465.81	1244.87
466.183	1288.94
466.555	1297.75
466.928	1309.5
467.3	1300.23
467.672	1344.53
468.045	1383.62
468.417	1393.79
468.789	1394.24
469.161	1398.54
469.534	1427.01
469.906	1481.25
470.278	1489.16
470.65	1511.53
471.022	1517.63
471.394	1594.92
471.766	1611.41
472.138	1618.87
472.51	1638.98
472.882	1681.69
473.253	1702.48
473.625	1761.46
473.997	1789.03
474.369	1831.97
474.74	1861.58
475.112	1855.25
475.484	1903.61
475.855	1967.56
476.227	2008.46
476.598	2059.99
476.97	2091.17
477.341	2150.38
477.713	2198.06
478.084	2219.76
478.455	2318.74
478.827	2358.29
479.198	2438.06
479.569	2458.17
479.94	2576.58
480.311	2592.4
480.682	2676.24
481.053	2744.04
481.424	2809.35
481.795	2878.5
482.166	2956.91
482.537	3033.3
482.908	3116.46
483.279	3188.32
483.65	3248.43
484.021	3379.5
484.391	3425.38
484.762	3533.85
485.133	3559.84
485.503	3650.45
485.874	3769.55
486.244	3825.14
486.615	3987.85
486.985	4047.05
487.356	4179.25
487.726	4272.13
488.097	4374.5
488.467	4421.73
488.837	4588.96
489.207	4636.42
489.578	4741.05
489.948	4884.09
490.318	4978.33
490.688	5002.51
491.058	5162.96
491.428	5309.62
491.798	5412.22
492.168	5519.78
492.538	5643.4
492.908	5744.19
493.278	5852.88
493.648	5922.49
494.017	6074.57
494.387	6122.71
494.757	6210.61
495.126	6384.39
495.496	6424.85
495.866	6544.84
496.235	6599.76
496.605	6757.49
496.974	6872.07
497.344	6932.85
497.713	7034.55
498.082	7117.93
498.452	7285.39
498.821	7301.21
499.19	7432.5
499.559	7562.22
499.928	7586.4
500.298	7733.74
500.667	7825.49
501.036	7841.31
501.405	7970.34
501.774	8000.85
502.143	8166.95
502.512	8216.66
502.88	8299.6
503.249	8388.64
503.618	8480.84
503.987	8523.32
504.356	8650.78
504.724	8681.74
505.093	8810.09
505.462	8845.8
505.83	8915.4
506.199	9040.6
506.567	9149.52
506.936	9216.86
507.304	9304.09
507.672	9389.74
508.041	9490.75
508.409	9524.42
508.777	9611.65
509.145	9717.19
509.514	9707.92
509.882	9852.33
510.25	9840.35
510.618	9985.66
510.986	10030.85
511.354	10119.21
511.722	10257.96
512.09	10348.13
512.458	10401.92
512.826	10556.26
513.193	10468.58
513.561	10483.04
513.929	10625.19
514.297	10721
514.664	10784.28
515.032	10841.68
515.4	10924.84
515.767	11057.49
516.135	11102.46
516.502	11033.09
516.869	11264.27
517.237	11275.11
517.604	11234.44
517.972	11321.89
518.339	11428.56
518.706	11609.34
519.073	11586.52
519.44	11680.98
519.808	11776.12
520.175	11847.75
520.542	11908.09
520.909	11940.86
521.276	11939.73
521.643	12046.84
522.009	12165.71
522.376	12269.21
522.743	12379.94
523.11	12484.57
523.477	12675.3
523.843	12583.78
524.21	12734.96
524.577	12869.42
524.943	12948.52
525.31	12981.28
525.676	13051.56
526.043	13209.75
526.409	13252.24
526.776	13403.64
527.142	13354.38
527.508	13467.82
527.874	13649.29
528.241	13672.79
528.607	13706.91
528.973	13883.63
529.339	13836.18
529.705	14009.05
530.071	14042.72
530.437	14161.82
530.803	14274.36
531.169	14253.79
531.535	14227.58
531.901	14330.4
532.267	14450.62
532.632	14528.13
532.998	14546.44
533.364	14705.53
533.73	14741.69
534.095	14851.97
534.461	14870.27
534.826	14903.94
535.192	15076.14
535.557	15108.68
535.923	15195.24
536.288	15272.52
536.653	15281.79
537.019	15332.18
537.384	15395.46
537.749	15500.31
538.114	15502.35
538.479	15539.18
538.845	15672.29
539.21	15575.57
539.575	15696.01
539.94	15800.19
540.305	15853.75
540.67	15835.45
541.034	15915.44
541.399	15956.57
541.764	16096.91
542.129	16149.56
542.494	16122.22
542.858	16229.56
543.223	16296.9
543.587	16383.45
543.952	16389.78
544.316	16467.52
544.681	16538.25
545.045	16532.38
545.41	16737.12
545.774	16666.38
546.138	16695.76
546.503	16881.75
546.867	16913.16
547.231	16920.61
547.595	17014.17
547.959	17021.4
548.324	17119.71
548.688	17171.23
549.052	17192.7
549.416	17248.97
549.779	17308.63
550.143	17336.42
550.507	17474.5
550.871	17473.14
551.235	17483.76
551.599	17581.39
551.962	17741.16
552.326	17836.07
552.689	17793.13
553.053	17822.96
553.417	17861.38
553.78	18101.37
554.143	18017.76
554.507	18088.95
554.87	18087.14
555.234	18343.18
555.597	18228.15
555.96	18364.42
556.323	18368.94
556.686	18349.96
557.05	18552.21
557.413	18596.05
557.776	18663.85
558.139	18767.35
558.502	18747.91
558.865	18971.63
559.228	19013.21
559.59	18983.16
559.953	19081.91
560.316	19234.9
560.679	19218.18
561.041	19376.14
561.404	19451.17
561.767	19593.54
562.129	19453.43
562.492	19681.45
562.854	19766.42
563.217	19763.03
563.579	19778.84
563.941	19942.23
564.304	19912.17
564.666	20131.6
565.028	20167.76
565.39	20242.33
565.753	20330.47
566.115	20451.82
566.477	20446.85
566.839	20558.03
567.201	20618.6
567.563	20617.01
567.925	20824.69
568.287	20797.8
568.648	20877.12
569.01	20893.39
569.372	21158.02
569.734	21023.78
570.095	21306.49
570.457	21328.86
570.819	21371.8
571.18	21427.16
571.542	21517.33
571.903	21574.96
572.265	21681.62
572.626	21848.62
572.987	21729.08
573.349	21961.61
573.71	22048.16
574.071	22077.77
574.432	22275.28
574.794	22371.09
575.155	22479.34
575.516	22407.25
575.877	22590.07
576.238	22774.7
576.599	22893.11
576.96	22908.71
577.32	23076.84
577.681	23291.29
578.042	23233.22
578.403	23386.89
578.763	23467.79
579.124	23573.09
579.485	23791.39
579.845	23933.99
580.206	23966.76
580.566	24173.76
580.927	24213.98
581.287	24467.31
581.648	24397.25
582.008	24718.6
582.368	24844.93
582.728	24986.62
583.089	25096.44
583.449	25299.15
583.809	25444.91
584.169	25662.76
584.529	25686.49
584.889	26016.42
585.249	26057.32
585.609	26105.91
585.969	26493.24
586.329	26439.01
586.688	26775.5
587.048	26944.76
587.408	27214.13
587.768	27183.62
588.127	27421.13
588.487	27588.36
588.846	27838.52
589.206	27872.42
589.565	28164.84
589.925	28399.86
590.284	28403.93
590.643	28773.86
591.003	28999.39
591.362	29240.29
591.721	29352.83
592.08	29508.31
592.44	29696.78
592.799	29884.12
593.158	30072.36
593.517	30309.19
593.876	30437.55
594.235	30541.27
594.593	30826.01
594.952	31108.72
595.311	31055.38
595.67	31338.31
596.029	31740.56
596.387	31829.6
596.746	32118.41
597.104	32058.97
597.463	32173.77
597.822	32489.47
598.18	32617.38
598.538	32676.36
598.897	33098.49
599.255	33051.49
599.613	33579.16
599.972	33424.14
600.33	33647.86
600.688	33730.34
601.046	33866.61
601.404	34157.68
601.762	34191.8
602.12	34591.79
602.478	34666.81
602.836	34756.98
603.194	34759.47
603.552	34942.51
603.91	34964.43
604.268	35249.62
604.625	35304.76
604.983	35574.81
605.341	35440.13
605.698	35753.11
606.056	35796.73
606.413	35879.21
606.771	36105.87
607.128	36369.82
607.485	36283.04
607.843	36464.28
608.2	36660.89
608.557	36995.34
608.914	36798.51
609.272	37098.16
609.629	37359.85
609.986	37568.89
610.343	37295.9
610.7	37793.06
611.057	37733.63
611.414	37953.28
611.771	37926.62
612.127	37996.44
612.484	38113.05
612.841	38250
613.198	38256.78
613.554	38365.02
613.911	38786.71
614.267	38702.41
614.624	38702.87
614.98	38806.59
615.337	39105.12
615.693	39053.82
616.05	39066.47
616.406	39243.64
616.762	39188.28
617.118	39293.59
617.475	39296.3
617.831	39414.71
618.187	39645.67
618.543	39730.18
618.899	39975.6
619.255	39928.15
619.611	40004.53
619.967	40127.91
620.323	40184.41
620.678	39991.42
621.034	40127.69
621.39	40239.55
621.746	40368.36
622.101	40796.14
622.457	40452.43
622.812	40353.67
623.168	40636.15
623.523	40671.63
623.879	40814.22
624.234	40503.05
624.589	40651.29
624.945	40781.91
625.3	40854.22
625.655	40982.81
626.01	40934.45
626.365	41056.93
626.72	40940.77
627.075	40977.83
627.43	40997.27
627.785	40991.85
628.14	41093.09
628.495	41143.25
628.85	41030.49
629.205	40940.77
629.559	41368.33
629.914	41282.01
630.269	41262.57
630.623	41169.24
630.978	40947.1
631.332	41141.9
631.687	41307.77
632.041	41057.15
632.396	41312.74
632.75	41158.85
633.104	41242.69
633.459	40987.55
633.813	41030.49
634.167	41015.12
634.521	41102.13
634.875	41176.25
635.229	41025.74
635.583	40990.49
635.937	40993.2
636.291	40925.86
636.645	41120.88
636.999	40930.83
637.352	41104.39
637.706	40737.16
638.06	41101.67
638.413	40945.97
638.767	40759.54
639.121	40910.49
639.474	40768.8
639.828	40718.18
640.181	40771.74
640.534	40766.99
640.888	40737.16
641.241	40600.67
641.594	40575.13
641.947	40736.26
642.301	40647.22
642.654	40705.07
643.007	40705.07
643.36	40568.81
643.713	40491.07
644.066	40729.25
644.419	40372.43
644.771	40171.98
645.124	39810.41
645.477	40063.51
645.83	39457.42
646.182	39484.31
646.535	39267.82
646.888	39380.14
647.24	39099.01
647.593	39407.03
647.945	39265.34
648.298	39245.45
648.65	39138.34
649.002	38943.31
649.355	39115.06
649.707	39102.18
650.059	39225.56
650.411	39696.29
650.763	39697.42
651.115	40145.54
651.467	39989.61
651.819	39879.33
652.171	39992.32
652.523	39837.53
652.875	39827.13
653.227	39595.95
653.578	39895.83
653.93	39855.38
654.282	39562.96
654.633	39652.67
654.985	39699
655.337	39715.04
655.688	39609.28
656.039	39696.96
656.391	39426.92
656.742	39406.58
657.094	39568.83
657.445	39626.01
657.796	39519.57
658.147	39613.8
658.498	39553.69
658.849	39684.08
659.2	39507.14
659.551	39442.73
659.902	39443.86
660.253	39678.21
660.604	39496.07
660.955	39361.15
661.306	39421.27
661.656	39496.07
662.007	39348.05
662.358	39305.11
662.708	39458.78
663.059	39278.22
663.409	39115.29
663.76	39434.6
664.11	39415.16
664.461	39426.46
664.811	39365.9
665.161	39350.99
665.511	39255.39
665.862	39294.04
666.212	39425.79
666.562	39429.85
666.912	39348.5
667.262	39441.38
667.612	39296.3
667.962	39277.77
668.312	39155.06
668.662	39415.39
669.011	39281.38
669.361	39157.32
669.711	39351.66
670.06	39033.48
670.41	39116.41
670.76	39026.93
671.109	39202.06
671.459	39192.8
671.808	38960.26
672.157	39096.98
672.507	38859.47
672.856	38893.82
673.205	39047.26
673.554	39005.46
673.904	38951.45
674.253	39115.29
674.602	38918
674.951	38410.9
675.3	38344.01
675.649	38832.13
675.998	38782.86
676.346	38832.13
676.695	38983.76
677.044	38713.04
677.393	38783.09
677.741	38839.81
678.09	38661.74
678.438	38706.48
678.787	38551.23
679.135	38606.82
679.484	38466.94
679.832	38729.08
680.181	38338.13
680.529	38474.4
680.877	38354.18
681.225	38426.04
681.573	38624.68
681.922	38256.78
682.27	38231.01
682.618	38259.71
682.966	38023.56
683.314	38179.72
683.661	38120.06
684.009	37865.6
684.357	37974.3
684.705	37756
685.053	37892.04
685.4	37737.47
685.748	37574.76
686.095	37589.22
686.443	37412.5
686.79	37288.21
687.138	37592.61
687.485	37473.97
687.832	37252.96
688.18	37320.76
688.527	37020.2
688.874	37087.09
689.221	36915.34
689.568	37060.88
689.915	36852.97
690.262	36840.32
690.609	36656.59
690.956	36568.23
691.303	36645.75
691.65	36535.69
691.997	36460.21
692.344	36204.4
692.69	36248.24
693.037	36167.11
693.383	35881.47
693.73	36069.04
694.077	35877.86
694.423	35811.42
694.769	35731.65
695.116	35653.68
695.462	35638.77
695.808	35540.01
696.155	35624.76
696.501	35321.03
696.847	35379.79
697.193	35025.45
697.539	35163.75
697.885	34857.32
698.231	34853.48
698.577	34846.02
698.923	34711.11
699.269	34699.36
699.614	34373.71
699.96	34417.78
700.306	34416.65
700.651	34299.82
700.997	34263.21
701.342	34075.64
701.688	34138.24
702.033	34049.66
702.379	33909.77
702.724	33890.11
703.069	33947.96
703.415	33498.71
703.76	33572.83
704.105	33507.3
704.45	33525.15
704.795	33221.65
705.14	33189.11
705.485	33019.63
705.83	33155.44
706.175	33125.84
706.52	32967.88
706.865	32931.49
707.209	32879.52
707.554	32886.3
707.899	32868.44
708.243	32623.48
708.588	32561.79
708.932	32417.38
709.277	32321.11
709.621	32391.62
709.966	32162.25
710.31	32217.84
710.654	31981.91
710.998	32094.68
711.342	32077.73
711.687	31964.29
712.031	31688.36
712.375	31680.45
712.719	31765.87
713.063	31670.74
713.407	31768.81
713.75	31521.36
714.094	31533.79
714.438	31515.71
714.782	31415.15
715.125	31145.1
715.469	31282.5
715.812	31031.2
716.156	30913.47
716.499	30982.62
716.843	31007.93
717.186	30936.74
717.53	30975.16
717.873	30947.14
718.216	30821.94
718.559	30732.45
718.902	30581.27
719.246	30493.14
719.589	30522.97
719.932	30340.37
720.275	30272.58
720.617	30435.74
720.96	30231.22
721.303	30260.38
721.646	30283.88
721.989	30066.03
722.331	30056.99
722.674	30184.45
723.016	30129.31
723.359	29894.96
723.701	29996.65
724.044	29838.01
724.386	29751.69
724.729	29820.84
725.071	29726.83
725.413	29759.82
725.755	29659.71
726.097	29497.01
726.439	29367.97
726.782	29458.36
727.124	29508.08
727.465	29393.96
727.807	29409.33
728.149	29261.08
728.491	29299.27
728.833	29332.94
729.175	29069.45
729.516	29049.79
729.858	29026.06
730.199	29076.23
730.541	29042.33
730.882	28960.3
731.224	29043.91
731.565	28765.05
731.906	28834.43
732.248	28898.15
732.589	28659.06
732.93	28652.74
733.271	28658.84
733.612	28633.07
733.953	28687.08
734.294	28542.68
734.635	28439.63
734.976	28536.81
735.317	28359.18
735.658	28370.48
735.999	28301.33
736.339	28361.22
736.68	28311.95
737.021	28179.08
737.361	28147.44
737.702	28277.6
738.042	28141.34
738.383	28091.17
738.723	28137.72
739.063	27999.87
739.404	28008.46
739.744	27850.27
740.084	27729.14
740.424	27883.94
740.764	27824.51
741.104	27832.64
741.444	27693.66
741.784	27582.93
742.124	27632.2
742.464	27587.23
742.804	27518.3
743.143	27471.3
743.483	27553.56
743.823	27368.48
744.162	27262.26
744.502	27272.21
744.841	27233.11
745.181	27229.04
745.52	27180.46
745.86	27217.07
746.199	27224.75
746.538	26988.15
746.877	27166.22
747.216	26975.94
747.556	26977.75
747.895	27048.94
748.234	26944.76
748.573	26918.09
748.911	26662.73
749.25	26881.71
749.589	26704.09
749.928	26686.01
750.267	26647.82
750.605	26641.49
750.944	26512.45
751.283	26309.07
751.621	26577.54
751.96	26248.5
752.298	26391.78
752.636	26351.55
752.975	26220.26
753.313	26167.15
753.651	26104.33
753.989	25953.82
754.327	26004.44
754.666	25866.14
755.004	25872.7
755.342	25953.82
755.679	25826.59
756.017	25700.5
756.355	25776.2
756.693	25660.05
