Data from hue_30_FLMS001491_1.txt Node
Date: Mon Feb 06 15:04:33 GMT 2017
User: dcchb
Spectrometer: FLMS00149
Trigger mode: 0
Integration Time (sec): 2.000000E-2
Scans to average: 10
Electric dark correction enabled: true
Nonlinearity correction enabled: false
Boxcar width: 0
XAxis mode: Wavelengths
Number of Pixels in Spectrum: 2048
>>>>>Begin Spectral Data<<<<<
341.393	-11.5
341.776	-11.5
342.16	-11.5
342.543	-60.54
342.927	-36.13
343.31	-64.15
343.693	-75.9
344.077	-58.73
344.46	-50.59
344.843	-42.46
345.226	-33.42
345.61	-20.99
345.993	-29.35
346.376	-15.56
346.759	9.97
347.142	22.85
347.525	15.4
347.908	66.92
348.291	83.87
348.674	95.62
349.057	96.52
349.44	128.61
349.823	140.82
350.206	169.06
350.588	181.94
350.971	205.9
351.354	211.55
351.737	257.42
352.119	255.39
352.502	264.88
352.884	278.44
353.267	286.57
353.65	301.49
354.032	284.99
354.414	305.1
354.797	303.52
355.179	328.83
355.562	311.21
355.944	317.08
356.326	319.57
356.709	353.92
357.091	327.03
357.473	333.35
357.855	313.69
358.238	355.27
358.62	337.87
359.002	337.65
359.384	345.78
359.766	344.88
360.148	333.58
360.53	350.53
360.912	349.4
361.294	343.75
361.676	317.76
362.057	326.35
362.439	352.34
362.821	320.02
363.203	342.39
363.584	311.88
363.966	337.42
364.348	318.66
364.729	298.55
365.111	315.27
365.493	324.99
365.874	327.03
366.256	311.88
366.637	328.83
367.019	305.56
367.4	317.31
367.781	305.56
368.163	313.47
368.544	321.83
368.925	295.84
369.306	320.02
369.688	314.82
370.069	286.35
370.45	301.04
370.831	294.26
371.212	314.14
371.593	295.84
371.974	325.67
372.355	319.79
372.736	308.04
373.117	321.6
373.498	307.36
373.879	322.28
374.26	306.46
374.641	313.92
375.021	313.92
375.402	323.86
375.783	309.62
376.163	334.71
376.544	311.21
376.925	308.72
377.305	328.38
377.686	318.44
378.066	311.21
378.447	334.03
378.827	325.44
379.208	328.83
379.588	319.79
379.968	337.87
380.349	323.41
380.729	321.6
381.109	329.06
381.489	339.91
381.87	341.04
382.25	346.91
382.63	332.9
383.01	331.54
383.39	354.14
383.77	358.21
384.15	334.26
384.53	348.49
384.91	348.49
385.29	357.53
385.67	332.67
386.049	337.65
386.429	342.39
386.809	343.3
387.189	340.58
387.568	353.01
387.948	350.08
388.328	347.36
388.707	362.5
389.087	339.45
389.466	352.34
389.846	336.97
390.225	361.15
390.605	349.62
390.984	347.36
391.363	352.11
391.743	360.24
392.122	352.11
392.501	371.09
392.881	363.63
393.26	352.34
393.639	362.73
394.018	357.98
394.397	368.38
394.776	369.06
395.155	366.8
395.534	379.45
395.913	362.73
396.292	372.9
396.671	380.58
397.05	381.49
397.429	370.87
397.808	384.65
398.186	386.23
398.565	377.87
398.944	372
399.323	374.26
399.701	373.8
400.08	377.19
400.458	389.85
400.837	400.47
401.215	369.51
401.594	393.46
401.972	395.27
402.351	399.34
402.729	405.67
403.107	379.23
403.486	397.98
403.864	394.82
404.242	395.5
404.62	400.24
404.999	374.93
405.377	413.8
405.755	409.28
406.133	411.32
406.511	416.97
406.889	393.92
407.267	406.35
407.645	409.28
408.023	419
408.401	413.35
408.779	397.98
409.156	407.7
409.534	414.48
409.912	434.82
410.29	415.61
410.667	437.08
411.045	436.17
411.422	424.2
411.8	419
412.178	428.49
412.555	436.63
412.933	428.94
413.31	454.25
413.687	453.12
414.065	450.19
414.442	462.16
414.819	442.5
415.197	447.47
415.574	470.98
415.951	451.99
416.328	472.11
416.705	482.05
417.082	476.4
417.46	455.61
417.837	475.72
418.214	466.23
418.591	462.16
418.967	481.37
419.344	491.77
419.721	478.66
420.098	493.57
420.475	499
420.852	485.21
421.228	513.01
421.605	499.45
421.982	505.55
422.358	490.41
422.735	524.08
423.111	518.66
423.488	503.97
423.864	507.36
424.241	507.13
424.617	531.77
424.994	531.77
425.37	516.17
425.746	506
426.123	546.45
426.499	556.17
426.875	511.88
427.251	539
427.627	548.94
428.003	542.61
428.379	542.39
428.756	561.37
429.132	589.62
429.507	565.89
429.883	570.41
430.259	562.27
430.635	578.54
431.011	574.7
431.387	576.74
431.763	599.33
432.138	602.5
432.514	591.43
432.89	574.7
433.265	608.83
433.641	629.62
434.016	609.28
434.392	596.85
434.767	615.38
435.143	627.81
435.518	600.46
435.894	631.42
436.269	628.26
436.644	619.45
437.02	626.68
437.395	631.88
437.77	633.23
438.145	646.79
438.52	620.35
438.895	685.21
439.271	644.31
439.646	679.33
440.021	673.46
440.395	689.05
440.77	690.41
441.145	666.9
441.52	702.38
441.895	689.5
442.27	690.86
442.645	675.94
443.019	720.24
443.394	706
443.769	710.07
444.143	705.32
444.518	693.34
444.892	704.19
445.267	754.58
445.641	724.98
446.016	737.41
446.39	731.53
446.764	736.05
447.139	736.73
447.513	747.81
447.887	745.09
448.262	751.65
448.636	748.03
449.01	765.88
449.384	744.64
449.758	766.34
450.132	774.7
450.506	807.24
450.88	798.43
451.254	774.7
451.628	813.79
452.002	806.56
452.376	818.54
452.75	810.4
453.123	815.37
453.497	801.82
453.871	817.63
454.244	845.43
454.618	867.8
454.992	831.42
455.365	865.77
455.739	855.6
456.112	878.65
456.486	869.61
456.859	873
457.232	878.65
457.606	858.54
457.979	906.9
458.352	943.96
458.725	925.43
459.099	941.47
459.472	967.69
459.845	938.08
460.218	960
460.591	974.92
460.964	958.42
461.337	983.28
461.71	989.38
462.083	992.54
462.456	1011.75
462.829	1023.28
463.201	1029.83
463.574	1035.03
463.947	1046.78
464.32	1086.78
464.692	1089.49
465.065	1094.01
465.438	1076.16
465.81	1122.03
466.183	1118.19
466.555	1158.64
466.928	1143.95
467.3	1169.94
467.672	1165.87
468.045	1195.93
468.417	1203.16
468.789	1211.3
469.161	1220.79
469.534	1228.7
469.906	1262.82
470.278	1267.11
470.65	1289.49
471.022	1297.17
471.394	1320.45
471.766	1329.48
472.138	1367.22
472.51	1385.75
472.882	1407.22
473.253	1445.64
473.625	1435.7
473.997	1473.89
474.369	1486.77
474.74	1520.21
475.112	1552.3
475.484	1587.56
475.855	1604.05
476.227	1641.57
476.598	1649.02
476.97	1656.26
477.341	1734.22
477.713	1754.33
478.084	1786.65
478.455	1837.95
478.827	1854.22
479.198	1922.69
479.569	1895.12
479.94	1965.4
480.311	2013.08
480.682	2035
481.053	2093.53
481.424	2129.01
481.795	2167.88
482.166	2210.82
482.537	2243.13
482.908	2340.76
483.279	2336.92
483.65	2369.68
484.021	2436.8
484.391	2459.85
484.762	2499.85
485.133	2579.62
485.503	2611.49
485.874	2644.93
486.244	2733.74
486.615	2773.97
486.985	2841.99
487.356	2896.68
487.726	2945.71
488.097	2980.29
488.467	3025.03
488.837	3111.58
489.207	3152.26
489.578	3181.64
489.948	3270.9
490.318	3314.52
490.688	3352.48
491.058	3424.8
491.428	3479.71
491.798	3548.41
492.168	3621.85
492.538	3624.34
492.908	3668.63
493.278	3724.22
493.648	3830.66
494.017	3806.93
494.387	3907.72
494.757	3973.94
495.126	4007.15
495.496	4038.11
495.866	4064.55
496.235	4121.5
496.605	4145.46
496.974	4223.19
497.344	4303.87
497.713	4339.12
498.082	4378.9
498.452	4463.64
498.821	4432
499.19	4462.96
499.559	4534.37
499.928	4573.24
500.298	4624.09
500.667	4676.06
501.036	4648.49
501.405	4733.69
501.774	4788.83
502.143	4798.55
502.512	4801.26
502.88	4894.81
503.249	4893.01
503.618	4899.11
503.987	5026.11
504.356	5004.19
504.724	5071.31
505.093	5071.53
505.462	5054.13
505.83	5155.37
506.199	5206.9
506.567	5291.87
506.936	5281.47
507.304	5287.57
507.672	5314.01
508.041	5369.6
508.409	5441.92
508.777	5433.33
509.145	5454.57
509.514	5492.99
509.882	5502.03
510.25	5546.55
510.618	5607.79
510.986	5617.73
511.354	5694.79
511.722	5696.38
512.09	5786.32
512.458	5748.58
512.826	5803.72
513.193	5842.36
513.561	5799.88
513.929	5817.73
514.297	5905.18
514.664	5935.24
515.032	5963.26
515.4	5999.64
515.767	6055.01
516.135	6092.07
516.502	6071.96
516.869	6122.35
517.237	6189.24
517.604	6145.86
517.972	6151.28
518.339	6208
518.706	6211.39
519.073	6271.5
519.44	6317.6
519.808	6315.79
520.175	6321.22
520.542	6391.27
520.909	6393.31
521.276	6434.21
521.643	6498.16
522.009	6509.24
522.376	6497.03
522.743	6565.05
523.11	6615.9
523.477	6706.29
523.843	6676.01
524.21	6759.62
524.577	6832.39
524.943	6821.54
525.31	6840.53
525.676	6926.63
526.043	6900.64
526.409	6989.45
526.776	7050.69
527.142	7090.01
527.508	7142.21
527.874	7067.87
528.241	7162.33
528.607	7203.45
528.973	7237.13
529.339	7209.33
529.705	7252.49
530.071	7388.99
530.437	7357.12
530.803	7481.87
531.169	7471.02
531.535	7457.91
531.901	7515.54
532.267	7554.63
532.632	7585.82
532.998	7649.09
533.364	7675.76
533.73	7700.84
534.095	7741.75
534.461	7728.86
534.826	7810.22
535.192	7820.84
535.557	7903.55
535.923	7866.49
536.288	7934.73
536.653	7961.17
537.019	7989.65
537.384	7960.95
537.749	8082.75
538.114	8055.41
538.479	8119.59
538.845	8120.72
539.21	8111.23
539.575	8203.2
539.94	8237.33
540.305	8214.95
540.67	8267.83
541.034	8350.77
541.399	8342.86
541.764	8343.09
542.129	8457.21
542.494	8458.79
542.858	8500.6
543.223	8529.07
543.587	8576.75
543.952	8568.62
544.316	8611.78
544.681	8613.36
545.045	8685.68
545.41	8713.02
545.774	8811.1
546.138	8742.17
546.503	8709.4
546.867	8866.24
547.231	8845.67
547.595	8876.63
547.959	8956.18
548.324	8931.09
548.688	8924.99
549.052	9035.72
549.416	9036.17
549.779	9057.64
550.143	9186
550.507	9196.4
550.871	9162.95
551.235	9182.61
551.599	9313.68
551.962	9286.34
552.326	9323.17
552.689	9337.18
553.053	9320.91
553.417	9265.77
553.78	9482.94
554.143	9471.87
554.507	9551.42
554.87	9467.8
555.234	9602.49
555.597	9557.29
555.96	9567.23
556.323	9619.21
556.686	9710.51
557.05	9658.53
557.413	9715.7
557.776	9758.19
558.139	9774.91
558.502	9826.89
558.865	9800.9
559.228	9905.08
559.59	9888.36
559.953	9952.31
560.316	10041.8
560.679	10002.93
561.041	10042.93
561.404	10149.82
561.767	10155.92
562.129	10176.48
562.492	10185.07
562.854	10264.84
563.217	10301.68
563.579	10252.87
563.941	10241.11
564.304	10369.02
564.666	10440.88
565.028	10427.32
565.39	10480.88
565.753	10523.37
566.115	10574.89
566.477	10539.41
566.839	10608.79
567.201	10698.05
567.563	10633.42
567.925	10801.55
568.287	10716.81
568.648	10781.44
569.01	10934.2
569.372	10969.23
569.734	10976.69
570.095	11049.91
570.457	11013.07
570.819	11084.93
571.18	11182.56
571.542	11171.71
571.903	11295.78
572.265	11193.86
572.626	11323.57
572.987	11382.78
573.349	11489.22
573.71	11459.39
574.071	11523.57
574.432	11534.41
574.794	11717.69
575.155	11754.07
575.516	11683.34
575.877	11889.21
576.238	11938.02
576.599	12017.11
576.96	12042.88
577.32	12277.45
577.681	12288.52
578.042	12378.46
578.403	12363.09
578.763	12630.43
579.124	12689.19
579.485	12785.23
579.845	12875.85
580.206	12953.81
580.566	13077.65
580.927	13183.18
581.287	13484.65
581.648	13486.45
582.008	13769.84
582.368	13746.56
582.728	13955.14
583.089	14068.81
583.449	14213.67
583.809	14472.19
584.169	14608.01
584.529	14765.97
584.889	15032.85
585.249	15112.85
585.609	15203.92
585.969	15558.72
586.329	15656.34
586.688	15927.52
587.048	16093.84
587.408	16272.59
587.768	16466.04
588.127	16726.59
588.487	16925.23
588.846	17223.08
589.206	17337.65
589.565	17579.45
589.925	17870.74
590.284	18065.32
590.643	18396.38
591.003	18621.69
591.362	18913.66
591.721	19135.34
592.08	19353.19
592.44	19643.81
592.799	19874.99
593.158	20085.83
593.517	20354.3
593.876	20600.39
594.235	20858.01
594.593	21159.7
594.952	21530.31
595.311	21637.65
595.67	21964.42
596.029	22297.3
596.387	22522.37
596.746	22888.01
597.104	22926.88
597.463	23141.34
597.822	23588.56
598.18	23668.11
598.538	23975.22
598.897	24362.1
599.255	24367.75
599.613	25020.84
599.972	24875.08
600.33	25406.14
600.688	25421.51
601.046	25704.21
601.404	26228.94
601.762	26257.87
602.12	26573.57
602.478	26696.73
602.836	27041.8
603.194	27088.13
603.552	27320.67
603.91	27381.46
604.268	27796.59
604.625	27837.71
604.983	28234.31
605.341	28296.91
605.698	28630.24
606.056	28919.49
606.413	29019.83
606.771	29217.11
607.128	29451.46
607.485	29423.21
607.843	29707.27
608.2	29987.26
608.557	30345.67
608.914	30325.33
609.272	30666.11
609.629	30833.79
609.986	31120.34
610.343	31084.41
610.7	31381.58
611.057	31479.65
611.414	31535.7
611.771	31802.36
612.127	32065.85
612.484	32102.69
612.841	32391.04
613.198	32493.64
613.554	32512.85
613.911	32808.66
614.267	32904.25
614.624	33004.13
614.98	33243.9
615.337	33551.46
615.693	33504.91
616.05	33453.39
616.406	33972.02
616.762	33791
617.118	33967.5
617.475	34070.54
617.831	34308.28
618.187	34312.12
618.543	34443.42
618.899	34728.15
619.255	34683.64
619.611	34801.37
619.967	34972.67
620.323	35175.83
620.678	35125.21
621.034	35042.5
621.39	35136.51
621.746	35253.79
622.101	35724.51
622.457	35396.16
622.812	35466.21
623.168	35735.59
623.523	35833.21
623.879	35934.22
624.234	35738.07
624.589	35976.94
624.945	36115.46
625.3	36155.01
625.655	36166.99
626.01	36224.84
626.365	36377.83
626.72	36331.73
627.075	36434.32
627.43	36438.39
627.785	36293.31
628.14	36486.75
628.495	36579.18
628.85	36665.5
629.205	36555
629.559	36804.26
629.914	36518.84
630.269	36632.51
630.623	36644.94
630.978	36663.25
631.332	36778.27
631.687	36925.84
632.041	36740.53
632.396	36867.76
632.75	36730.36
633.104	36856.23
633.459	36765.39
633.813	36720.87
634.167	36760.64
634.521	36884.26
634.875	36761.32
635.229	36801.77
635.583	36642.68
635.937	36735.33
636.291	36611.27
636.645	36683.13
636.999	36707.76
637.352	36849.23
637.706	36529.46
638.06	36762.68
638.413	36621.66
638.767	36584.15
639.121	36760.87
639.474	36515.45
639.828	36573.98
640.181	36544.6
640.534	36656.01
640.888	36521.1
641.241	36439.52
641.594	36578.95
641.947	36630.25
642.301	36509.35
642.654	36591.83
643.007	36435.68
643.36	36488.79
643.713	36485.62
644.066	36642.91
644.419	36300.32
644.771	36136.03
645.124	35836.15
645.477	35739.65
645.83	35647.68
646.182	35526.55
646.535	35352.32
646.888	35422.83
647.24	35202.27
647.593	35615.14
647.945	35381.92
648.298	35230.74
648.65	35135.83
649.002	35157.3
649.355	35282.04
649.707	35297.41
650.059	35268.93
650.411	35919.31
650.763	35882.25
651.115	36241.56
651.467	36104.84
651.819	36184.16
652.171	36069.59
652.523	35742.59
652.875	35955.69
653.227	35823.49
653.578	36050.83
653.93	36024.84
654.282	35807.9
654.633	35729.03
654.985	35801.8
655.337	35828.46
655.688	35818.97
656.039	35993.66
656.391	35616.04
656.742	35643.38
657.094	35695.13
657.445	35932.42
657.796	35679.54
658.147	35604.52
658.498	35636.61
658.849	35805.64
659.2	35554.12
659.551	35644.29
659.902	35684.29
660.253	35665.31
660.604	35669.82
660.955	35471.41
661.306	35724.29
661.656	35430.51
662.007	35566.78
662.358	35546.21
662.708	35709.6
663.059	35496.27
663.409	35382.15
663.76	35614.69
664.11	35656.49
664.461	35542.82
664.811	35646.32
665.161	35557.96
665.511	35501.47
665.862	35588.92
666.212	35554.12
666.562	35682.25
666.912	35371.08
667.262	35528.13
667.612	35478.64
667.962	35510.51
668.312	35508.47
668.662	35662.37
669.011	35480.9
669.361	35414.01
669.711	35514.57
670.06	35395.71
670.41	35470.51
670.76	35257.41
671.109	35502.82
671.459	35370.4
671.808	35302.83
672.157	35490.39
672.507	35140.8
672.856	35300.79
673.205	35213.34
673.554	35352.77
673.904	35131.08
674.253	35212.66
674.602	35230.74
674.951	34567.93
675.3	34539.46
675.649	35212.44
675.998	35130.18
676.346	35123.4
676.695	35258.99
677.044	35026.45
677.393	35113.23
677.741	35180.8
678.09	35043.17
678.438	34854.71
678.787	35076.62
679.135	35096.73
679.484	34727.93
679.832	35045.21
680.181	34858.32
680.529	34856.29
680.877	34703.75
681.225	34596.18
681.573	34909.62
681.922	34567.03
682.27	34592.11
682.618	34521.15
682.966	34500.14
683.314	34472.12
683.661	34460.59
684.009	34303.31
684.357	34169.07
684.705	34278.22
685.053	34174.72
685.4	34061.51
685.748	33896.09
686.095	34028.51
686.443	33852.92
686.79	33736.32
687.138	33838.46
687.485	33911.23
687.832	33695.19
688.18	33778.12
688.527	33628.75
688.874	33617.22
689.221	33503.78
689.568	33362.09
689.915	33474.4
690.262	33352.6
690.609	33159.38
690.956	33148.31
691.303	33107.86
691.65	33066.05
691.997	32864.93
692.344	32879.39
692.69	32696.34
693.037	32711.48
693.383	32528.66
693.73	32631.71
694.077	32404.83
694.423	32462.68
694.769	32244.38
695.116	32369.35
695.462	32148.34
695.808	32096.13
696.155	32059.3
696.501	31877.83
696.847	31878.06
697.193	31655.24
697.539	31643.49
697.885	31547
698.231	31411.86
698.577	31459.77
698.923	31565.07
699.269	31213.44
699.614	31196.04
699.96	31029.04
700.306	30991.3
700.651	30917.41
700.997	30743.63
701.342	30801.48
701.688	30721.25
702.033	30642.84
702.379	30535.27
702.724	30633.57
703.069	30585.21
703.415	30134.83
703.76	30277.2
704.105	30223.64
704.45	30105.68
704.795	30025.45
705.14	29944.33
705.485	29890.99
705.83	29845.8
706.175	29845.35
706.52	29613.26
706.865	29640.83
707.209	29543.43
707.554	29515.18
707.899	29591.79
708.243	29317.45
708.588	29381.18
708.932	29178.92
709.277	29142.31
709.621	29064.12
709.966	28996.33
710.31	29075.87
710.654	28711.36
710.998	28961.53
711.342	28818.48
711.687	28683.57
712.031	28638.6
712.375	28555.21
712.719	28585.04
713.063	28409.68
713.407	28724.47
713.75	28351.83
714.094	28360.64
714.438	28260.3
714.782	28279.96
715.125	28194.99
715.469	28138.72
715.812	28046.75
716.156	27943.02
716.499	27993.64
716.843	27922.68
717.186	27721.11
717.53	27931.5
717.873	27848.34
718.216	27807.88
718.559	27695.57
718.902	27575.12
719.246	27519.98
719.589	27522.69
719.932	27331.51
720.275	27417.61
720.617	27364.51
720.96	27337.84
721.303	27320.44
721.646	27309.37
721.989	27208.35
722.331	27316.37
722.674	27236.15
723.016	27119.32
723.359	27098.07
723.701	27148.01
724.044	26856.72
724.386	26831.19
724.729	26906.44
725.071	26740.79
725.413	26785.54
725.755	26875.25
726.097	26633.45
726.439	26570.4
726.782	26534.02
727.124	26741.25
727.465	26557.52
727.807	26393.68
728.149	26380.8
728.491	26325.66
728.833	26387.58
729.175	26184.2
729.516	26172.67
729.858	26186.46
730.199	26321.6
730.541	26160.24
730.882	26087.03
731.224	26184.2
731.565	26036.41
731.906	25986.92
732.248	25954.37
732.589	25927.26
732.93	25795.06
733.271	25863.75
733.612	25784.44
733.953	25833.02
734.294	25672.57
734.635	25649.3
734.976	25690.88
735.317	25530.88
735.658	25568.4
735.999	25533.82
736.339	25426.48
736.68	25680.71
737.021	25484.78
737.361	25373.82
737.702	25455.63
738.042	25419.25
738.383	25270.32
738.723	25351.68
739.063	25358.01
739.404	25278.69
739.744	25172.02
740.084	25116.43
740.424	25172.93
740.764	25044.12
741.104	25167.28
741.444	25064.68
741.784	24940.39
742.124	24979.71
742.464	24959.6
742.804	24849.32
743.143	24893.39
743.483	24721.41
743.823	24698.14
744.162	24778.81
744.502	24745.37
744.841	24769.77
745.181	24748.76
745.52	24575.65
745.86	24581.98
746.199	24716.67
746.538	24618.82
746.877	24680.28
747.216	24631.92
747.556	24508.08
747.895	24513.28
748.234	24311.71
748.573	24367.52
748.911	24279.39
749.25	24353.96
749.589	24206.4
749.928	24131.15
750.267	24242.78
750.605	24136.34
750.944	23979.06
751.283	23934.54
751.621	24020.87
751.96	23996.69
752.298	23891.15
752.636	23928.21
752.975	23892.06
753.313	23882.11
753.651	23892.73
753.989	23701.33
754.327	23800.76
754.666	23516.47
755.004	23650.03
755.342	23719.86
755.679	23587.43
756.017	23575.91
756.355	23572.97
756.693	23488.9
757.031	23410.26
757.368	23274.9
757.706	23201.23
758.044	23130.27
758.381	23247.1
758.719	23165.07
759.056	23114.67
759.394	23100.89
759.731	22912.42
760.068	22968.92
