Data from hue_26_FLMS001491_00095.txt Node
Date: Tue Feb 07 17:14:50 GMT 2017
User: dcchb
Spectrometer: FLMS00149
Trigger mode: 0
Integration Time (sec): 2.000000E-2
Scans to average: 10
Electric dark correction enabled: true
Nonlinearity correction enabled: false
Boxcar width: 0
XAxis mode: Wavelengths
Number of Pixels in Spectrum: 2048
>>>>>Begin Spectral Data<<<<<
341.393	-10.14
341.776	-10.14
342.16	-10.14
342.543	-30.25
342.927	-86.75
343.31	-67.77
343.693	-70.48
344.077	-60.08
344.46	-67.99
344.843	-31.84
345.226	-53.08
345.61	-30.93
345.993	-45.39
346.376	2.06
346.759	13.59
347.142	21.27
347.525	26.92
347.908	55.62
348.291	87.03
348.674	102.85
349.057	118.22
349.44	125.67
349.823	150.76
350.206	166.58
350.588	199.35
350.971	223.53
351.354	236.63
351.737	262.39
352.119	264.43
352.502	280.7
352.884	295.39
353.267	299.46
353.65	303.07
354.032	328.61
354.414	337.19
354.797	327.25
355.179	338.32
355.562	343.3
355.944	333.13
356.326	348.95
356.709	343.75
357.091	320.47
357.473	362.73
357.855	348.72
358.238	350.75
358.62	345.33
359.002	375.16
359.384	371.54
359.766	339.91
360.148	383.97
360.53	360.47
360.912	338.32
361.294	358.89
361.676	369.06
362.057	334.71
362.439	354.6
362.821	357.31
363.203	348.72
363.584	333.35
363.966	329.74
364.348	331.77
364.729	348.72
365.111	324.99
365.493	335.84
365.874	345.1
366.256	346.69
366.637	344.43
367.019	322.05
367.4	334.26
367.781	329.51
368.163	320.47
368.544	322.05
368.925	334.26
369.306	340.58
369.688	322.96
370.069	327.7
370.45	334.48
370.831	345.1
371.212	334.03
371.593	334.48
371.974	342.17
372.355	320.47
372.736	333.8
373.117	311.88
373.498	351.43
373.879	344.43
374.26	329.51
374.641	330.87
375.021	346.23
375.402	333.13
375.783	359.11
376.163	368.83
376.544	340.58
376.925	339.91
377.305	352.79
377.686	356.4
378.066	360.24
378.447	333.8
378.827	363.63
379.208	366.12
379.588	343.52
379.968	368.38
380.349	378.1
380.729	343.97
381.109	349.62
381.489	368.83
381.87	395.72
382.25	357.31
382.63	362.96
383.01	389.4
383.39	373.35
383.77	376.06
384.15	377.65
384.53	383.3
384.91	406.12
385.29	379.91
385.67	382.62
386.049	398.21
386.429	390.98
386.809	376.97
387.189	392.79
387.568	404.09
387.948	404.76
388.328	400.7
388.707	420.58
389.087	396.85
389.466	397.53
389.846	407.48
390.225	404.76
390.605	404.09
390.984	419.45
391.363	419
391.743	417.42
392.122	416.29
392.501	428.49
392.881	434.37
393.26	435.95
393.639	421.71
394.018	438.21
394.397	402.5
394.776	436.4
395.155	424.65
395.534	424.88
395.913	443.41
396.292	458.55
396.671	453.58
397.05	446.34
397.429	436.4
397.808	443.41
398.186	454.71
398.565	449.96
398.944	464.42
399.323	451.32
399.701	459.9
400.08	463.07
400.458	455.61
400.837	471.43
401.215	456.29
401.594	483.41
401.972	473.69
402.351	449.51
402.729	473.69
403.107	492.44
403.486	498.09
403.864	461.26
404.242	496.96
404.62	515.72
404.999	484.31
405.377	501.03
405.755	497.19
406.133	509.62
406.511	519.11
406.889	517.53
407.267	514.14
407.645	510.98
408.023	546.45
408.401	543.74
408.779	532.67
409.156	543.52
409.534	546.45
409.912	531.31
410.29	549.62
410.667	541.93
411.045	546.68
411.422	544.87
411.8	550.3
412.178	550.75
412.555	585.78
412.933	587.13
413.31	572.22
413.687	587.13
414.065	576.28
414.442	607.47
414.819	622.84
415.197	608.83
415.574	607.47
415.951	598.43
416.328	607.02
416.705	603.18
417.082	635.04
417.46	608.15
417.837	646.34
418.214	649.5
418.591	667.36
418.967	660.35
419.344	646.79
419.721	647.92
420.098	669.16
420.475	691.54
420.852	689.5
421.228	648.37
421.605	682.27
421.982	674.81
422.358	702.83
422.735	699.22
423.111	700.12
423.488	706.9
423.864	708.26
424.241	684.76
424.617	698.31
424.994	721.59
425.37	744.87
425.746	721.59
426.123	727.01
426.499	764.75
426.875	755.71
427.251	773.79
427.627	776.96
428.003	777.41
428.379	765.88
428.756	796.39
429.132	814.47
429.507	813.11
429.883	810.63
430.259	843.17
430.635	842.72
431.011	824.64
431.387	849.27
431.763	865.54
432.138	879.55
432.514	870.06
432.89	856.5
433.265	884.3
433.641	903.96
434.016	912.32
434.392	889.5
434.767	927.46
435.143	924.07
435.518	956.61
435.894	934.24
436.269	958.2
436.644	965.2
437.02	955.03
437.395	975.82
437.77	987.8
438.145	1012.66
438.52	977.4
438.895	1025.31
439.271	1031.41
439.646	1045.65
440.021	1047.46
440.395	1028.93
440.77	1054.01
441.145	1061.7
441.52	1069.15
441.895	1063.05
442.27	1078.64
442.645	1074.12
443.019	1105.08
443.394	1098.3
443.769	1102.15
444.143	1091.98
444.518	1113.45
444.892	1124.52
445.267	1123.16
445.641	1141.24
446.016	1136.72
446.39	1155.93
446.764	1168.13
447.139	1143.05
447.513	1183.95
447.887	1169.26
448.262	1170.17
448.636	1186.21
449.01	1207.91
449.384	1186.66
449.758	1209.94
450.132	1240.22
450.506	1232.76
450.88	1229.37
451.254	1228.92
451.628	1291.97
452.002	1261.92
452.376	1306.66
452.75	1296.04
453.123	1295.14
453.497	1318.86
453.871	1323.61
454.244	1338.3
454.618	1374.68
454.992	1385.53
455.365	1375.81
455.739	1440.89
456.112	1392.76
456.486	1441.35
456.859	1465.3
457.232	1494.9
457.606	1473.66
457.979	1456.04
458.352	1512.98
458.725	1569.25
459.099	1548.46
459.472	1578.29
459.845	1608.57
460.218	1581.46
460.591	1622.58
460.964	1628.46
461.337	1668.91
461.71	1695.35
462.083	1707.55
462.456	1708.23
462.829	1696.93
463.201	1708.46
463.574	1745.07
463.947	1791.39
464.32	1827.78
464.692	1810.15
465.065	1849.92
465.438	1854.44
465.81	1893.54
466.183	1933.31
466.555	1968.34
466.928	1978.51
467.3	1963.59
467.672	2001.56
468.045	2032.97
468.417	2023.03
468.789	2058.73
469.161	2093.08
469.534	2141.21
469.906	2186.64
470.278	2197.48
470.65	2242.23
471.022	2304.37
471.394	2318.16
471.766	2326.52
472.138	2356.12
472.51	2389.12
472.882	2453.3
473.253	2484.26
473.625	2538.27
473.997	2588.21
474.369	2627.53
474.74	2610.58
475.112	2669.79
475.484	2711.37
475.855	2753.63
476.227	2804.25
476.598	2853.51
476.97	2929.44
477.341	2992.04
477.713	3001.76
478.084	3063.45
478.455	3144.35
478.827	3160.85
479.198	3277
479.569	3291.69
479.94	3395.42
480.311	3412.14
480.682	3553.83
481.053	3610.1
481.424	3637.67
481.795	3760.38
482.166	3798.12
482.537	3830.44
482.908	3912.69
483.279	3958.57
483.65	4092.35
484.021	4138.9
484.391	4203.99
484.762	4210.76
485.133	4303.19
485.503	4388.39
485.874	4528.27
486.244	4537.54
486.615	4628.16
486.985	4719.9
487.356	4813.24
487.726	4873.12
488.097	4982.04
488.467	4957.64
488.837	5137.07
489.207	5170.97
489.578	5245.99
489.948	5342.71
490.318	5402.37
490.688	5409.83
491.058	5563.72
491.428	5611.18
491.798	5742.02
492.168	5848.69
492.538	5842.13
492.908	5972.75
493.278	6029.02
493.648	6011.62
494.017	6079.19
494.387	6173.65
494.757	6238.28
495.126	6378.17
495.496	6368.67
495.866	6455.9
496.235	6490.71
496.605	6585.39
496.974	6604.15
497.344	6732.51
497.713	6740.64
498.082	6769.12
498.452	6872.62
498.821	6927.08
499.19	6928.21
499.559	6984.25
499.928	7108.54
500.298	7079.84
500.667	7201.19
501.036	7205.49
501.405	7320.06
501.774	7276.22
502.143	7359.16
502.512	7437.12
502.88	7547.63
503.249	7513.28
503.618	7567.06
503.987	7556.21
504.356	7634.18
504.724	7685.93
505.093	7764.34
505.462	7742.65
505.83	7859.03
506.199	7900.84
506.567	7955.07
506.936	8019.93
507.304	8092.47
507.672	8091.11
508.041	8115.3
508.409	8169.53
508.777	8228.06
509.145	8263.09
509.514	8351.22
509.882	8383.99
510.25	8392.58
510.618	8422.86
510.986	8404.1
511.354	8575.17
511.722	8561.84
512.09	8635.28
512.458	8711.44
512.826	8815.16
513.193	8747.59
513.561	8788.05
513.929	8840.47
514.297	8929.96
514.664	8928.16
515.032	8987.36
515.4	9022.16
515.767	9031.66
516.135	9090.86
516.502	9087.02
516.869	9211.54
517.237	9219.67
517.604	9209.28
517.972	9323.62
518.339	9368.6
518.706	9403.4
519.073	9381.25
519.44	9524.3
519.808	9618.98
520.175	9513.22
520.542	9687.23
520.909	9782.6
521.276	9674.12
521.643	9801.58
522.009	9845.65
522.376	9904.63
522.743	9946.43
523.11	10019.2
523.477	10122.7
523.843	10166.54
524.21	10164.28
524.577	10283.37
524.943	10367.67
525.31	10274.11
525.676	10397.72
526.043	10496.48
526.409	10516.14
526.776	10745.73
527.142	10691.95
527.508	10744.83
527.874	10840.87
528.241	10922.23
528.607	10890.82
528.973	11016.24
529.339	10992.73
529.705	11141.88
530.071	11257.36
530.437	11247.19
530.803	11251.94
531.169	11335.32
531.535	11348.66
531.901	11433.85
532.267	11480.86
532.632	11547.52
532.998	11653.06
533.364	11650.34
533.73	11659.83
534.095	11832.49
534.461	11815.54
534.826	11928.3
535.192	11989.09
535.557	12057.11
535.923	12101.18
536.288	12091.24
536.653	12110.44
537.019	12090.11
537.384	12185.47
537.749	12303.21
538.114	12247.62
538.479	12314.28
538.845	12438.35
539.21	12465.01
539.575	12424.79
539.94	12559.02
540.305	12628.4
540.67	12642.86
541.034	12655.97
541.399	12754.5
541.764	12768.73
542.129	12694.84
542.494	12898.9
542.858	12833.14
543.223	12990.65
543.587	12980.25
543.952	13078.78
544.316	13099.34
544.681	13062.28
545.045	13200.36
545.41	13335.5
545.774	13288.94
546.138	13329.62
546.503	13393.57
546.867	13458.66
547.231	13542.27
547.595	13603.51
547.959	13591.54
548.324	13689.39
548.688	13660.01
549.052	13792.43
549.416	13780.91
549.779	13840.79
550.143	13882.15
550.507	13940.68
550.871	14069.94
551.235	13927.12
551.599	14192.65
551.962	14182.03
552.326	14176.6
552.689	14240.78
553.053	14187.68
553.417	14315.36
553.78	14459.99
554.143	14303.38
554.507	14506.09
554.87	14578.85
555.234	14629.47
555.597	14593.32
555.96	14591.73
556.323	14769.13
556.686	14726.42
557.05	14833.76
557.413	14896.13
557.776	14901.78
558.139	15003.25
558.502	14915.57
558.865	15059.97
559.228	15184.49
559.59	15184.49
559.953	15216.8
560.316	15379.51
560.679	15375.67
561.041	15395.1
561.404	15537.25
561.767	15623.12
562.129	15569.34
562.492	15751.93
562.854	15655.66
563.217	15683.46
563.579	15838.71
563.941	15961.87
564.304	16006.84
564.666	16009.78
565.028	16021.98
565.39	16160.96
565.753	16181.3
566.115	16244.12
566.477	16308.75
566.839	16369.32
567.201	16503.1
567.563	16479.59
567.925	16631
568.287	16642.08
568.648	16644.56
569.01	16714.39
569.372	16928.4
569.734	16849.08
570.095	16888.85
570.457	16986.25
570.819	17102.86
571.18	17111.67
571.542	17265.11
571.903	17220.14
572.265	17423.52
572.626	17407.25
572.987	17546.23
573.349	17604.09
573.71	17650.86
574.071	17755.72
574.432	17843.17
574.794	18131.98
575.155	18127.91
575.516	18070.06
575.877	18141.47
576.238	18285.42
576.599	18349.83
576.96	18504.17
577.32	18598.64
577.681	18700.78
578.042	18874.11
578.403	18983.48
578.763	19144.16
579.124	19220.77
579.485	19462.57
579.845	19525.16
580.206	19725.16
580.566	19889.9
580.927	20029.56
581.287	20246.95
581.648	20369.66
582.008	20665.02
582.368	20779.59
582.728	21057.33
583.089	21190.66
583.449	21422.74
583.809	21690.31
584.169	21913.35
584.529	22010.75
584.889	22501.36
585.249	22516.05
585.609	22731.86
585.969	23125.07
586.329	23229.93
586.688	23710.59
587.048	24032.84
587.408	24093.41
587.768	24455.88
588.127	24664.24
588.487	25017.45
588.846	25483.65
589.206	25533.59
589.565	26035.73
589.925	26481.14
590.284	26670.74
590.643	26903.95
591.003	27390.04
591.362	27881.33
591.721	28190.7
592.08	28576
592.44	28979.15
592.799	29240.62
593.158	29558.35
593.517	29931.22
593.876	30409.17
594.235	30679.22
594.593	31066.56
594.952	31447.11
595.311	31685.3
595.67	32265.39
596.029	32767.53
596.387	33094.53
596.746	33516.44
597.104	33719.59
597.463	34099.02
597.822	34742.62
598.18	34875.5
598.538	35185.54
598.897	35816.94
599.255	35837.05
599.613	36616.47
599.972	36825.27
600.33	37226.62
600.688	37442.66
601.046	38048.07
601.404	38403.31
601.762	38688.05
602.12	39061.6
602.478	39440.8
602.836	39861.35
603.194	39900
603.552	40409.14
603.91	40556.48
604.268	41033.53
604.625	41349.9
604.983	41765.48
605.341	41741.98
605.698	42239.37
606.056	42711
606.413	42944.44
606.771	43403.18
607.128	43596.4
607.485	43647.24
607.843	43985.76
608.2	44420.78
608.557	44801.56
608.914	45061.67
609.272	45369
609.629	45617.13
609.986	45951.14
610.343	45840.86
610.7	46410.56
611.057	46557.45
611.414	46830.21
611.771	46998.57
612.127	47364.21
612.484	47492.34
612.841	47755.16
613.198	47755.83
613.554	47979.78
613.911	48323.73
614.267	48504.29
614.624	48707.45
614.98	48768.92
615.337	49178.4
615.693	49313.99
616.05	49348.34
616.406	49668.33
616.762	49604.83
617.118	49762.34
617.475	49817.25
617.831	50052.95
618.187	50204.81
618.543	50325.71
618.899	50565.25
619.255	50654.97
619.611	50738.13
619.967	50948.75
620.323	51035.97
620.678	50970.89
621.034	50861.29
621.39	51111.68
621.746	51148.06
622.101	51647.94
622.457	51423.76
622.812	51566.13
623.168	51706.92
623.523	51714.83
623.879	51897.87
624.234	51715.28
624.589	51975.84
624.945	52074.14
625.3	52149.39
625.655	52204.53
626.01	52343.06
626.365	52341.7
626.72	52378.99
627.075	52368.37
627.43	52388.03
627.785	52349.61
628.14	52513
628.495	52621.47
628.85	52639.32
629.205	52552.09
629.559	52792.76
629.914	52619.89
630.269	52668.25
630.623	52597.52
630.978	52657.85
631.332	52761.13
631.687	52912.99
632.041	52773.56
632.396	52852.2
632.75	52696.04
633.104	52826.89
633.459	52635.03
633.813	52791.86
634.167	52728.36
634.521	52820.33
634.875	52915.25
635.229	52782.14
635.583	52686.55
635.937	52769.26
636.291	52785.76
636.645	52769.71
636.999	52764.52
637.352	52854.23
637.706	52668.02
638.06	52846.55
638.413	52758.42
638.767	52725.42
639.121	52767.23
639.474	52556.39
639.828	52711.86
640.181	52793.44
640.534	52765.65
640.888	52615.59
641.241	52582.83
641.594	52579.44
641.947	52814.46
642.301	52621.02
642.654	52749.83
643.007	52701.92
643.36	52652.66
643.713	52590.28
644.066	52785.98
644.419	52551.87
644.771	52294.02
645.124	52001.15
645.477	51905.56
645.83	51845.67
646.182	51706.69
646.535	51621.72
646.888	51693.81
647.24	51548.96
647.593	51779.01
647.945	51724.77
648.298	51567.94
648.65	51560.71
649.002	51437.77
649.355	51563.42
649.707	51557.09
650.059	51674.83
650.411	52080.01
650.763	52061.48
651.115	52411.76
651.467	52291.99
651.819	52248.6
652.171	52208.82
652.523	52188.71
652.875	52107.36
653.227	52000.92
653.578	52320.46
653.93	52201.37
654.282	52018.1
654.633	52054.25
654.985	52178.09
655.337	52107.13
655.688	52172.89
656.039	52266.22
656.391	51892
656.742	52044.31
657.094	51988.27
657.445	52134.25
657.796	52026
658.147	51971.54
658.498	52025.78
658.849	51980.81
659.2	51992.79
659.551	51930.41
659.902	51915.95
660.253	51903.52
660.604	51986.23
660.955	51856.29
661.306	51934.71
661.656	51884.31
662.007	51855.39
662.358	51872.56
662.708	51899.91
663.059	51898.78
663.409	51737.65
663.76	51898.78
664.11	51923.63
664.461	51998.89
664.811	51887.48
665.161	51942.17
665.511	51857.87
665.862	51847.25
666.212	51894.71
666.562	51878.44
666.912	51851.77
667.262	51820.13
667.612	51850.64
667.962	51821.26
668.312	51798.21
668.662	51954.82
669.011	51764.09
669.361	51753.02
669.711	51721.61
670.06	51657.2
670.41	51576.75
670.76	51589.63
671.109	51659.91
671.459	51635.96
671.808	51578.33
672.157	51681.38
672.507	51449.07
672.856	51448.17
673.205	51546.24
673.554	51681.83
673.904	51521.39
674.253	51735.39
674.602	51535.85
674.951	51116.42
675.3	50980.61
675.649	51489.52
675.998	51473.7
676.346	51542.85
676.695	51554.6
677.044	51333.37
677.393	51505.11
677.741	51499.01
678.09	51412.91
678.438	51253.82
678.787	51382.18
679.135	51369.53
679.484	51018.35
679.832	51176.76
680.181	51093.6
680.529	51128.18
680.877	51061.74
681.225	50953.72
681.573	51192.81
681.922	50839.14
682.27	50721.41
682.618	50863.78
682.966	50729.99
683.314	50834.17
683.661	50744.23
684.009	50605.7
684.357	50455.2
684.705	50506.95
685.053	50514.18
685.4	50499.49
685.748	50293.4
686.095	50276.67
686.443	50156.68
686.79	50174.98
687.138	50198.93
687.485	50148.09
687.832	50150.35
688.18	49982.44
688.527	49900.86
688.874	49869.68
689.221	49749.68
689.568	49679.85
689.915	49488.9
690.262	49755.1
690.609	49449.8
690.956	49372.06
691.303	49377.04
691.65	49223.14
691.997	49161.9
692.344	49026.99
692.69	48892.53
693.037	48858.86
693.383	48565.3
693.73	48784.06
694.077	48637.62
694.423	48524.4
694.769	48422.26
695.116	48376.16
695.462	48206.44
695.808	48239.21
696.155	48226.56
696.501	47845.55
696.847	47886.68
697.193	47718.55
697.539	47903.63
697.885	47418.44
698.231	47428.84
698.577	47483.3
698.923	47406.92
699.269	47134.83
699.614	47054.61
699.96	46977.1
700.306	46916.99
700.651	46832.02
700.997	46659.82
701.342	46698.91
701.688	46545.92
702.033	46472.25
702.379	46469.54
702.724	46326.27
703.069	46392.71
703.415	45947.29
703.76	46008.76
704.105	45862.55
704.45	45909.78
704.795	45682.44
705.14	45391.15
705.485	45450.13
705.83	45348.89
706.175	45494.88
706.52	45303.92
706.865	45041.33
707.209	45133.98
707.554	44877.49
707.899	44910.49
708.243	44608.35
708.588	44737.83
708.932	44316.38
709.277	44478.86
709.621	44485.19
709.966	44178.98
710.31	44209.04
710.654	43916.61
710.998	44070.51
711.342	44074.12
711.687	43843.85
712.031	43703.29
712.375	43537.41
712.719	43603.85
713.063	43527.92
713.407	43755.71
713.75	43285.44
714.094	43295.84
714.438	43207.71
714.782	43236.63
715.125	43115.5
715.469	43119.57
715.812	42994.15
716.156	42847.72
716.499	42851.56
716.843	42873.25
717.186	42523.66
717.53	42771.78
717.873	42698.11
718.216	42644.33
718.559	42402.08
718.902	42111.69
719.246	42327.95
719.589	42207.05
719.932	41896.1
720.275	42056.32
720.617	41957.34
720.96	41919.38
721.303	41831.47
721.646	41925.48
721.989	41670.57
722.331	41758.48
722.674	41617.92
723.016	41626.5
723.359	41578.82
723.701	41544.92
724.044	41277.59
724.386	41121.43
724.729	41258.6
725.071	41089.8
725.413	41097.93
725.755	40911.49
726.097	40772.29
726.439	40744.49
726.782	40832.85
727.124	40907.65
727.465	40648.45
727.807	40609.58
728.149	40523.48
728.491	40452.52
728.833	40438.96
729.175	40390.6
729.516	40275.81
729.858	40116.71
730.199	40265.86
730.541	40141.12
730.882	40155.58
731.224	40148.35
731.565	39988.58
731.906	40109.71
732.248	39930.96
732.589	39790.85
732.93	39582.26
733.271	39749.49
733.612	39726.22
733.953	39617.52
734.294	39677.63
734.635	39536.39
734.976	39545.88
735.317	39432.21
735.658	39358.99
735.999	39156.29
736.339	39305.89
736.68	39173.69
737.021	39224.31
737.361	38965.33
737.702	39126.68
738.042	39001.94
738.383	38887.14
738.723	38943.19
739.063	38769.4
739.404	38792.91
739.744	38812.12
740.084	38473.82
740.424	38720.82
740.764	38527.6
741.104	38576.64
741.444	38496.19
741.784	38316.31
742.124	38328.51
742.464	38287.16
742.804	38205.13
743.143	38204.45
743.483	38140.49
743.823	37960.84
744.162	38018.46
744.502	38059.37
744.841	37866.38
745.181	38012.59
745.52	37828.19
745.86	37801.52
746.199	37829.99
746.538	37596.1
746.877	37695.99
747.216	37797
747.556	37683.11
747.895	37560.85
748.234	37538.7
748.573	37531.92
748.911	37472.04
749.25	37445.6
749.589	37117.24
749.928	37085.83
750.267	37349.55
750.605	37133.29
750.944	37028.43
751.283	36896.91
751.621	37017.13
751.96	36749.12
752.298	36877.25
752.636	36750.7
752.975	36617.6
753.313	36585.96
753.651	36665.28
753.989	36444.04
754.327	36359.98
754.666	36226.87
755.004	36185.07
755.342	36249.02
755.679	36099.19
756.017	35894
756.355	36095.58
756.693	35833.21
