Data from hue_24_FLMS001491_00003.txt Node
Date: Tue Feb 07 17:11:39 GMT 2017
User: dcchb
Spectrometer: FLMS00149
Trigger mode: 0
Integration Time (sec): 2.000000E-2
Scans to average: 10
Electric dark correction enabled: true
Nonlinearity correction enabled: false
Boxcar width: 0
XAxis mode: Wavelengths
Number of Pixels in Spectrum: 2048
>>>>>Begin Spectral Data<<<<<
341.393	-19.36
341.776	-19.36
342.16	-19.36
342.543	-43.77
342.927	-77.89
343.31	-74.28
343.693	-76.09
344.077	-61.62
344.46	-63.43
344.843	-51.45
345.226	-20.27
345.61	-20.95
345.993	-22.53
346.376	3.91
346.759	-14.84
347.142	34.42
347.525	40.75
347.908	56.79
348.291	63.57
348.674	98.83
349.057	107.19
349.44	126.62
349.823	154.19
350.206	163.91
350.588	213.4
350.971	198.26
351.354	244.81
351.737	238.03
352.119	266.28
352.502	263.34
352.884	267.41
353.267	289.78
353.65	311.02
354.032	299.05
354.414	293.17
354.797	303.34
355.179	329.1
355.562	315.77
355.944	339.04
356.326	335.88
356.709	342.66
357.091	344.02
357.473	341.76
357.855	363
358.238	339.5
358.62	352.6
359.002	345.15
359.384	354.41
359.766	330.68
360.148	330.46
360.53	358.48
360.912	337.01
361.294	334.3
361.676	351.93
362.057	341.76
362.439	343.34
362.821	330.46
363.203	351.47
363.584	324.58
363.966	321.19
364.348	336.11
364.729	338.82
365.111	320.06
365.493	332.49
365.874	329.78
366.256	323
366.637	333.4
367.019	300.85
367.4	325.49
367.781	323.45
368.163	332.27
368.544	337.24
368.925	323.45
369.306	341.08
369.688	322.77
370.069	318.25
370.45	328.65
370.831	336.11
371.212	325.94
371.593	305.6
371.974	321.42
372.355	305.15
372.736	324.81
373.117	322.77
373.498	321.87
373.879	309.44
374.26	323.45
374.641	314.19
375.021	323.9
375.402	334.3
375.783	324.13
376.163	340.17
376.544	344.02
376.925	322.55
377.305	333.85
377.686	335.43
378.066	335.66
378.447	345.37
378.827	341.76
379.208	323.23
379.588	345.15
379.968	352.38
380.349	358.48
380.729	333.4
381.109	336.33
381.489	341.98
381.87	336.11
382.25	344.24
382.63	350.34
383.01	345.6
383.39	354.19
383.77	340.63
384.15	348.31
384.53	336.56
384.91	366.61
385.29	357.12
385.67	368.2
386.049	334.3
386.429	376.78
386.809	368.42
387.189	356.9
387.568	325.49
387.948	354.41
388.328	352.6
388.707	365.48
389.087	365.03
389.466	369.78
389.846	352.6
390.225	380.4
390.605	388.76
390.984	384.24
391.363	374.98
391.743	374.98
392.122	361.64
392.501	369.1
392.881	393.96
393.26	373.85
393.639	393.73
394.018	390.34
394.397	380.63
394.776	375.65
395.155	366.16
395.534	391.7
395.913	389.21
396.292	397.57
396.671	393.28
397.05	394.64
397.429	386.05
397.808	392.15
398.186	392.83
398.565	393.05
398.944	384.92
399.323	412.49
399.701	408.87
400.08	395.09
400.458	402.09
400.837	407.07
401.215	408.42
401.594	407.07
401.972	405.94
402.351	431.92
402.729	407.52
403.107	411.59
403.486	401.87
403.864	418.59
404.242	419.72
404.62	448.87
404.999	424.01
405.377	420.17
405.755	432.6
406.133	443.45
406.511	431.92
406.889	422.66
407.267	440.51
407.645	422.21
408.023	437.8
408.401	417.23
408.779	452.71
409.156	466.73
409.534	447.97
409.912	473.96
410.29	464.69
410.667	463.11
411.045	459.49
411.422	481.41
411.8	476.89
412.178	470.57
412.555	473.5
412.933	476.22
413.31	490.23
413.687	492.94
414.065	491.58
414.442	487.52
414.819	491.58
415.197	499.72
415.574	475.99
415.951	490.91
416.328	487.29
416.705	525.25
417.082	507.63
417.46	507.85
417.837	503.79
418.214	526.84
418.591	527.51
418.967	549.21
419.344	530
419.721	559.83
420.098	528.42
420.475	548.76
420.852	532.49
421.228	560.06
421.605	559.6
421.982	543.11
422.358	559.83
422.735	549.43
423.111	551.24
423.488	548.98
423.864	575.42
424.241	565.93
424.617	578.13
424.994	590.11
425.37	584.24
425.746	574.07
426.123	588.08
426.499	578.59
426.875	586.72
427.251	612.03
427.627	617.68
428.003	586.72
428.379	612.26
428.756	606.61
429.132	611.58
429.507	620.85
429.883	651.13
430.259	644.12
430.635	647.74
431.011	655.42
431.387	637.57
431.763	654.29
432.138	659.94
432.514	675.76
432.89	677.57
433.265	676.66
433.641	688.87
434.016	670.56
434.392	689.32
434.767	691.13
435.143	699.49
435.518	710.79
435.894	735.42
436.269	707.62
436.644	711.92
437.02	735.87
437.395	768.64
437.77	732.48
438.145	744.01
438.52	735.19
438.895	763.44
439.271	770.22
439.646	774.29
440.021	755.3
440.395	807.96
440.77	775.64
441.145	791.46
441.52	797.56
441.895	796.66
442.27	804.12
442.645	784.91
443.019	819.26
443.394	823.33
443.769	831.24
444.143	797.56
444.518	821.52
444.892	838.47
445.267	846.38
445.641	829.2
446.016	842.53
446.39	845.47
446.764	845.47
447.139	850.22
447.513	855.42
447.887	869.65
448.262	862.65
448.636	881.4
449.01	875.3
449.384	854.51
449.758	880.27
450.132	904.45
450.506	910.1
450.88	895.64
451.254	898.8
451.628	917.56
452.002	927.96
452.376	930.44
452.75	929.09
453.123	934.06
453.497	961.63
453.871	963.44
454.244	976.99
454.618	998.69
454.992	1003.66
455.365	1009.99
455.739	1042.53
456.112	1044.56
456.486	1042.76
456.859	1036.43
457.232	1075.3
457.606	1061.51
457.979	1062.64
458.352	1112.81
458.725	1101.28
459.099	1114.39
459.472	1109.19
459.845	1106.93
460.218	1138.57
460.591	1173.15
460.964	1165.24
461.337	1187.84
461.71	1188.97
462.083	1209.3
462.456	1222.41
462.829	1227.83
463.201	1262.18
463.574	1205.69
463.947	1258.12
464.32	1297.66
464.692	1282.75
465.065	1289.98
465.438	1302.41
465.81	1331.56
466.183	1330.43
466.555	1357.1
466.928	1403.2
467.3	1394.38
467.672	1392.35
468.045	1417.89
468.417	1413.82
468.789	1452.24
469.161	1451.11
469.534	1486.81
469.906	1545.11
470.278	1519.13
470.65	1576.07
471.022	1607.03
471.394	1603.87
471.766	1651.33
472.138	1651.33
472.51	1698.56
472.882	1695.85
473.253	1728.84
473.625	1769.06
473.997	1784.2
474.369	1798.89
474.74	1808.16
475.112	1853.58
475.484	1879.8
475.855	1890.42
476.227	1923.18
476.598	1976.29
476.97	2034.37
477.341	2024.88
477.713	2089.51
478.084	2116.63
478.455	2185.32
478.827	2219.67
479.198	2234.81
479.569	2237.3
479.94	2330.4
480.311	2366.79
480.682	2380.57
481.053	2487.24
481.424	2504.86
481.795	2581.92
482.166	2571.75
482.537	2616.27
482.908	2671.19
483.279	2683.84
483.65	2768.13
484.021	2818.3
484.391	2866.21
484.762	2918.86
485.133	2933.78
485.503	2952.99
485.874	3047.22
486.244	3064.17
486.615	3127.45
486.985	3208.35
487.356	3252.87
487.726	3307.78
488.097	3366.99
488.467	3381
488.837	3461.45
489.207	3479.08
489.578	3585.06
489.948	3625.29
490.318	3648.11
490.688	3665.96
491.058	3733.76
491.428	3800.87
491.798	3852.85
492.168	3857.14
492.538	3960.64
492.908	3980.98
493.278	4074.99
493.648	4073.41
494.017	4122.22
494.387	4152.73
494.757	4238.38
495.126	4260.3
495.496	4274.76
495.866	4312.5
496.235	4354.53
496.605	4413.06
496.974	4451.25
497.344	4480.63
497.713	4528.77
498.082	4557.69
498.452	4611.25
498.821	4622.1
499.19	4697.12
499.559	4712.49
499.928	4716.33
500.298	4805.14
500.667	4811.24
501.036	4852.82
501.405	4899.15
501.774	4912.48
502.143	4931.47
502.512	4918.59
502.88	5010.79
503.249	4998.81
503.618	5048.3
503.987	5098.02
504.356	5120.39
504.724	5125.59
505.093	5161.29
505.462	5178.47
505.83	5242.19
506.199	5245.58
506.567	5314.51
506.936	5350.44
507.304	5329.65
507.672	5385.01
508.041	5413.26
508.409	5453.26
508.777	5464.33
509.145	5521.96
509.514	5508.85
509.882	5574.84
510.25	5603.77
510.618	5636.76
510.986	5636.53
511.354	5629.08
511.722	5721.28
512.09	5784.1
512.458	5704.55
512.826	5762.4
513.193	5841.05
513.561	5807.83
513.929	5843.31
514.297	5876.98
514.664	5959.46
515.032	5865.23
515.4	5969.86
515.767	6031.32
516.135	5982.51
516.502	5974.6
516.869	6086.69
517.237	6107.03
517.604	6087.82
517.972	6132.79
518.339	6181.83
518.706	6203.52
519.073	6188.38
519.44	6233.35
519.808	6279
520.175	6224.54
520.542	6410.98
520.909	6357.19
521.276	6384.31
521.643	6457.3
522.009	6477.41
522.376	6500.24
522.743	6527.36
523.11	6608.26
523.477	6671.08
523.843	6641.93
524.21	6715.37
524.577	6740.68
524.943	6704.08
525.31	6787.69
525.676	6877.63
526.043	6889.16
526.409	6921.47
526.776	7003.05
527.142	7030.17
527.508	7049.15
527.874	7084.4
528.241	7123.27
528.607	7168.47
528.973	7194.68
529.339	7223.84
529.705	7227
530.071	7334.79
530.437	7308.35
530.803	7332.08
531.169	7415.02
531.535	7424.28
531.901	7475.58
532.267	7431.51
532.632	7532.75
532.998	7539.31
533.364	7582.02
533.73	7559.42
534.095	7634.67
534.461	7695.01
534.826	7704.27
535.192	7791.28
535.557	7797.83
535.923	7824.72
536.288	7843.71
536.653	7891.61
537.019	7942.23
537.384	7895.91
537.749	7995.34
538.114	8001.89
538.479	8006.87
538.845	7996.7
539.21	8012.97
539.575	8077.15
539.94	8075.79
540.305	8212.28
540.67	8142
541.034	8243.7
541.399	8273.07
541.764	8271.72
542.129	8357.59
542.494	8401.88
542.858	8420.64
543.223	8422
543.587	8476.23
543.952	8433.75
544.316	8557.36
544.681	8560.75
545.045	8559.17
545.41	8606.4
545.774	8616.34
546.138	8677.13
546.503	8720.75
546.867	8704.25
547.231	8781.76
547.595	8760.52
547.959	8790.12
548.324	8872.38
548.688	8847.3
549.052	8908.31
549.416	8887.97
549.779	8933.85
550.143	8981.76
550.507	9062.21
550.871	9146.95
551.235	9055.65
551.599	9097.23
551.962	9131.36
552.326	9220.17
552.689	9253.84
553.053	9180.39
553.417	9264.91
553.78	9289.09
554.143	9337.9
554.507	9402.54
554.87	9370.67
555.234	9516.2
555.597	9443.21
555.96	9460.84
556.323	9523.89
556.686	9543.1
557.05	9601.17
557.413	9581.74
557.776	9643.66
558.139	9660.38
558.502	9707.39
558.865	9680.27
559.228	9723.66
559.59	9792.36
559.953	9833.48
560.316	10017.21
560.679	9900.83
561.041	9959.13
561.404	9945.35
561.767	10042.07
562.129	10019.69
562.492	10129.97
562.854	10075.29
563.217	10119.13
563.579	10146.02
563.941	10199.12
564.304	10230.99
564.666	10342.62
565.028	10347.82
565.39	10334.94
565.753	10422.85
566.115	10404.54
566.477	10506.69
566.839	10556.86
567.201	10593.46
567.563	10564.09
567.925	10608.38
568.287	10633.01
568.648	10743.06
569.01	10695.61
569.372	10804.98
569.734	10822.38
570.095	10793.23
570.457	10882.04
570.819	10891.99
571.18	10935.15
571.542	11047.46
571.903	11087.01
572.265	11107.58
572.626	11194.13
572.987	11282.26
573.349	11251.07
573.71	11434.8
574.071	11366.55
574.432	11414.69
574.794	11571.29
575.155	11554.8
575.516	11581.46
575.877	11632.08
576.238	11720.44
576.599	11880.66
576.96	11801.57
577.32	12034.1
577.681	12050.38
578.042	12195.68
578.403	12232.97
578.763	12297.37
579.124	12444.26
579.485	12592.06
579.845	12732.39
580.206	12767.64
580.566	12861.65
580.927	13020.07
581.287	13220.51
581.648	13282.43
582.008	13526.95
582.368	13547.06
582.728	13737.34
583.089	13882.19
583.449	14037.89
583.809	14226.59
584.169	14351.78
584.529	14441.05
584.889	14792.22
585.249	14843.75
585.609	15004.87
585.969	15340.46
586.329	15519.89
586.688	15742.93
587.048	16012.08
587.408	16043.04
587.768	16330.49
588.127	16632.85
588.487	16821.32
588.846	17315.77
589.206	17339.95
589.565	17591.7
589.925	17945.36
590.284	18188.52
590.643	18555.51
591.003	18833.25
591.362	19106.69
591.721	19347.81
592.08	19556.84
592.44	19932.43
592.799	20239.54
593.158	20459.65
593.517	20775.12
593.876	21065.51
594.235	21294.2
594.593	21615.55
594.952	21992.03
595.311	22255.3
595.67	22581.4
596.029	23097.77
596.387	23319.46
596.746	23600.58
597.104	23788.37
597.463	24082.6
597.822	24521.23
598.18	24805.29
598.538	25054.33
598.897	25453.41
599.255	25649.57
599.613	26282.09
599.972	26415.42
600.33	26722.31
600.688	26996.2
601.046	27315.51
601.404	27726.35
601.762	27813.58
602.12	28282.72
602.478	28562.94
602.836	28913.89
603.194	28931.74
603.552	29286.76
603.91	29416.25
604.268	29860.08
604.625	30117.02
604.983	30423.9
605.341	30561.98
605.698	30979.37
606.056	31430.43
606.413	31693.02
606.771	31851.89
607.128	32103.86
607.485	32226.57
607.843	32424.08
608.2	32811.41
608.557	33184.96
608.914	33319.42
609.272	33631.73
609.629	33936.35
609.986	34277.36
610.343	34252.5
610.7	34752.15
611.057	34829.66
611.414	34906.27
611.771	35170.67
612.127	35459.25
612.484	35628.29
612.841	35959.8
613.198	36023.76
613.554	36270.08
613.911	36653.34
614.267	36678.88
614.624	36876.39
614.98	37056.95
615.337	37387.56
615.693	37607.9
616.05	37504.62
616.406	37946.19
616.762	38030.03
617.118	38211.27
617.475	38241.32
617.831	38431.6
618.187	38586.63
618.543	38955.2
618.899	38996.33
619.255	39277.23
619.611	39201.98
619.967	39633.15
620.323	39624.79
620.678	39620.05
621.034	39629.99
621.39	39810.78
621.746	39791.11
622.101	40492.11
622.457	40130.09
622.812	40335.06
623.168	40482.85
623.523	40685.1
623.879	40905.21
624.234	40724.2
624.589	40892.78
624.945	41036.28
625.3	41137.29
625.655	41237.86
626.01	41165.54
626.365	41289.83
626.72	41264.07
627.075	41414.35
627.43	41504.74
627.785	41487.57
628.14	41483.95
628.495	41792.64
628.85	41834.68
629.205	41524.85
629.559	42059.53
629.914	41765.3
630.269	41857.05
630.623	41854.79
630.978	41816.82
631.332	42071.96
631.687	42196.48
632.041	41999.64
632.396	42003.94
632.75	41965.75
633.104	42119.42
633.459	41877.84
633.813	42167.78
634.167	42035.58
634.521	42079.64
634.875	42184.27
635.229	42217.72
635.583	42040.55
635.937	42055.69
636.291	42185.85
636.645	42161.45
636.999	42068.57
637.352	42229.47
637.706	41953.77
638.06	42303.37
638.413	42104.05
638.767	42040.77
639.121	42085.74
639.474	41874.45
639.828	42018.4
640.181	41929.82
640.534	42160.77
640.888	41920.55
641.241	41836.48
641.594	41961.68
641.947	42075.8
642.301	42052.75
642.654	42050.04
643.007	42078.74
643.36	42067.21
643.713	42009.36
644.066	42202.35
644.419	41948.35
644.771	41770.72
645.124	41415.48
645.477	41222.94
645.83	41041.7
646.182	40892.1
646.535	40857.75
646.888	40922.38
647.24	40777.08
647.593	40955.38
647.945	40816.85
648.298	40754.25
648.65	40737.98
649.002	40646.23
649.355	40765.1
649.707	40678.78
650.059	40899.79
650.411	41324.63
650.763	41473.33
651.115	41750.16
651.467	41836.03
651.819	41676.71
652.171	41610.05
652.523	41519.2
652.875	41593.33
653.227	41327.12
653.578	41660.22
653.93	41509.71
654.282	41551.75
654.633	41200.12
654.985	41409.15
655.337	41278.76
655.688	41627
656.039	41603.04
656.391	41273.79
656.742	41282.6
657.094	41359.21
657.445	41491.18
657.796	41286.89
658.147	41420.22
658.498	41397.17
658.849	41451.18
659.2	41283.05
659.551	41279.66
659.902	41548.13
660.253	41295.48
660.604	41374.35
660.955	41125.09
661.306	41422.94
661.656	41195.6
662.007	41250.29
662.358	41245.31
662.708	41178.2
663.059	41209.16
663.409	40913.35
663.76	41252.09
664.11	41188.82
664.461	41312.2
664.811	41226.11
665.161	41283.73
665.511	41144.75
665.862	41210.51
666.212	41189.72
666.562	41294.35
666.912	41239.21
667.262	41064.08
667.612	41120.35
667.962	41173.23
668.312	41170.51
668.662	41309.49
669.011	41128.71
669.361	41107.24
669.711	40993.57
670.06	41054.58
670.41	41124.86
670.76	41078.99
671.109	41090.52
671.459	40995.6
671.808	40959.67
672.157	40931.42
672.507	40943.17
672.856	40824.08
673.205	40819.79
673.554	41131.19
673.904	40951.54
674.253	40986.79
674.602	41013.23
674.951	40469.29
675.3	40262.29
675.649	40881.48
675.998	40857.3
676.346	40918.77
676.695	40949.95
677.044	40558.78
677.393	40725.1
677.741	40776.17
678.09	40637.87
678.438	40575.5
678.787	40447.82
679.135	40576.4
679.484	40426.35
679.832	40459.8
680.181	40170.09
680.529	40301.16
680.877	40361.27
681.225	40236.98
681.573	40456.63
681.922	40182.06
682.27	40107.72
682.618	40025.91
682.966	40007.38
683.314	40071.79
683.661	39987.27
684.009	39814.16
684.357	39825.46
684.705	39733.26
685.053	39858.46
685.4	39643.77
685.748	39522.42
686.095	39517.45
686.443	39421.86
686.79	39383.22
687.138	39441.52
687.485	39497.34
687.832	39353.84
688.18	39358.81
688.527	39051.47
688.874	39126.05
689.221	39007.63
689.568	38954.98
689.915	38718.83
690.262	38750.46
690.609	38701.88
690.956	38565.38
691.303	38445.61
691.65	38291.04
691.997	38353.19
692.344	38199.97
692.69	38139.41
693.037	38187.32
693.383	37858.51
693.73	38058.28
694.077	37816.7
694.423	37775.57
694.769	37639.98
695.116	37660.32
695.462	37614.22
695.808	37420.33
696.155	37450.84
696.501	37180.34
696.847	37164.52
697.193	36922.94
697.539	37167.68
697.885	36773.12
698.231	36831.87
698.577	36765.21
698.923	36677.98
699.269	36538.09
699.614	36345.78
699.96	36273.92
700.306	36489.96
700.651	36228.5
700.997	35981.5
701.342	35999.12
701.688	35776.53
702.033	35880.26
702.379	35787.15
702.724	35598.91
703.069	35731.33
703.415	35326.37
703.76	35309.42
704.105	35290.67
704.45	35232.82
704.795	35224.68
705.14	35121.63
705.485	35054.74
705.83	34840.28
706.175	34888.64
706.52	34954.18
706.865	34742.43
707.209	34647.97
707.554	34558.94
707.899	34585.83
708.243	34583.57
708.588	34371.82
708.932	34285.04
709.277	34313.07
709.621	34157.14
709.966	33955.11
710.31	33984.94
710.654	33761.44
710.998	33919.63
711.342	33888.9
711.687	33729.58
712.031	33545.63
712.375	33434.22
712.719	33477.83
713.063	33449.81
713.407	33471.73
713.75	33437.38
714.094	33274.68
714.438	33195.13
714.782	33252.08
715.125	33138.63
715.469	33071.74
715.812	32970.5
716.156	32804.41
716.499	32783.39
716.843	32861.13
717.186	32535.49
717.53	32723.96
717.873	32797.63
718.216	32716.95
718.559	32477.41
718.902	32241.03
719.246	32281.26
719.589	32278.09
719.932	32119.23
720.275	32180.69
720.617	32196.96
720.96	31979.57
721.303	31976.18
721.646	32092.79
721.989	31875.16
722.331	32007.59
722.674	31819.12
723.016	31904.09
723.359	31867.03
723.701	31739.35
724.044	31578.68
724.386	31486.47
724.729	31591.78
725.071	31407.61
725.413	31504.78
725.755	31409.41
726.097	31299.59
726.439	31279.25
726.782	31193.15
727.124	31381.62
727.465	31199.25
727.807	31050.55
728.149	31029.31
728.491	30923.33
728.833	30956.54
729.175	30893.72
729.516	30776.44
729.858	30788.41
730.199	30791.58
730.541	30608.31
730.882	30667.96
731.224	30771.24
731.565	30363.79
731.906	30625.93
732.248	30493.28
732.589	30334.64
732.93	30278.14
733.271	30215.77
733.612	30394.53
733.953	30349.33
734.294	30292.16
734.635	30207.19
734.976	30265.72
735.317	30005.61
735.658	30188.66
735.999	30039.51
736.339	30064.59
736.68	30053.74
737.021	29943.01
737.361	29816.46
737.702	29962.45
738.042	29875.22
738.383	29835.67
738.723	29825.95
739.063	29706.63
739.404	29765.84
739.744	29703.02
740.084	29545.06
740.424	29597.94
740.764	29668.22
741.104	29492.63
741.444	29381.44
741.784	29320.66
742.124	29418.51
742.464	29401.11
742.804	29331.05
743.143	29178.74
743.483	29276.59
743.823	29072.3
744.162	29042.92
744.502	29126.99
744.841	29012.87
745.181	29162.02
745.52	28944.62
745.86	28972.42
746.199	28882.25
746.538	28958.63
746.877	28946.2
747.216	28953.66
747.556	28825.08
747.895	28727.45
748.234	28722.71
748.573	28665.76
748.911	28551.41
749.25	28610.62
749.589	28578.53
749.928	28490.62
750.267	28423.96
750.605	28456.72
750.944	28341.92
751.283	28154.81
751.621	28306.22
751.96	28160.91
752.298	28225.32
752.636	28212.21
752.975	28035.04
753.313	28012.44
753.651	28057.41
753.989	27945.32
754.327	27818.32
754.666	27767.7
755.004	27889.05
755.342	27781.71
755.679	27768.61
756.017	27449.74
756.355	27676.18
756.693	27448.61
757.031	27501.49
757.368	27398.22
757.706	27266.92
758.044	27153.71
758.381	27313.48
758.719	27167.27
759.056	27249.3
759.394	27094.95
