Data from hue_210_FLMS001491_00058.txt Node
Date: Tue Feb 07 16:41:24 GMT 2017
User: dcchb
Spectrometer: FLMS00149
Trigger mode: 0
Integration Time (sec): 2.000000E-2
Scans to average: 10
Electric dark correction enabled: true
Nonlinearity correction enabled: false
Boxcar width: 0
XAxis mode: Wavelengths
Number of Pixels in Spectrum: 2048
>>>>>Begin Spectral Data<<<<<
341.393	7.44
341.776	7.44
342.16	7.44
342.543	-70.29
342.927	-73.01
343.31	-80.69
343.693	-68.71
344.077	-63.29
344.46	-65.1
344.843	-71.88
345.226	-41.37
345.61	-26
345.993	-19.67
346.376	-9.51
346.759	7.44
347.142	24.84
347.525	44.5
347.908	84.28
348.291	68.01
348.674	88.12
349.057	129.02
349.44	133.32
349.823	159.53
350.206	160.43
350.588	183.94
350.971	205.86
351.354	233.65
351.737	244.95
352.119	251.73
352.502	268.45
352.884	251.73
353.267	275.91
353.65	290.6
354.032	293.76
354.414	300.09
354.797	331.73
355.179	332.41
355.562	311.39
355.944	333.08
356.326	350.94
356.709	322.24
357.091	342.12
357.473	322.01
357.855	320.43
358.238	344.16
358.62	329.02
359.002	339.19
359.384	329.92
359.766	351.39
360.148	345.51
360.53	329.02
360.912	333.31
361.294	323.82
361.676	313.2
362.057	335.57
362.439	332.86
362.821	326.3
363.203	326.53
363.584	330.37
363.966	340.99
364.348	326.08
364.729	327.89
365.111	318.4
365.493	319.3
365.874	301.22
366.256	303.03
366.637	309.58
367.019	303.25
367.4	305.06
367.781	312.29
368.163	310.49
368.544	301.67
368.925	282.24
369.306	312.97
369.688	327.43
370.069	305.74
370.45	303.93
370.831	306.64
371.212	314.78
371.593	309.36
371.974	313.65
372.355	325.85
372.736	308.9
373.117	324.95
373.498	328.34
373.879	330.15
374.26	316.14
374.641	309.81
375.021	310.03
375.402	308.23
375.783	326.76
376.163	323.37
376.544	318.4
376.925	316.36
377.305	319.53
377.686	318.62
378.066	312.52
378.447	312.07
378.827	327.89
379.208	343.25
379.588	331.05
379.968	319.3
380.349	319.07
380.729	339.86
381.109	319.3
381.489	340.09
381.87	332.63
382.25	345.06
382.63	341.22
383.01	327.89
383.39	323.14
383.77	315.46
384.15	346.19
384.53	336.7
384.91	351.62
385.29	344.61
385.67	330.37
386.049	346.64
386.429	356.13
386.809	354.78
387.189	335.34
387.568	345.97
387.948	334.67
388.328	348.23
388.707	330.82
389.087	357.94
389.466	352.29
389.846	342.12
390.225	351.39
390.605	335.12
390.984	352.07
391.363	349.81
391.743	357.04
392.122	369.47
392.501	346.64
392.881	381.67
393.26	392.52
393.639	364.72
394.018	372.63
394.397	375.34
394.776	356.59
395.155	376.25
395.534	377.15
395.913	387.77
396.292	385.51
396.671	372.41
397.05	365.63
397.429	374.21
397.808	367.66
398.186	368.56
398.565	393.65
398.944	385.29
399.323	364.04
399.701	373.31
400.08	397.26
400.458	403.59
400.837	384.38
401.215	400.43
401.594	393.87
401.972	415.12
402.351	390.71
402.729	417.83
403.107	409.24
403.486	412.86
403.864	429.58
404.242	430.48
404.62	450.14
404.999	437.49
405.377	433.65
405.755	435.45
406.133	441.56
406.511	453.31
406.889	450.37
407.267	457.6
407.645	460.76
408.023	457.15
408.401	475
408.779	483.59
409.156	501.67
409.534	501.44
409.912	479.07
410.29	501.89
410.667	505.28
411.045	506.87
411.422	533.53
411.8	536.69
412.178	543.93
412.555	533.53
412.933	557.26
413.31	560.88
413.687	582.8
414.065	581.21
414.442	585.51
414.819	590.7
415.197	594.09
415.574	617.37
415.951	630.03
416.328	626.18
416.705	647.65
417.082	649.46
417.46	648.1
417.837	665.28
418.214	701.66
418.591	679.29
418.967	662.57
419.344	686.97
419.721	687.2
420.098	708.22
420.475	715.22
420.852	718.39
421.228	760.19
421.605	740.31
421.982	801.09
422.358	770.81
422.735	771.49
423.111	793.64
423.488	816.69
423.864	817.59
424.241	839.96
424.617	864.82
424.994	860.3
425.37	892.39
425.746	908.44
426.123	917.25
426.499	923.8
426.875	924.48
427.251	976.91
427.627	986.63
428.003	1011.48
428.379	966.97
428.756	1013.29
429.132	1021.65
429.507	1014.42
429.883	1032.73
430.259	1063.69
430.635	1049.45
431.011	1054.2
431.387	1104.14
431.763	1091.93
432.138	1111.6
432.514	1131.26
432.89	1134.87
433.265	1163.35
433.641	1164.02
434.016	1198.6
434.392	1240.86
434.767	1259.16
435.143	1270.46
435.518	1291.93
435.894	1300.06
436.269	1338.26
436.644	1345.71
437.02	1382.32
437.395	1384.36
437.77	1421.64
438.145	1460.06
438.52	1462.77
438.895	1492.83
439.271	1517.23
439.646	1521.75
440.021	1577.12
440.395	1574.86
440.77	1565.82
441.145	1619.15
441.52	1639.26
441.895	1651.47
442.27	1644.91
442.645	1666.38
443.019	1723.33
443.394	1704.12
443.769	1733.95
444.143	1740.96
444.518	1794.06
444.892	1776.44
445.267	1802.65
445.641	1792.26
446.016	1832.03
446.39	1876.77
446.764	1844.46
447.139	1809.66
447.513	1865.25
447.887	1895.08
448.262	1888.75
448.636	1902.76
449.01	1930.33
449.384	1956.32
449.758	1966.04
450.132	2025.24
450.506	1998.8
450.88	1971.69
451.254	2012.81
451.628	2040.38
452.002	2052.81
452.376	2087.39
452.75	2116.77
453.123	2104.56
453.497	2139.14
453.871	2143.43
454.244	2213.94
454.618	2201.74
454.992	2248.51
455.365	2248.51
455.739	2338.46
456.112	2320.6
456.486	2367.16
456.859	2361.73
457.232	2404.67
457.606	2406.7
457.979	2413.71
458.352	2497.32
458.725	2474.72
459.099	2495.74
459.472	2586.13
459.845	2549.3
460.218	2605.57
460.591	2654.15
460.964	2633.81
461.337	2684.66
461.71	2726.69
462.083	2762.17
462.456	2730.54
462.829	2803.98
463.201	2847.37
463.574	2817.99
463.947	2871.77
464.32	2920.14
464.692	2960.36
465.065	2953.58
465.438	2999.46
465.81	3039.45
466.183	3098.89
466.555	3110.19
466.928	3155.16
467.3	3137.08
467.672	3193.57
468.045	3282.39
468.417	3289.62
468.789	3292.1
469.161	3363.29
469.534	3348.37
469.906	3483.74
470.278	3428.82
470.65	3547.01
471.022	3550.85
471.394	3614.35
471.766	3662.71
472.138	3666.1
472.51	3795.37
472.882	3790.85
473.253	3846.44
473.625	3908.13
473.997	3973.44
474.369	3994.91
474.74	3991.07
475.112	4095.47
475.484	4127.79
475.855	4198.29
476.227	4244.39
476.598	4393.54
476.97	4344.05
477.341	4465.63
477.713	4521.22
478.084	4526.65
478.455	4638.73
478.827	4678.73
479.198	4784.04
479.569	4789.01
479.94	4904.04
480.311	4953.3
480.682	5046.18
481.053	5166.4
481.424	5181.54
481.795	5251.37
482.166	5320.3
482.537	5393.74
482.908	5465.6
483.279	5498.37
483.65	5656.56
484.021	5699.72
484.391	5799.16
484.762	5787.63
485.133	5865.14
485.503	5889.1
485.874	6002.09
486.244	6057
486.615	6188.98
486.985	6250.22
487.356	6318.92
487.726	6327.5
488.097	6442.75
488.467	6458.12
488.837	6592.13
489.207	6666.48
489.578	6750.77
489.948	6743.54
490.318	6871.22
490.688	6908.73
491.058	6986.69
491.428	7055.85
491.798	7074.15
492.168	7235.73
492.538	7207.93
492.908	7270.08
493.278	7339.23
493.648	7393.46
494.017	7419.45
494.387	7494.93
494.757	7531.09
495.126	7611.31
495.496	7603.85
495.866	7690.18
496.235	7746
496.605	7811.08
496.974	7850.63
497.344	7925.88
497.713	7935.6
498.082	7935.82
498.452	8052.88
498.821	8010.17
499.19	8063.73
499.559	8030.06
499.928	8137.85
500.298	8138.75
500.667	8222.59
501.036	8153.9
501.405	8225.08
501.774	8232.54
502.143	8287.23
502.512	8238.41
502.88	8382.59
503.249	8364.06
503.618	8403.15
503.987	8406.77
504.356	8405.87
504.724	8436.37
505.093	8509.37
505.462	8542.36
505.83	8528.58
506.199	8558.4
506.567	8652.64
506.936	8609.7
507.304	8730.83
507.672	8677.27
508.041	8718.85
508.409	8753.43
508.777	8801.34
509.145	8852.18
509.514	8763.82
509.882	8884.5
510.25	8770.6
510.618	8847.66
510.986	8842.01
511.354	8903.03
511.722	8966.98
512.09	8925.4
512.458	8923.14
512.826	8999.98
513.193	8943.71
513.561	8971.73
513.929	9047.66
514.297	9102.57
514.664	8976.25
515.032	9030.26
515.4	9083.14
515.767	9075.45
516.135	9126.07
516.502	9014.21
516.869	9156.36
517.237	9171.95
517.604	9036.81
517.972	9192.29
518.339	9131.5
518.706	9093.08
519.073	9124.49
519.44	9151.16
519.808	9237.94
520.175	9160.42
520.542	9215.11
520.909	9165.17
521.276	9178.95
521.643	9235.45
522.009	9261.21
522.376	9258.5
522.743	9293.53
523.11	9293.3
523.477	9298.5
523.843	9357.03
524.21	9367.2
524.577	9374.65
524.943	9310.7
525.31	9375.56
525.676	9373.52
526.043	9383.24
526.409	9352.96
526.776	9439.29
527.142	9393.41
527.508	9401.32
527.874	9357.03
528.241	9376.01
528.607	9376.46
528.973	9392.06
529.339	9327.88
529.705	9377.59
530.071	9394.99
530.437	9430.02
530.803	9413.07
531.169	9377.14
531.535	9335.33
531.901	9284.71
532.267	9290.14
532.632	9297.37
532.998	9298.27
533.364	9306.41
533.73	9252.17
534.095	9190.25
534.461	9162.91
534.826	9205.62
535.192	9140.08
535.557	9133.08
535.923	9083.81
536.288	9093.98
536.653	9120.88
537.019	9061.89
537.384	9049.69
537.749	8996.81
538.114	8970.15
538.479	8991.16
538.845	8953.42
539.21	8880.2
539.575	8857.15
539.94	8869.58
540.305	8796.59
540.67	8772.86
541.034	8823.93
541.399	8733.99
541.764	8751.17
542.129	8657.16
542.494	8600.89
542.858	8644.5
543.223	8597.95
543.587	8582.13
543.952	8475.7
544.316	8495.81
544.681	8416.26
545.045	8439.54
545.41	8404.06
545.774	8433.66
546.138	8324.06
546.503	8313.44
546.867	8247.23
547.231	8297.85
547.595	8269.6
547.959	8188.25
548.324	8178.98
548.688	8045.42
549.052	8141.47
549.416	8120.9
549.779	8083.16
550.143	8009.49
550.507	8072.54
550.871	7977.86
551.235	8011.3
551.599	7950.51
551.962	7912.55
552.326	7849.5
552.689	7837.29
553.053	7772.66
553.417	7811.08
553.78	7868.25
554.143	7772.44
554.507	7699.67
554.87	7720.01
555.234	7779.89
555.597	7675.94
555.96	7654.02
556.323	7674.13
556.686	7602.27
557.05	7610.63
557.413	7619.22
557.776	7492.67
558.139	7539
558.502	7586.91
558.865	7428.27
559.228	7536.74
559.59	7489.28
559.953	7444.76
560.316	7506.91
560.679	7467.36
561.041	7430.75
561.404	7424.65
561.767	7454.71
562.129	7469.17
562.492	7489.05
562.854	7415.61
563.217	7441.6
563.579	7393.69
563.941	7415.61
564.304	7402.96
564.666	7467.59
565.028	7370.87
565.39	7397.31
565.753	7409.51
566.115	7480.92
566.477	7458.77
566.839	7440.69
567.201	7420.58
567.563	7444.99
567.925	7434.82
568.287	7465.33
568.648	7458.77
569.01	7461.71
569.372	7402.96
569.734	7457.64
570.095	7486.57
570.457	7454.71
570.819	7503.07
571.18	7441.37
571.542	7491.54
571.903	7476.63
572.265	7483.18
572.626	7522.95
572.987	7438.66
573.349	7407.7
573.71	7501.26
574.071	7488.15
574.432	7548.04
574.794	7600.46
575.155	7540.13
575.516	7496.74
575.877	7537.19
576.238	7525.89
576.599	7549.17
576.96	7542.39
577.32	7593.68
577.681	7577.19
578.042	7577.41
578.403	7534.25
578.763	7614.25
579.124	7624.87
579.485	7642.27
579.845	7577.64
580.206	7597.07
580.566	7610.63
580.927	7634.81
581.287	7710.74
581.648	7597.75
582.008	7640.46
582.368	7690.18
582.728	7613.35
583.089	7608.6
583.449	7725.43
583.809	7638.43
584.169	7682.95
584.529	7687.69
584.889	7714.59
585.249	7675.94
585.609	7614.02
585.969	7684.3
586.329	7692.89
586.688	7770.4
587.048	7685.89
587.408	7719.33
587.768	7770.85
588.127	7649.5
588.487	7760.01
588.846	7825.77
589.206	7735.83
589.565	7725.43
589.925	7803.17
590.284	7728.6
590.643	7792.32
591.003	7760.69
591.362	7811.98
591.721	7801.81
592.08	7759.33
592.44	7843.85
592.799	7809.05
593.158	7794.13
593.517	7742.38
593.876	7863.96
594.235	7786.45
594.593	7845.43
594.952	7774.24
595.311	7765.21
595.67	7737.86
596.029	7866.9
596.387	7826.45
596.746	7837.97
597.104	7813.34
597.463	7786.9
597.822	7823.28
598.18	7821.02
598.538	7757.3
598.897	7782.15
599.255	7763.85
599.613	7905.09
599.972	7819.67
600.33	7833.45
600.688	7770.85
601.046	7769.5
601.404	7831.19
601.762	7794.58
602.12	7857.63
602.478	7817.41
602.836	7842.49
603.194	7896.05
603.552	7840.91
603.91	7798.88
604.268	7863.28
604.625	7843.4
604.983	7818.99
605.341	7788.26
605.698	7912.55
606.056	7843.17
606.413	7880.91
606.771	7911.42
607.128	7849.72
607.485	7866.22
607.843	7901.02
608.2	7912.77
608.557	7945.31
608.914	7891.98
609.272	7918.2
609.629	7952.32
609.986	7978.31
610.343	7884.98
610.7	7954.35
611.057	7956.16
611.414	7952.55
611.771	7893.11
612.127	7940.57
612.484	7976.73
612.841	7948.7
613.198	7901.47
613.554	7946.67
613.911	7995.26
614.267	8009.49
614.624	7946.9
614.98	7945.09
615.337	8087.91
615.693	7997.74
616.05	8038.64
616.406	8095.82
616.762	7981.47
617.118	8030.28
617.475	7992.09
617.831	8035.25
618.187	8089.72
618.543	8006.56
618.899	8104.41
619.255	8053.56
619.611	8039.55
619.967	8097.4
620.323	8117.29
620.678	8089.04
621.034	8053.11
621.39	8048.14
621.746	8075.48
622.101	8142.82
622.457	8045.88
622.812	8085.87
623.168	8068.93
623.523	8083.39
623.879	8145.08
624.234	8067.57
624.589	8100.34
624.945	8123.61
625.3	8119.09
625.655	8049.27
626.01	8121.35
626.365	8094.91
626.72	8073.22
627.075	8088.13
627.43	8067.8
627.785	8031.87
628.14	8072.32
628.495	8100.56
628.85	8024.41
629.205	8069.6
629.559	8042.49
629.914	8016.05
630.269	8054.24
630.623	8075.48
630.978	8009.27
631.332	8030.28
631.687	7986.89
632.041	8022.6
632.396	7995.26
632.75	8016.05
633.104	7979.21
633.459	7941.7
633.813	7904.64
634.167	7991.64
634.521	7921.81
634.875	7912.55
635.229	7842.27
635.583	7860.12
635.937	7927.69
636.291	7907.57
636.645	7903.05
636.999	7854.92
637.352	7886.78
637.706	7861.47
638.06	7881.13
638.413	7803.4
638.767	7829.16
639.121	7842.27
639.474	7803.85
639.828	7742.16
640.181	7795.94
640.534	7828.93
640.888	7755.94
641.241	7799.1
641.594	7780.57
641.947	7753
642.301	7773.11
642.654	7778.76
643.007	7786.9
643.36	7767.01
643.713	7741.7
644.066	7761.14
644.419	7719.78
644.771	7767.24
645.124	7595.49
645.477	7607.7
645.83	7563.4
646.182	7477.76
646.535	7474.14
646.888	7515.49
647.24	7435.5
647.593	7520.24
647.945	7498.09
648.298	7416.74
648.65	7508.49
649.002	7484.31
649.355	7546.23
649.707	7450.19
650.059	7455.16
650.411	7575.61
650.763	7632.1
651.115	7698.31
651.467	7626.23
651.819	7623.51
652.171	7621.93
652.523	7634.59
652.875	7681.14
653.227	7553.01
653.578	7650.63
653.93	7673.46
654.282	7595.27
654.633	7604.08
654.985	7676.17
655.337	7657.41
655.688	7622.84
656.039	7675.26
656.391	7625.32
656.742	7691.08
657.094	7729.05
657.445	7690.86
657.796	7655.38
658.147	7707.58
658.498	7609.73
658.849	7658.77
659.2	7634.81
659.551	7668.71
659.902	7672.78
660.253	7626.45
660.604	7660.35
660.955	7644.53
661.306	7656.28
661.656	7699.9
662.007	7681.59
662.358	7712.55
662.708	7750.97
663.059	7701.93
663.409	7607.02
663.76	7736.05
664.11	7719.78
664.461	7665.1
664.811	7692.21
665.161	7711.65
665.511	7709.39
665.862	7702.83
666.212	7736.73
666.562	7742.16
666.912	7710.29
667.262	7769.73
667.612	7746.9
667.962	7788.26
668.312	7744.42
668.662	7739.9
669.011	7733.34
669.361	7750.74
669.711	7713
670.06	7681.59
670.41	7778.99
670.76	7713
671.109	7682.95
671.459	7693.12
671.808	7695.6
672.157	7782.83
672.507	7649.73
672.856	7671.87
673.205	7628.94
673.554	7716.85
673.904	7657.64
674.253	7646.79
674.602	7663.97
674.951	7557.53
675.3	7548.26
675.649	7600.69
675.998	7618.99
676.346	7644.53
676.695	7604.76
677.044	7583.74
677.393	7633.23
677.741	7625.55
678.09	7550.52
678.438	7623.06
678.787	7494.7
679.135	7578.32
679.484	7465.55
679.832	7572.44
680.181	7485.66
680.529	7520.69
680.877	7513.46
681.225	7461.94
681.573	7538.77
681.922	7479.56
682.27	7419.68
682.618	7435.27
682.966	7420.13
683.314	7432.33
683.661	7428.72
684.009	7387.59
684.357	7396.63
684.705	7336.52
685.053	7354.59
685.4	7279.12
685.748	7243.19
686.095	7301.49
686.443	7270.76
686.79	7207.48
687.138	7262.62
687.485	7189.63
687.832	7221.26
688.18	7194.6
688.527	7175.84
688.874	7143.75
689.221	7117.76
689.568	7113.25
689.915	7048.84
690.262	7060.82
690.609	7048.84
690.956	7081.16
691.303	7024.89
691.65	6944.66
691.997	6974.04
692.344	6837.55
692.69	6916.19
693.037	6919.35
693.383	6845.46
693.73	6877.55
694.077	6785.8
694.423	6795.06
694.769	6773.82
695.116	6768.62
695.462	6736.98
695.808	6724.33
696.155	6665.57
696.501	6592.81
696.847	6636.87
697.193	6533.6
697.539	6668.06
697.885	6554.16
698.231	6547.16
698.577	6496.54
698.923	6495.63
699.269	6443.21
699.614	6417.67
699.96	6407.05
700.306	6450.66
700.651	6394.17
700.997	6318.01
701.342	6319.82
701.688	6270.56
702.033	6266.04
702.379	6202.76
702.724	6206.6
703.069	6228.52
703.415	6163.44
703.76	6148.3
704.105	6184
704.45	6068.07
704.795	6091.8
705.14	6088.41
705.485	6057
705.83	6051.13
706.175	6012.03
706.52	6026.04
706.865	6026.72
707.209	5983.56
707.554	6005.03
707.899	6000.73
708.243	5896.55
708.588	5868.98
708.932	5873.28
709.277	5843.45
709.621	5840.06
709.966	5834.18
710.31	5835.31
710.654	5784.01
710.998	5767.29
711.342	5750.57
711.687	5787.4
712.031	5736.11
712.375	5729.33
712.719	5754.86
713.063	5740.85
713.407	5736.11
713.75	5669.67
714.094	5671.25
714.438	5670.57
714.782	5675.54
715.125	5650.01
715.469	5620.63
715.812	5612.04
716.156	5568.43
716.499	5596.45
716.843	5642.78
717.186	5509.67
717.53	5606.62
717.873	5552.16
718.216	5549.9
718.559	5545.38
718.902	5480.07
719.246	5495.43
719.589	5530.46
719.932	5490.69
720.275	5509.22
720.617	5529.33
720.96	5486.17
721.303	5544.25
721.646	5474.42
721.989	5474.42
722.331	5476.68
722.674	5459.05
723.016	5468.77
723.359	5397.36
723.701	5401.88
724.044	5413.63
724.386	5419.28
724.729	5409.34
725.071	5432.61
725.413	5448.88
725.755	5422.89
726.097	5395.1
726.439	5383.35
726.782	5400.52
727.124	5457.24
727.465	5396.45
727.807	5389.67
728.149	5334.99
728.491	5374.53
728.833	5414.53
729.175	5373.4
729.516	5384.03
729.858	5400.52
730.199	5432.39
730.541	5415.44
730.882	5395.1
731.224	5432.61
731.565	5388.09
731.906	5451.14
732.248	5402.78
732.589	5397.13
732.93	5419.5
733.271	5375.89
733.612	5403.46
733.953	5363.23
734.294	5358.94
734.635	5431.71
734.976	5389.45
735.317	5382.67
735.658	5402.78
735.999	5415.44
736.339	5424.7
736.68	5476.23
737.021	5441.42
737.361	5392.16
737.702	5433.52
738.042	5414.98
738.383	5371.37
738.723	5491.82
739.063	5463.8
739.404	5492.95
739.744	5463.12
740.084	5486.62
740.424	5518.71
740.764	5561.42
741.104	5575.66
741.444	5532.95
741.784	5563.23
742.124	5574.53
742.464	5552.61
742.804	5549.67
743.143	5610.01
743.483	5634.64
743.823	5616.79
744.162	5686.16
744.502	5703.79
744.841	5749.67
745.181	5770.68
745.52	5746.73
745.86	5841.87
746.199	5805.71
746.538	5889.32
746.877	5949.89
747.216	5976.33
747.556	5977.23
747.895	6003.67
748.234	6074.4
748.573	6141.52
748.911	6196.43
749.25	6254.06
749.589	6264.23
749.928	6332.93
750.267	6403.21
750.605	6453.6
750.944	6537.67
751.283	6608.17
751.621	6706.25
751.96	6758.45
752.298	6901.27
752.636	6921.61
752.975	6997.54
753.313	7138.56
753.651	7223.75
753.989	7329.96
754.327	7468.04
754.666	7437.53
755.004	7727.69
755.342	7755.04
755.679	7882.04
756.017	7983.96
756.355	8169.71
756.693	8229.37
757.031	8374.45
757.368	8483.15
757.706	8676.14
758.044	8726.31
758.381	8982.12
758.719	9084.94
759.056	9315.22
759.394	9322.68
759.731	9492.17
760.068	9713.63
760.405	9816.45
760.743	9960.18
761.08	10205.82
761.417	10382.09
761.754	10407.62
762.091	10622.76
762.428	10785.92
762.765	10930.09
763.102	11168.05
763.438	11293.02
763.775	11456.86
764.112	11558.1
764.449	11851.2
764.785	11936.85
765.122	12071.98
765.458	12198.99
765.795	12398.98
766.131	12505.42
766.467	12722.14
766.804	12843.49
767.14	12939.98
767.476	13132.3
767.812	13256.13
768.148	13464.94
768.485	13532.51
768.821	13678.27
769.157	13736.35
